neutron_powder_diffraction_0169
R_wp: 3.890
Temperature (K): 1074.000
Counts: 84238.00
Wavelength (Ã…): 2.52098
COMMENTS
Test file for demonstrating the .xyy file format in Reel1.0
END OF HEADER
   tth       Y_obs     Y_calc      Y_res    Background    Phase_1_Nuc    Phase_1_Mag    Phase_2_Nuc    Phase_2_Mag
  9.970    552.000    569.693    -17.693    568.961    569.630    568.961    569.024    568.961
 10.070    538.076    569.902    -31.826    569.111    569.838    569.111    569.175    569.111
 10.170    540.689    570.112    -29.423    569.255    570.048    569.255    569.319    569.255
 10.270    583.000    570.326     12.674    569.393    570.261    569.393    569.457    569.393
 10.370    545.351    570.545    -25.194    569.524    570.480    569.524    569.588    569.524
 10.470    586.000    570.773     15.227    569.648    570.708    569.648    569.713    569.648
 10.570    626.000    571.014     54.986    569.766    570.948    569.766    569.831    569.766
 10.670    547.000    571.271    -24.271    569.878    571.206    569.878    569.943    569.878
 10.770    610.000    571.553     38.447    569.983    571.487    569.983    570.048    569.983
 10.870    573.000    571.868      1.132    570.082    571.801    570.082    570.147    570.082
 10.970    598.000    572.228     25.772    570.175    572.161    570.175    570.240    570.175
 11.070    593.000    572.653     20.347    570.261    572.585    570.261    570.327    570.261
 11.170    594.000    573.166     20.834    570.342    573.098    570.342    570.408    570.342
 11.270    568.910    573.808     -4.898    570.416    573.740    570.416    570.483    570.416
 11.370    550.732    574.649    -23.918    570.485    574.580    570.485    570.552    570.485
 11.470    587.552    575.843     11.709    570.547    575.772    570.547    570.615    570.547
 11.570    595.000    577.810     17.190    570.604    577.738    570.604    570.672    570.604
 11.670    597.000    581.730     15.270    570.655    581.656    570.655    570.723    570.655
 11.770    638.000    590.299     47.701    570.700    590.220    570.700    570.769    570.700
 11.870    623.493    607.784     15.710    570.740    607.695    570.740    570.809    570.740
 11.970    645.000    637.406      7.594    570.774    637.301    570.774    570.843    570.774
 12.070    679.000    675.297      3.703    570.802    675.170    570.802    570.872    570.802
 12.170    750.342    705.020     45.322    570.825    704.876    570.825    570.895    570.825
 12.270    712.000    706.006      5.994    570.842    705.861    570.842    570.913    570.842
 12.370    706.556    677.390     29.166    570.854    677.256    570.854    570.929    570.854
 12.470    638.468    639.375     -0.908    570.861    639.261    570.861    570.938    570.861
 12.570    615.000    609.129      5.871    570.862    609.030    570.862    570.939    570.862
 12.670    604.000    591.092     12.908    570.858    591.004    570.858    570.936    570.858
 12.770    538.000    582.222    -44.222    570.849    582.138    570.849    570.927    570.849
 12.870    597.855    578.192     19.662    570.835    578.110    570.835    570.913    570.835
 12.970    563.585    576.208    -12.623    570.816    576.127    570.816    570.894    570.816
 13.070    545.000    575.032    -30.032    570.791    574.951    570.791    570.870    570.791
 13.170    563.000    574.220    -11.220    570.762    574.139    570.762    570.841    570.762
 13.270    584.000    573.612     10.388    570.728    573.531    570.728    570.807    570.728
 13.370    528.536    573.138    -44.602    570.688    573.057    570.688    570.768    570.688
 13.470    540.000    572.756    -32.756    570.644    572.674    570.644    570.725    570.644
 13.570    504.000    572.440    -68.440    570.596    572.358    570.596    570.676    570.596
 13.670    543.000    572.171    -29.171    570.542    572.089    570.542    570.623    570.542
 13.770    556.000    571.937    -15.937    570.484    571.855    570.484    570.566    570.484
 13.870    574.000    571.730      2.270    570.421    571.647    570.421    570.503    570.421
 13.970    584.078    571.541     12.537    570.354    571.458    570.354    570.436    570.354
 14.070    555.000    571.368    -16.368    570.282    571.285    570.282    570.365    570.282
 14.170    535.000    571.208    -36.208    570.206    571.125    570.206    570.289    570.206
 14.270    581.000    571.055      9.945    570.125    570.971    570.125    570.209    570.125
 14.370    547.537    570.907    -23.369    570.040    570.822    570.040    570.124    570.040
 14.470    599.000    570.762     28.238    569.950    570.677    569.950    570.035    569.950
 14.570    572.575    570.620      1.955    569.857    570.535    569.857    569.942    569.857
 14.670    534.000    570.480    -36.480    569.759    570.395    569.759    569.844    569.759
 14.770    591.000    570.341     20.659    569.657    570.255    569.657    569.743    569.657
 14.870    589.000    570.203     18.797    569.550    570.116    569.550    569.637    569.550
 14.970    588.787    570.064     18.722    569.440    569.977    569.440    569.527    569.440
 15.070    562.000    569.926     -7.926    569.326    569.839    569.326    569.413    569.326
 15.170    593.135    569.785     23.350    569.207    569.697    569.207    569.295    569.207
 15.270    605.803    569.643     36.160    569.085    569.554    569.085    569.174    569.085
 15.370    575.000    569.499      5.501    568.959    569.410    568.959    569.048    568.959
 15.470    530.000    569.352    -39.352    568.829    569.263    568.829    568.918    568.829
 15.570    582.000    569.204     12.796    568.696    569.114    568.696    568.785    568.696
 15.670    594.000    569.054     24.946    568.558    568.963    568.558    568.648    568.558
 15.770    555.000    568.901    -13.901    568.417    568.810    568.417    568.508    568.417
 15.870    629.000    568.746     60.254    568.272    568.654    568.272    568.363    568.272
 15.970    571.000    568.588      2.412    568.124    568.496    568.124    568.215    568.124
 16.070    564.308    568.427     -4.119    567.972    568.335    567.972    568.064    567.972
 16.170    523.000    568.265    -45.265    567.816    568.172    567.816    567.909    567.816
 16.270    591.000    568.099     22.901    567.657    568.006    567.657    567.751    567.657
 16.370    562.000    567.931     -5.931    567.495    567.837    567.495    567.589    567.495
 16.470    560.000    567.760     -7.760    567.329    567.665    567.329    567.424    567.329
 16.570    556.000    567.586    -11.586    567.160    567.491    567.160    567.255    567.160
 16.670    614.000    567.410     46.590    566.988    567.314    566.988    567.083    566.988
 16.770    525.357    567.231    -41.875    566.812    567.135    566.812    566.908    566.812
 16.870    577.000    567.052      9.948    566.633    566.955    566.633    566.730    566.633
 16.970    590.000    566.868     23.132    566.451    566.770    566.451    566.549    566.451
 17.070    603.756    566.681     37.075    566.266    566.583    566.266    566.364    566.266
 17.170    610.000    566.491     43.509    566.078    566.393    566.078    566.177    566.078
 17.270    567.000    566.299      0.701    565.887    566.200    565.887    565.986    565.887
 17.370    561.000    566.104     -5.104    565.693    566.004    565.693    565.793    565.693
 17.470    575.876    565.907      9.969    565.496    565.806    565.496    565.596    565.496
 17.570    567.000    565.706      1.294    565.295    565.605    565.295    565.397    565.295
 17.670    566.000    565.504      0.496    565.093    565.402    565.093    565.195    565.093
 17.770    508.000    565.299    -57.299    564.887    565.196    564.887    564.990    564.887
 17.870    566.000    565.094      0.906    564.678    564.989    564.678    564.784    564.678
 17.970    610.211    564.886     45.325    564.467    564.779    564.467    564.574    564.467
 18.070    510.000    564.673    -54.673    564.253    564.566    564.253    564.361    564.253
 18.170    505.000    564.459    -59.459    564.037    564.350    564.037    564.145    564.037
 18.270    554.000    564.242    -10.242    563.818    564.132    563.818    563.927    563.818
 18.370    592.000    564.023     27.977    563.596    563.912    563.596    563.706    563.596
 18.470    570.245    563.801      6.444    563.372    563.690    563.372    563.483    563.372
 18.570    545.000    563.577    -18.577    563.145    563.466    563.145    563.257    563.145
 18.670    566.000    563.352      2.648    562.916    563.239    562.916    563.028    562.916
 18.770    560.137    563.124     -2.987    562.684    563.010    562.684    562.797    562.684
 18.870    521.878    562.895    -41.016    562.450    562.780    562.450    562.564    562.450
 18.970    566.324    562.664      3.660    562.214    562.548    562.214    562.329    562.214
 19.070    594.538    562.430     32.108    561.975    562.314    561.975    562.091    561.975
 19.170    554.000    562.194     -8.194    561.734    562.077    561.734    561.851    561.734
 19.270    573.000    561.956     11.044    561.491    561.838    561.491    561.609    561.491
 19.370    539.123    561.717    -22.595    561.246    561.599    561.246    561.365    561.246
 19.470    529.000    561.490    -32.490    560.998    561.370    560.998    561.118    560.998
 19.570    526.000    561.257    -35.257    560.749    561.136    560.749    560.869    560.749
 19.670    579.958    561.013     18.945    560.497    560.891    560.497    560.619    560.497
 19.770    525.508    560.767    -35.258    560.244    560.644    560.244    560.366    560.244
 19.870    589.000    560.519     28.481    559.988    560.395    559.988    560.112    559.988
 19.970    556.000    560.269     -4.269    559.730    560.144    559.730    559.855    559.730
 20.070    602.265    560.018     42.247    559.471    559.892    559.471    559.597    559.471
 20.170    570.000    559.766     10.234    559.209    559.639    559.209    559.336    559.209
 20.270    559.000    559.512     -0.512    558.946    559.384    558.946    559.074    558.946
 20.370    517.086    559.257    -42.171    558.681    559.128    558.681    558.810    558.681
 20.470    544.000    559.001    -15.001    558.414    558.870    558.414    558.545    558.414
 20.570    542.000    558.743    -16.743    558.146    558.612    558.146    558.278    558.146
 20.670    599.000    558.485     40.515    557.875    558.352    557.875    558.009    557.875
 20.770    535.000    558.226    -23.226    557.604    558.091    557.604    557.738    557.604
 20.870    548.967    557.974     -9.007    557.330    557.838    557.330    557.466    557.330
 20.970    594.938    557.800     37.138    557.055    557.663    557.055    557.192    557.055
 21.070    538.967    557.561    -18.595    556.778    557.423    556.778    556.916    556.778
 21.170    557.000    557.301     -0.301    556.500    557.161    556.500    556.640    556.500
 21.270    540.518    557.038    -16.520    556.220    556.897    556.220    556.361    556.220
 21.370    523.727    556.776    -33.049    555.939    556.633    555.939    556.082    555.939
 21.470    574.000    556.513     17.487    555.656    556.368    555.656    555.800    555.656
 21.570    549.000    556.252     -7.252    555.372    556.106    555.372    555.518    555.372
 21.670    595.567    556.011     39.556    555.086    555.863    555.086    555.234    555.086
 21.770    509.000    555.777    -46.777    554.800    555.628    554.800    554.949    554.800
 21.870    587.416    555.523     31.893    554.512    555.372    554.512    554.663    554.512
 21.970    525.731    555.311    -29.580    554.222    555.158    554.222    554.375    554.222
 22.070    581.024    555.075     25.950    553.932    554.920    553.932    554.087    553.932
 22.170    552.000    554.819     -2.819    553.640    554.663    553.640    553.797    553.640
 22.270    557.197    554.564      2.632    553.347    554.406    553.347    553.506    553.347
 22.370    549.000    554.312     -5.312    553.053    554.151    553.053    553.214    553.053
 22.470    530.000    554.062    -24.062    552.758    553.900    552.758    552.921    552.758
 22.570    559.000    553.818      5.182    552.462    553.653    552.462    552.627    552.462
 22.670    551.000    553.580     -2.580    552.164    553.412    552.164    552.332    552.164
 22.770    549.906    553.345     -3.439    551.866    553.175    551.866    552.036    551.866
 22.870    554.024    553.117      0.907    551.567    552.945    551.567    551.739    551.567
 22.970    578.820    552.898     25.922    551.266    552.723    551.266    551.441    551.266
 23.070    549.000    552.690     -3.690    550.965    552.513    550.965    551.143    550.965
 23.170    529.094    552.495    -23.402    550.663    552.316    550.663    550.843    550.663
 23.270    593.000    552.319     40.681    550.360    552.136    550.360    550.543    550.360
 23.370    518.000    552.164    -34.164    550.056    551.979    550.056    550.242    550.056
 23.470    585.000    552.039     32.961    549.752    551.851    549.752    549.941    549.752
 23.570    553.215    551.953      1.262    549.446    551.762    549.446    549.639    549.446
 23.670    547.506    551.919     -4.412    549.140    551.724    549.140    549.336    549.140
 23.770    542.390    551.956     -9.566    548.834    551.758    548.834    549.033    548.834
 23.870    564.312    552.096     12.215    548.526    551.895    548.526    548.729    548.526
 23.970    532.000    552.396    -20.396    548.218    552.192    548.218    548.425    548.218
 24.070    546.000    552.993     -6.993    547.909    552.784    547.909    548.120    547.909
 24.170    592.609    554.264     38.345    547.600    554.053    547.600    547.815    547.600
 24.270    564.054    557.202      6.852    547.290    556.989    547.290    547.509    547.290
 24.370    526.326    563.839    -37.513    546.979    563.625    546.979    547.204    546.979
 24.470    588.000    576.910     11.090    546.668    576.701    546.668    546.897    546.668
 24.570    555.399    597.656    -42.257    546.357    597.457    546.357    546.591    546.357
 24.670    631.000    622.025      8.975    546.045    621.839    546.045    546.285    546.045
 24.770    670.000    638.108     31.892    545.732    637.928    545.732    545.978    545.732
 24.870    668.000    634.166     33.834    545.419    633.977    545.419    545.671    545.419
 24.970    568.385    613.388    -45.002    545.106    613.178    545.106    545.364    545.106
 25.070    622.000    588.959     33.041    544.793    588.724    544.793    545.058    544.793
 25.170    566.000    570.162     -4.162    544.479    569.907    544.479    544.751    544.479
 25.270    515.397    558.925    -43.528    544.164    558.654    544.164    544.445    544.164
 25.370    525.223    553.207    -27.984    543.850    552.924    543.850    544.138    543.850
 25.470    579.220    550.423     28.797    543.535    550.129    543.535    543.832    543.535
 25.570    571.218    548.915     22.303    543.220    548.611    543.220    543.527    543.220
 25.670    564.000    547.938     16.062    542.905    547.624    542.905    543.222    542.905
 25.770    564.000    547.239     16.761    542.590    546.913    542.590    542.917    542.590
 25.870    531.000    546.686    -15.686    542.274    546.348    542.274    542.613    542.274
 25.970    580.000    546.217     33.783    541.958    545.867    541.958    542.310    541.958
 26.070    556.000    545.830     10.170    541.643    545.465    541.643    542.008    541.643
 26.170    566.000    545.502     20.498    541.327    545.122    541.327    541.706    541.327
 26.270    579.000    545.236     33.764    541.011    544.841    541.011    541.406    541.011
 26.370    566.000    545.031     20.969    540.695    544.618    540.695    541.108    540.695
 26.470    582.000    544.865     37.135    540.379    544.434    540.379    540.810    540.379
 26.570    578.189    544.763     33.427    540.063    544.311    540.063    540.515    540.063
 26.670    536.000    544.733     -8.733    539.747    544.258    539.747    540.221    539.747
 26.770    567.000    544.749     22.251    539.431    544.249    539.431    539.930    539.431
 26.870    530.000    544.843    -14.843    539.115    544.317    539.115    539.642    539.115
 26.970    516.019    545.038    -29.019    538.800    544.481    538.800    539.356    538.800
 27.070    603.000    545.360     57.640    538.484    544.769    538.484    539.074    538.484
 27.170    523.000    545.847    -22.847    538.169    545.219    538.169    538.796    538.169
 27.270    544.000    546.560     -2.560    537.854    545.889    537.854    538.523    537.854
 27.370    527.868    547.587    -19.719    537.539    546.869    537.539    538.255    537.539
 27.470    571.000    549.100     21.900    537.224    548.328    537.224    537.994    537.224
 27.570    520.686    551.523    -30.837    536.909    550.690    536.909    537.740    536.909
 27.670    619.000    556.337     62.663    536.595    555.433    536.595    537.495    536.595
 27.770    582.000    568.235     13.765    536.281    567.247    536.281    537.261    536.281
 27.870    630.875    598.447     32.428    535.967    597.356    535.967    537.040    535.967
 27.970    702.653    663.446     39.207    535.654    662.226    535.654    536.834    535.654
 28.070    747.000    769.379    -22.379    535.341    768.001    535.341    536.648    535.341
 28.170    846.618    886.369    -39.751    535.028    884.813    535.028    536.487    535.028
 28.270    971.276    944.068     27.208    534.716    942.333    534.716    536.356    534.716
 28.370    868.000    896.081    -28.081    534.404    894.158    534.404    536.266    534.404
 28.470    794.263    792.174      2.090    534.092    790.009    534.092    536.230    534.092
 28.570    718.000    711.308      6.692    533.781    708.804    533.781    536.272    533.781
 28.670    711.000    694.355     16.645    533.471    691.383    533.471    536.428    533.471
 28.770    688.050    737.095    -49.045    533.160    733.483    533.160    536.754    533.160
 28.870    775.944    801.880    -25.936    532.851    797.386    532.851    537.332    532.851
 28.970    829.000    832.391     -3.391    532.542    826.660    532.542    538.274    532.542
 29.070    777.000    795.136    -18.136    532.233    787.670    532.233    539.710    532.233
 29.170    659.000    718.849    -59.849    531.925    709.016    531.925    541.769    531.925
 29.270    639.000    648.052     -9.052    531.618    635.146    531.618    544.531    531.618
 29.370    636.000    603.095     32.905    531.311    586.478    531.311    547.931    531.311
 29.470    577.177    581.956     -4.779    531.005    561.369    531.005    551.592    531.005
 29.570    579.000    574.093      4.907    530.699    550.160    530.699    554.631    530.699
 29.670    610.302    570.507     39.796    530.394    545.083    530.394    555.817    530.394
 29.770    581.926    566.695     15.231    530.090    542.339    530.090    554.444    530.090
 29.870    560.342    561.815     -1.473    529.786    540.557    529.786    551.043    529.786
 29.970    558.286    556.642      1.644    529.484    539.304    529.484    546.819    529.484
 30.070    565.000    551.995     13.005    529.181    538.441    529.181    542.734    529.181
 30.170    575.000    548.307     26.693    528.880    537.943    528.880    539.243    528.880
 30.270    514.009    545.803    -31.794    528.579    537.927    528.579    536.453    528.579
 30.370    556.000    544.873     11.127    528.279    538.843    528.279    534.306    528.279
