neutron_powder_diffraction_0037
R_wp: 3.733
Temperature (K): 578.182
Counts: 83201.00
Wavelength (Ã…): 2.52098
COMMENTS
Test file for demonstrating the .xyy file format in Reel1.0
END OF HEADER
   tth       Y_obs     Y_calc      Y_res    Background    Phase_1_Nuc    Phase_1_Mag    Phase_2_Nuc    Phase_2_Mag
  9.970    702.000    696.903      5.097    695.334    696.403    695.834    695.334    695.334
 10.070    724.546    696.053     28.493    694.391    695.546    694.897    694.391    694.391
 10.170    735.468    695.218     40.250    693.453    694.706    693.964    693.453    693.453
 10.270    731.000    694.402     36.598    692.518    693.885    693.035    692.518    692.518
 10.370    732.000    693.607     38.393    691.588    693.084    692.110    691.588    691.588
 10.470    743.951    692.838     51.113    690.662    692.309    691.189    690.662    690.662
 10.570    673.499    692.098    -18.599    689.740    691.563    690.273    689.740    689.740
 10.670    711.000    691.394     19.606    688.821    690.853    689.361    688.821    688.821
 10.770    720.000    690.734     29.266    687.907    690.187    688.453    687.907    687.907
 10.870    701.000    690.128     10.872    686.997    689.576    687.549    686.997    686.997
 10.970    684.000    689.592     -5.592    686.092    689.033    686.649    686.092    686.092
 11.070    696.000    689.145      6.855    685.190    688.580    685.753    685.190    685.190
 11.170    670.653    688.817    -18.165    684.292    688.245    684.862    684.292    684.292
 11.270    702.000    688.650     13.350    683.398    688.071    683.975    683.398    683.398
 11.370    737.000    688.715     48.285    682.508    688.128    683.091    682.508    682.508
 11.470    723.000    689.148     33.852    681.623    688.554    682.213    681.623    681.623
 11.570    679.000    690.237    -11.237    680.741    689.635    681.338    680.741    680.741
 11.670    783.000    692.619     90.381    679.864    692.008    680.467    679.864    679.864
 11.770    727.000    697.536     29.464    678.990    696.915    679.601    678.990    678.990
 11.870    719.449    706.926     12.523    678.121    706.292    678.739    678.121    678.121
 11.970    804.000    722.884     81.116    677.255    722.233    677.880    677.255    677.255
 12.070    788.000    746.066     41.934    676.394    745.393    677.026    676.394    676.394
 12.170    729.334    772.884    -43.550    675.536    772.188    676.177    675.536    675.536
 12.270    789.678    792.949     -3.271    674.683    792.234    675.331    674.683    674.683
 12.370    785.000    793.735     -8.735    673.834    793.011    674.489    673.834    673.834
 12.470    830.000    773.968     56.032    672.988    773.246    673.652    672.988    672.988
 12.570    729.000    745.519    -16.519    672.147    744.805    672.819    672.147    672.147
 12.670    762.000    719.776     42.224    671.309    719.068    671.990    671.309    671.309
 12.770    698.000    701.139     -3.139    670.476    700.433    671.165    670.476    670.476
 12.870    685.000    689.314     -4.314    669.647    688.606    670.344    669.647    669.647
 12.970    609.000    682.265    -73.265    668.821    681.552    669.527    668.821    668.821
 13.070    646.994    677.966    -30.972    668.000    677.246    668.715    668.000    668.000
 13.170    654.000    675.081    -21.081    667.183    674.353    667.907    667.183    667.183
 13.270    698.758    672.909     25.849    666.369    672.172    667.102    666.369    666.369
 13.370    677.000    671.128      5.872    665.560    670.383    666.302    665.560    665.560
 13.470    656.000    669.600    -13.600    664.754    668.846    665.507    664.754    664.754
 13.570    679.735    668.329     11.406    663.953    667.565    664.715    663.953    663.953
 13.670    658.000    667.132     -9.132    663.155    666.358    663.928    663.155    663.155
 13.770    698.827    665.983     32.845    662.362    665.199    663.144    662.362    662.362
 13.870    677.000    664.901     12.099    661.572    664.107    662.365    661.572    661.572
 13.970    708.000    663.883     44.117    660.787    663.078    661.590    660.787    660.787
 14.070    666.000    662.926      3.074    660.005    662.110    660.820    660.005    660.005
 14.170    705.000    661.985     43.015    659.227    661.158    660.053    659.227    659.227
 14.270    618.000    661.072    -43.072    658.453    660.234    659.291    658.453    658.453
 14.370    642.000    660.185    -18.185    657.683    659.335    658.532    657.683    657.683
 14.470    668.000    659.320      8.680    656.917    658.458    657.778    656.917    656.917
 14.570    703.705    658.473     45.232    656.155    657.600    657.028    656.155    656.155
 14.670    654.000    657.643     -3.643    655.397    656.758    656.282    655.397    655.397
 14.770    607.145    656.828    -49.683    654.643    655.930    655.541    654.643    654.643
 14.870    679.369    656.025     23.344    653.893    655.115    654.803    653.893    653.893
 14.970    651.000    655.235     -4.235    653.146    654.311    654.070    653.146    653.146
 15.070    606.000    654.455    -48.455    652.404    653.517    653.341    652.404    652.404
 15.170    655.000    653.684      1.316    651.665    652.733    652.616    651.665    651.665
 15.270    682.000    652.923     29.077    650.931    651.958    651.895    650.931    650.931
 15.370    682.000    652.170     29.830    650.200    651.191    651.178    650.200    650.200
 15.470    657.660    651.425      6.234    649.473    650.432    650.466    649.473    649.473
 15.570    644.288    650.688     -6.400    648.750    649.680    649.758    648.750    648.750
 15.670    620.000    649.959    -29.959    648.030    648.935    649.054    648.030    648.030
 15.770    614.000    649.240    -35.240    647.315    648.200    648.354    647.315    647.315
 15.870    604.000    648.524    -44.524    646.604    647.468    647.659    646.604    646.604
 15.970    644.000    647.813     -3.813    645.896    646.741    646.968    645.896    645.896
 16.070    650.000    647.109      2.891    645.192    646.020    646.281    645.192    645.192
 16.170    607.000    646.410    -39.410    644.492    645.305    645.598    644.492    644.492
 16.270    612.000    645.718    -33.718    643.796    644.595    644.919    643.796    643.796
 16.370    625.632    645.033    -19.401    643.104    643.892    644.245    643.104    643.104
 16.470    619.000    644.357    -25.357    642.415    643.197    643.575    642.415    642.415
 16.570    630.000    643.682    -13.682    641.731    642.503    642.909    641.731    641.731
 16.670    605.000    643.011    -38.011    641.050    641.813    642.248    641.050    641.050
 16.770    609.000    642.346    -33.346    640.373    641.128    641.591    640.373    640.373
 16.870    653.725    641.686     12.039    639.700    640.448    640.938    639.700    639.700
 16.970    646.000    641.031      4.969    639.030    639.772    640.289    639.030    639.030
 17.070    668.161    640.381     27.779    638.365    639.101    639.645    638.365    638.365
 17.170    629.751    639.737     -9.986    637.703    638.434    639.005    637.703    637.703
 17.270    630.000    639.102     -9.102    637.045    637.777    638.370    637.045    637.045
 17.370    635.000    638.524     -3.524    636.390    637.175    637.740    636.390    636.390
 17.470    646.948    637.928      9.020    635.740    636.553    637.114    635.740    635.740
 17.570    622.000    637.311    -15.311    635.093    635.912    636.492    635.093    635.093
 17.670    629.789    636.692     -6.903    634.450    635.268    635.874    634.450    634.450
 17.770    589.000    636.080    -47.080    633.811    634.631    635.260    633.811    633.811
 17.870    617.766    635.498    -17.732    633.175    634.022    634.651    633.175    633.175
 17.970    628.071    634.898     -6.827    632.543    633.395    634.046    632.543    632.543
 18.070    591.000    634.299    -43.299    631.915    632.768    633.446    631.915    631.915
 18.170    630.000    633.705     -3.705    631.291    632.145    632.851    631.291    631.291
 18.270    612.748    633.116    -20.368    630.670    631.526    632.259    630.670    630.670
 18.370    609.000    632.532    -23.532    630.053    630.912    631.673    630.053    630.053
 18.470    635.000    631.953      3.047    629.440    630.302    631.091    629.440    629.440
 18.570    635.000    631.379      3.621    628.830    629.695    630.514    628.830    628.830
 18.670    637.000    630.810      6.190    628.224    629.093    629.941    628.224    628.224
 18.770    649.000    630.247     18.753    627.622    628.497    629.373    627.622    627.622
 18.870    678.445    629.699     48.745    627.024    627.913    628.810    627.024    627.024
 18.970    645.000    629.148     15.852    626.429    627.326    628.251    626.429    626.429
 19.070    626.000    628.600     -2.600    625.838    626.740    627.698    625.838    625.838
 19.170    593.816    628.057    -34.242    625.250    626.159    627.149    625.250    625.250
 19.270    592.000    627.520    -35.520    624.666    625.582    626.604    624.666    624.666
 19.370    601.000    626.990    -25.990    624.086    625.011    626.065    624.086    624.086
 19.470    608.000    626.464    -18.464    623.509    624.442    625.531    623.509    623.509
 19.570    585.000    625.944    -40.944    622.936    623.878    625.002    622.936    622.936
 19.670    618.000    625.448     -7.448    622.367    623.332    624.483    622.367    622.367
 19.770    654.000    624.992     29.008    621.801    622.815    623.978    621.801    621.801
 19.870    594.000    624.495    -30.495    621.239    622.269    623.465    621.239    621.239
 19.970    607.000    624.020    -17.020    620.680    621.743    622.957    620.680    620.680
 20.070    580.000    623.533    -43.533    620.125    621.204    622.454    620.125    620.125
 20.170    635.959    623.050     12.909    619.574    620.667    621.957    619.574    619.574
 20.270    585.000    622.576    -37.576    619.026    620.136    621.466    619.026    619.026
 20.370    602.000    622.131    -20.131    618.482    619.622    620.991    618.482    618.482
 20.470    607.000    621.693    -14.693    617.941    619.117    620.517    617.941    617.941
 20.570    588.000    621.268    -33.268    617.404    618.629    620.043    617.404    617.404
 20.670    634.000    620.850     13.150    616.870    618.146    619.574    616.870    616.870
 20.770    563.000    620.414    -57.414    616.340    617.643    619.111    616.340    616.340
 20.870    606.764    620.030    -13.266    615.813    617.189    618.655    615.813    615.813
 20.970    619.000    619.638     -0.638    615.290    616.724    618.204    615.290    615.290
 21.070    612.835    619.221     -6.386    614.771    616.232    617.760    614.771    614.771
 21.170    578.717    618.808    -40.090    614.255    615.741    617.322    614.255    614.255
 21.270    593.228    618.410    -25.182    613.742    615.258    616.894    613.742    613.742
 21.370    598.000    618.015    -20.015    613.233    614.777    616.471    613.233    613.233
 21.470    606.000    617.627    -11.627    612.728    614.301    616.053    612.728    612.728
 21.570    614.000    617.249     -3.249    612.226    613.831    615.643    612.226    612.226
 21.670    617.519    616.879      0.640    611.727    613.366    615.240    611.727    611.727
 21.770    594.000    616.524    -22.524    611.232    612.911    614.844    611.232    611.232
 21.870    638.239    616.177     22.062    610.740    612.461    614.456    610.740    610.740
 21.970    661.757    615.836     45.921    610.252    612.011    614.076    610.252    610.252
 22.070    637.000    615.506     21.494    609.767    611.568    613.705    609.767    609.767
 22.170    611.000    615.188     -4.188    609.285    611.131    613.342    609.285    609.285
 22.270    581.377    614.883    -33.506    608.807    610.702    612.988    608.807    608.807
 22.370    564.000    614.591    -50.591    608.333    610.280    612.644    608.333    608.333
 22.470    658.329    614.315     44.014    607.862    609.868    612.309    607.862    607.862
 22.570    581.000    614.054    -33.054    607.394    609.464    611.984    607.394    607.394
 22.670    582.512    613.811    -31.300    606.929    609.071    611.670    606.929    606.929
 22.770    620.000    613.589      6.411    606.468    608.691    611.367    606.468    606.468
 22.870    560.000    613.388    -53.388    606.011    608.323    611.075    606.011    606.011
 22.970    597.000    613.208    -16.208    605.556    607.969    610.795    605.556    605.556
 23.070    639.882    613.057     26.825    605.105    607.633    610.530    605.105    605.105
 23.170    645.000    612.936     32.064    604.658    607.317    610.277    604.658    604.658
 23.270    570.000    612.844    -42.844    604.213    607.020    610.038    604.213    604.213
 23.370    660.571    612.791     47.780    603.772    606.750    609.813    603.772    603.772
 23.470    641.000    612.783     28.217    603.335    606.514    609.605    603.335    603.335
 23.570    655.217    612.829     42.387    602.900    606.318    609.413    602.900    602.900
 23.670    623.000    612.942     10.058    602.469    606.173    609.239    602.469    602.469
 23.770    606.000    613.137     -7.137    602.041    606.094    609.085    602.041    602.041
 23.870    605.000    613.435     -8.435    601.617    606.103    608.951    601.617    601.617
 23.970    613.000    613.871     -0.871    601.196    606.230    608.838    601.196    601.196
 24.070    622.000    614.500      7.500    600.778    606.530    608.749    600.778    600.778
 24.170    598.261    615.431    -17.170    600.363    607.111    608.686    600.363    600.363
 24.270    661.000    616.899     44.101    599.952    608.205    608.650    599.952    599.952
 24.370    611.000    619.397     -8.397    599.543    610.303    608.643    599.543    599.543
 24.470    643.000    623.830     19.170    599.138    614.308    608.668    599.138    599.138
 24.570    625.087    631.499     -6.412    598.737    621.521    608.729    598.737    598.737
 24.670    670.000    643.656     26.344    598.338    633.187    608.828    598.338    598.338
 24.770    647.000    660.371    -13.371    597.943    649.378    608.969    597.943    597.943
 24.870    640.106    678.751    -38.645    597.550    667.192    609.156    597.550    597.550
 24.970    663.946    691.590    -27.643    597.161    679.412    609.394    597.161    597.161
 25.070    737.800    691.327     46.473    596.776    678.470    609.688    596.776    596.776
 25.170    685.083    678.438      6.645    596.393    664.833    610.044    596.393    596.393
 25.270    676.000    660.751     15.249    596.013    646.327    610.470    596.013    596.013
 25.370    649.000    645.128      3.872    595.637    629.813    610.973    595.637    595.637
 25.470    591.480    634.175    -42.695    595.264    617.887    611.565    595.264    595.264
 25.570    618.082    627.689     -9.607    594.894    610.336    612.255    594.894    594.894
 25.670    643.176    624.411     18.765    594.527    605.886    613.056    594.527    594.527
 25.770    624.000    623.082      0.918    594.163    603.262    613.986    594.163    594.163
 25.870    573.785    622.857    -49.072    593.802    601.600    615.061    593.802    593.802
 25.970    634.000    623.297     10.703    593.444    600.438    616.304    593.444    593.444
 26.070    634.000    624.208      9.792    593.090    599.558    617.741    593.090    593.090
 26.170    649.225    625.526     23.699    592.738    598.859    619.405    592.738    592.738
 26.270    658.662    627.239     31.423    592.390    598.294    621.334    592.390    592.390
 26.370    634.000    629.369      4.631    592.044    597.834    623.578    592.044    592.044
 26.470    663.142    631.960     31.182    591.702    597.465    626.195    591.702    591.702
 26.570    622.892    635.078    -12.185    591.363    597.176    629.262    591.363    591.363
 26.670    600.783    638.817    -38.034    591.026    596.965    632.876    591.026    591.026
 26.770    592.000    643.301    -51.301    590.693    596.832    637.159    590.693    590.693
 26.870    631.000    648.690    -17.690    590.363    596.781    642.268    590.363    590.363
 26.970    688.000    655.211     32.789    590.035    596.824    648.417    590.035    590.035
 27.070    640.000    663.171    -23.171    589.711    596.981    655.895    589.711    589.711
 27.170    642.301    672.975    -30.674    589.390    597.266    665.092    589.390    589.390
 27.270    727.299    685.214     42.085    589.071    597.718    676.558    589.071    589.071
 27.370    709.730    700.735      8.995    588.756    598.389    691.090    588.756    588.756
 27.470    710.000    720.831    -10.831    588.443    599.359    709.900    588.443    588.443
 27.570    764.000    747.765     16.235    588.134    600.767    735.114    588.134    588.134
 27.670    845.000    786.783     58.217    587.827    602.932    771.652    587.827    587.827
 27.770    835.000    853.315    -18.315    587.523    606.794    834.001    587.523    587.523
 27.870   1008.000    992.658     15.342    587.222    615.103    964.692    587.222    587.222
 27.970   1255.000   1313.150    -58.150    586.924    634.428   1265.461    586.924    586.924
 28.070   1924.000   1997.437    -73.437    586.629    675.848   1907.852    586.629    586.629
 28.170   3298.128   3207.157     90.972    586.337    749.177   3043.713    586.337    586.337
 28.270   4639.000   4839.698   -200.698    586.048    848.249   4576.720    586.048    586.048
 28.370   6377.755   6300.867     76.887    585.761    937.179   5948.736    585.761    585.761
 28.470   6840.000   6716.182    123.818    585.478    963.252   6337.998    585.478    585.478
 28.570   6148.000   5809.206    338.794    585.197    910.350   5483.929    585.197    585.197
 28.670   4259.836   4351.923    -92.088    584.919    826.489   4110.342    584.919    584.919
 28.770   3201.496   3259.953    -58.457    584.644    768.896   3075.670    584.644    584.644
 28.870   2786.000   2921.496   -135.496    584.372    762.267   2743.512    584.372    584.372
 28.970   3285.000   3204.000     81.000    584.102    797.096   2990.914    584.102    584.102
 29.070   3661.000   3657.253      3.747    583.835    840.076   3401.017    583.835    583.835
 29.170   3661.237   3759.941    -98.704    583.571    850.672   3492.994    583.571    583.571
 29.270   3309.000   3295.082     13.918    583.310    812.216   3066.408    583.310    583.310
 29.370   2463.354   2526.251    -62.897    583.052    747.640   2361.875    583.052    583.052
 29.470   1790.000   1806.121    -16.121    582.796    687.009   1702.056    582.796    582.796
 29.570   1371.637   1299.431     72.206    582.543    644.352   1237.706    582.543    582.543
 29.670    996.919   1006.339     -9.420    582.293    619.724    968.949    582.293    582.293
 29.770    916.000    856.589     59.411    582.045    607.204    831.448    582.045    582.045
 29.870    837.000    781.541     55.459    581.800    601.002    762.348    581.800    581.800
 29.970    827.000    739.926     87.074    581.558    597.642    723.847    581.558    581.558
 30.070    753.000    713.104     39.896    581.319    595.567    698.858    581.319    581.319
 30.170    687.776    693.881     -6.105    581.082    594.195    680.768    581.082    581.082
 30.270    722.000    679.473     42.527    580.848    593.335    666.984    580.848    580.848
 30.370    685.000    668.687     16.313    580.616    592.981    656.319    580.616    580.616
