neutron_powder_diffraction_0142
R_wp: 3.962
Temperature (K): 1074.000
Counts: 83086.00
Wavelength (Ã…): 2.52098
COMMENTS
Test file for demonstrating the .xyy file format in Reel1.0
END OF HEADER
   tth       Y_obs     Y_calc      Y_res    Background    Phase_1_Nuc    Phase_1_Mag    Phase_2_Nuc    Phase_2_Mag
  9.970    539.990    573.201    -33.211    572.318    573.138    572.318    572.382    572.318
 10.070    625.000    573.244     51.756    572.289    573.180    572.289    572.352    572.289
 10.170    606.397    573.293     33.104    572.255    573.229    572.255    572.319    572.255
 10.270    613.000    573.350     39.650    572.218    573.286    572.218    572.282    572.218
 10.370    615.000    573.420     41.580    572.176    573.355    572.176    572.240    572.176
 10.470    550.000    573.505    -23.505    572.130    573.440    572.130    572.194    572.130
 10.570    607.136    573.610     33.526    572.080    573.545    572.080    572.144    572.080
 10.670    571.343    573.739     -2.396    572.026    573.673    572.026    572.091    572.026
 10.770    561.642    573.901    -12.259    571.968    573.835    571.968    572.033    571.968
 10.870    614.000    574.108     39.892    571.906    574.041    571.906    571.971    571.906
 10.970    559.558    574.374    -14.817    571.840    574.307    571.840    571.906    571.840
 11.070    576.000    574.723      1.277    571.771    574.655    571.771    571.837    571.771
 11.170    609.000    575.185     33.815    571.697    575.117    571.697    571.764    571.697
 11.270    558.000    575.812    -17.812    571.620    575.743    571.620    571.687    571.620
 11.370    594.692    576.696     17.996    571.540    576.626    571.540    571.607    571.540
 11.470    542.339    578.045    -35.706    571.455    577.975    571.455    571.522    571.455
 11.570    602.000    580.390     21.610    571.367    580.318    571.367    571.435    571.367
 11.670    661.000    584.983     76.017    571.275    584.907    571.275    571.343    571.275
 11.770    631.000    594.195     36.805    571.180    594.114    571.180    571.248    571.180
 11.870    570.000    611.144    -41.144    571.082    611.053    571.082    571.150    571.082
 11.970    676.000    637.495     38.505    570.980    637.390    570.980    571.048    570.980
 12.070    664.000    669.320     -5.320    570.874    669.197    570.874    570.943    570.874
 12.170    738.423    693.474     44.949    570.765    693.338    570.765    570.835    570.765
 12.270    697.410    694.140      3.270    570.653    694.002    570.653    570.723    570.653
 12.370    670.575    670.659     -0.084    570.537    670.534    570.537    570.607    570.537
 12.470    609.000    638.554    -29.554    570.419    638.446    570.419    570.489    570.419
 12.570    644.000    611.498     32.502    570.296    611.405    570.296    570.367    570.296
 12.670    601.203    593.844      7.359    570.171    593.760    570.171    570.242    570.171
 12.770    567.000    584.091    -17.091    570.043    584.012    570.043    570.114    570.043
 12.870    600.000    579.114     20.886    569.911    579.038    569.911    569.983    569.911
 12.970    615.000    576.477     38.523    569.777    576.401    569.777    569.849    569.777
 13.070    546.447    574.875    -28.428    569.639    574.800    569.639    569.712    569.639
 13.170    555.000    573.757    -18.757    569.499    573.682    569.499    569.571    569.499
 13.270    574.368    572.905      1.463    569.355    572.830    569.355    569.428    569.355
 13.370    599.137    572.220     26.917    569.209    572.145    569.209    569.282    569.209
 13.470    556.000    571.650    -15.650    569.059    571.575    569.059    569.133    569.059
 13.570    569.000    571.164     -2.164    568.907    571.089    568.907    568.981    568.907
 13.670    566.982    570.740     -3.759    568.752    570.665    568.752    568.827    568.752
 13.770    562.000    570.363     -8.363    568.594    570.287    568.594    568.669    568.594
 13.870    539.000    570.021    -31.021    568.434    569.945    568.434    568.509    568.434
 13.970    586.000    569.706     16.294    568.270    569.630    568.270    568.346    568.270
 14.070    541.692    569.412    -27.720    568.105    569.336    568.105    568.180    568.105
 14.170    597.000    569.135     27.865    567.936    569.058    567.936    568.012    567.936
 14.270    574.000    568.871      5.129    567.765    568.794    567.765    567.842    567.765
 14.370    542.502    568.617    -26.115    567.591    568.539    567.591    567.668    567.591
 14.470    595.235    568.371     26.865    567.415    568.293    567.415    567.492    567.415
 14.570    520.000    568.131    -48.131    567.236    568.053    567.236    567.314    567.236
 14.670    554.000    567.897    -13.897    567.055    567.818    567.055    567.133    567.055
 14.770    526.000    567.666    -41.666    566.871    567.587    566.871    566.950    566.871
 14.870    566.000    567.439     -1.439    566.685    567.359    566.685    566.764    566.685
 14.970    548.004    567.215    -19.211    566.497    567.135    566.497    566.577    566.497
 15.070    575.605    566.994      8.611    566.306    566.912    566.306    566.388    566.306
 15.170    568.745    566.772      1.973    566.113    566.689    566.113    566.196    566.113
 15.270    560.773    566.551     -5.778    565.918    566.467    565.918    566.001    565.918
 15.370    556.000    566.330    -10.330    565.721    566.246    565.721    565.804    565.721
 15.470    573.199    566.112      7.087    565.521    566.027    565.521    565.605    565.521
 15.570    598.089    565.891     32.197    565.319    565.807    565.319    565.404    565.319
 15.670    541.000    565.670    -24.670    565.115    565.585    565.115    565.200    565.115
 15.770    545.000    565.449    -20.449    564.909    565.363    564.909    564.995    564.909
 15.870    526.245    565.227    -38.982    564.701    565.141    564.701    564.787    564.701
 15.970    527.335    565.005    -37.670    564.491    564.918    564.491    564.578    564.491
 16.070    585.431    564.781     20.650    564.279    564.694    564.279    564.366    564.279
 16.170    604.049    564.557     39.492    564.065    564.469    564.065    564.152    564.065
 16.270    538.000    564.332    -26.332    563.849    564.243    563.849    563.937    563.849
 16.370    560.000    564.105     -4.105    563.631    564.017    563.631    563.720    563.631
 16.470    549.000    563.878    -14.878    563.411    563.789    563.411    563.500    563.411
 16.570    611.000    563.650     47.350    563.189    563.560    563.189    563.279    563.189
 16.670    561.000    563.421     -2.421    562.966    563.330    562.966    563.056    562.966
 16.770    569.000    563.190      5.810    562.741    563.099    562.741    562.832    562.741
 16.870    534.000    562.959    -28.959    562.514    562.867    562.514    562.605    562.514
 16.970    534.000    562.726    -28.726    562.285    562.634    562.285    562.377    562.285
 17.070    570.000    562.492      7.508    562.055    562.400    562.055    562.147    562.055
 17.170    552.000    562.257    -10.257    561.823    562.164    561.823    561.916    561.823
 17.270    536.822    562.021    -25.199    561.589    561.927    561.589    561.683    561.589
 17.370    558.000    561.784     -3.784    561.354    561.690    561.354    561.448    561.354
 17.470    591.554    561.545     30.008    561.117    561.451    561.117    561.212    561.117
 17.570    557.000    561.307     -4.307    560.879    561.212    560.879    560.975    560.879
 17.670    527.000    561.081    -34.081    560.639    560.985    560.639    560.735    560.639
 17.770    583.000    560.851     22.149    560.398    560.754    560.398    560.495    560.398
 17.870    564.000    560.609      3.391    560.155    560.512    560.155    560.253    560.155
 17.970    565.000    560.365      4.635    559.911    560.267    559.911    560.009    559.911
 18.070    549.002    560.121    -11.119    559.665    560.022    559.665    559.764    559.665
 18.170    516.894    559.875    -42.981    559.419    559.776    559.419    559.518    559.419
 18.270    544.000    559.629    -15.629    559.170    559.528    559.170    559.270    559.170
 18.370    577.342    559.381     17.961    558.921    559.280    558.921    559.022    558.921
 18.470    563.886    559.132      4.753    558.670    559.031    558.670    558.772    558.670
 18.570    546.000    558.883    -12.883    558.418    558.780    558.418    558.520    558.418
 18.670    577.000    558.632     18.368    558.165    558.529    558.165    558.268    558.165
 18.770    522.000    558.381    -36.381    557.910    558.277    557.910    558.014    557.910
 18.870    568.000    558.129      9.871    557.654    558.024    557.654    557.759    557.654
 18.970    543.000    557.876    -14.876    557.398    557.771    557.398    557.503    557.398
 19.070    540.000    557.623    -17.623    557.140    557.517    557.140    557.246    557.140
 19.170    550.068    557.372     -7.304    556.881    557.265    556.881    556.988    556.881
 19.270    560.000    557.117      2.883    556.621    557.009    556.621    556.728    556.621
 19.370    594.000    556.861     37.139    556.359    556.753    556.359    556.468    556.359
 19.470    524.816    556.605    -31.789    556.097    556.495    556.097    556.207    556.097
 19.570    565.000    556.348      8.652    555.834    556.238    555.834    555.945    555.834
 19.670    503.000    556.093    -53.093    555.570    555.981    555.570    555.682    555.570
 19.770    562.000    555.839      6.161    555.305    555.726    555.305    555.418    555.305
 19.870    537.000    555.581    -18.581    555.039    555.467    555.039    555.153    555.039
 19.970    558.556    555.322      3.234    554.772    555.208    554.772    554.887    554.772
 20.070    576.709    555.063     21.646    554.505    554.948    554.505    554.620    554.505
 20.170    552.000    554.805     -2.805    554.236    554.689    554.236    554.353    554.236
 20.270    599.303    554.546     44.757    553.967    554.428    553.967    554.084    553.967
 20.370    562.000    554.286      7.714    553.697    554.167    553.697    553.815    553.697
 20.470    551.000    554.026     -3.026    553.426    553.906    553.426    553.546    553.426
 20.570    492.000    553.766    -61.766    553.155    553.645    553.155    553.275    553.155
 20.670    520.000    553.507    -33.507    552.882    553.385    552.882    553.004    552.882
 20.770    492.000    553.247    -61.247    552.610    553.124    552.610    552.733    552.610
 20.870    581.364    552.987     28.377    552.336    552.863    552.336    552.460    552.336
 20.970    575.745    552.728     23.017    552.062    552.602    552.062    552.187    552.062
 21.070    541.785    552.469    -10.683    551.787    552.342    551.787    551.914    551.787
 21.170    538.170    552.218    -14.048    551.511    552.090    551.511    551.639    551.511
 21.270    553.000    552.038      0.962    551.235    551.909    551.235    551.365    551.235
 21.370    513.883    551.801    -37.918    550.959    551.671    550.959    551.090    550.959
 21.470    527.000    551.547    -24.547    550.682    551.415    550.682    550.814    550.682
 21.570    589.137    551.292     37.845    550.404    551.159    550.404    550.538    550.404
 21.670    527.110    551.039    -23.929    550.126    550.904    550.126    550.261    550.126
 21.770    532.000    550.787    -18.787    549.848    550.650    549.848    549.985    549.848
 21.870    504.000    550.537    -46.537    549.569    550.399    549.569    549.707    549.569
 21.970    553.000    550.294      2.706    549.290    550.154    549.290    549.430    549.290
 22.070    564.000    550.094     13.906    549.010    549.952    549.010    549.152    549.010
 22.170    575.000    549.870     25.130    548.730    549.727    548.730    548.873    548.730
 22.270    569.043    549.633     19.410    548.450    549.488    548.450    548.595    548.450
 22.370    539.000    549.399    -10.399    548.169    549.252    548.169    548.316    548.169
 22.470    543.000    549.169     -6.169    547.888    549.021    547.888    548.037    547.888
 22.570    551.000    548.946      2.054    547.607    548.795    547.607    547.758    547.607
 22.670    542.000    548.729     -6.729    547.325    548.576    547.325    547.478    547.325
 22.770    556.000    548.521      7.479    547.043    548.366    547.043    547.199    547.043
 22.870    548.717    548.340      0.376    546.761    548.183    546.761    546.919    546.761
 22.970    549.612    548.177      1.435    546.479    548.018    546.479    546.639    546.479
 23.070    547.000    548.007     -1.007    546.197    547.845    546.197    546.359    546.197
 23.170    572.000    547.852     24.148    545.914    547.688    545.914    546.079    545.914
 23.270    532.708    547.721    -15.013    545.632    547.554    545.632    545.799    545.632
 23.370    527.065    547.618    -20.554    545.349    547.449    545.349    545.519    545.349
 23.470    518.228    547.559    -29.332    545.066    547.387    545.066    545.239    545.066
 23.570    582.273    547.558     34.715    544.783    547.384    544.783    544.959    544.783
 23.670    561.000    547.610     13.390    544.500    547.432    544.500    544.679    544.500
 23.770    553.000    547.760      5.240    544.217    547.579    544.217    544.399    544.217
 23.870    532.000    548.032    -16.032    543.934    547.849    543.934    544.120    543.934
 23.970    585.525    548.516     37.009    543.651    548.330    543.651    543.840    543.651
 24.070    509.330    549.407    -40.077    543.368    549.218    543.368    543.561    543.368
 24.170    546.495    551.174     -4.680    543.085    550.982    543.085    543.282    543.085
 24.270    589.827    554.810     35.017    542.802    554.617    542.802    543.003    542.802
 24.370    574.000    561.940     12.060    542.520    561.748    542.520    542.725    542.520
 24.470    559.293    574.287    -14.995    542.237    574.100    542.237    542.446    542.237
 24.570    640.000    592.106     47.894    541.954    591.927    541.954    542.169    541.954
 24.670    608.938    611.765     -2.826    541.672    611.595    541.672    541.891    541.672
 24.770    621.000    624.293     -3.293    541.390    624.128    541.390    541.614    541.390
 24.870    588.340    621.219    -32.879    541.107    621.046    541.107    541.338    541.107
 24.970    643.049    604.820     38.228    540.825    604.630    540.825    541.062    540.825
 25.070    558.979    584.714    -25.735    540.544    584.503    540.544    540.786    540.544
 25.170    525.765    568.087    -42.322    540.262    567.858    540.262    540.511    540.262
 25.270    533.260    557.080    -23.820    539.981    556.835    539.981    540.237    539.981
 25.370    556.000    550.769      5.231    539.700    550.513    539.700    539.964    539.700
 25.470    560.835    547.380     13.455    539.419    547.113    539.419    539.691    539.419
 25.570    580.000    545.516     34.484    539.139    545.240    539.139    539.419    539.139
 25.670    546.713    544.347      2.366    538.859    544.060    538.859    539.148    538.859
 25.770    511.000    543.491    -32.491    538.579    543.193    538.579    538.878    538.579
 25.870    557.000    542.821     14.179    538.300    542.513    538.300    538.609    538.300
 25.970    523.866    542.277    -18.411    538.020    541.957    538.020    538.341    538.020
 26.070    559.000    541.836     17.164    537.742    541.504    537.742    538.075    537.742
 26.170    513.000    541.481    -28.481    537.463    541.135    537.463    537.810    537.463
 26.270    562.583    541.163     21.420    537.186    540.803    537.186    537.547    537.186
 26.370    583.000    540.896     42.104    536.908    540.520    536.908    537.285    536.908
 26.470    576.000    540.681     35.319    536.631    540.287    536.631    537.025    536.631
 26.570    550.000    540.515      9.485    536.354    540.103    536.354    536.767    536.354
 26.670    555.000    540.403     14.597    536.078    539.970    536.078    536.511    536.078
 26.770    539.464    540.343     -0.879    535.803    539.888    535.803    536.258    535.803
 26.870    577.335    540.357     36.978    535.528    539.877    535.528    536.007    535.528
 26.970    553.000    540.445     12.555    535.253    539.938    535.253    535.760    535.253
 27.070    559.243    540.619     18.624    534.979    540.081    534.979    535.516    534.979
 27.170    535.000    540.916     -5.916    534.705    540.344    534.705    535.277    534.705
 27.270    573.771    541.376     32.396    534.432    540.766    534.432    535.042    534.432
 27.370    559.000    542.063     16.937    534.160    541.410    534.160    534.812    534.160
 27.470    563.822    543.093     20.729    533.888    542.391    533.888    534.588    533.888
 27.570    522.000    544.773    -22.773    533.617    544.016    533.617    534.372    533.617
 27.670    570.000    548.290     21.710    533.346    547.469    533.346    534.164    533.346
 27.770    615.000    558.038     56.962    533.076    557.142    533.076    533.966    533.076
 27.870    635.000    586.056     48.944    532.807    585.068    532.807    533.780    532.807
 27.970    687.254    652.498     34.757    532.538    651.391    532.538    533.608    532.538
 28.070    750.475    767.745    -17.270    532.270    766.492    532.270    533.454    532.270
 28.170    850.732    898.490    -47.758    532.003    897.073    532.003    533.322    532.003
 28.270    927.032    962.781    -35.749    531.736    961.204    531.736    533.218    531.736
 28.370    919.000    907.535     11.465    531.470    905.796    531.470    533.151    531.470
 28.470    774.000    788.790    -14.790    531.205    786.840    531.205    533.134    531.205
 28.570    654.248    697.708    -43.459    530.940    695.453    530.940    533.187    530.940
 28.670    700.826    680.379     20.447    530.677    677.702    530.677    533.341    530.677
 28.770    692.250    729.583    -37.333    530.414    726.342    530.414    533.636    530.414
 28.870    814.000    802.021     11.979    530.152    798.030    530.152    534.132    530.152
 28.970    805.000    836.204    -31.204    529.890    831.201    529.890    534.898    529.890
 29.070    843.654    796.627     47.026    529.629    790.261    529.629    536.010    529.629
 29.170    735.352    714.609     20.743    529.370    706.456    529.370    537.537    529.370
 29.270    643.000    638.976      4.024    529.111    628.588    529.111    539.507    529.111
 29.370    558.000    591.903    -33.903    528.853    578.912    528.853    541.847    528.853
 29.470    572.000    570.303      1.697    528.595    554.622    528.595    544.276    528.595
 29.570    592.629    562.394     30.235    528.339    544.517    528.339    546.215    528.339
 29.670    575.000    559.079     15.921    528.083    540.242    528.083    546.918    528.083
 29.770    556.000    556.174     -0.174    527.828    538.022    527.828    545.979    527.828
 29.870    545.060    552.731     -7.671    527.575    536.602    527.575    543.702    527.575
 29.970    583.000    549.109     33.891    527.322    535.620    527.322    540.809    527.322
 30.070    537.000    545.819     -8.819    527.070    534.965    527.070    537.922    527.070
 30.170    607.000    543.175     63.825    526.819    534.622    526.819    535.370    526.819
 30.270    551.000    541.399      9.601    526.568    534.710    526.568    533.255    526.568
 30.370    607.000    540.927     66.073    526.319    535.679    526.319    531.563    526.319
