neutron_powder_diffraction_0137
R_wp: 3.942
Temperature (K): 1072.796
Counts: 83794.00
Wavelength (Ã…): 2.52098
COMMENTS
Test file for demonstrating the .xyy file format in Reel1.0
END OF HEADER
   tth       Y_obs     Y_calc      Y_res    Background    Phase_1_Nuc    Phase_1_Mag    Phase_2_Nuc    Phase_2_Mag
  9.970    608.000    575.196     32.804    574.352    575.140    574.352    574.408    574.352
 10.070    545.088    575.297    -30.208    574.384    575.240    574.384    574.440    574.384
 10.170    562.000    575.402    -13.402    574.411    575.345    574.411    574.467    574.411
 10.270    578.000    575.514      2.486    574.432    575.457    574.432    574.489    574.432
 10.370    575.560    575.636     -0.076    574.448    575.578    574.448    574.505    574.448
 10.470    587.000    575.770     11.230    574.459    575.712    574.459    574.516    574.459
 10.570    556.000    575.921    -19.921    574.464    575.863    574.464    574.521    574.464
 10.670    592.000    576.095     15.905    574.464    576.036    574.464    574.522    574.464
 10.770    550.160    576.299    -26.140    574.459    576.241    574.459    574.517    574.459
 10.870    591.253    576.545     14.708    574.449    576.486    574.449    574.507    574.449
 10.970    548.800    576.847    -28.047    574.433    576.788    574.433    574.492    574.433
 11.070    604.534    577.226     27.308    574.413    577.166    574.413    574.472    574.413
 11.170    557.000    577.713    -20.713    574.388    577.652    574.388    574.447    574.388
 11.270    587.000    578.355      8.645    574.358    578.293    574.358    574.417    574.358
 11.370    554.000    579.238    -25.238    574.323    579.176    574.323    574.382    574.323
 11.470    540.000    580.556    -40.556    574.283    580.493    574.283    574.342    574.283
 11.570    584.000    582.814      1.186    574.238    582.749    574.238    574.298    574.238
 11.670    631.556    587.279     44.277    574.189    587.212    574.189    574.249    574.189
 11.770    668.000    596.510     71.490    574.135    596.437    574.135    574.195    574.135
 11.870    666.000    614.091     51.909    574.076    614.008    574.076    574.137    574.076
 11.970    595.845    642.219    -46.374    574.013    642.120    574.013    574.074    574.013
 12.070    712.607    676.863     35.745    573.945    676.744    573.945    574.006    573.945
 12.170    684.435    703.484    -19.049    573.873    703.350    573.873    573.934    573.873
 12.270    672.000    704.321    -32.321    573.796    704.186    573.796    573.858    573.796
 12.370    678.000    678.585     -0.585    573.715    678.464    573.715    573.777    573.715
 12.470    623.000    643.695    -20.695    573.630    643.593    573.630    573.692    573.630
 12.570    659.710    614.830     44.880    573.540    614.744    573.540    573.603    573.540
 12.670    589.000    596.532     -7.532    573.446    596.457    573.446    573.509    573.446
 12.770    589.380    586.794      2.586    573.348    586.723    573.348    573.411    573.348
 12.870    561.236    582.006    -20.770    573.246    581.938    573.246    573.310    573.246
 12.970    594.816    579.526     15.290    573.140    579.459    573.140    573.204    573.140
 13.070    555.000    578.029    -23.029    573.029    577.962    573.029    573.094    573.029
 13.170    583.000    576.982      6.018    572.915    576.915    572.915    572.979    572.915
 13.270    607.000    576.184     30.816    572.797    576.117    572.797    572.861    572.797
 13.370    570.010    575.545     -5.535    572.675    575.479    572.675    572.740    572.675
 13.470    552.000    575.020    -23.020    572.548    574.954    572.548    572.614    572.548
 13.570    577.000    574.574      2.426    572.419    574.507    572.419    572.484    572.419
 13.670    569.695    574.184     -4.489    572.285    574.117    572.285    572.351    572.285
 13.770    558.000    573.837    -15.837    572.147    573.770    572.147    572.214    572.147
 13.870    580.323    573.523      6.800    572.006    573.456    572.006    572.073    572.006
 13.970    561.000    573.234    -12.234    571.862    573.166    571.862    571.929    571.862
 14.070    538.000    572.964    -34.964    571.713    572.896    571.713    571.781    571.713
 14.170    596.000    572.709     23.291    571.561    572.640    571.561    571.629    571.561
 14.270    546.531    572.465    -25.934    571.406    572.396    571.406    571.474    571.406
 14.370    561.000    572.229    -11.229    571.247    572.160    571.247    571.316    571.247
 14.470    550.000    572.001    -22.001    571.085    571.932    571.085    571.154    571.085
 14.570    569.450    571.777     -2.328    570.919    571.708    570.919    570.988    570.919
 14.670    527.227    571.558    -44.330    570.750    571.488    570.750    570.820    570.750
 14.770    586.591    571.341     15.250    570.578    571.271    570.578    570.648    570.578
 14.870    547.000    571.126    -24.126    570.403    571.056    570.403    570.473    570.403
 14.970    535.385    570.912    -35.528    570.224    570.842    570.224    570.294    570.224
 15.070    523.000    570.699    -47.699    570.042    570.628    570.042    570.113    570.042
 15.170    574.634    570.487      4.147    569.857    570.415    569.857    569.928    569.857
 15.270    544.000    570.275    -26.275    569.669    570.202    569.669    569.742    569.669
 15.370    579.000    570.062      8.938    569.478    569.988    569.478    569.552    569.478
 15.470    591.921    569.848     22.073    569.283    569.773    569.283    569.358    569.283
 15.570    602.000    569.633     32.367    569.086    569.558    569.086    569.161    569.086
 15.670    556.000    569.417    -13.417    568.886    569.341    568.886    568.962    568.886
 15.770    536.000    569.199    -33.199    568.683    569.123    568.683    568.759    568.683
 15.870    535.537    568.981    -33.444    568.477    568.904    568.477    568.554    568.477
 15.970    563.000    568.763     -5.763    568.269    568.686    568.269    568.346    568.269
 16.070    548.000    568.541    -20.541    568.058    568.464    568.058    568.135    568.058
 16.170    556.000    568.318    -12.318    567.844    568.240    567.844    567.921    567.844
 16.270    578.312    568.093     10.219    567.627    568.014    567.627    567.705    567.627
 16.370    556.000    567.867    -11.867    567.407    567.788    567.407    567.486    567.407
 16.470    560.000    567.639     -7.639    567.185    567.560    567.185    567.265    567.185
 16.570    559.000    567.408     -8.408    566.961    567.329    566.961    567.041    566.961
 16.670    573.000    567.176      5.824    566.734    567.096    566.734    566.814    566.734
 16.770    563.000    566.942     -3.942    566.504    566.861    566.504    566.585    566.504
 16.870    563.000    566.706     -3.706    566.272    566.625    566.272    566.353    566.272
 16.970    591.000    566.468     24.532    566.038    566.386    566.038    566.119    566.038
 17.070    526.000    566.228    -40.228    565.801    566.146    565.801    565.883    565.801
 17.170    565.973    565.987     -0.014    565.562    565.904    565.562    565.645    565.562
 17.270    562.000    565.743     -3.743    565.321    565.660    565.321    565.404    565.321
 17.370    532.667    565.498    -32.830    565.077    565.414    565.077    565.161    565.077
 17.470    601.126    565.250     35.876    564.831    565.166    564.831    564.915    564.831
 17.570    585.000    565.001     19.999    564.583    564.917    564.583    564.668    564.583
 17.670    587.000    564.751     22.249    564.333    564.665    564.333    564.418    564.333
 17.770    561.000    564.498     -3.498    564.080    564.412    564.080    564.166    564.080
 17.870    607.000    564.244     42.756    563.826    564.157    563.826    563.912    563.826
 17.970    548.000    563.988    -15.988    563.569    563.901    563.569    563.656    563.569
 18.070    564.752    563.731      1.022    563.311    563.643    563.311    563.399    563.311
 18.170    558.000    563.473     -5.473    563.050    563.384    563.050    563.139    563.050
 18.270    563.000    563.226     -0.226    562.788    563.137    562.788    562.877    562.788
 18.370    544.000    562.975    -18.975    562.524    562.885    562.524    562.613    562.524
 18.470    529.566    562.712    -33.146    562.258    562.622    562.258    562.348    562.258
 18.570    542.541    562.446    -19.906    561.990    562.356    561.990    562.080    561.990
 18.670    570.000    562.180      7.820    561.720    562.088    561.720    561.811    561.720
 18.770    535.000    561.912    -26.912    561.448    561.819    561.448    561.540    561.448
 18.870    527.031    561.642    -34.611    561.175    561.549    561.175    561.268    561.175
 18.970    585.000    561.371     23.629    560.900    561.277    560.900    560.993    560.900
 19.070    533.000    561.099    -28.099    560.623    561.004    560.623    560.718    560.623
 19.170    547.728    560.825    -13.097    560.345    560.730    560.345    560.440    560.345
 19.270    584.000    560.550     23.450    560.065    560.455    560.065    560.161    560.065
 19.370    574.257    560.275     13.983    559.784    560.178    559.784    559.880    559.784
 19.470    583.000    559.997     23.003    559.501    559.900    559.501    559.598    559.501
 19.570    529.000    559.719    -30.719    559.216    559.621    559.216    559.314    559.216
 19.670    553.000    559.440     -6.440    558.930    559.341    558.930    559.029    558.930
 19.770    543.031    559.160    -16.129    558.643    559.060    558.643    558.743    558.643
 19.870    588.000    558.878     29.122    558.354    558.778    558.354    558.455    558.354
 19.970    539.000    558.596    -19.596    558.064    558.495    558.064    558.166    558.064
 20.070    541.000    558.321    -17.321    557.773    558.219    557.773    557.875    557.773
 20.170    582.000    558.120     23.880    557.480    558.017    557.480    557.583    557.480
 20.270    578.000    557.862     20.138    557.186    557.758    557.186    557.290    557.186
 20.370    528.000    557.579    -29.579    556.890    557.474    556.890    556.996    556.890
 20.470    578.000    557.296     20.704    556.594    557.189    556.594    556.700    556.594
 20.570    528.356    557.014    -28.658    556.296    556.907    556.296    556.403    556.296
 20.670    514.712    556.728    -42.016    555.997    556.620    555.997    556.106    555.997
 20.770    553.449    556.441     -2.992    555.697    556.332    555.697    555.807    555.697
 20.870    519.000    556.154    -37.154    555.396    556.044    555.396    555.507    555.396
 20.970    554.986    555.867     -0.881    555.094    555.756    555.094    555.206    555.094
 21.070    572.379    555.580     16.799    554.791    555.467    554.791    554.904    554.791
 21.170    584.000    555.293     28.707    554.487    555.179    554.487    554.601    554.487
 21.270    531.000    555.006    -24.006    554.182    554.891    554.182    554.297    554.182
 21.370    587.000    554.720     32.280    553.876    554.603    553.876    553.992    553.876
 21.470    548.000    554.434     -6.434    553.569    554.316    553.569    553.686    553.569
 21.570    578.000    554.148     23.852    553.261    554.030    553.261    553.380    553.261
 21.670    555.000    553.865      1.135    552.952    553.745    552.952    553.073    552.952
 21.770    586.000    553.587     32.413    552.643    553.466    552.643    552.764    552.643
 21.870    571.000    553.351     17.649    552.332    553.229    552.332    552.455    552.332
 21.970    574.000    553.091     20.909    552.021    552.966    552.021    552.146    552.021
 22.070    514.000    552.816    -38.816    551.710    552.690    551.710    551.836    551.710
 22.170    585.580    552.561     33.020    551.397    552.433    551.397    551.525    551.397
 22.270    579.427    552.315     27.112    551.084    552.186    551.084    551.213    551.084
 22.370    551.000    552.049     -1.049    550.770    551.918    550.770    550.901    550.770
 22.470    568.000    551.785     16.215    550.455    551.653    550.455    550.588    550.455
 22.570    545.000    551.526     -6.526    550.140    551.392    550.140    550.275    550.140
 22.670    551.000    551.274     -0.274    549.824    551.138    549.824    549.961    549.824
 22.770    540.000    551.028    -11.028    549.508    550.891    549.508    549.646    549.508
 22.870    592.117    550.792     41.325    549.191    550.652    549.191    549.331    549.191
 22.970    569.000    550.567     18.433    548.874    550.425    548.874    549.016    548.874
 23.070    533.391    550.356    -16.966    548.556    550.213    548.556    548.701    548.556
 23.170    542.000    550.162     -8.162    548.238    550.016    548.238    548.385    548.238
 23.270    587.599    549.989     37.610    547.919    549.841    547.919    548.068    547.919
 23.370    534.000    549.846    -15.846    547.600    549.696    547.600    547.752    547.600
 23.470    562.737    549.736     13.001    547.281    549.583    547.281    547.435    547.281
 23.570    552.000    549.672      2.328    546.961    549.516    546.961    547.118    546.961
 23.670    543.000    549.669     -6.669    546.641    549.511    546.641    546.800    546.641
 23.770    574.597    549.753     24.844    546.320    549.593    546.320    546.483    546.320
 23.870    586.000    549.969     36.031    546.000    549.806    546.000    546.165    546.000
 23.970    582.000    550.377     31.623    545.679    550.211    545.679    545.847    545.679
 24.070    560.000    551.158      8.842    545.358    550.989    545.358    545.529    545.358
 24.170    558.954    552.765      6.189    545.036    552.594    545.036    545.212    545.036
 24.270    599.000    556.226     42.774    544.715    556.055    544.715    544.894    544.715
 24.370    528.375    563.360    -34.985    544.393    563.190    544.393    544.576    544.393
 24.470    594.845    576.270     18.575    544.071    576.105    544.071    544.258    544.071
 24.570    596.000    595.524      0.476    543.749    595.369    543.749    543.940    543.749
 24.670    533.000    617.212    -84.212    543.427    617.068    543.427    543.623    543.427
 24.770    616.000    631.225    -15.225    543.105    631.087    543.105    543.305    543.105
 24.870    609.000    627.836    -18.836    542.783    627.690    542.783    542.988    542.783
 24.970    635.000    609.609     25.391    542.461    609.446    542.461    542.671    542.461
 25.070    614.073    587.526     26.548    542.139    587.341    542.139    542.355    542.139
 25.170    569.000    569.674     -0.674    541.817    569.470    541.817    542.039    541.817
 25.270    561.000    558.227      2.773    541.495    558.010    541.495    541.723    541.495
 25.370    578.000    551.906     26.094    541.173    551.677    541.173    541.408    541.173
 25.470    551.000    548.635      2.365    540.851    548.397    540.851    541.093    540.851
 25.570    562.943    546.832     16.111    540.529    546.585    540.529    540.779    540.529
 25.670    543.000    545.662     -2.662    540.208    545.406    540.208    540.466    540.208
 25.770    552.000    544.806      7.194    539.886    544.541    539.886    540.153    539.886
 25.870    560.000    544.131     15.869    539.565    543.856    539.565    539.841    539.565
 25.970    595.000    543.575     51.425    539.244    543.290    539.244    539.531    539.244
 26.070    577.000    543.120     33.880    538.923    542.824    538.923    539.221    538.923
 26.170    533.000    542.750     -9.750    538.603    542.442    538.603    538.912    538.603
 26.270    502.000    542.418    -40.418    538.282    542.097    538.282    538.605    538.282
 26.370    562.453    542.139     20.314    537.962    541.803    537.962    538.299    537.962
 26.470    513.000    541.912    -28.912    537.643    541.561    537.643    537.994    537.643
 26.570    548.000    541.734      6.266    537.323    541.366    537.323    537.691    537.323
 26.670    528.000    541.613    -13.613    537.004    541.227    537.004    537.391    537.004
 26.770    558.000    541.566     16.434    536.686    541.159    536.686    537.092    536.686
 26.870    557.122    541.586     15.536    536.367    541.157    536.367    536.796    536.367
 26.970    578.909    541.684     37.225    536.049    541.231    536.049    536.503    536.049
 27.070    530.000    541.893    -11.893    535.732    541.412    535.732    536.212    535.732
 27.170    543.000    542.248      0.752    535.415    541.737    535.415    535.926    535.415
 27.270    567.172    542.794     24.378    535.098    542.249    535.098    535.643    535.098
 27.370    571.000    543.596     27.404    534.782    543.012    534.782    535.365    534.782
 27.470    552.000    544.799      7.201    534.467    544.171    534.467    535.093    534.467
 27.570    579.000    546.772     32.228    534.151    546.094    534.151    534.827    534.151
 27.670    590.000    550.861     39.139    533.837    550.126    533.837    534.568    533.837
 27.770    542.876    561.743    -18.866    533.523    560.940    533.523    534.319    533.523
 27.870    613.129    591.435     21.694    533.210    590.547    533.210    534.080    533.210
 27.970    689.000    658.787     30.213    532.897    657.791    532.897    533.854    532.897
 28.070    787.470    772.151     15.319    532.584    771.019    532.584    533.644    532.584
 28.170    849.799    898.896    -49.097    532.273    897.614    532.273    533.454    532.273
 28.270    956.000    961.268     -5.268    531.962    959.843    531.962    533.289    531.962
 28.370    920.000    908.706     11.294    531.652    907.139    531.652    533.157    531.652
 28.470    772.000    794.785    -22.785    531.342    793.032    531.342    533.070    531.342
 28.570    696.000    706.460    -10.460    531.033    704.436    531.033    533.046    531.033
 28.670    700.022    688.731     11.291    530.725    686.330    530.725    533.111    530.725
 28.770    773.727    735.864     37.863    530.417    732.956    530.417    533.306    530.417
 28.870    829.000    806.154     22.846    530.111    802.570    530.111    533.681    530.111
 28.970    805.305    839.221    -33.917    529.805    834.725    529.805    534.303    529.805
 29.070    777.000    799.790    -22.790    529.499    794.060    529.499    535.241    529.499
 29.170    682.494    718.253    -35.758    529.195    710.900    529.195    536.560    529.195
 29.270    633.000    642.319     -9.319    528.891    632.931    528.891    538.287    528.891
 29.370    596.533    594.038      2.496    528.588    582.271    528.588    540.358    528.588
 29.470    554.577    571.049    -16.473    528.286    556.818    528.286    542.518    528.286
 29.570    527.084    562.128    -35.044    527.985    545.876    527.985    544.235    527.985
 29.670    582.000    558.251     23.749    527.685    541.114    527.685    544.821    527.685
 29.770    612.000    555.117     56.883    527.386    538.604    527.386    543.897    527.386
 29.870    601.000    551.644     49.356    527.087    536.987    527.087    541.742    527.087
 29.970    524.588    548.093    -23.505    526.789    535.856    526.789    539.025    526.789
 30.070    551.000    544.911      6.089    526.493    535.084    526.493    536.318    526.493
 30.170    573.000    542.378     30.622    526.197    534.650    526.197    533.922    526.197
 30.270    598.000    540.709     57.291    525.902    534.679    525.902    531.930    525.902
 30.370    564.000    540.353     23.647    525.608    535.631    525.608    530.327    525.608
