neutron_powder_diffraction_0150
R_wp: 3.878
Temperature (K): 1074.000
Counts: 83796.00
Wavelength (Ã…): 2.52098
COMMENTS
Test file for demonstrating the .xyy file format in Reel1.0
END OF HEADER
   tth       Y_obs     Y_calc      Y_res    Background    Phase_1_Nuc    Phase_1_Mag    Phase_2_Nuc    Phase_2_Mag
  9.970    656.000    581.313     74.687    580.543    581.254    580.543    580.603    580.543
 10.070    591.000    581.239      9.761    580.403    581.179    580.403    580.463    580.403
 10.170    581.000    581.167     -0.167    580.260    581.107    580.260    580.320    580.260
 10.270    622.012    581.102     40.909    580.113    581.042    580.113    580.173    580.113
 10.370    551.000    581.048    -30.048    579.963    580.987    579.963    580.023    579.963
 10.470    594.000    581.006     12.994    579.809    580.945    579.809    579.870    579.809
 10.570    604.000    580.982     23.018    579.652    580.920    579.652    579.713    579.652
 10.670    622.000    580.980     41.020    579.492    580.918    579.492    579.553    579.492
 10.770    610.000    581.007     28.993    579.328    580.944    579.328    579.390    579.328
 10.870    557.152    581.073    -23.920    579.162    581.010    579.162    579.223    579.162
 10.970    558.000    581.191    -23.191    578.992    581.128    578.992    579.054    578.992
 11.070    609.000    581.385     27.615    578.819    581.318    578.819    578.885    578.819
 11.170    591.410    581.678      9.732    578.642    581.608    578.642    578.710    578.642
 11.270    630.628    582.111     48.517    578.463    582.041    578.463    578.531    578.463
 11.370    579.000    582.763     -3.763    578.281    582.692    578.281    578.349    578.281
 11.470    593.000    583.802      9.198    578.095    583.730    578.095    578.164    578.095
 11.570    624.156    585.689     38.467    577.907    585.615    577.907    577.977    577.907
 11.670    603.000    589.656     13.344    577.716    589.579    577.716    577.786    577.716
 11.770    667.000    598.402     68.598    577.522    598.321    577.522    577.592    577.522
 11.870    585.418    616.019    -30.601    577.325    615.927    577.325    577.395    577.325
 11.970    663.000    645.385     17.615    577.125    645.276    577.125    577.196    577.125
 12.070    688.000    682.483      5.517    576.923    682.353    576.923    576.994    576.923
 12.170    692.000    711.317    -19.317    576.718    711.170    576.718    576.789    576.718
 12.270    691.000    712.052    -21.052    576.510    711.903    576.510    576.581    576.510
 12.370    701.062    683.854     17.208    576.299    683.721    576.299    576.371    576.299
 12.470    646.028    646.204     -0.176    576.086    646.092    576.086    576.158    576.086
 12.570    580.051    615.793    -35.742    575.870    615.698    575.870    575.943    575.870
 12.670    576.993    597.185    -20.191    575.652    597.100    575.652    575.725    575.652
 12.770    606.000    587.681     18.319    575.431    587.601    575.431    575.504    575.431
 12.870    607.264    583.145     24.119    575.208    583.067    575.208    575.281    575.208
 12.970    590.000    580.785      9.215    574.982    580.708    574.982    575.056    574.982
 13.070    563.000    579.308    -16.308    574.753    579.231    574.753    574.828    574.753
 13.170    549.000    578.232    -29.232    574.523    578.155    574.523    574.597    574.523
 13.270    581.000    577.380      3.620    574.290    577.304    574.290    574.365    574.290
 13.370    572.000    576.675     -4.675    574.055    576.599    574.055    574.130    574.055
 13.470    575.000    576.073     -1.073    573.817    575.996    573.817    573.893    573.817
 13.570    567.000    575.544     -8.544    573.577    575.467    573.577    573.653    573.577
 13.670    587.311    575.069     12.242    573.335    574.992    573.335    573.411    573.335
 13.770    560.000    574.635    -14.635    573.091    574.557    573.091    573.167    573.091
 13.870    555.000    574.232    -19.232    572.844    574.154    572.844    572.921    572.844
 13.970    577.000    573.853      3.147    572.596    573.774    572.596    572.673    572.596
 14.070    584.000    573.492     10.508    572.345    573.413    572.345    572.423    572.345
 14.170    541.000    573.145    -32.145    572.093    573.067    572.093    572.171    572.093
 14.270    550.000    572.812    -22.812    571.838    572.733    571.838    571.917    571.838
 14.370    594.843    572.491     22.352    571.581    572.411    571.581    571.660    571.581
 14.470    596.000    572.174     23.826    571.323    572.094    571.323    571.402    571.323
 14.570    547.000    571.862    -24.862    571.062    571.781    571.062    571.142    571.062
 14.670    604.000    571.553     32.447    570.800    571.473    570.800    570.880    570.800
 14.770    507.000    571.249    -64.249    570.535    571.168    570.535    570.616    570.535
 14.870    613.000    570.947     42.053    570.269    570.866    570.269    570.350    570.269
 14.970    547.000    570.648    -23.648    570.001    570.566    570.001    570.083    570.001
 15.070    613.000    570.350     42.650    569.731    570.268    569.731    569.813    569.731
 15.170    548.000    570.054    -22.054    569.460    569.971    569.460    569.542    569.460
 15.270    525.799    569.758    -43.960    569.187    569.675    569.187    569.270    569.187
 15.370    534.000    569.463    -35.463    568.912    569.380    568.912    568.995    568.912
 15.470    566.000    569.169     -3.169    568.635    569.085    568.635    568.719    568.635
 15.570    569.000    568.875      0.125    568.357    568.790    568.357    568.442    568.357
 15.670    566.962    568.581     -1.619    568.078    568.496    568.078    568.162    568.078
 15.770    568.000    568.286     -0.286    567.796    568.201    567.796    567.882    567.796
 15.870    579.000    567.992     11.008    567.514    567.906    567.514    567.599    567.514
 15.970    583.000    567.697     15.303    567.229    567.611    567.229    567.316    567.229
 16.070    589.000    567.402     21.598    566.944    567.315    566.944    567.030    566.944
 16.170    558.000    567.106     -9.106    566.656    567.019    566.656    566.744    566.656
 16.270    525.000    566.811    -41.811    566.368    566.723    566.368    566.456    566.368
 16.370    563.172    566.514     -3.342    566.078    566.425    566.078    566.166    566.078
 16.470    542.518    566.217    -23.699    565.787    566.128    565.787    565.875    565.787
 16.570    558.000    565.919     -7.919    565.494    565.829    565.494    565.583    565.494
 16.670    600.491    565.620     34.871    565.200    565.530    565.200    565.290    565.200
 16.770    562.000    565.323     -3.323    564.905    565.230    564.905    564.997    564.905
 16.870    521.592    565.026    -43.434    564.608    564.932    564.608    564.702    564.608
 16.970    559.000    564.726     -5.726    564.311    564.631    564.311    564.405    564.311
 17.070    566.000    564.424      1.576    564.012    564.329    564.012    564.107    564.012
 17.170    587.000    564.122     22.878    563.712    564.026    563.712    563.807    563.712
 17.270    591.532    563.819     27.713    563.411    563.723    563.411    563.507    563.411
 17.370    569.000    563.516      5.484    563.108    563.419    563.108    563.205    563.108
 17.470    525.697    563.211    -37.514    562.805    563.114    562.805    562.902    562.805
 17.570    527.000    562.907    -35.907    562.501    562.808    562.501    562.599    562.501
 17.670    573.000    562.601     10.399    562.195    562.502    562.195    562.294    562.195
 17.770    570.434    562.296      8.138    561.889    562.196    561.889    561.988    561.889
 17.870    568.000    561.990      6.010    561.581    561.890    561.581    561.682    561.581
 17.970    580.953    561.683     19.270    561.273    561.582    561.273    561.374    561.273
 18.070    589.000    561.375     27.625    560.964    561.274    560.964    561.065    560.964
 18.170    558.859    561.067     -2.208    560.654    560.965    560.654    560.756    560.654
 18.270    576.000    560.758     15.242    560.343    560.655    560.343    560.446    560.343
 18.370    558.000    560.448     -2.448    560.031    560.344    560.031    560.135    560.031
 18.470    571.000    560.138     10.862    559.718    560.033    559.718    559.823    559.718
 18.570    594.848    559.827     35.021    559.405    559.722    559.405    559.510    559.405
 18.670    591.419    559.516     31.903    559.091    559.410    559.091    559.197    559.091
 18.770    535.000    559.204    -24.204    558.776    559.097    558.776    558.882    558.776
 18.870    554.000    558.892     -4.892    558.460    558.785    558.460    558.568    558.460
 18.970    528.000    558.580    -30.580    558.144    558.471    558.144    558.252    558.144
 19.070    546.470    558.267    -11.797    557.827    558.158    557.827    557.936    557.827
 19.170    557.000    557.954     -0.954    557.509    557.844    557.509    557.619    557.509
 19.270    536.000    557.642    -21.642    557.191    557.531    557.191    557.302    557.191
 19.370    565.854    557.342      8.512    556.872    557.230    556.872    556.984    556.872
 19.470    580.933    557.039     23.894    556.552    556.926    556.552    556.665    556.552
 19.570    552.000    556.726     -4.726    556.232    556.612    556.232    556.346    556.232
 19.670    555.628    556.412     -0.784    555.912    556.297    555.912    556.026    555.912
 19.770    528.000    556.097    -28.097    555.591    555.982    555.591    555.706    555.591
 19.870    539.404    555.783    -16.379    555.269    555.667    555.269    555.386    555.269
 19.970    543.000    555.469    -12.469    554.947    555.351    554.947    555.065    554.947
 20.070    579.000    555.155     23.845    554.625    555.036    554.625    554.744    554.625
 20.170    561.422    554.841      6.582    554.302    554.721    554.302    554.422    554.302
 20.270    529.000    554.527    -25.527    553.979    554.406    553.979    554.100    553.979
 20.370    591.277    554.213     37.064    553.656    554.091    553.656    553.777    553.656
 20.470    545.000    553.899     -8.899    553.332    553.777    553.332    553.455    553.332
 20.570    584.027    553.586     30.441    553.007    553.462    553.007    553.132    553.007
 20.670    544.754    553.273     -8.519    552.683    553.148    552.683    552.808    552.683
 20.770    589.900    552.961     36.939    552.358    552.835    552.358    552.485    552.358
 20.870    575.680    552.649     23.031    552.033    552.521    552.033    552.161    552.033
 20.970    555.120    552.338      2.782    551.708    552.209    551.708    551.837    551.708
 21.070    522.199    552.035    -29.836    551.382    551.905    551.382    551.513    551.382
 21.170    521.000    551.807    -30.807    551.057    551.676    551.057    551.189    551.057
 21.270    580.594    551.520     29.074    550.731    551.387    550.731    550.864    550.731
 21.370    544.201    551.214     -7.012    550.405    551.079    550.405    550.540    550.405
 21.470    520.301    550.907    -30.607    550.079    550.771    550.079    550.215    550.079
 21.570    513.000    550.603    -37.603    549.753    550.465    549.753    549.890    549.753
 21.670    548.000    550.301     -2.301    549.426    550.162    549.426    549.566    549.426
 21.770    539.000    550.004    -11.004    549.100    549.863    549.100    549.241    549.100
 21.870    562.367    549.704     12.663    548.774    549.562    548.774    548.916    548.774
 21.970    542.000    549.407     -7.407    548.447    549.263    548.447    548.591    548.447
 22.070    567.000    549.113     17.887    548.121    548.967    548.121    548.267    548.121
 22.170    511.153    548.824    -37.672    547.794    548.677    547.794    547.942    547.794
 22.270    534.000    548.538    -14.538    547.468    548.388    547.468    547.618    547.468
 22.370    524.000    548.278    -24.278    547.142    548.126    547.142    547.293    547.142
 22.470    564.000    548.069     15.931    546.815    547.915    546.815    546.969    546.815
 22.570    527.958    547.815    -19.858    546.489    547.660    546.489    546.645    546.489
 22.670    557.000    547.549      9.451    546.163    547.392    546.163    546.321    546.163
 22.770    529.000    547.289    -18.289    545.837    547.129    545.837    545.997    545.837
 22.870    570.000    547.038     22.962    545.512    546.876    545.512    545.674    545.512
 22.970    541.603    546.797     -5.194    545.186    546.633    545.186    545.351    545.186
 23.070    534.000    546.569    -12.569    544.861    546.403    544.861    545.028    544.861
 23.170    530.000    546.358    -16.358    544.535    546.188    544.535    544.705    544.535
 23.270    531.000    546.167    -15.167    544.210    545.995    544.210    544.383    544.210
 23.370    530.000    546.002    -16.002    543.886    545.827    543.886    544.061    543.886
 23.470    506.000    545.869    -39.869    543.561    545.691    543.561    543.740    543.561
 23.570    532.855    545.778    -12.923    543.237    545.598    543.237    543.418    543.237
 23.670    515.000    545.745    -30.745    542.913    545.561    542.913    543.098    542.913
 23.770    528.000    545.790    -17.790    542.589    545.604    542.589    542.777    542.589
 23.870    561.000    545.949     15.051    542.266    545.759    542.266    542.458    542.266
 23.970    575.000    546.284     28.716    541.943    546.091    541.943    542.138    541.943
 24.070    554.000    546.950      7.050    541.621    546.754    541.621    541.820    541.621
 24.170    531.298    548.362    -17.063    541.298    548.163    541.298    541.501    541.298
 24.270    579.000    551.548     27.452    540.977    551.347    540.977    541.184    540.977
 24.370    565.000    558.487      6.513    540.655    558.287    540.655    540.867    540.655
 24.470    588.000    571.693     16.307    540.334    571.498    540.334    540.551    540.334
 24.570    610.000    592.140     17.860    540.014    591.955    540.014    540.235    540.014
 24.670    637.000    615.754     21.246    539.694    615.580    539.694    539.920    539.694
 24.770    651.712    631.181     20.531    539.374    631.013    539.374    539.606    539.374
 24.870    583.765    627.377    -43.612    539.055    627.201    539.055    539.293    539.055
 24.970    575.000    607.334    -32.334    538.737    607.138    538.737    538.980    538.737
 25.070    573.000    583.518    -10.518    538.419    583.298    538.419    538.669    538.419
 25.170    589.226    564.833     24.394    538.101    564.593    538.101    538.358    538.101
 25.270    559.000    553.339      5.661    537.784    553.084    537.784    538.049    537.784
 25.370    528.000    547.295    -19.295    537.468    547.028    537.468    537.740    537.468
 25.470    570.000    544.275     25.725    537.152    543.998    537.152    537.433    537.152
 25.570    557.570    542.626     14.943    536.837    542.339    536.837    537.127    536.837
 25.670    545.000    541.563      3.437    536.522    541.266    536.522    536.822    536.522
 25.770    625.000    540.775     84.225    536.208    540.467    536.208    536.518    536.208
 25.870    533.657    540.149     -6.492    535.895    539.830    535.895    536.216    535.895
 25.970    545.433    539.641      5.792    535.583    539.310    535.583    535.915    535.583
 26.070    567.000    539.229     27.771    535.271    538.885    535.271    535.616    535.271
 26.170    573.000    538.901     34.099    534.959    538.543    534.959    535.318    534.959
 26.270    516.419    538.626    -22.207    534.649    538.252    534.649    535.023    534.649
 26.370    548.702    538.374     10.328    534.339    537.984    534.339    534.729    534.339
 26.470    577.838    538.169     39.668    534.030    537.761    534.030    534.438    534.030
 26.570    493.498    538.015    -44.517    533.722    537.588    533.722    534.149    533.722
 26.670    572.000    537.915     34.085    533.414    537.466    533.414    533.863    533.414
 26.770    515.468    537.876    -22.409    533.107    537.404    533.107    533.579    533.107
 26.870    557.000    537.910     19.090    532.801    537.412    532.801    533.299    532.801
 26.970    508.662    538.043    -29.381    532.496    537.516    532.496    533.023    532.496
 27.070    561.778    538.298     23.480    532.192    537.739    532.192    532.750    532.192
 27.170    539.000    538.673      0.327    531.888    538.079    531.888    532.482    531.888
 27.270    576.000    539.237     36.763    531.585    538.603    531.585    532.219    531.585
 27.370    558.000    540.069     17.931    531.284    539.390    531.284    531.962    531.284
 27.470    535.530    541.306     -5.776    530.983    540.576    530.983    531.711    530.983
 27.570    498.050    543.311    -45.261    530.682    542.523    530.682    531.468    530.682
 27.670    566.000    547.409     18.591    530.383    546.554    530.383    531.235    530.383
 27.770    542.000    558.263    -16.263    530.085    557.329    530.085    531.012    530.085
 27.870    584.000    588.008     -4.008    529.787    586.976    529.787    530.802    529.787
 27.970    672.908    655.988     16.919    529.491    654.832    529.491    530.607    529.491
 28.070    825.000    771.204     53.796    529.195    769.894    529.195    530.431    529.195
 28.170    911.537    900.654     10.883    528.901    899.172    528.901    530.279    528.901
 28.270    908.000    964.369    -56.369    528.607    962.718    528.607    530.156    528.607
 28.370    846.000    910.052    -64.052    528.314    908.230    528.314    530.073    528.314
 28.470    847.554    793.171     54.383    528.023    791.126    528.023    530.042    528.023
 28.570    706.000    703.100      2.900    527.732    700.736    527.732    530.084    527.732
 28.670    702.000    685.736     16.264    527.442    682.928    527.442    530.235    527.442
 28.770    735.783    735.196      0.587    527.154    731.787    527.154    530.542    527.154
 28.870    760.000    808.601    -48.601    526.866    804.374    526.866    531.078    526.866
 28.970    790.571    843.253    -52.683    526.579    837.900    526.579    531.934    526.579
 29.070    784.920    802.484    -17.564    526.294    795.574    526.294    533.215    526.294
 29.170    676.038    718.473    -42.434    526.009    709.473    526.009    535.021    526.009
 29.270    656.000    641.167     14.833    525.726    629.495    525.726    537.406    525.726
 29.370    599.785    593.122      6.664    525.444    578.266    525.444    540.301    525.444
 29.470    558.000    571.207    -13.207    525.162    552.992    525.162    543.376    525.162
 29.570    565.096    563.332      1.764    524.882    542.321    524.882    545.891    524.882
 29.670    556.976    559.963     -2.987    524.603    537.716    524.603    546.848    524.603
 29.770    599.000    556.644     42.356    524.325    535.281    524.325    545.686    524.325
 29.870    508.732    552.484    -43.752    524.048    533.705    524.048    542.826    524.048
 29.970    604.000    548.070     55.930    523.773    532.601    523.773    539.240    523.773
 30.070    537.000    544.080     -7.080    523.498    531.846    523.498    535.730    523.498
 30.170    571.000    540.888     30.112    523.225    531.420    523.225    532.690    523.225
 30.270    516.053    538.713    -22.660    522.953    531.436    522.953    530.227    522.953
 30.370    555.000    537.960     17.040    522.682    532.336    522.682    528.302    522.682
