neutron_powder_diffraction_0031
R_wp: 3.737
Temperature (K): 548.624
Counts: 83161.00
Wavelength (Ã…): 2.52098
COMMENTS
Test file for demonstrating the .xyy file format in Reel1.0
END OF HEADER
   tth       Y_obs     Y_calc      Y_res    Background    Phase_1_Nuc    Phase_1_Mag    Phase_2_Nuc    Phase_2_Mag
  9.970    661.944    704.436    -42.492    702.853    703.886    703.403    702.853    702.853
 10.070    716.000    703.524     12.476    701.852    702.969    702.408    701.852    701.852
 10.170    754.086    702.629     51.457    700.856    702.067    701.417    700.856    700.856
 10.270    733.033    701.751     31.281    699.864    701.184    700.431    699.864    699.864
 10.370    683.235    700.895    -17.660    698.877    700.321    699.450    698.877    698.877
 10.470    706.202    700.064      6.138    697.895    699.484    698.474    697.895    697.895
 10.570    701.000    699.264      1.736    696.917    698.677    697.502    696.917    696.917
 10.670    659.924    698.500    -38.577    695.943    697.907    696.536    695.943    695.943
 10.770    691.000    697.776     -6.776    694.975    697.176    695.573    694.975    694.975
 10.870    756.000    697.105     58.895    694.011    696.498    694.616    694.011    694.011
 10.970    661.344    696.500    -35.156    693.051    695.887    693.663    693.051    693.051
 11.070    691.269    695.982     -4.712    692.096    695.361    692.715    692.096    692.096
 11.170    700.000    695.577      4.423    691.145    694.949    691.771    691.145    691.145
 11.270    730.234    695.329     34.905    690.199    694.693    690.833    690.199    690.199
 11.370    664.949    695.299    -30.350    689.258    694.655    689.899    689.258    689.258
 11.470    679.360    695.614    -16.255    688.321    694.963    688.969    688.321    688.321
 11.570    697.757    696.546      1.211    687.389    695.886    688.044    687.389    687.389
 11.670    746.000    698.705     47.295    686.461    698.036    687.124    686.461    686.461
 11.770    749.157    703.325     45.832    685.538    702.645    686.209    685.538    685.538
 11.870    719.000    712.418      6.582    684.619    711.725    685.298    684.619    684.619
 11.970    791.000    728.281     62.719    683.705    727.570    684.392    683.705    683.705
 12.070    827.000    751.853     75.147    682.796    751.121    683.490    682.796    682.796
 12.170    849.000    779.790     69.210    681.891    779.033    682.594    681.891    681.891
 12.270    825.000    801.636     23.364    680.990    800.859    681.701    680.990    680.990
 12.370    840.000    803.921     36.079    680.094    803.133    680.814    680.094    680.094
 12.470    803.000    784.141     18.859    679.202    783.355    679.931    679.202    679.202
 12.570    783.822    754.497     29.325    678.315    753.718    679.053    678.315    678.315
 12.670    739.777    727.401     12.376    677.433    726.627    678.180    677.433    677.433
 12.770    702.000    707.817     -5.817    676.555    707.044    677.311    676.555    676.555
 12.870    679.000    695.618    -16.618    675.681    694.842    676.447    675.681    675.681
 12.970    656.000    688.373    -32.373    674.812    687.591    675.587    674.812    674.812
 13.070    664.000    684.003    -20.003    673.947    683.213    674.732    673.947    673.947
 13.170    676.000    681.087     -5.087    673.087    680.288    673.882    673.087    673.087
 13.270    644.000    678.893    -34.893    672.232    678.085    673.037    672.232    672.232
 13.370    684.412    677.111      7.301    671.380    676.292    672.196    671.380    671.380
 13.470    670.450    675.550     -5.100    670.533    674.722    671.360    670.533    670.533
 13.570    627.445    674.152    -46.707    669.691    673.313    670.529    669.691    669.691
 13.670    688.000    672.876     15.124    668.853    672.026    669.702    668.853    668.853
 13.770    652.000    671.691    -19.691    668.020    670.830    668.879    668.020    668.020
 13.870    634.144    670.577    -36.434    667.191    669.705    668.062    667.191    667.191
 13.970    689.000    669.520     19.480    666.366    668.636    667.249    666.366    666.366
 14.070    669.000    668.507      0.493    665.546    667.611    666.440    665.546    665.546
 14.170    669.000    667.531      1.469    664.730    666.624    665.637    664.730    664.730
 14.270    657.000    666.586     -9.586    663.919    665.667    664.838    663.919    663.919
 14.370    664.000    665.667     -1.667    663.112    664.734    664.043    663.112    663.112
 14.470    679.028    664.769     14.259    662.309    663.823    663.254    662.309    662.309
 14.570    655.000    663.890     -8.890    661.511    662.931    662.469    661.511    661.511
 14.670    614.390    663.027    -48.638    660.717    662.055    661.688    660.717    660.717
 14.770    656.000    662.180     -6.180    659.927    661.194    660.913    659.927    659.927
 14.870    628.875    661.346    -32.471    659.142    660.346    660.142    659.142    659.142
 14.970    656.450    660.524     -4.074    658.362    659.509    659.375    658.362    658.362
 15.070    633.099    659.713    -26.614    657.585    658.684    658.614    657.585    657.585
 15.170    628.000    658.918    -30.918    656.813    657.874    657.857    656.813    656.813
 15.270    582.000    658.128    -76.128    656.045    657.069    657.104    656.045    656.045
 15.370    653.000    657.345     -4.345    655.282    656.270    656.357    655.282    655.282
 15.470    641.272    656.571    -15.299    654.523    655.480    655.614    654.523    654.523
 15.570    648.735    655.804     -7.069    653.768    654.697    654.875    653.768    653.768
 15.670    661.000    655.045      5.955    653.018    653.921    654.142    653.018    653.018
 15.770    620.569    654.294    -33.724    652.272    653.152    653.413    652.272    652.272
 15.870    671.000    653.552     17.448    651.530    652.393    652.688    651.530    651.530
 15.970    663.000    652.816     10.184    650.792    651.640    651.969    650.792    650.792
 16.070    624.000    652.087    -28.087    650.059    650.891    651.254    650.059    650.059
 16.170    725.000    651.363     73.637    649.330    650.149    650.544    649.330    649.330
 16.270    617.232    650.656    -33.424    648.606    649.423    649.839    648.606    648.606
 16.370    654.000    649.962      4.038    647.885    648.709    649.138    647.885    647.885
 16.470    636.000    649.257    -13.257    647.169    647.984    648.442    647.169    647.169
 16.570    627.000    648.556    -21.556    646.457    647.262    647.751    646.457    646.457
 16.670    611.000    647.861    -36.861    645.750    646.546    647.064    645.750    645.750
 16.770    644.246    647.172     -2.926    645.046    645.835    646.383    645.046    645.046
 16.870    670.000    646.488     23.512    644.347    645.129    645.706    644.347    644.347
 16.970    668.546    645.810     22.735    643.652    644.428    645.034    643.652    643.652
 17.070    628.000    645.138    -17.138    642.961    643.733    644.367    642.961    642.961
 17.170    670.791    644.471     26.319    642.275    643.042    643.704    642.275    642.275
 17.270    645.000    643.810      1.190    641.592    642.356    643.046    641.592    641.592
 17.370    644.000    643.154      0.846    640.914    641.674    642.394    640.914    640.914
 17.470    693.189    642.504     50.686    640.240    640.998    641.746    640.240    640.240
 17.570    654.540    641.862     12.678    639.570    640.329    641.103    639.570    639.570
 17.670    652.000    641.239     10.761    638.905    639.678    640.466    638.905    638.905
 17.770    659.508    640.646     18.862    638.243    639.056    639.833    638.243    638.243
 17.870    551.000    640.055    -89.055    637.586    638.435    639.206    637.586    637.586
 17.970    652.527    639.436     13.091    636.933    637.786    638.583    636.933    636.933
 18.070    620.000    638.819    -18.819    636.284    637.138    637.964    636.284    636.284
 18.170    675.369    638.207     37.162    635.639    636.495    637.351    635.639    635.639
 18.270    570.000    637.601    -67.601    634.998    635.857    636.743    634.998    634.998
 18.370    648.530    637.001     11.529    634.361    635.223    636.139    634.361    634.361
 18.470    634.127    636.406     -2.278    633.729    634.593    635.541    633.729    633.729
 18.570    619.000    635.816    -16.816    633.100    633.968    634.948    633.100    633.100
 18.670    587.000    635.232    -48.232    632.476    633.348    634.360    632.476    632.476
 18.770    621.000    634.653    -13.653    631.856    632.732    633.777    631.856    631.856
 18.870    653.000    634.080     18.920    631.239    632.120    633.199    631.239    631.239
 18.970    647.535    633.513     14.022    630.627    631.514    632.627    630.627    630.627
 19.070    650.457    632.953     17.505    630.019    630.912    632.060    630.019    630.019
 19.170    652.000    632.405     19.595    629.415    630.322    631.498    629.415    629.415
 19.270    652.000    631.861     20.139    628.815    629.734    630.942    628.815    628.815
 19.370    603.000    631.322    -28.322    628.219    629.150    630.391    628.219    628.219
 19.470    599.000    630.785    -31.785    627.627    628.566    629.846    627.627    627.627
 19.570    590.000    630.261    -40.261    627.039    627.992    629.308    627.039    627.039
 19.670    604.000    629.802    -25.802    626.455    627.465    628.792    626.455    626.455
 19.770    571.000    629.289    -58.289    625.875    626.899    628.265    625.875    625.875
 19.870    620.000    628.777     -8.777    625.299    626.333    627.743    625.299    625.299
 19.970    611.000    628.271    -17.271    624.727    625.772    627.226    624.727    624.727
 20.070    587.000    627.772    -40.772    624.159    625.216    626.715    624.159    624.159
 20.170    616.000    627.290    -11.290    623.595    624.675    626.210    623.595    623.595
 20.270    626.843    626.819      0.024    623.035    624.143    625.711    623.035    623.035
 20.370    607.678    626.342    -18.664    622.478    623.602    625.218    622.478    622.478
 20.470    657.000    625.870     31.130    621.926    623.065    624.731    621.926    621.926
 20.570    612.000    625.406    -13.406    621.378    622.532    624.252    621.378    621.378
 20.670    657.811    624.965     32.846    620.833    622.012    623.786    620.833    620.833
 20.770    590.000    624.554    -34.554    620.293    621.515    623.332    620.293    620.293
 20.870    640.910    624.136     16.775    619.756    621.019    622.873    619.756    619.756
 20.970    593.571    623.773    -30.202    619.223    620.577    622.420    619.223    619.223
 21.070    643.839    623.380     20.458    618.695    620.101    621.973    618.695    618.695
 21.170    620.790    622.984     -2.194    618.170    619.619    621.534    618.170    618.170
 21.270    660.000    622.604     37.396    617.648    619.149    621.103    617.648    617.648
 21.370    609.000    622.208    -13.208    617.131    618.661    620.678    617.131    617.131
 21.470    591.049    621.825    -30.777    616.618    618.180    620.263    616.618    616.618
 21.570    583.122    621.453    -38.331    616.108    617.703    619.857    616.108    616.108
 21.670    622.212    621.087      1.124    615.602    617.233    619.456    615.602    615.602
 21.770    650.967    620.736     30.231    615.100    616.773    619.064    615.100    615.100
 21.870    631.000    620.389     10.611    614.602    616.312    618.679    614.602    614.602
 21.970    610.187    620.055     -9.867    614.108    615.858    618.304    614.108    614.108
 22.070    612.914    619.730     -6.816    613.617    615.409    617.937    613.617    613.617
 22.170    595.000    619.417    -24.417    613.130    614.967    617.580    613.130    613.130
 22.270    618.000    619.119     -1.119    612.647    614.532    617.233    612.647    612.647
 22.370    590.000    618.835    -28.835    612.168    614.106    616.896    612.168    612.168
 22.470    623.246    618.566      4.679    611.692    613.688    616.570    611.692    611.692
 22.570    599.810    618.315    -18.505    611.220    613.280    616.255    611.220    611.220
 22.670    645.480    618.083     27.397    610.752    612.884    615.951    610.752    610.752
 22.770    560.000    617.870    -57.870    610.288    612.499    615.659    610.288    610.288
 22.870    631.000    617.679     13.321    609.827    612.126    615.380    609.827    609.827
 22.970    605.263    617.515    -12.251    609.370    611.769    615.115    609.370    609.370
 23.070    602.000    617.382    -15.382    608.916    611.433    614.865    608.916    608.916
 23.170    583.668    617.273    -33.605    608.467    611.112    614.628    608.467    608.467
 23.270    586.000    617.197    -31.197    608.021    610.812    614.406    608.021    608.021
 23.370    617.000    617.161     -0.161    607.578    610.539    614.201    607.578    607.578
 23.470    668.921    617.171     51.750    607.140    610.298    614.013    607.140    607.140
 23.570    610.000    617.236     -7.236    606.705    610.098    613.843    606.705    606.705
 23.670    563.000    617.368    -54.368    606.273    609.949    613.693    606.273    606.273
 23.770    661.353    617.581     43.771    605.845    609.864    613.564    605.845    605.845
 23.870    562.000    617.899    -55.899    605.421    609.864    613.458    605.421    605.421
 23.970    614.000    618.353     -4.353    605.000    609.980    613.375    605.000    605.000
 24.070    602.706    618.998    -16.292    604.583    610.266    613.318    604.583    604.583
 24.170    644.000    619.942     24.058    604.170    610.827    613.288    604.170    604.170
 24.270    601.000    621.416    -20.416    603.760    611.892    613.288    603.760    603.760
 24.370    635.000    623.901     11.099    603.353    613.939    613.321    603.353    603.353
 24.470    644.000    628.264     15.736    602.950    617.834    613.389    602.950    602.950
 24.570    665.000    635.750     29.250    602.551    624.821    613.495    602.551    602.551
 24.670    683.392    647.562     35.830    602.155    636.097    613.643    602.155    602.155
 24.770    698.241    663.834     34.407    601.763    651.795    613.836    601.763    601.763
 24.870    649.288    682.038    -32.750    601.374    669.379    614.080    601.374    601.374
 24.970    660.000    695.695    -35.695    600.989    682.362    614.379    600.989    600.989
 25.070    734.000    697.294     36.706    600.607    683.219    614.739    600.607    600.607
 25.170    694.000    685.978      8.022    600.229    671.088    615.168    600.229    600.229
 25.270    657.000    668.772    -11.772    599.854    652.990    615.672    599.854    599.854
 25.370    683.914    652.814     31.101    599.482    636.059    616.261    599.482    599.482
 25.470    668.000    641.225     26.775    599.114    623.410    616.944    599.114    599.114
 25.570    641.000    634.172      6.828    598.749    615.195    617.736    598.749    598.749
 25.670    617.000    630.546    -13.546    598.388    610.291    618.649    598.388    598.388
 25.770    693.000    629.080     63.920    598.030    607.414    619.700    598.030    598.030
 25.870    673.000    628.863     44.137    597.676    605.631    620.910    597.676    597.676
 25.970    599.904    629.389    -29.485    597.325    604.413    622.302    597.325    597.325
 26.070    612.000    630.432    -18.432    596.977    603.505    623.904    596.977    596.977
 26.170    637.000    631.912      5.088    596.633    602.792    625.753    596.633    596.633
 26.270    639.000    633.816      5.184    596.292    602.218    627.889    596.292    596.292
 26.370    637.078    636.165      0.913    595.954    601.753    630.365    595.954    595.954
 26.470    629.000    639.008    -10.008    595.620    601.380    633.246    595.620    595.620
 26.570    650.000    642.426      7.574    595.289    601.095    636.617    595.289    595.289
 26.670    647.773    646.498      1.274    594.961    600.884    640.573    594.961    594.961
 26.770    613.000    651.362    -38.362    594.636    600.748    645.247    594.636    594.636
 26.870    702.000    657.197     44.803    594.315    600.695    650.814    594.315    594.315
 26.970    641.254    664.240    -22.985    593.997    600.733    657.499    593.997    593.997
 27.070    699.759    672.811     26.949    593.683    600.879    665.608    593.683    593.683
 27.170    685.000    683.349      1.651    593.371    601.156    675.558    593.371    593.371
 27.270    747.000    696.474     50.526    593.063    601.595    687.933    593.063    593.063
 27.370    726.000    713.071     12.929    592.758    602.247    703.572    592.758    592.758
 27.470    760.000    734.483     25.517    592.456    603.186    723.740    592.456    592.456
 27.570    763.000    763.000     -0.000    592.158    604.540    750.601    592.158    592.158
 27.670    791.000    803.718    -12.718    591.862    606.593    788.962    591.862    591.862
 27.770    879.715    871.389      8.326    591.570    610.161    852.756    591.570    591.570
 27.870    946.000   1010.293    -64.293    591.281    617.688    983.799    591.281    591.281
 27.970   1265.000   1331.203    -66.203    590.995    635.285   1286.724    590.995    590.995
 28.070   2121.848   2033.288     88.560    590.712    673.936   1949.689    590.712    590.712
 28.170   3259.305   3317.475    -58.170    590.433    744.733   3162.561    590.433    590.433
 28.270   5034.000   5125.001    -91.001    590.156    844.484   4869.896    590.156    590.156
 28.370   6831.000   6853.731    -22.731    589.883    940.118   6502.805    589.883    589.883
 28.470   7416.209   7492.362    -76.153    589.612    976.160   7105.453    589.612    589.612
 28.570   6655.468   6583.117     72.351    589.345    927.987   6244.406    589.345    589.345
 28.670   5075.000   4935.011    139.989    589.081    841.441   4682.685    589.081    589.081
 28.770   3683.000   3627.947     55.053    588.820    777.957   3438.807    588.820    588.820
 28.870   3151.216   3169.783    -18.567    588.562    767.098   2991.181    588.562    588.562
 28.970   3527.000   3461.698     65.302    588.307    802.388   3247.559    588.307    588.307
 29.070   4071.000   4016.426     54.573    588.055    850.985   3753.563    588.055    588.055
 29.170   4306.181   4213.919     92.262    587.806    868.575   3933.395    587.806    587.806
 29.270   3776.000   3736.263     39.737    587.560    832.316   3491.833    587.560    587.560
 29.370   2848.000   2862.611    -14.611    587.317    764.715   2685.500    587.317    587.317
 29.470   1863.000   2019.477   -156.477    587.077    699.296   1907.454    587.077    587.077
 29.570   1376.977   1418.917    -41.939    586.840    652.700   1353.167    586.840    586.840
 29.670   1083.000   1071.104     11.896    586.606    625.767   1031.998    586.606    586.606
 29.770    943.000    894.982     48.018    586.374    612.199    869.184    586.374    586.374
 29.870    876.000    808.222     67.778    586.146    605.593    788.788    586.146    586.146
 29.970    811.000    760.969     50.031    585.921    602.076    744.821    585.921    585.921
 30.070    795.000    730.836     64.164    585.698    599.922    716.616    585.698    585.698
 30.170    728.000    709.311     18.689    585.479    598.492    696.301    585.479    585.479
 30.270    718.000    693.154     24.846    585.262    597.572    680.845    585.262    585.262
 30.370    698.000    680.966     17.034    585.048    597.139    668.875    585.048    585.048
