neutron_powder_diffraction_0108
R_wp: 4.024
Temperature (K): 927.640
Counts: 83330.00
Wavelength (Ã…): 2.52098
COMMENTS
Test file for demonstrating the .xyy file format in Reel1.0
END OF HEADER
   tth       Y_obs     Y_calc      Y_res    Background    Phase_1_Nuc    Phase_1_Mag    Phase_2_Nuc    Phase_2_Mag
  9.970    618.000    557.775     60.225    556.802    557.670    556.802    556.907    556.802
 10.070    586.000    558.129     27.871    557.080    558.023    557.080    557.185    557.080
 10.170    575.000    558.484     16.516    557.349    558.377    557.349    557.455    557.349
 10.270    578.000    558.841     19.159    557.610    558.735    557.610    557.716    557.610
 10.370    627.000    559.206     67.794    557.863    559.099    557.863    557.969    557.863
 10.470    522.463    559.582    -37.120    558.108    559.474    558.108    558.215    558.108
 10.570    544.006    559.973    -15.967    558.344    559.865    558.344    558.452    558.344
 10.670    597.584    560.385     37.199    558.573    560.277    558.573    558.681    558.573
 10.770    559.000    560.827     -1.827    558.794    560.717    558.794    558.902    558.794
 10.870    557.000    561.308     -4.308    559.007    561.198    559.007    559.116    559.007
 10.970    595.894    561.844     34.051    559.213    561.733    559.213    559.322    559.213
 11.070    520.151    562.455    -42.304    559.410    562.344    559.410    559.520    559.410
 11.170    590.000    563.172     26.828    559.600    563.060    559.600    559.711    559.600
 11.270    550.000    564.041    -14.041    559.783    563.929    559.783    559.894    559.783
 11.370    528.127    565.144    -37.017    559.958    565.030    559.958    560.069    559.958
 11.470    558.000    566.649     -8.649    560.126    566.534    560.126    560.237    560.126
 11.570    604.000    568.984     35.016    560.286    568.867    560.286    560.398    560.286
 11.670    651.000    573.188     77.812    560.439    573.069    560.439    560.552    560.439
 11.770    545.556    581.435    -35.879    560.585    581.310    560.585    560.698    560.585
 11.870    645.000    597.021     47.979    560.724    596.887    560.724    560.837    560.724
 11.970    592.357    622.673    -30.316    560.856    622.523    560.856    560.970    560.856
 12.070    644.000    656.516    -12.516    560.980    656.347    560.980    561.095    560.980
 12.170    677.000    687.331    -10.331    561.098    687.145    561.098    561.213    561.098
 12.270    712.322    696.522     15.800    561.209    696.329    561.209    561.325    561.209
 12.370    713.000    676.355     36.645    561.313    676.173    561.313    561.429    561.313
 12.470    571.000    641.974    -70.974    561.410    641.811    561.410    561.527    561.410
 12.570    647.499    610.872     36.626    561.501    610.727    561.501    561.618    561.501
 12.670    583.000    589.874     -6.874    561.585    589.740    561.585    561.703    561.585
 12.770    548.000    578.163    -30.163    561.662    578.036    561.662    561.781    561.662
 12.870    582.000    572.317      9.683    561.733    572.192    561.733    561.852    561.733
 12.970    538.000    569.391    -31.391    561.798    569.267    561.798    561.917    561.798
 13.070    601.290    567.748     33.541    561.856    567.625    561.856    561.976    561.856
 13.170    565.000    566.685     -1.685    561.908    566.562    561.908    562.028    561.908
 13.270    592.000    565.929     26.071    561.953    565.806    561.953    562.074    561.953
 13.370    530.000    565.364    -35.364    561.993    565.241    561.993    562.114    561.993
 13.470    558.000    564.929     -6.929    562.026    564.805    562.026    562.148    562.026
 13.570    553.159    564.586    -11.427    562.053    564.462    562.053    562.176    562.053
 13.670    522.000    564.311    -42.311    562.074    564.186    562.074    562.198    562.074
 13.770    573.631    564.084      9.547    562.090    563.959    562.090    562.214    562.090
 13.870    553.000    563.895    -10.895    562.099    563.769    562.099    562.224    562.099
 13.970    596.358    563.732     32.626    562.103    563.606    562.103    562.228    562.103
 14.070    580.351    563.591     16.761    562.100    563.464    562.100    562.226    562.100
 14.170    541.000    563.465    -22.465    562.092    563.338    562.092    562.219    562.092
 14.270    560.000    563.353     -3.353    562.079    563.225    562.079    562.206    562.079
 14.370    562.843    563.247     -0.405    562.060    563.119    562.060    562.187    562.060
 14.470    576.000    563.148     12.852    562.035    563.019    562.035    562.163    562.035
 14.570    523.256    563.052    -39.796    562.005    562.923    562.005    562.134    562.005
 14.670    562.000    562.959     -0.959    561.969    562.829    561.969    562.099    561.969
 14.770    563.000    562.868      0.132    561.928    562.737    561.928    562.059    561.928
 14.870    567.000    562.778      4.222    561.882    562.646    561.882    562.013    561.882
 14.970    542.504    562.687    -20.183    561.831    562.555    561.831    561.962    561.831
 15.070    551.000    562.595    -11.595    561.774    562.463    561.774    561.906    561.774
 15.170    545.000    562.503    -17.503    561.712    562.369    561.712    561.845    561.712
 15.270    590.000    562.408     27.592    561.645    562.274    561.645    561.779    561.645
 15.370    575.000    562.312     12.688    561.573    562.177    561.573    561.708    561.573
 15.470    509.000    562.213    -53.213    561.496    562.078    561.496    561.632    561.496
 15.570    585.000    562.112     22.888    561.415    561.975    561.415    561.551    561.415
 15.670    583.000    562.007     20.993    561.328    561.870    561.328    561.465    561.328
 15.770    531.000    561.900    -30.900    561.237    561.762    561.237    561.374    561.237
 15.870    550.000    561.795    -11.795    561.141    561.657    561.141    561.279    561.141
 15.970    620.000    561.741     58.259    561.040    561.601    561.040    561.179    561.040
 16.070    557.221    561.694     -4.473    560.934    561.554    560.934    561.074    560.934
 16.170    534.821    561.581    -26.760    560.824    561.440    560.824    560.965    560.824
 16.270    556.505    561.458     -4.952    560.710    561.316    560.710    560.851    560.710
 16.370    559.000    561.331     -2.331    560.590    561.188    560.590    560.733    560.590
 16.470    567.000    561.201      5.799    560.467    561.057    560.467    560.610    560.467
 16.570    574.832    561.067     13.765    560.339    560.923    560.339    560.483    560.339
 16.670    542.000    560.929    -18.929    560.207    560.784    560.207    560.352    560.207
 16.770    570.687    560.790      9.897    560.070    560.644    560.070    560.216    560.070
 16.870    527.000    560.661    -33.661    559.930    560.514    559.930    560.076    559.930
 16.970    562.317    560.527      1.791    559.785    560.379    559.785    559.933    559.785
 17.070    552.072    560.377     -8.305    559.636    560.228    559.636    559.785    559.636
 17.170    516.000    560.222    -44.222    559.483    560.073    559.483    559.632    559.483
 17.270    524.000    560.064    -36.064    559.326    559.914    559.326    559.476    559.326
 17.370    536.000    559.902    -23.902    559.165    559.751    559.165    559.316    559.165
 17.470    572.000    559.737     12.263    559.000    559.585    559.000    559.152    559.000
 17.570    539.602    559.569    -19.967    558.831    559.416    558.831    558.985    558.831
 17.670    547.211    559.397    -12.186    558.659    559.243    558.659    558.813    558.659
 17.770    557.000    559.222     -2.222    558.482    559.067    558.482    558.638    558.482
 17.870    560.000    559.044      0.956    558.302    558.887    558.302    558.459    558.302
 17.970    571.000    558.862     12.138    558.119    558.705    558.119    558.276    558.119
 18.070    530.000    558.677    -28.677    557.931    558.519    557.931    558.090    557.931
 18.170    524.000    558.491    -34.491    557.740    558.331    557.740    557.900    557.740
 18.270    544.000    558.303    -14.303    557.546    558.142    557.546    557.707    557.546
 18.370    538.000    558.109    -20.109    557.348    557.947    557.348    557.510    557.348
 18.470    528.000    557.912    -29.912    557.147    557.749    557.147    557.310    557.147
 18.570    570.118    557.712     12.407    556.942    557.547    556.942    557.106    556.942
 18.670    548.000    557.508     -9.508    556.734    557.343    556.734    556.900    556.734
 18.770    561.000    557.302      3.698    556.523    557.136    556.523    556.690    556.523
 18.870    576.869    557.093     19.776    556.308    556.926    556.308    556.476    556.308
 18.970    539.016    556.882    -17.866    556.091    556.713    556.091    556.260    556.091
 19.070    548.000    556.673     -8.673    555.870    556.502    555.870    556.040    555.870
 19.170    474.000    556.512    -82.512    555.646    556.341    555.646    555.818    555.646
 19.270    591.462    556.308     35.154    555.419    556.135    555.419    555.592    555.419
 19.370    559.000    556.092      2.908    555.189    555.917    555.189    555.363    555.189
 19.470    571.000    555.874     15.126    554.956    555.698    554.956    555.132    554.956
 19.570    559.495    555.648      3.847    554.720    555.471    554.720    554.897    554.720
 19.670    563.791    555.419      8.372    554.481    555.240    554.481    554.660    554.481
 19.770    541.436    555.191    -13.755    554.239    555.011    554.239    554.420    554.239
 19.870    595.261    554.995     40.267    553.995    554.813    553.995    554.177    553.995
 19.970    547.852    554.776     -6.924    553.748    554.593    553.748    553.931    553.748
 20.070    515.000    554.540    -39.540    553.498    554.355    553.498    553.683    553.498
 20.170    588.226    554.300     33.926    553.246    554.114    553.246    553.432    553.246
 20.270    554.409    554.059      0.351    552.990    553.870    552.990    553.179    552.990
 20.370    554.315    553.815      0.500    552.733    553.625    552.733    552.923    552.733
 20.470    552.000    553.570     -1.570    552.473    553.378    552.473    552.664    552.473
 20.570    565.000    553.323     11.677    552.210    553.129    552.210    552.403    552.210
 20.670    532.448    553.074    -20.626    551.945    552.879    551.945    552.140    551.945
 20.770    592.816    552.824     39.992    551.677    552.627    551.677    551.874    551.677
 20.870    538.000    552.572    -14.572    551.407    552.373    551.407    551.606    551.407
 20.970    531.800    552.320    -20.520    551.135    552.119    551.135    551.336    551.135
 21.070    550.000    552.066     -2.066    550.861    551.863    550.861    551.064    550.861
 21.170    555.990    551.812      4.178    550.584    551.607    550.584    550.789    550.584
 21.270    537.000    551.566    -14.566    550.305    551.359    550.305    550.512    550.305
 21.370    548.000    551.324     -3.324    550.024    551.114    550.024    550.233    550.024
 21.470    564.000    551.068     12.932    549.741    550.856    549.741    549.952    549.741
 21.570    549.000    550.811     -1.811    549.455    550.597    549.455    549.669    549.455
 21.670    533.359    550.553    -17.195    549.168    550.337    549.168    549.385    549.168
 21.770    582.000    550.298     31.702    548.879    550.079    548.879    549.098    548.879
 21.870    568.665    550.063     18.602    548.587    549.842    548.587    548.809    548.587
 21.970    535.000    549.840    -14.840    548.294    549.616    548.294    548.518    548.294
 22.070    527.669    549.590    -21.921    547.999    549.364    547.999    548.226    547.999
 22.170    549.000    549.342     -0.342    547.702    549.112    547.702    547.932    547.702
 22.270    569.035    549.113     19.922    547.403    548.881    547.403    547.636    547.403
 22.370    565.757    548.872     16.886    547.103    548.636    547.103    547.339    547.103
 22.470    532.000    548.635    -16.635    546.801    548.396    546.801    547.039    546.801
 22.570    565.000    548.402     16.598    546.497    548.161    546.497    546.739    546.497
 22.670    552.000    548.194      3.806    546.191    547.949    546.191    546.436    546.191
 22.770    535.000    548.001    -13.001    545.884    547.753    545.884    546.133    545.884
 22.870    524.053    547.784    -23.731    545.575    547.532    545.575    545.827    545.575
 22.970    535.000    547.574    -12.574    545.265    547.318    545.265    545.521    545.265
 23.070    541.000    547.376     -6.376    544.953    547.117    544.953    545.213    544.953
 23.170    579.205    547.195     32.010    544.640    546.932    544.640    544.903    544.640
 23.270    578.572    547.050     31.522    544.325    546.784    544.325    544.593    544.325
 23.370    573.268    546.964     26.304    544.009    546.693    544.009    544.281    544.009
 23.470    548.000    546.868      1.132    543.691    546.593    543.691    543.968    543.691
 23.570    526.000    546.815    -20.815    543.373    546.535    543.373    543.653    543.373
 23.670    516.489    546.821    -30.332    543.052    546.536    543.052    543.338    543.052
 23.770    562.390    546.895     15.495    542.731    546.606    542.731    543.022    542.731
 23.870    547.000    547.077     -0.077    542.408    546.783    542.408    542.704    542.408
 23.970    576.000    547.423     28.577    542.085    547.124    542.085    542.386    542.085
 24.070    562.000    548.054     13.946    541.760    547.750    541.760    542.067    541.760
 24.170    563.000    549.252     13.748    541.433    548.943    541.433    541.747    541.433
 24.270    596.000    551.702     44.298    541.106    551.389    541.106    541.426    541.106
 24.370    550.026    556.810     -6.784    540.778    556.494    540.778    541.104    540.778
 24.470    589.250    566.669     22.581    540.449    566.353    540.449    540.782    540.449
 24.570    624.124    583.016     41.109    540.118    582.704    540.118    540.459    540.118
 24.670    617.000    604.808     12.192    539.787    604.504    539.787    540.135    539.787
 24.770    607.361    625.294    -17.933    539.455    624.997    539.455    539.811    539.455
 24.870    643.000    632.481     10.519    539.122    632.181    539.122    539.487    539.122
 24.970    614.374    620.238     -5.864    538.788    619.920    538.788    539.162    538.788
 25.070    592.061    597.606     -5.545    538.453    597.263    538.453    538.836    538.453
 25.170    596.904    576.213     20.692    538.118    575.845    538.118    538.511    538.118
 25.270    519.829    561.115    -41.286    537.781    560.725    537.781    538.185    537.781
 25.370    568.000    552.258     15.742    537.444    551.852    537.444    537.859    537.444
 25.470    579.000    547.582     31.418    537.107    547.160    537.107    537.534    537.107
 25.570    543.000    545.102     -2.102    536.768    544.665    536.768    537.208    536.768
 25.670    569.772    543.627     26.145    536.429    543.176    536.429    536.883    536.429
 25.770    532.000    542.614    -10.614    536.089    542.147    536.089    536.558    536.089
 25.870    574.347    541.847     32.500    535.749    541.365    535.749    536.233    535.749
 25.970    525.000    541.239    -16.239    535.408    540.740    535.408    535.909    535.408
 26.070    522.406    540.748    -18.342    535.067    540.230    535.067    535.586    535.067
 26.170    551.000    540.348     10.652    534.725    539.810    534.725    535.263    534.725
 26.270    501.048    540.025    -38.978    534.382    539.467    534.382    534.942    534.382
 26.370    561.000    539.773     21.227    534.040    539.192    534.040    534.621    534.040
 26.470    525.040    539.588    -14.548    533.696    538.982    533.696    534.303    533.696
 26.570    563.398    539.470     23.929    533.353    538.837    533.353    533.986    533.353
 26.670    517.701    539.424    -21.723    533.009    538.762    533.009    533.671    533.009
 26.770    545.000    539.460      5.540    532.665    538.767    532.665    533.358    532.665
 26.870    573.000    539.591     33.409    532.320    538.864    532.320    533.048    532.320
 26.970    561.029    539.839     21.190    531.975    539.073    531.975    532.740    531.975
 27.070    583.799    540.234     43.565    531.630    539.426    531.630    532.437    531.630
 27.170    571.000    540.816     30.184    531.285    539.963    531.285    532.137    531.285
 27.270    566.000    541.650     24.350    530.939    540.745    530.939    531.843    530.939
 27.370    556.910    542.833     14.077    530.594    541.872    530.594    531.554    530.594
 27.470    573.000    544.549     28.452    530.248    543.524    530.248    531.271    530.248
 27.570    547.000    547.251     -0.251    529.902    546.155    529.902    530.996    529.902
 27.670    571.000    552.329     18.671    529.556    551.151    529.556    530.729    529.556
 27.770    559.066    563.733     -4.667    529.210    562.461    529.210    530.473    529.210
 27.870    634.167    590.145     44.022    528.864    588.761    528.864    530.229    528.864
 27.970    664.510    644.081     20.429    528.518    642.562    528.518    530.000    528.518
 28.070    723.000    732.182     -9.182    528.172    730.503    528.172    529.788    528.172
 28.170    803.435    837.714    -34.279    527.826    835.859    527.826    529.595    527.826
 28.270    915.127    911.676      3.451    527.480    909.641    527.480    529.426    527.480
 28.370    907.000    905.981      1.019    527.134    903.767    527.134    529.283    527.134
 28.470    866.000    832.660     33.340    526.788    830.240    526.788    529.172    526.788
 28.570    760.543    751.752      8.791    526.442    749.079    526.442    529.096    526.442
 28.670    665.000    712.682    -47.682    526.097    709.703    526.097    529.060    526.097
 28.770    735.000    727.747      7.253    525.752    724.410    525.752    529.068    525.752
 28.870    815.967    775.469     40.498    525.407    771.731    525.407    529.123    525.407
 28.970    782.000    812.383    -30.383    525.062    808.205    525.062    529.225    525.062
 29.070    880.000    800.635     79.365    524.717    795.980    524.717    529.372    524.717
 29.170    730.144    743.186    -13.043    524.373    738.015    524.373    529.554    524.373
 29.270    652.000    672.699    -20.699    524.029    666.989    524.029    529.750    524.029
 29.370    629.000    615.597     13.403    523.685    609.361    523.685    529.931    523.685
 29.470    619.997    579.657     40.340    523.342    572.950    523.342    530.054    523.342
 29.570    546.056    560.666    -14.610    522.999    553.598    522.999    530.070    522.999
 29.670    598.000    551.423     46.577    522.657    544.147    522.657    529.934    522.657
 29.770    559.329    546.647     12.682    522.315    539.346    522.315    529.617    522.315
 29.870    578.111    543.685     34.426    521.973    536.544    521.973    529.114    521.973
 29.970    603.000    541.507     61.493    521.632    534.689    521.632    528.451    521.632
 30.070    567.000    539.791     27.209    521.291    533.414    521.291    527.668    521.291
 30.170    551.000    538.484     12.516    520.951    532.618    520.951    526.816    520.951
 30.270    544.000    537.707      6.293    520.611    532.378    520.611    525.939    520.611
 30.370    532.298    537.842     -5.544    520.272    533.041    520.272    525.071    520.272
