neutron_powder_diffraction_0231
R_wp: 3.947
Temperature (K): 1056.227
Counts: 83885.00
Wavelength (Ã…): 2.52098
COMMENTS
Test file for demonstrating the .xyy file format in Reel1.0
END OF HEADER
   tth       Y_obs     Y_calc      Y_res    Background    Phase_1_Nuc    Phase_1_Mag    Phase_2_Nuc    Phase_2_Mag
  9.970    617.000    570.699     46.301    570.119    570.670    570.119    570.148    570.119
 10.070    579.000    570.794      8.206    570.164    570.764    570.164    570.193    570.164
 10.170    603.169    570.890     32.280    570.204    570.860    570.204    570.234    570.204
 10.270    593.000    570.990     22.010    570.240    570.960    570.240    570.269    570.240
 10.370    541.980    571.095    -29.115    570.269    571.065    570.269    570.299    570.269
 10.470    576.000    571.210      4.790    570.294    571.179    570.294    570.324    570.294
 10.570    614.649    571.349     43.300    570.314    571.319    570.314    570.344    570.314
 10.670    584.000    571.492     12.508    570.329    571.462    570.329    570.359    570.329
 10.770    532.000    571.653    -39.653    570.339    571.622    570.339    570.369    570.339
 10.870    586.000    571.843     14.157    570.344    571.810    570.344    570.375    570.344
 10.970    571.000    572.071     -1.071    570.344    572.038    570.344    570.376    570.344
 11.070    537.233    572.353    -35.120    570.339    572.319    570.339    570.372    570.339
 11.170    562.000    572.712    -10.712    570.329    572.678    570.329    570.362    570.329
 11.270    597.000    573.182     23.818    570.315    573.147    570.315    570.348    570.315
 11.370    529.052    573.820    -44.769    570.296    573.785    570.296    570.330    570.296
 11.470    597.000    574.750     22.250    570.273    574.714    570.273    570.306    570.273
 11.570    557.351    576.322    -18.970    570.244    576.284    570.244    570.279    570.244
 11.670    632.000    579.598     52.402    570.212    579.556    570.212    570.248    570.212
 11.770    656.000    587.256     68.744    570.175    587.200    570.175    570.221    570.175
 11.870    659.000    603.959     55.041    570.133    603.891    570.133    570.183    570.133
 11.970    625.721    633.850     -8.130    570.087    633.765    570.087    570.137    570.087
 12.070    646.000    673.619    -27.619    570.037    673.511    570.037    570.087    570.037
 12.170    702.000    705.891     -3.891    569.982    705.764    569.982    570.033    569.982
 12.270    660.000    707.876    -47.876    569.923    707.748    569.923    569.974    569.923
 12.370    721.451    677.698     43.753    569.860    677.587    569.860    569.911    569.860
 12.470    583.000    637.382    -54.382    569.793    637.293    569.793    569.844    569.793
 12.570    637.000    605.920     31.080    569.722    605.848    569.722    569.774    569.722
 12.670    567.885    587.883    -19.998    569.646    587.816    569.646    569.704    569.646
 12.770    568.000    579.465    -11.465    569.567    579.401    569.567    569.626    569.567
 12.870    580.719    575.812      4.906    569.483    575.750    569.483    569.543    569.483
 12.970    588.000    574.031     13.969    569.396    573.969    569.396    569.455    569.396
 13.070    537.000    572.949    -35.949    569.305    572.887    569.305    569.364    569.305
 13.170    517.000    572.178    -55.178    569.210    572.116    569.210    569.270    569.210
 13.270    545.525    571.583    -26.058    569.111    571.521    569.111    569.171    569.111
 13.370    562.000    571.105     -9.105    569.008    571.043    569.008    569.069    569.008
 13.470    548.000    570.707    -22.707    568.901    570.645    568.901    568.962    568.901
 13.570    555.000    570.367    -15.367    568.791    570.305    568.791    568.853    568.791
 13.670    554.000    570.068    -16.068    568.677    570.006    568.677    568.739    568.677
 13.770    612.416    569.800     42.616    568.560    569.737    568.560    568.622    568.560
 13.870    607.000    569.555     37.445    568.439    569.492    568.439    568.501    568.439
 13.970    569.000    569.326     -0.326    568.315    569.263    568.315    568.377    568.315
 14.070    552.000    569.111    -17.111    568.187    569.048    568.187    568.250    568.187
 14.170    600.000    568.906     31.094    568.055    568.842    568.055    568.119    568.055
 14.270    583.000    568.707     14.293    567.921    568.643    567.921    567.984    567.921
 14.370    605.027    568.515     36.512    567.782    568.450    567.782    567.847    567.782
 14.470    532.000    568.326    -36.326    567.641    568.261    567.641    567.706    567.641
 14.570    575.589    568.140      7.449    567.496    568.075    567.496    567.561    567.496
 14.670    535.000    567.956    -32.956    567.348    567.891    567.348    567.414    567.348
 14.770    583.175    567.774     15.401    567.197    567.708    567.197    567.263    567.197
 14.870    553.000    567.595    -14.595    567.043    567.525    567.043    567.112    567.043
 14.970    550.000    567.413    -17.413    566.886    567.343    566.886    566.956    566.886
 15.070    561.294    567.232     -5.938    566.725    567.160    566.725    566.797    566.725
 15.170    538.000    567.049    -29.049    566.562    566.977    566.562    566.634    566.562
 15.270    539.068    566.868    -27.800    566.395    566.795    566.395    566.468    566.395
 15.370    561.699    566.685     -4.987    566.226    566.611    566.226    566.299    566.226
 15.470    536.000    566.499    -30.499    566.054    566.425    566.054    566.128    566.054
 15.570    560.000    566.312     -6.312    565.878    566.237    565.878    565.953    565.878
 15.670    544.000    566.122    -22.122    565.700    566.047    565.700    565.775    565.700
 15.770    555.000    565.932    -10.932    565.519    565.856    565.519    565.595    565.519
 15.870    607.000    565.739     41.261    565.336    565.663    565.336    565.412    565.336
 15.970    533.000    565.545    -32.545    565.149    565.468    565.149    565.226    565.149
 16.070    539.000    565.349    -26.349    564.960    565.272    564.960    565.037    564.960
 16.170    559.000    565.153     -6.153    564.769    565.076    564.769    564.846    564.769
 16.270    580.000    564.954     15.046    564.574    564.876    564.574    564.652    564.574
 16.370    568.000    564.752      3.248    564.378    564.673    564.378    564.456    564.378
 16.470    580.407    564.548     15.859    564.178    564.469    564.178    564.257    564.178
 16.570    608.564    564.342     44.222    563.976    564.263    563.976    564.056    563.976
 16.670    604.000    564.135     39.865    563.772    564.055    563.772    563.852    563.772
 16.770    573.000    563.925      9.075    563.565    563.845    563.565    563.645    563.565
 16.870    538.000    563.713    -25.713    563.356    563.632    563.356    563.437    563.356
 16.970    536.767    563.500    -26.733    563.144    563.418    563.144    563.226    563.144
 17.070    598.914    563.284     35.630    562.931    563.202    562.931    563.012    562.931
 17.170    580.531    563.067     17.464    562.714    562.984    562.714    562.797    562.714
 17.270    563.000    562.849      0.151    562.496    562.765    562.496    562.581    562.496
 17.370    524.463    562.628    -38.166    562.275    562.543    562.275    562.361    562.275
 17.470    525.575    562.405    -36.830    562.053    562.319    562.053    562.139    562.053
 17.570    539.186    562.180    -22.995    561.828    562.094    561.828    561.914    561.828
 17.670    555.000    561.954     -6.954    561.601    561.867    561.601    561.688    561.601
 17.770    578.000    561.725     16.275    561.371    561.637    561.371    561.459    561.371
 17.870    553.000    561.495     -8.495    561.140    561.407    561.140    561.229    561.140
 17.970    586.000    561.265     24.735    560.907    561.176    560.907    560.996    560.907
 18.070    539.000    561.032    -22.032    560.672    560.942    560.672    560.761    560.672
 18.170    544.097    560.797    -16.699    560.435    560.706    560.435    560.525    560.435
 18.270    560.000    560.560     -0.560    560.196    560.469    560.196    560.287    560.196
 18.370    556.000    560.321     -4.321    559.955    560.229    559.955    560.046    559.955
 18.470    542.000    560.081    -18.081    559.712    559.988    559.712    559.804    559.712
 18.570    545.986    559.839    -13.853    559.467    559.746    559.467    559.560    559.467
 18.670    550.911    559.596     -8.685    559.221    559.502    559.221    559.315    559.221
 18.770    599.482    559.351     40.131    558.973    559.257    558.973    559.067    558.973
 18.870    528.000    559.105    -31.105    558.723    559.010    558.723    558.818    558.723
 18.970    556.657    558.857     -2.200    558.472    558.761    558.472    558.568    558.472
 19.070    576.989    558.608     18.381    558.218    558.511    558.218    558.315    558.218
 19.170    591.980    558.358     33.622    557.964    558.260    557.964    558.062    557.964
 19.270    538.000    558.111    -20.111    557.707    558.008    557.707    557.810    557.707
 19.370    545.000    557.860    -12.860    557.449    557.754    557.449    557.556    557.449
 19.470    592.963    557.607     35.356    557.190    557.500    557.190    557.298    557.190
 19.570    574.000    557.353     16.647    556.929    557.244    556.929    557.038    556.929
 19.670    557.883    557.097      0.786    556.667    556.987    556.667    556.776    556.667
 19.770    549.000    556.839     -7.839    556.403    556.729    556.403    556.513    556.403
 19.870    563.712    556.580      7.132    556.138    556.469    556.138    556.249    556.138
 19.970    586.723    556.321     30.402    555.871    556.209    555.871    555.983    555.871
 20.070    557.174    556.061      1.113    555.603    555.948    555.603    555.716    555.603
 20.170    586.851    555.800     31.051    555.334    555.686    555.334    555.448    555.334
 20.270    546.000    555.538     -9.538    555.063    555.422    555.063    555.179    555.063
 20.370    589.787    555.275     34.512    554.791    555.159    554.791    554.908    554.791
 20.470    593.527    555.023     38.505    554.518    554.905    554.518    554.636    554.518
 20.570    546.000    554.770     -8.770    554.244    554.651    554.244    554.363    554.244
 20.670    593.670    554.506     39.164    553.969    554.386    553.969    554.088    553.969
 20.770    579.000    554.240     24.760    553.692    554.119    553.692    553.813    553.692
 20.870    545.000    553.975     -8.975    553.414    553.852    553.414    553.537    553.414
 20.970    520.815    553.708    -32.894    553.136    553.585    553.136    553.259    553.136
 21.070    531.000    553.442    -22.442    552.856    553.317    552.856    552.981    552.856
 21.170    554.000    553.175      0.825    552.575    553.049    552.575    552.701    552.575
 21.270    570.000    552.908     17.092    552.293    552.781    552.293    552.421    552.293
 21.370    547.849    552.642     -4.792    552.010    552.513    552.010    552.139    552.010
 21.470    560.466    552.375      8.091    551.727    552.245    551.727    551.857    551.727
 21.570    587.000    552.109     34.891    551.442    551.977    551.442    551.574    551.442
 21.670    531.000    551.843    -20.843    551.157    551.710    551.157    551.290    551.157
 21.770    529.560    551.578    -22.018    550.870    551.443    550.870    551.005    550.870
 21.870    530.945    551.314    -20.369    550.583    551.177    550.583    550.719    550.583
 21.970    487.000    551.050    -64.050    550.295    550.912    550.295    550.433    550.295
 22.070    514.147    550.788    -36.641    550.006    550.649    550.006    550.146    550.006
 22.170    549.452    550.528     -1.076    549.716    550.387    549.716    549.858    549.716
 22.270    522.000    550.270    -28.270    549.426    550.127    549.426    549.570    549.426
 22.370    527.360    550.016    -22.656    549.135    549.871    549.135    549.280    549.135
 22.470    523.000    549.782    -26.782    548.843    549.634    548.843    548.991    548.843
 22.570    545.967    549.568     -3.602    548.551    549.419    548.551    548.700    548.551
 22.670    552.000    549.390      2.610    548.258    549.238    548.258    548.409    548.258
 22.770    589.833    549.189     40.644    547.964    549.036    547.964    548.118    547.964
 22.870    545.816    548.961     -3.145    547.670    548.806    547.670    547.826    547.670
 22.970    552.000    548.741      3.259    547.376    548.583    547.376    547.534    547.376
 23.070    543.000    548.527     -5.527    547.080    548.366    547.080    547.241    547.080
 23.170    548.000    548.330     -0.330    546.785    548.165    546.785    546.950    546.785
 23.270    537.000    548.183    -11.183    546.488    548.015    546.488    546.658    546.488
 23.370    569.748    548.038     21.710    546.192    547.866    546.192    546.364    546.192
 23.470    569.000    547.898     21.102    545.894    547.724    545.894    546.070    545.894
 23.570    518.000    547.790    -29.790    545.597    547.613    545.597    545.775    545.597
 23.670    569.318    547.727     21.591    545.299    547.547    545.299    545.480    545.299
 23.770    592.000    547.727     44.273    545.001    547.543    545.001    545.185    545.001
 23.870    539.000    547.817     -8.817    544.702    547.631    544.702    544.890    544.702
 23.970    512.000    548.041    -36.041    544.403    547.852    544.403    544.595    544.403
 24.070    539.000    548.513     -9.513    544.104    548.320    544.104    544.299    544.104
 24.170    568.000    549.557     18.443    543.804    549.361    543.804    544.004    543.804
 24.270    586.000    552.085     33.915    543.505    551.887    543.505    543.708    543.505
 24.370    542.000    558.117    -16.117    543.205    557.919    543.205    543.412    543.205
 24.470    575.658    570.632      5.026    542.905    570.438    542.905    543.117    542.905
 24.570    579.256    591.383    -12.127    542.604    591.200    542.604    542.821    542.604
 24.670    584.031    616.608    -32.578    542.304    616.439    542.304    542.526    542.304
 24.770    646.393    634.145     12.249    542.003    633.983    542.003    542.231    542.003
 24.870    583.000    631.260    -48.260    541.702    631.090    541.702    541.936    541.702
 24.970    597.000    610.257    -13.257    541.402    610.067    541.402    541.641    541.402
 25.070    641.000    584.915     56.085    541.101    584.700    541.101    541.346    541.101
 25.170    571.900    565.480      6.420    540.800    565.244    540.800    541.052    540.800
 25.270    553.000    554.117     -1.117    540.499    553.866    540.499    540.758    540.499
 25.370    565.630    548.545     17.085    540.198    548.282    540.198    540.465    540.198
 25.470    550.000    545.939      4.061    539.897    545.666    539.897    540.172    539.897
 25.570    536.000    544.565     -8.565    539.596    544.283    539.596    539.880    539.596
 25.670    555.000    543.693     11.307    539.295    543.401    539.295    539.588    539.295
 25.770    559.706    543.047     16.659    538.994    542.744    538.994    539.298    538.994
 25.870    603.000    542.537     60.463    538.693    542.224    538.693    539.008    538.693
 25.970    550.000    542.109      7.891    538.393    541.784    538.393    538.719    538.393
 26.070    613.000    541.742     71.258    538.092    541.404    538.092    538.431    538.092
 26.170    568.000    541.433     26.567    537.792    541.082    537.792    538.144    537.792
 26.270    553.186    541.177     12.010    537.492    540.810    537.492    537.859    537.492
 26.370    508.009    540.969    -32.961    537.192    540.587    537.192    537.575    537.192
 26.470    579.168    540.809     38.359    536.892    540.409    536.892    537.293    536.892
 26.570    583.000    540.696     42.304    536.593    540.277    536.593    537.012    536.593
 26.670    545.451    540.634      4.817    536.293    540.193    536.293    536.734    536.293
 26.770    577.000    540.632     36.368    535.994    540.169    535.994    536.458    535.994
 26.870    506.618    540.704    -34.086    535.696    540.215    535.696    536.185    535.696
 26.970    561.000    540.867     20.133    535.397    540.349    535.397    535.915    535.397
 27.070    541.907    541.144      0.763    535.099    540.594    535.099    535.648    535.099
 27.170    539.000    541.573     -2.573    534.802    540.988    534.802    535.385    534.802
 27.270    573.000    542.225     30.775    534.504    541.601    534.504    535.127    534.504
 27.370    586.000    543.167     42.833    534.207    542.498    534.207    534.875    534.207
 27.470    501.946    544.516    -42.570    533.911    543.796    533.911    534.628    533.911
 27.570    536.642    546.679    -10.036    533.614    545.902    533.614    534.389    533.614
 27.670    590.000    550.936     39.064    533.319    550.092    533.319    534.159    533.319
 27.770    561.000    561.794     -0.794    533.023    560.871    533.023    533.940    533.023
 27.870    588.000    590.822     -2.822    532.729    589.802    532.729    533.732    532.729
 27.970    641.000    656.425    -15.425    532.434    655.282    532.434    533.541    532.434
 28.070    736.000    767.538    -31.538    532.140    766.243    532.140    533.368    532.140
 28.170    933.058    893.735     39.323    531.847    892.270    531.847    533.219    531.847
 28.270    995.309    958.429     36.879    531.554    956.793    531.554    533.100    531.554
 28.370    904.940    908.851     -3.912    531.262    907.040    531.262    533.020    531.262
 28.470    793.000    796.207     -3.207    530.970    794.169    530.970    532.991    530.970
 28.570    672.000    706.773    -34.773    530.679    704.417    530.679    533.032    530.679
 28.670    715.000    686.889     28.111    530.389    684.094    530.389    533.177    530.389
 28.770    697.529    733.493    -35.964    530.099    730.090    530.099    533.486    530.099
 28.870    804.566    806.304     -1.739    529.809    802.025    529.809    534.069    529.809
 28.970    765.000    842.875    -77.875    529.521    837.272    529.521    535.113    529.521
 29.070    784.000    804.550    -20.550    529.233    796.892    529.233    536.898    529.233
 29.170    699.000    722.647    -23.647    528.945    711.834    528.945    539.775    528.945
 29.270    640.000    647.663     -7.663    528.659    632.271    528.659    544.067    528.659
 29.370    612.000    602.690      9.310    528.373    581.209    528.373    549.863    528.373
 29.470    629.852    584.571     45.281    528.088    555.992    528.088    556.670    528.088
 29.570    640.000    580.386     59.614    527.803    545.312    527.803    562.877    527.803
 29.670    606.000    578.919     27.081    527.519    540.662    527.519    565.775    527.519
 29.770    599.000    574.511     24.489    527.236    538.185    527.236    563.561    527.236
 29.870    571.000    567.024      3.976    526.954    536.560    526.954    557.417    526.954
 29.970    547.000    558.772    -11.772    526.673    535.410    526.673    550.034    526.673
 30.070    540.759    551.553    -10.794    526.392    534.608    526.392    543.335    526.392
 30.170    530.000    546.087    -16.087    526.112    534.128    526.112    538.069    526.112
 30.270    571.570    542.498     29.071    525.833    534.061    525.833    534.268    525.833
 30.370    517.959    540.912    -22.953    525.555    534.811    525.555    531.653    525.555
