neutron_powder_diffraction_0234
R_wp: 4.054
Temperature (K): 1035.023
Counts: 84436.00
Wavelength (Ã…): 2.52098
COMMENTS
Test file for demonstrating the .xyy file format in Reel1.0
END OF HEADER
   tth       Y_obs     Y_calc      Y_res    Background    Phase_1_Nuc    Phase_1_Mag    Phase_2_Nuc    Phase_2_Mag
  9.970    563.964    578.003    -14.040    577.431    577.980    577.431    577.454    577.431
 10.070    600.000    577.985     22.015    577.365    577.962    577.365    577.388    577.365
 10.170    577.000    577.970     -0.970    577.293    577.946    577.293    577.317    577.293
 10.270    628.000    577.960     50.040    577.218    577.936    577.218    577.242    577.218
 10.370    573.921    577.970     -4.049    577.139    577.946    577.139    577.163    577.139
 10.470    613.000    577.979     35.021    577.056    577.955    577.056    577.079    577.056
 10.570    586.000    577.996      8.004    576.969    577.972    576.969    576.992    576.969
 10.670    588.000    578.028      9.972    576.877    578.004    576.877    576.901    576.877
 10.770    597.556    578.082     19.474    576.782    578.058    576.782    576.806    576.782
 10.870    555.730    578.165    -22.436    576.683    578.141    576.683    576.708    576.683
 10.970    568.000    578.288    -10.288    576.581    578.263    576.581    576.605    576.581
 11.070    566.000    578.466    -12.466    576.474    578.440    576.474    576.499    576.474
 11.170    612.000    578.720     33.280    576.364    578.694    576.364    576.389    576.364
 11.270    623.000    579.084     43.916    576.250    579.058    576.250    576.275    576.250
 11.370    592.000    579.615     12.385    576.133    579.588    576.133    576.157    576.133
 11.470    587.000    580.433      6.567    576.011    580.405    576.011    576.036    576.011
 11.570    594.000    581.876     12.124    575.887    581.845    575.887    575.914    575.887
 11.670    676.000    584.945     91.055    575.758    584.911    575.758    575.788    575.758
 11.770    680.000    592.139     87.861    575.627    592.100    575.627    575.657    575.627
 11.870    655.000    607.823     47.177    575.491    607.775    575.491    575.522    575.491
 11.970    642.000    635.921      6.079    575.353    635.856    575.353    575.383    575.353
 12.070    682.000    673.569      8.431    575.211    673.484    575.211    575.241    575.211
 12.170    622.000    704.792    -82.792    575.066    704.688    575.066    575.096    575.066
 12.270    755.214    707.813     47.401    574.917    707.708    574.917    574.948    574.917
 12.370    621.000    679.733    -58.733    574.765    679.643    574.765    574.796    574.765
 12.470    671.638    641.145     30.493    574.610    641.075    574.610    574.642    574.610
 12.570    600.000    610.512    -10.512    574.452    610.459    574.452    574.485    574.452
 12.670    574.000    592.626    -18.626    574.291    592.582    574.291    574.324    574.291
 12.770    598.000    584.102     13.898    574.126    584.063    574.126    574.160    574.126
 12.870    537.000    580.316    -43.316    573.959    580.278    573.959    573.993    573.959
 12.970    542.000    578.426    -36.426    573.788    578.389    573.788    573.823    573.788
 13.070    608.000    577.251     30.749    573.615    577.214    573.615    573.649    573.615
 13.170    549.000    576.394    -27.394    573.439    576.358    573.439    573.473    573.439
 13.270    533.000    575.716    -42.716    573.259    575.680    573.259    573.294    573.259
 13.370    556.973    575.156    -18.183    573.077    575.120    573.077    573.112    573.077
 13.470    509.000    574.678    -65.678    572.892    574.642    572.892    572.927    572.892
 13.570    555.836    574.258    -18.422    572.705    574.222    572.705    572.740    572.705
 13.670    584.000    573.883     10.117    572.514    573.845    572.514    572.551    572.514
 13.770    543.000    573.547    -30.547    572.321    573.500    572.321    572.367    572.321
 13.870    566.857    573.230     -6.373    572.125    573.179    572.125    572.175    572.125
 13.970    580.819    572.928      7.891    571.926    572.876    571.926    571.977    571.926
 14.070    549.853    572.639    -22.786    571.725    572.587    571.725    571.777    571.725
 14.170    542.000    572.361    -30.361    571.522    572.309    571.522    571.573    571.522
 14.270    595.000    572.091     22.909    571.315    572.039    571.315    571.367    571.315
 14.370    588.303    571.828     16.476    571.107    571.775    571.107    571.159    571.107
 14.470    578.000    571.570      6.430    570.896    571.516    570.896    570.949    570.896
 14.570    579.000    571.320      7.680    570.682    571.261    570.682    570.741    570.682
 14.670    582.639    571.070     11.569    570.466    571.009    570.466    570.527    570.466
 14.770    587.619    570.820     16.799    570.248    570.758    570.248    570.309    570.248
 14.870    592.000    570.571     21.429    570.027    570.509    570.027    570.089    570.027
 14.970    538.231    570.324    -32.093    569.804    570.261    569.804    569.866    569.804
 15.070    598.000    570.077     27.923    569.579    570.014    569.579    569.641    569.579
 15.170    554.000    569.832    -15.832    569.351    569.768    569.351    569.414    569.351
 15.270    571.000    569.587      1.413    569.122    569.523    569.122    569.185    569.122
 15.370    541.000    569.340    -28.340    568.890    569.276    568.890    568.954    568.890
 15.470    542.684    569.092    -26.408    568.656    569.027    568.656    568.720    568.656
 15.570    549.391    568.843    -19.452    568.420    568.779    568.420    568.485    568.420
 15.670    535.570    568.594    -33.024    568.182    568.529    568.182    568.247    568.182
 15.770    587.000    568.344     18.656    567.942    568.279    567.942    568.007    567.942
 15.870    582.172    568.093     14.079    567.700    568.027    567.700    567.766    567.700
 15.970    573.000    567.841      5.159    567.456    567.775    567.456    567.522    567.456
 16.070    576.000    567.588      8.412    567.210    567.521    567.210    567.277    567.210
 16.170    523.000    567.334    -44.334    566.962    567.267    566.962    567.029    566.962
 16.270    540.781    567.079    -26.298    566.713    567.011    566.713    566.780    566.713
 16.370    546.000    566.822    -20.822    566.461    566.754    566.461    566.529    566.461
 16.470    589.000    566.564     22.436    566.208    566.496    566.208    566.276    566.208
 16.570    573.684    566.305      7.378    565.953    566.237    565.953    566.022    565.953
 16.670    525.413    566.045    -40.632    565.696    565.976    565.696    565.766    565.696
 16.770    564.000    565.784     -1.784    565.438    565.714    565.438    565.508    565.438
 16.870    538.854    565.521    -26.667    565.178    565.451    565.178    565.248    565.178
 16.970    536.000    565.258    -29.258    564.916    565.187    564.916    564.987    564.916
 17.070    589.212    564.994     24.218    564.653    564.923    564.653    564.724    564.653
 17.170    570.100    564.729      5.371    564.388    564.657    564.388    564.459    564.388
 17.270    524.000    564.462    -40.462    564.121    564.389    564.121    564.194    564.121
 17.370    573.000    564.195      8.805    563.853    564.120    563.853    563.928    563.853
 17.470    549.325    563.927    -14.602    563.584    563.850    563.584    563.661    563.584
 17.570    567.000    563.657      3.343    563.313    563.578    563.313    563.391    563.313
 17.670    550.169    563.385    -13.216    563.040    563.306    563.040    563.120    563.040
 17.770    520.286    563.112    -42.827    562.767    563.032    562.767    562.847    562.767
 17.870    639.000    562.838     76.162    562.492    562.757    562.492    562.572    562.492
 17.970    540.000    562.565    -22.565    562.215    562.483    562.215    562.297    562.215
 18.070    565.000    562.290      2.710    561.937    562.207    561.937    562.020    561.937
 18.170    599.096    562.012     37.084    561.658    561.929    561.658    561.741    561.658
 18.270    587.568    561.734     25.834    561.378    561.650    561.378    561.462    561.378
 18.370    562.000    561.455      0.545    561.096    561.371    561.096    561.181    561.096
 18.470    558.000    561.175     -3.175    560.814    561.090    560.814    560.899    560.814
 18.570    538.000    560.893    -22.893    560.530    560.808    560.530    560.615    560.530
 18.670    576.000    560.611     15.389    560.245    560.525    560.245    560.331    560.245
 18.770    591.703    560.328     31.375    559.959    560.242    559.959    560.046    559.959
 18.870    597.092    560.045     37.047    559.671    559.957    559.671    559.759    559.671
 18.970    587.808    559.760     28.048    559.383    559.672    559.383    559.472    559.383
 19.070    551.000    559.475     -8.475    559.094    559.386    559.094    559.183    559.094
 19.170    565.000    559.189      5.811    558.804    559.099    558.804    558.893    558.804
 19.270    578.000    558.902     19.098    558.512    558.812    558.512    558.603    558.512
 19.370    550.000    558.615     -8.615    558.220    558.523    558.220    558.311    558.220
 19.470    513.000    558.328    -45.328    557.927    558.235    557.927    558.020    557.927
 19.570    575.311    558.040     17.271    557.633    557.945    557.633    557.728    557.633
 19.670    536.780    557.751    -20.971    557.338    557.655    557.338    557.434    557.338
 19.770    538.000    557.462    -19.462    557.042    557.366    557.042    557.139    557.042
 19.870    600.646    557.173     43.473    556.746    557.075    556.746    556.843    556.746
 19.970    524.127    556.883    -32.756    556.448    556.785    556.448    556.546    556.448
 20.070    517.999    556.593    -38.594    556.150    556.494    556.150    556.249    556.150
 20.170    564.000    556.302      7.698    555.851    556.202    555.851    555.951    555.851
 20.270    557.000    556.010      0.990    555.552    555.909    555.552    555.653    555.552
 20.370    557.000    555.718      1.282    555.251    555.616    555.251    555.353    555.251
 20.470    562.000    555.426      6.574    554.950    555.323    554.950    555.053    554.950
 20.570    515.000    555.135    -40.135    554.649    555.031    554.649    554.753    554.649
 20.670    567.392    554.852     12.540    554.347    554.747    554.347    554.452    554.347
 20.770    562.000    554.573      7.427    554.044    554.467    554.044    554.150    554.044
 20.870    552.681    554.283     -1.601    553.741    554.175    553.741    553.848    553.741
 20.970    524.000    553.991    -29.991    553.437    553.883    553.437    553.545    553.437
 21.070    570.000    553.703     16.297    553.132    553.590    553.132    553.245    553.132
 21.170    561.000    553.416      7.584    552.827    553.298    552.827    552.945    552.827
 21.270    511.926    553.125    -41.200    552.522    553.006    552.522    552.641    552.522
 21.370    559.000    552.835      6.165    552.216    552.715    552.216    552.337    552.216
 21.470    557.000    552.546      4.454    551.910    552.424    551.910    552.032    551.910
 21.570    590.022    552.257     37.765    551.603    552.134    551.603    551.727    551.603
 21.670    587.393    551.969     35.424    551.296    551.845    551.296    551.421    551.296
 21.770    541.000    551.683    -10.683    550.989    551.557    550.989    551.115    550.989
 21.870    544.000    551.398     -7.398    550.681    551.270    550.681    550.809    550.681
 21.970    588.042    551.114     36.928    550.373    550.985    550.373    550.502    550.373
 22.070    511.000    550.832    -39.832    550.065    550.701    550.065    550.195    550.065
 22.170    543.000    550.552     -7.552    549.756    550.420    549.756    549.889    549.756
 22.270    571.164    550.276     20.888    549.447    550.142    549.447    549.581    549.447
 22.370    570.000    550.017     19.983    549.138    549.881    549.138    549.274    549.138
 22.470    604.000    549.782     54.218    548.829    549.644    548.829    548.967    548.829
 22.570    542.000    549.558     -7.558    548.519    549.418    548.519    548.659    548.519
 22.670    544.000    549.359     -5.359    548.210    549.217    548.210    548.351    548.210
 22.770    541.000    549.108     -8.108    547.900    548.965    547.900    548.044    547.900
 22.870    568.102    548.859     19.243    547.590    548.713    547.590    547.736    547.590
 22.970    565.385    548.620     16.765    547.280    548.473    547.280    547.428    547.280
 23.070    540.000    548.423     -8.423    546.970    548.273    546.970    547.120    546.970
 23.170    571.000    548.231     22.769    546.660    548.079    546.660    546.813    546.660
 23.270    591.430    548.035     43.395    546.350    547.880    546.350    546.505    546.350
 23.370    524.000    547.851    -23.851    546.040    547.694    546.040    546.197    546.040
 23.470    514.000    547.692    -33.692    545.730    547.532    545.730    545.890    545.730
 23.570    569.535    547.566     21.969    545.420    547.404    545.420    545.583    545.420
 23.670    540.000    547.484     -7.484    545.109    547.318    545.109    545.275    545.109
 23.770    549.000    547.461      1.539    544.799    547.293    544.799    544.969    544.799
 23.870    563.000    547.525     15.475    544.490    547.354    544.490    544.662    544.490
 23.970    537.264    547.718    -10.453    544.180    547.544    544.180    544.355    544.180
 24.070    527.000    548.143    -21.143    543.870    547.966    543.870    544.049    543.870
 24.170    570.075    549.094     20.981    543.561    548.914    543.561    543.743    543.561
 24.270    580.000    551.397     28.603    543.251    551.215    543.251    543.438    543.251
 24.370    527.449    556.915    -29.466    542.942    556.733    542.942    543.133    542.942
 24.470    618.000    568.490     49.510    542.633    568.313    542.633    542.828    542.633
 24.570    583.088    588.011     -4.923    542.324    587.842    542.324    542.525    542.324
 24.670    601.517    612.352    -10.835    542.016    612.194    542.016    542.223    542.016
 24.770    606.000    630.270    -24.270    541.708    630.120    541.708    541.920    541.708
 24.870    561.000    629.013    -68.013    541.400    628.857    541.400    541.617    541.400
 24.970    609.000    609.458     -0.458    541.092    609.283    541.092    541.315    541.092
 25.070    599.000    584.749     14.251    540.784    584.551    540.784    541.014    540.784
 25.170    530.664    565.397    -34.733    540.477    565.179    540.477    540.713    540.477
 25.270    567.000    553.927     13.073    540.171    553.693    540.171    540.413    540.171
 25.370    569.000    548.254     20.746    539.864    548.009    539.864    540.113    539.864
 25.470    518.783    545.610    -26.827    539.558    545.356    539.558    539.815    539.558
 25.570    565.000    544.229     20.771    539.253    543.966    539.253    539.518    539.253
 25.670    579.000    543.349     35.651    538.948    543.077    538.948    539.221    538.948
 25.770    517.000    542.698    -25.698    538.643    542.416    538.643    538.926    538.643
 25.870    546.000    542.163      3.837    538.339    541.871    538.339    538.631    538.339
 25.970    595.000    541.720     53.280    538.035    541.417    538.035    538.338    538.035
 26.070    556.527    541.349     15.178    537.731    541.035    537.731    538.047    537.731
 26.170    498.002    541.040    -43.039    537.428    540.713    537.428    537.756    537.428
 26.270    530.733    540.785    -10.053    537.126    540.444    537.126    537.468    537.126
 26.370    543.828    540.574      3.254    536.824    540.218    536.824    537.181    536.824
 26.470    531.000    540.407     -9.407    536.523    540.034    536.523    536.896    536.523
 26.570    499.000    540.287    -41.287    536.222    539.897    536.222    536.613    536.222
 26.670    577.480    540.221     37.258    535.922    539.811    535.922    536.332    535.922
 26.770    559.000    540.216     18.784    535.623    539.785    535.623    536.054    535.623
 26.870    553.203    540.285     12.918    535.324    539.830    535.324    535.779    535.324
 26.970    580.935    540.459     40.476    535.025    539.978    535.025    535.506    535.025
 27.070    540.000    540.763     -0.763    534.728    540.253    534.728    535.238    534.728
 27.170    534.278    541.186     -6.909    534.431    540.643    534.431    534.973    534.431
 27.270    542.906    541.807      1.099    534.134    541.227    534.134    534.713    534.134
 27.370    580.000    542.707     37.293    533.839    542.086    533.839    534.459    533.839
 27.470    552.292    544.031      8.260    533.544    543.363    533.544    534.210    533.544
 27.570    546.000    546.140     -0.140    533.249    545.418    533.249    533.969    533.249
 27.670    523.681    550.297    -26.616    532.956    549.513    532.956    533.736    532.956
 27.770    554.000    560.818     -6.818    532.663    559.960    532.663    533.513    532.663
 27.870    602.000    588.773     13.227    532.371    587.825    532.371    533.302    532.371
 27.970    667.000    651.927     15.073    532.079    650.862    532.079    533.106    532.079
 28.070    758.000    759.285     -1.285    531.789    758.075    531.789    532.928    531.789
 28.170    895.000    882.700     12.300    531.499    881.329    531.499    532.772    531.499
 28.270    934.000    949.146    -15.146    531.210    947.614    531.210    532.645    531.210
 28.370    930.524    905.669     24.855    530.922    903.976    530.922    532.554    530.922
 28.470    829.000    797.786     31.214    530.635    795.887    530.635    532.510    530.635
 28.570    713.000    708.697      4.303    530.348    706.506    530.348    532.531    530.348
 28.670    727.000    685.648     41.352    530.063    683.055    530.063    532.645    530.063
 28.770    766.897    727.718     39.179    529.778    724.569    529.778    532.907    529.778
 28.870    796.000    797.189     -1.189    529.494    793.238    529.494    533.420    529.494
 28.970    761.000    834.326    -73.326    529.211    829.148    529.211    534.372    529.211
 29.070    766.000    800.486    -34.486    528.929    793.339    528.929    536.076    528.929
 29.170    721.000    722.843     -1.843    528.648    712.549    528.648    538.954    528.648
 29.270    627.000    649.631    -22.631    528.368    634.573    528.368    543.438    528.368
 29.370    610.000    604.751      5.249    528.089    583.120    528.089    549.727    528.089
 29.470    562.300    586.516    -24.215    527.810    556.965    527.810    557.363    527.810
 29.570    647.000    582.700     64.300    527.533    545.631    527.533    564.601    527.533
 29.670    646.000    581.722     64.278    527.256    540.681    527.256    568.296    527.256
 29.770    647.000    577.256     69.744    526.981    538.083    526.981    566.152    526.981
 29.870    569.000    569.087     -0.087    526.707    536.418    526.707    559.374    526.707
 29.970    594.000    559.920     34.080    526.433    535.248    526.433    551.104    526.433
 30.070    554.000    551.927      2.073    526.161    534.435    526.161    543.652    526.161
 30.170    556.000    545.971     10.029    525.890    533.948    525.890    537.911    525.890
 30.270    577.000    542.144     34.856    525.619    533.870    525.619    533.891    525.619
 30.370    500.584    540.458    -39.874    525.350    534.585    525.350    531.220    525.350
