neutron_powder_diffraction_0081
R_wp: 4.470
Temperature (K): 798.257
Counts: 83608.00
Wavelength (Ã…): 2.52098
COMMENTS
Test file for demonstrating the .xyy file format in Reel1.0
END OF HEADER
   tth       Y_obs     Y_calc      Y_res    Background    Phase_1_Nuc    Phase_1_Mag    Phase_2_Nuc    Phase_2_Mag
  9.970    659.000    576.194     82.806    575.100    576.194    575.100    575.100    575.100
 10.070    601.000    576.961     24.039    575.778    576.961    575.778    575.778    575.778
 10.170    610.585    577.728     32.857    576.444    577.727    576.444    576.444    576.444
 10.270    565.150    578.497    -13.347    577.098    578.496    577.098    577.098    577.098
 10.370    598.000    579.272     18.728    577.739    579.271    577.739    577.739    577.739
 10.470    619.000    580.057     38.943    578.368    580.056    578.368    578.368    578.368
 10.570    591.451    580.857     10.595    578.985    580.856    578.985    578.985    578.985
 10.670    592.926    581.679     11.247    579.589    581.677    579.589    579.589    579.589
 10.770    610.000    582.540     27.460    580.182    582.539    580.182    580.182    580.182
 10.870    531.736    583.503    -51.766    580.763    583.501    580.763    580.763    580.763
 10.970    577.000    584.549     -7.549    581.332    584.548    581.332    581.332    581.332
 11.070    638.000    585.595     52.405    581.890    585.593    581.890    581.890    581.890
 11.170    618.000    586.748     31.252    582.436    586.746    582.436    582.436    582.436
 11.270    584.756    588.066     -3.310    582.970    588.063    582.970    582.970    582.970
 11.370    630.000    589.631     40.369    583.493    589.628    583.493    583.493    583.493
 11.470    591.000    591.610     -0.610    584.005    591.606    584.005    584.005    584.005
 11.570    595.000    594.390      0.610    584.505    594.385    584.505    584.505    584.505
 11.670    648.000    598.896     49.104    584.994    598.888    584.994    584.994    584.994
 11.770    554.397    607.037    -52.640    585.473    607.025    585.473    585.473    585.473
 11.870    595.545    621.810    -26.265    585.940    621.790    585.940    585.940    585.940
 11.970    685.734    646.117     39.616    586.396    646.084    586.396    586.396    586.396
 12.070    692.741    679.660     13.081    586.841    679.609    586.841    586.841    586.841
 12.170    683.809    714.285    -30.476    587.276    714.215    587.276    587.276    587.276
 12.270    717.000    731.712    -14.712    587.700    731.631    587.700    587.700    587.700
 12.370    719.239    718.625      0.614    588.114    718.553    588.114    588.114    588.114
 12.470    653.828    686.106    -32.278    588.517    686.052    588.517    588.517    588.517
 12.570    602.627    652.727    -50.101    588.909    652.692    588.909    588.909    588.909
 12.670    628.000    627.935      0.065    589.292    627.914    589.292    589.292    589.292
 12.770    591.000    612.843    -21.843    589.664    612.830    589.664    589.664    589.664
 12.870    609.000    604.806      4.194    590.026    604.798    590.026    590.026    590.026
 12.970    557.000    600.755    -43.755    590.378    600.750    590.378    590.378    590.378
 13.070    636.666    598.637     38.030    590.720    598.633    590.720    590.720    590.720
 13.170    628.000    597.417     30.583    591.052    597.413    591.052    591.052    591.052
 13.270    580.000    596.652    -16.652    591.374    596.649    591.374    591.374    591.374
 13.370    551.000    596.155    -45.155    591.687    596.153    591.687    591.687    591.687
 13.470    600.564    595.845      4.719    591.990    595.843    591.990    591.990    591.990
 13.570    570.000    595.667    -25.667    592.283    595.666    592.283    592.283    592.283
 13.670    554.000    595.560    -41.560    592.567    595.559    592.567    592.567    592.567
 13.770    649.937    595.516     54.420    592.841    595.515    592.841    592.841    592.841
 13.870    639.636    595.519     44.117    593.106    595.518    593.106    593.106    593.106
 13.970    604.000    595.559      8.441    593.362    595.558    593.362    593.362    593.362
 14.070    546.241    595.627    -49.386    593.609    595.626    593.609    593.609    593.609
 14.170    569.000    595.711    -26.711    593.846    595.710    593.846    593.846    593.846
 14.270    590.000    595.807     -5.807    594.075    595.807    594.075    594.075    594.075
 14.370    588.000    595.914     -7.914    594.294    595.913    594.294    594.294    594.294
 14.470    568.000    596.027    -28.027    594.505    596.026    594.505    594.505    594.505
 14.570    573.000    596.144    -23.144    594.707    596.143    594.707    594.707    594.707
 14.670    557.000    596.263    -39.263    594.900    596.262    594.900    594.900    594.900
 14.770    583.593    596.382    -12.789    595.085    596.382    595.085    595.085    595.085
 14.870    585.000    596.501    -11.501    595.261    596.501    595.261    595.261    595.261
 14.970    619.000    596.618     22.382    595.429    596.618    595.429    595.429    595.429
 15.070    592.794    596.733     -3.938    595.588    596.732    595.588    595.588    595.588
 15.170    544.134    596.844    -52.710    595.739    596.844    595.739    595.739    595.739
 15.270    641.828    596.959     44.869    595.882    596.959    595.882    595.882    595.882
 15.370    535.000    597.121    -62.121    596.016    597.120    596.016    596.016    596.016
 15.470    621.000    597.243     23.757    596.143    597.243    596.143    596.143    596.143
 15.570    568.093    597.338    -29.245    596.261    597.338    596.261    596.261    596.261
 15.670    625.000    597.426     27.574    596.371    597.426    596.371    596.371    596.371
 15.770    532.000    597.509    -65.509    596.474    597.509    596.474    596.474    596.474
 15.870    573.000    597.586    -24.586    596.569    597.586    596.569    596.569    596.569
 15.970    547.000    597.658    -50.658    596.656    597.658    596.656    596.656    596.656
 16.070    618.000    597.729     20.271    596.735    597.728    596.735    596.735    596.735
 16.170    610.000    597.798     12.202    596.807    597.797    596.807    596.807    596.807
 16.270    584.000    597.859    -13.859    596.871    597.858    596.871    596.871    596.871
 16.370    569.000    597.906    -28.906    596.928    597.906    596.928    596.928    596.928
 16.470    591.000    597.947     -6.947    596.977    597.947    596.977    596.977    596.977
 16.570    578.000    597.987    -19.987    597.019    597.987    597.019    597.019    597.019
 16.670    571.069    598.068    -26.999    597.054    598.068    597.054    597.054    597.054
 16.770    566.000    598.105    -32.105    597.082    598.105    597.082    597.082    597.082
 16.870    581.000    598.123    -17.123    597.102    598.123    597.102    597.102    597.102
 16.970    554.500    598.133    -43.634    597.116    598.133    597.116    597.116    597.116
 17.070    547.509    598.138    -50.628    597.122    598.137    597.122    597.122    597.122
 17.170    606.653    598.136      8.517    597.122    598.135    597.122    597.122    597.122
 17.270    567.000    598.130    -31.130    597.115    598.130    597.115    597.115    597.115
 17.370    590.825    598.148     -7.323    597.101    598.148    597.101    597.101    597.101
 17.470    587.000    598.139    -11.139    597.081    598.139    597.081    597.081    597.081
 17.570    576.000    598.114    -22.114    597.053    598.114    597.053    597.053    597.053
 17.670    585.000    598.082    -13.082    597.020    598.082    597.020    597.020    597.020
 17.770    526.000    598.044    -72.044    596.980    598.044    596.980    596.980    596.980
 17.870    572.000    598.000    -26.000    596.933    598.000    596.933    596.933    596.933
 17.970    569.000    597.952    -28.952    596.880    597.952    596.880    596.880    596.880
 18.070    628.049    597.914     30.135    596.821    597.914    596.821    596.821    596.821
 18.170    557.000    597.871    -40.871    596.755    597.871    596.755    596.755    596.755
 18.270    577.854    597.837    -19.983    596.684    597.836    596.684    596.684    596.684
 18.370    589.000    597.780     -8.780    596.606    597.780    596.606    596.606    596.606
 18.470    634.000    597.722     36.278    596.522    597.722    596.522    596.522    596.522
 18.570    575.611    597.641    -22.030    596.433    597.641    596.433    596.433    596.433
 18.670    591.000    597.560     -6.560    596.337    597.560    596.337    596.337    596.337
 18.770    590.706    597.534     -6.828    596.236    597.534    596.236    596.236    596.236
 18.870    635.285    597.458     37.827    596.128    597.458    596.128    596.128    596.128
 18.970    556.108    597.364    -41.256    596.015    597.364    596.015    596.015    596.015
 19.070    584.000    597.262    -13.262    595.897    597.262    595.897    595.897    595.897
 19.170    575.000    597.151    -22.151    595.773    597.151    595.773    595.773    595.773
 19.270    572.000    597.056    -25.056    595.643    597.056    595.643    595.643    595.643
 19.370    595.000    596.958     -1.958    595.508    596.958    595.508    595.508    595.508
 19.470    623.085    596.836     26.249    595.367    596.836    595.367    595.367    595.367
 19.570    544.000    596.704    -52.704    595.222    596.704    595.222    595.222    595.222
 19.670    551.351    596.567    -45.216    595.070    596.567    595.070    595.070    595.070
 19.770    603.000    596.425      6.575    594.914    596.425    594.914    594.914    594.914
 19.870    581.000    596.286    -15.286    594.753    596.286    594.753    594.753    594.753
 19.970    617.121    596.138     20.983    594.586    596.138    594.586    594.586    594.586
 20.070    532.000    595.987    -63.987    594.414    595.987    594.414    594.414    594.414
 20.170    515.000    595.831    -80.831    594.238    595.831    594.238    594.238    594.238
 20.270    567.000    595.670    -28.670    594.056    595.670    594.056    594.056    594.056
 20.370    632.101    595.508     36.594    593.870    595.508    593.870    593.870    593.870
 20.470    563.115    595.338    -32.223    593.679    595.338    593.679    593.679    593.679
 20.570    574.000    595.163    -21.163    593.483    595.163    593.483    593.483    593.483
 20.670    624.499    594.984     29.515    593.282    594.984    593.282    593.282    593.282
 20.770    578.000    594.801    -16.801    593.077    594.802    593.077    593.077    593.077
 20.870    598.000    594.618      3.382    592.867    594.618    592.867    592.867    592.867
 20.970    579.509    594.431    -14.922    592.653    594.431    592.653    592.653    592.653
 21.070    544.990    594.239    -49.249    592.434    594.239    592.434    592.434    592.434
 21.170    583.000    594.044    -11.044    592.211    594.044    592.211    592.211    592.211
 21.270    604.987    593.846     11.141    591.984    593.846    591.984    591.984    591.984
 21.370    570.000    593.646    -23.646    591.752    593.646    591.752    591.752    591.752
 21.470    599.000    593.443      5.557    591.516    593.443    591.516    591.516    591.516
 21.570    540.365    593.238    -52.873    591.275    593.238    591.275    591.275    591.275
 21.670    586.000    593.032     -7.032    591.031    593.032    591.031    591.031    591.031
 21.770    537.000    592.824    -55.824    590.783    592.824    590.783    590.783    590.783
 21.870    613.000    592.615     20.385    590.530    592.615    590.530    590.530    590.530
 21.970    632.112    592.405     39.707    590.274    592.405    590.274    590.274    590.274
 22.070    587.000    592.194     -5.194    590.014    592.194    590.014    590.014    590.014
 22.170    605.000    591.984     13.016    589.750    591.984    589.750    589.750    589.750
 22.270    585.000    591.775     -6.775    589.482    591.775    589.482    589.482    589.482
 22.370    573.536    591.568    -18.033    589.210    591.569    589.210    589.210    589.210
 22.470    586.000    591.363     -5.363    588.935    591.363    588.935    588.935    588.935
 22.570    548.000    591.160    -43.160    588.656    591.160    588.656    588.656    588.656
 22.670    576.000    590.962    -14.962    588.373    590.963    588.373    588.373    588.373
 22.770    627.483    590.771     36.712    588.087    590.771    588.087    588.087    588.087
 22.870    568.558    590.586    -22.027    587.797    590.586    587.797    587.797    587.797
 22.970    601.230    590.410     10.820    587.504    590.411    587.504    587.504    587.504
 23.070    635.264    590.248     45.016    587.208    590.248    587.208    587.208    587.208
 23.170    591.000    590.102      0.898    586.908    590.102    586.908    586.908    586.908
 23.270    549.000    589.975    -40.975    586.605    589.975    586.605    586.605    586.605
 23.370    608.000    589.873     18.127    586.299    589.874    586.299    586.299    586.299
 23.470    608.201    589.806     18.395    585.989    589.807    585.989    585.989    585.989
 23.570    546.000    589.782    -43.782    585.676    589.784    585.676    585.676    585.676
 23.670    592.000    589.817      2.183    585.361    589.818    585.361    585.361    585.361
 23.770    579.000    589.931    -10.931    585.042    589.932    585.042    585.042    585.042
 23.870    582.230    590.154     -7.924    584.720    590.156    584.720    584.720    584.720
 23.970    590.000    590.538     -0.538    584.395    590.540    584.395    584.395    584.395
 24.070    576.769    591.181    -14.412    584.068    591.184    584.068    584.068    584.068
 24.170    591.000    592.310     -1.310    583.737    592.314    583.737    583.737    583.737
 24.270    585.000    594.429     -9.429    583.404    594.435    583.404    583.404    583.404
 24.370    564.696    598.588    -33.892    583.068    598.597    583.068    583.068    583.068
 24.470    590.257    606.464    -16.207    582.730    606.479    582.730    582.730    582.730
 24.570    567.318    619.850    -52.531    582.388    619.874    582.388    582.388    582.388
 24.670    586.888    639.154    -52.266    582.044    639.193    582.044    582.044    582.044
 24.770    650.346    660.938    -10.592    581.698    660.992    581.698    581.698    581.698
 24.870    625.000    676.071    -51.071    581.349    676.137    581.349    581.349    581.349
 24.970    669.826    674.851     -5.026    580.997    674.916    580.997    580.997    580.997
 25.070    679.533    658.039     21.493    580.643    658.093    580.643    580.643    580.643
 25.170    662.000    635.729     26.271    580.287    635.766    580.287    580.287    580.287
 25.270    649.000    616.455     32.545    579.928    616.479    579.928    579.928    579.928
 25.370    609.000    603.165      5.835    579.567    603.180    579.567    579.567    579.567
 25.470    653.000    595.233     57.767    579.204    595.242    579.204    579.204    579.204
 25.570    642.000    590.838     51.162    578.839    590.844    578.839    578.839    578.839
 25.670    603.000    588.368     14.632    578.471    588.371    578.471    578.471    578.471
 25.770    589.000    586.840      2.160    578.101    586.842    578.101    578.101    578.101
 25.870    583.000    585.780     -2.780    577.730    585.783    577.730    577.730    577.730
 25.970    619.279    584.987     34.292    577.356    584.989    577.356    577.356    577.356
 26.070    652.000    584.371     67.629    576.980    584.372    576.980    576.980    576.980
 26.170    625.963    583.890     42.073    576.602    583.891    576.602    576.602    576.602
 26.270    610.000    583.518     26.482    576.222    583.519    576.222    576.222    576.222
 26.370    629.000    583.245     45.755    575.841    583.245    575.841    575.841    575.841
 26.470    627.000    583.063     43.937    575.458    583.063    575.458    575.458    575.458
 26.570    571.111    582.973    -11.862    575.072    582.973    575.072    575.072    575.072
 26.670    629.000    582.981     46.019    574.686    582.981    574.686    574.686    574.686
 26.770    673.000    583.099     89.901    574.297    583.098    574.297    574.297    574.297
 26.870    600.805    583.344     17.460    573.907    583.344    573.907    573.907    573.907
 26.970    664.000    583.744     80.256    573.515    583.743    573.515    573.515    573.515
 27.070    603.000    584.337     18.663    573.121    584.336    573.121    573.121    573.121
 27.170    587.000    585.176      1.824    572.726    585.174    572.726    572.726    572.726
 27.270    638.000    586.341     51.659    572.330    586.339    572.330    572.330    572.330
 27.370    610.675    587.955     22.720    571.932    587.953    571.932    571.932    571.932
 27.470    671.000    590.236     80.764    571.532    590.233    571.532    571.532    571.532
 27.570    662.000    593.663     68.337    571.132    593.659    571.132    571.132    571.132
 27.670    566.619    599.446    -32.827    570.730    599.439    570.730    570.730    570.730
 27.770    681.000    610.516     70.484    570.326    610.505    570.326    570.326    570.326
 27.870    583.901    632.757    -48.856    569.921    632.737    569.921    569.921    569.921
 27.970    688.000    674.750     13.250    569.515    674.715    569.515    569.515    569.515
 28.070    721.000    743.186    -22.186    569.108    743.132    569.108    569.108    569.108
 28.170    838.000    833.098      4.902    568.700    833.025    568.700    568.700    568.700
 28.270    950.000    917.471     32.529    568.291    917.392    568.291    568.291    568.291
 28.370    955.000    951.412      3.588    567.880    951.343    567.880    567.880    567.880
 28.470    854.085    914.391    -60.306    567.469    914.341    567.469    567.469    567.469
 28.570    897.398    844.055     53.344    567.056    844.020    567.056    567.056    567.056
 28.670    786.158    790.326     -4.168    566.642    790.299    566.642    566.642    566.642
 28.770    842.000    777.279     64.721    566.228    777.253    566.228    566.228    566.228
 28.870    840.000    801.187     38.813    565.812    801.164    565.812    565.812    565.812
 28.970    839.000    836.345      2.655    565.396    836.329    565.396    565.396    565.396
 29.070    780.563    846.148    -65.584    564.979    846.143    564.979    564.979    564.979
 29.170    926.000    811.566    114.434    564.561    811.569    564.561    564.561    564.561
 29.270    803.000    750.617     52.383    564.142    750.623    564.142    564.142    564.142
 29.370    752.327    690.459     61.868    563.723    690.464    563.723    563.723    563.723
 29.470    732.000    644.916     87.084    563.303    644.918    563.303    563.303    563.303
 29.570    708.000    615.826     92.174    562.882    615.827    562.882    562.882    562.882
 29.670    623.000    599.208     23.792    562.461    599.207    562.461    562.461    562.461
 29.770    540.123    590.077    -49.955    562.039    590.076    562.039    562.039    562.039
 29.870    662.000    584.827     77.173    561.616    584.825    561.616    561.616    561.616
 29.970    654.000    581.510     72.490    561.193    581.508    561.193    561.193    561.193
 30.070    630.000    579.267     50.733    560.769    579.264    560.769    560.769    560.769
 30.170    631.904    577.775     54.129    560.345    577.772    560.345    560.345    560.345
 30.270    652.000    576.992     75.008    559.921    576.988    559.921    559.921    559.921
 30.370    672.000    577.121     94.879    559.496    577.116    559.496    559.496    559.496
