neutron_powder_diffraction_0184
R_wp: 3.964
Temperature (K): 1074.000
Counts: 83729.00
Wavelength (Ã…): 2.52098
COMMENTS
Test file for demonstrating the .xyy file format in Reel1.0
END OF HEADER
   tth       Y_obs     Y_calc      Y_res    Background    Phase_1_Nuc    Phase_1_Mag    Phase_2_Nuc    Phase_2_Mag
  9.970    532.240    580.383    -48.143    579.650    580.334    579.650    579.699    579.650
 10.070    583.000    580.278      2.722    579.486    580.229    579.486    579.534    579.486
 10.170    573.000    580.178     -7.178    579.318    580.129    579.318    579.367    579.318
 10.270    606.000    580.085     25.915    579.147    580.036    579.147    579.196    579.147
 10.370    651.000    580.003     70.997    578.974    579.953    578.974    579.023    578.974
 10.470    623.000    579.933     43.067    578.797    579.882    578.797    578.847    578.797
 10.570    574.000    579.879     -5.879    578.617    579.828    578.617    578.667    578.617
 10.670    579.000    579.847     -0.847    578.435    579.796    578.435    578.485    578.435
 10.770    564.000    579.843    -15.843    578.250    579.792    578.250    578.300    578.250
 10.870    547.000    579.876    -32.876    578.062    579.825    578.062    578.112    578.062
 10.970    604.000    579.960     24.040    577.871    579.908    577.871    577.922    577.871
 11.070    515.000    580.115    -65.115    577.677    580.059    577.677    577.731    577.677
 11.170    631.000    580.364     50.636    577.481    580.307    577.481    577.536    577.481
 11.270    601.239    580.748     20.491    577.282    580.691    577.282    577.338    577.282
 11.370    639.000    581.340     57.660    577.080    581.282    577.080    577.136    577.080
 11.470    561.513    582.297    -20.784    576.876    582.238    576.876    576.932    576.876
 11.570    637.000    584.054     52.946    576.669    583.992    576.669    576.726    576.669
 11.670    616.716    587.794     28.921    576.460    587.730    576.460    576.517    576.460
 11.770    618.000    596.174     21.826    576.248    596.105    576.248    576.305    576.248
 11.870    640.000    613.318     26.682    576.033    613.239    576.033    576.091    576.033
 11.970    649.000    642.251      6.749    575.817    642.155    575.817    575.875    575.817
 12.070    694.000    679.104     14.896    575.597    678.986    575.597    575.656    575.597
 12.170    653.000    707.873    -54.873    575.376    707.739    575.376    575.435    575.376
 12.270    713.000    708.593      4.407    575.152    708.458    575.152    575.211    575.152
 12.370    676.000    680.421     -4.421    574.926    680.301    574.926    574.985    574.926
 12.470    666.226    642.973     23.253    574.697    642.874    574.697    574.757    574.697
 12.570    609.740    612.955     -3.215    574.466    612.874    574.466    574.526    574.466
 12.670    551.668    594.790    -43.122    574.234    594.718    574.234    574.294    574.234
 12.770    616.000    585.629     30.371    573.998    585.562    573.998    574.059    573.998
 12.870    534.000    581.295    -47.295    573.761    581.230    573.761    573.822    573.761
 12.970    600.252    579.036     21.215    573.522    578.972    573.522    573.583    573.522
 13.070    513.000    577.611    -64.611    573.280    577.547    573.280    573.342    573.280
 13.170    558.000    576.563    -18.563    573.037    576.500    573.037    573.098    573.037
 13.270    568.026    575.729     -7.703    572.791    575.666    572.791    572.853    572.791
 13.370    593.000    575.035     17.965    572.544    574.971    572.544    572.606    572.544
 13.470    615.107    574.438     40.669    572.294    574.374    572.294    572.357    572.294
 13.570    565.000    573.912     -8.912    572.043    573.848    572.043    572.106    572.043
 13.670    577.265    573.437      3.828    571.789    573.373    571.789    571.853    571.789
 13.770    572.734    573.002     -0.268    571.534    572.937    571.534    571.598    571.534
 13.870    548.000    572.597    -24.597    571.277    572.531    571.277    571.343    571.277
 13.970    567.000    572.214     -5.214    571.018    572.147    571.018    571.084    571.018
 14.070    554.000    571.848    -17.848    570.758    571.782    570.758    570.824    570.758
 14.170    569.064    571.497     -2.434    570.495    571.430    570.495    570.562    570.495
 14.270    584.000    571.160     12.840    570.231    571.093    570.231    570.298    570.231
 14.370    503.000    570.830    -67.830    569.966    570.763    569.966    570.033    569.966
 14.470    598.000    570.506     27.494    569.698    570.438    569.698    569.766    569.698
 14.570    600.000    570.188     29.812    569.429    570.119    569.429    569.497    569.429
 14.670    522.704    569.874    -47.169    569.159    569.805    569.159    569.227    569.159
 14.770    588.000    569.563     18.437    568.886    569.494    568.886    568.955    568.886
 14.870    562.000    569.256     -7.256    568.613    569.187    568.613    568.682    568.613
 14.970    598.176    568.951     29.226    568.337    568.881    568.337    568.407    568.337
 15.070    563.000    568.647     -5.647    568.061    568.577    568.061    568.130    568.061
 15.170    608.945    568.346     40.600    567.782    568.275    567.782    567.852    567.782
 15.270    583.401    568.045     15.356    567.503    567.974    567.503    567.573    567.503
 15.370    560.000    567.745     -7.745    567.222    567.674    567.222    567.293    567.222
 15.470    613.000    567.446     45.554    566.939    567.374    566.939    567.011    566.939
 15.570    561.753    567.147     -5.393    566.655    567.075    566.655    566.727    566.655
 15.670    633.000    566.848     66.152    566.370    566.776    566.370    566.442    566.370
 15.770    564.000    566.549     -2.549    566.084    566.477    566.084    566.156    566.084
 15.870    566.965    566.251      0.714    565.796    566.177    565.796    565.869    565.796
 15.970    517.000    565.952    -48.952    565.507    565.878    565.507    565.581    565.507
 16.070    528.024    565.654    -37.630    565.217    565.580    565.217    565.291    565.217
 16.170    564.000    565.357     -1.357    564.926    565.282    564.926    565.000    564.926
 16.270    555.000    565.057    -10.057    564.633    564.983    564.633    564.708    564.633
 16.370    610.109    564.758     45.352    564.340    564.682    564.340    564.415    564.340
 16.470    563.000    564.458     -1.458    564.045    564.381    564.045    564.121    564.045
 16.570    543.000    564.161    -21.161    563.749    564.080    563.749    563.830    563.749
 16.670    584.000    563.862     20.138    563.453    563.779    563.453    563.535    563.453
 16.770    595.000    563.560     31.440    563.155    563.477    563.155    563.238    563.155
 16.870    566.000    563.258      2.742    562.856    563.174    562.856    562.940    562.856
 16.970    540.000    562.956    -22.956    562.556    562.871    562.556    562.641    562.556
 17.070    543.355    562.655    -19.300    562.255    562.570    562.255    562.340    562.255
 17.170    569.000    562.352      6.648    561.954    562.266    561.954    562.039    561.954
 17.270    565.000    562.048      2.952    561.651    561.962    561.651    561.737    561.651
 17.370    537.000    561.743    -24.743    561.347    561.656    561.347    561.434    561.347
 17.470    545.000    561.438    -16.438    561.043    561.351    561.043    561.130    561.043
 17.570    582.000    561.133     20.867    560.738    561.045    560.738    560.826    560.738
 17.670    580.499    560.827     19.672    560.432    560.738    560.432    560.520    560.432
 17.770    533.000    560.520    -27.520    560.125    560.431    560.125    560.214    560.125
 17.870    560.562    560.213      0.349    559.818    560.124    559.818    559.907    559.818
 17.970    572.758    559.906     12.852    559.509    559.816    559.509    559.600    559.509
 18.070    518.203    559.599    -41.396    559.200    559.508    559.200    559.291    559.200
 18.170    538.000    559.291    -21.291    558.891    559.200    558.891    558.982    558.891
 18.270    540.000    558.983    -18.983    558.580    558.891    558.580    558.673    558.580
 18.370    525.340    558.674    -33.335    558.269    558.582    558.269    558.362    558.269
 18.470    555.000    558.365     -3.365    557.958    558.272    557.958    558.051    557.958
 18.570    598.224    558.056     40.168    557.646    557.962    557.646    557.740    557.646
 18.670    525.000    557.746    -32.746    557.333    557.651    557.333    557.428    557.333
 18.770    596.000    557.436     38.564    557.020    557.341    557.020    557.115    557.020
 18.870    560.000    557.126      2.874    556.706    557.030    556.706    556.802    556.706
 18.970    593.000    556.816     36.184    556.391    556.719    556.391    556.489    556.391
 19.070    553.000    556.505     -3.505    556.077    556.407    556.077    556.175    556.077
 19.170    541.000    556.195    -15.195    555.761    556.096    555.761    555.860    555.761
 19.270    567.593    555.884     11.710    555.446    555.784    555.446    555.545    555.446
 19.370    576.000    555.573     20.427    555.130    555.473    555.130    555.230    555.130
 19.470    554.000    555.263     -1.263    554.813    555.162    554.813    554.914    554.813
 19.570    521.000    554.953    -33.953    554.496    554.851    554.496    554.598    554.496
 19.670    579.000    554.642     24.358    554.179    554.540    554.179    554.282    554.179
 19.770    595.547    554.333     41.214    553.861    554.229    553.861    553.965    553.861
 19.870    555.000    554.036      0.964    553.544    553.931    553.544    553.648    553.544
 19.970    548.677    553.736     -5.058    553.225    553.630    553.225    553.331    553.225
 20.070    525.355    553.426    -28.071    552.907    553.320    552.907    553.013    552.907
 20.170    509.890    553.116    -43.226    552.588    553.009    552.588    552.696    552.588
 20.270    564.000    552.806     11.194    552.269    552.698    552.269    552.378    552.269
 20.370    514.000    552.497    -38.497    551.950    552.388    551.950    552.060    551.950
 20.470    521.000    552.188    -31.188    551.631    552.077    551.631    551.742    551.631
 20.570    516.360    551.879    -35.520    551.312    551.768    551.312    551.423    551.312
 20.670    550.000    551.571     -1.571    550.992    551.459    550.992    551.105    550.992
 20.770    564.000    551.264     12.736    550.672    551.150    550.672    550.786    550.672
 20.870    540.000    550.957    -10.957    550.353    550.842    550.353    550.467    550.353
 20.970    554.000    550.651      3.349    550.033    550.535    550.033    550.149    550.033
 21.070    543.000    550.347     -7.347    549.713    550.228    549.713    549.832    549.713
 21.170    531.509    550.052    -18.543    549.393    549.931    549.393    549.514    549.393
 21.270    562.000    549.832     12.168    549.073    549.709    549.073    549.195    549.073
 21.370    536.000    549.552    -13.552    548.753    549.428    548.753    548.877    548.753
 21.470    527.000    549.252    -22.252    548.433    549.127    548.433    548.558    548.433
 21.570    530.000    548.953    -18.953    548.113    548.826    548.113    548.239    548.113
 21.670    549.000    548.655      0.345    547.793    548.527    547.793    547.921    547.793
 21.770    534.000    548.359    -14.359    547.473    548.230    547.473    547.603    547.473
 21.870    523.393    548.065    -24.673    547.153    547.934    547.153    547.284    547.153
 21.970    536.000    547.775    -11.775    546.833    547.643    546.833    546.966    546.833
 22.070    546.000    547.512     -1.512    546.514    547.377    546.514    546.648    546.514
 22.170    561.825    547.299     14.527    546.194    547.162    546.194    546.330    546.194
 22.270    544.000    547.037     -3.037    545.875    546.899    545.875    546.013    545.875
 22.370    531.098    546.760    -15.662    545.556    546.621    545.556    545.696    545.556
 22.470    521.000    546.488    -25.488    545.237    546.347    545.237    545.379    545.237
 22.570    521.613    546.224    -24.611    544.918    546.080    544.918    545.062    544.918
 22.670    556.000    545.961     10.039    544.600    545.816    544.600    544.745    544.600
 22.770    564.000    545.705     18.295    544.281    545.558    544.281    544.429    544.281
 22.870    556.000    545.458     10.542    543.963    545.308    543.963    544.113    543.963
 22.970    598.000    545.220     52.780    543.646    545.069    543.646    543.798    543.646
 23.070    538.000    544.995     -6.995    543.328    544.841    543.328    543.483    543.328
 23.170    507.409    544.785    -37.377    543.011    544.629    543.011    543.168    543.011
 23.270    551.011    544.595      6.416    542.694    544.436    542.694    542.854    542.694
 23.370    578.588    544.430     34.158    542.378    544.269    542.378    542.540    542.378
 23.470    577.059    544.293     32.766    542.062    544.129    542.062    542.227    542.062
 23.570    546.743    544.196      2.547    541.746    544.029    541.746    541.914    541.746
 23.670    579.000    544.152     34.848    541.431    543.983    541.431    541.601    541.431
 23.770    537.000    544.181     -7.181    541.116    544.009    541.116    541.290    541.116
 23.870    532.902    544.315    -11.413    540.802    544.139    540.802    540.978    540.802
 23.970    578.000    544.609     33.391    540.488    544.431    540.488    540.668    540.488
 24.070    579.506    545.201     34.305    540.174    545.019    540.174    540.358    540.174
 24.170    535.000    546.463    -11.463    539.861    546.280    539.861    540.048    539.861
 24.270    570.000    549.381     20.619    539.548    549.196    539.548    539.739    539.548
 24.370    579.000    555.966     23.034    539.236    555.781    539.236    539.431    539.236
 24.470    524.737    568.950    -44.213    538.924    568.770    538.924    539.124    538.924
 24.570    594.783    589.634      5.149    538.613    589.465    538.613    538.818    538.613
 24.670    572.748    613.959    -41.211    538.303    613.802    538.303    538.512    538.303
 24.770    639.000    630.035      8.965    537.993    629.885    537.993    538.207    537.993
 24.870    618.000    626.117     -8.117    537.683    625.959    537.683    537.903    537.683
 24.970    619.000    605.356     13.644    537.375    605.178    537.375    537.600    537.375
 25.070    595.000    580.975     14.025    537.066    580.774    537.066    537.298    537.066
 25.170    578.117    562.250     15.867    536.759    562.030    536.759    536.996    536.759
 25.270    587.229    551.072     36.157    536.452    550.837    536.452    536.696    536.452
 25.370    566.704    545.387     21.317    536.146    545.141    536.146    536.397    536.146
 25.470    549.000    542.614      6.386    535.840    542.358    535.840    536.099    535.840
 25.570    503.000    541.112    -38.112    535.535    540.847    535.535    535.802    535.535
 25.670    570.476    540.136     30.340    535.231    539.861    535.231    535.507    535.231
 25.770    500.000    539.411    -39.411    534.927    539.127    534.927    535.213    534.927
 25.870    561.000    538.840     22.160    534.624    538.545    534.624    534.920    534.624
 25.970    531.858    538.401     -6.543    534.322    538.095    534.322    534.629    534.322
 26.070    549.023    538.039     10.985    534.020    537.720    534.020    534.339    534.020
 26.170    540.000    537.722      2.278    533.720    537.391    533.720    534.051    533.720
 26.270    555.000    537.454     17.546    533.420    537.108    533.420    533.765    533.420
 26.370    525.698    537.236    -11.538    533.121    536.876    533.121    533.481    533.121
 26.470    513.872    537.069    -23.198    532.822    536.692    532.822    533.199    532.822
 26.570    551.000    536.955     14.045    532.525    536.560    532.525    532.920    532.525
 26.670    565.000    536.899     28.101    532.228    536.484    532.228    532.643    532.228
 26.770    506.000    536.925    -30.925    531.932    536.488    531.932    532.369    531.932
 26.870    564.000    537.050     26.950    531.637    536.589    531.637    532.097    531.637
 26.970    520.000    537.234    -17.234    531.342    536.746    531.342    531.830    531.342
 27.070    533.000    537.535     -4.535    531.049    537.017    531.049    531.566    531.049
 27.170    543.785    537.992      5.793    530.757    537.441    530.757    531.307    530.757
 27.270    552.000    538.660     13.340    530.465    538.072    530.465    531.052    530.465
 27.370    569.231    539.624     29.607    530.174    538.994    530.174    530.803    530.174
 27.470    528.000    541.036    -13.036    529.884    540.358    529.884    530.560    529.884
 27.570    549.000    543.299      5.701    529.595    542.566    529.595    530.325    529.595
 27.670    556.000    547.830      8.170    529.307    547.035    529.307    530.099    529.307
 27.770    624.000    559.401     64.599    529.020    558.531    529.020    529.883    529.020
 27.870    612.915    589.985     22.930    528.734    589.022    528.734    529.679    528.734
 27.970    651.846    658.022     -6.175    528.449    656.940    528.449    529.490    528.449
 28.070    753.000    771.428    -18.428    528.165    770.200    528.165    529.319    528.165
 28.170    856.772    897.974    -41.203    527.882    896.582    527.882    529.171    527.882
 28.270    974.000    960.360     13.640    527.599    958.807    527.599    529.052    527.599
 28.370    941.000    907.760     33.240    527.318    906.046    527.318    528.969    527.318
 28.470    795.000    794.317      0.683    527.038    792.394    527.038    528.935    527.038
 28.570    710.000    706.501      3.499    526.759    704.279    526.759    528.969    526.759
 28.670    710.974    688.696     22.278    526.481    686.057    526.481    529.103    526.481
 28.770    782.000    735.567     46.433    526.203    732.354    526.203    529.396    526.203
 28.870    767.000    805.940    -38.940    525.927    801.913    525.927    529.940    525.927
 28.970    889.928    839.179     50.748    525.652    833.953    525.652    530.879    525.652
 29.070    762.129    799.597    -37.468    525.378    792.577    525.378    532.409    525.378
 29.170    698.000    718.352    -20.352    525.106    708.723    525.106    534.747    525.106
 29.270    641.000    643.645     -2.645    524.834    630.422    524.834    538.064    524.834
 29.370    643.426    597.360     46.066    524.563    579.570    524.563    542.355    524.563
 29.470    618.000    576.829     41.171    524.294    553.924    524.294    547.199    524.294
 29.570    530.070    570.196    -40.126    524.025    542.797    524.025    551.423    524.025
 29.670    555.647    567.343    -11.696    523.758    537.887    523.758    553.212    523.758
 29.770    597.000    563.246     33.754    523.492    535.273    523.492    551.463    523.492
 29.870    573.807    557.375     16.431    523.227    533.586    523.227    547.014    523.227
 29.970    525.000    551.108    -26.108    522.963    532.411    522.963    541.659    522.963
 30.070    550.000    545.613      4.387    522.700    531.611    522.700    536.700    522.700
 30.170    579.000    541.399     37.601    522.438    531.165    522.438    532.671    522.438
 30.270    564.000    538.642     25.358    522.178    531.183    522.178    529.635    522.178
 30.370    527.000    537.641    -10.641    521.919    532.115    521.919    527.442    521.919
