neutron_powder_diffraction_0117
R_wp: 3.890
Temperature (K): 972.096
Counts: 83263.00
Wavelength (Ã…): 2.52098
COMMENTS
Test file for demonstrating the .xyy file format in Reel1.0
END OF HEADER
   tth       Y_obs     Y_calc      Y_res    Background    Phase_1_Nuc    Phase_1_Mag    Phase_2_Nuc    Phase_2_Mag
  9.970    575.000    559.308     15.692    558.147    559.083    558.147    558.371    558.147
 10.070    557.604    559.682     -2.078    558.438    559.456    558.438    558.664    558.438
 10.170    592.000    560.061     31.939    558.721    559.834    558.721    558.948    558.721
 10.270    555.000    560.443     -5.443    558.995    560.215    558.995    559.223    558.995
 10.370    590.000    560.833     29.167    559.261    560.604    559.261    559.489    559.261
 10.470    596.000    561.235     34.765    559.518    561.005    559.518    559.747    559.518
 10.570    595.000    561.654     33.346    559.766    561.423    559.766    559.996    559.766
 10.670    557.804    562.098     -4.294    560.006    561.866    560.006    560.237    560.006
 10.770    577.000    562.575     14.425    560.238    562.342    560.238    560.470    560.238
 10.870    588.000    563.096     24.904    560.462    562.862    560.462    560.695    560.462
 10.970    597.000    563.679     33.321    560.677    563.444    560.677    560.911    560.677
 11.070    593.000    564.347     28.653    560.884    564.110    560.884    561.120    560.884
 11.170    591.400    565.134     26.266    561.084    564.896    561.084    561.320    561.084
 11.270    584.000    566.093     17.907    561.275    565.854    561.275    561.512    561.275
 11.370    579.000    567.321     11.679    561.459    567.080    561.459    561.697    561.459
 11.470    579.000    569.027      9.973    561.635    568.784    561.635    561.874    561.635
 11.570    569.000    571.718     -2.718    561.803    571.473    561.803    562.043    561.803
 11.670    585.000    576.559      8.441    561.963    576.309    561.963    562.204    561.963
 11.770    647.000    585.740     61.260    562.116    585.485    562.116    562.358    562.116
 11.870    648.250    602.226     46.024    562.261    601.960    562.261    562.505    562.261
 11.970    661.581    627.949     33.631    562.399    627.667    562.399    562.644    562.399
 12.070    647.000    660.135    -13.135    562.530    659.834    562.530    562.775    562.530
 12.170    683.262    687.425     -4.163    562.653    687.107    562.653    562.899    562.653
 12.270    740.091    693.312     46.779    562.769    692.989    562.769    563.017    562.769
 12.370    680.278    672.996      7.282    562.878    672.684    562.878    563.127    562.878
 12.470    660.526    640.760     19.766    562.979    640.466    562.979    563.229    562.979
 12.570    646.388    611.814     34.574    563.074    611.535    563.074    563.325    563.074
 12.670    608.000    591.981     16.019    563.162    591.713    563.162    563.414    563.162
 12.770    610.000    580.578     29.422    563.243    580.315    563.243    563.496    563.243
 12.870    551.027    574.658    -23.632    563.317    574.398    563.317    563.572    563.317
 12.970    554.000    571.597    -17.597    563.384    571.337    563.384    563.640    563.384
 13.070    615.229    569.853     45.376    563.445    569.593    563.445    563.702    563.445
 13.170    607.412    568.723     38.690    563.499    568.462    563.499    563.757    563.499
 13.270    559.000    567.918     -8.918    563.546    567.657    563.546    563.806    563.546
 13.370    580.493    567.316     13.177    563.587    567.053    563.587    563.848    563.587
 13.470    563.000    566.851     -3.851    563.622    566.588    563.622    563.884    563.622
 13.570    534.000    566.484    -32.484    563.650    566.220    563.650    563.913    563.650
 13.670    527.787    566.189    -38.401    563.672    565.923    563.672    563.936    563.672
 13.770    525.824    565.946    -40.122    563.688    565.679    563.688    563.953    563.688
 13.870    563.000    565.742     -2.742    563.697    565.474    563.697    563.964    563.697
 13.970    555.768    565.568     -9.800    563.701    565.298    563.701    563.969    563.701
 14.070    542.630    565.416    -22.786    563.698    565.146    563.698    563.968    563.698
 14.170    579.000    565.281     13.719    563.689    565.009    563.689    563.960    563.689
 14.270    534.746    565.158    -30.412    563.675    564.885    563.675    563.947    563.675
 14.370    543.811    565.045    -21.234    563.655    564.771    563.655    563.928    563.655
 14.470    566.000    564.940      1.060    563.628    564.665    563.628    563.904    563.628
 14.570    589.000    564.838     24.162    563.597    564.561    563.597    563.873    563.597
 14.670    551.815    564.739    -12.924    563.559    564.461    563.559    563.837    563.559
 14.770    539.000    564.642    -25.642    563.516    564.362    563.516    563.795    563.516
 14.870    538.726    564.546    -25.820    563.467    564.265    563.467    563.748    563.467
 14.970    558.000    564.450     -6.450    563.413    564.167    563.413    563.696    563.413
 15.070    550.767    564.353    -13.585    563.354    564.069    563.354    563.638    563.354
 15.170    560.005    564.255     -4.250    563.289    563.969    563.289    563.574    563.289
 15.270    598.000    564.155     33.845    563.219    563.868    563.219    563.505    563.219
 15.370    545.000    564.053    -19.053    563.143    563.765    563.143    563.432    563.143
 15.470    591.702    563.949     27.753    563.063    563.659    563.063    563.353    563.063
 15.570    557.534    563.844     -6.310    562.977    563.552    562.977    563.268    562.977
 15.670    567.000    563.735      3.265    562.886    563.442    562.886    563.179    562.886
 15.770    558.000    563.623     -5.623    562.790    563.328    562.790    563.085    562.790
 15.870    534.000    563.507    -29.507    562.689    563.210    562.689    562.986    562.689
 15.970    520.097    563.388    -43.291    562.584    563.090    562.584    562.882    562.584
 16.070    602.738    563.265     39.472    562.473    562.965    562.473    562.773    562.473
 16.170    589.000    563.140     25.860    562.358    562.838    562.358    562.660    562.358
 16.270    603.000    563.010     39.989    562.238    562.707    562.238    562.542    562.238
 16.370    536.534    562.877    -26.343    562.114    562.572    562.114    562.419    562.114
 16.470    550.000    562.741    -12.741    561.984    562.434    561.984    562.291    561.984
 16.570    573.000    562.601     10.399    561.851    562.292    561.851    562.160    561.851
 16.670    527.000    562.457    -35.457    561.713    562.146    561.713    562.023    561.713
 16.770    594.407    562.310     32.097    561.570    561.997    561.570    561.882    561.570
 16.870    526.000    562.161    -36.161    561.423    561.846    561.423    561.737    561.423
 16.970    598.000    562.029     35.971    561.271    561.712    561.271    561.588    561.271
 17.070    573.967    561.875     12.092    561.116    561.557    561.116    561.434    561.116
 17.170    552.000    561.714     -9.714    560.956    561.393    560.956    561.276    560.956
 17.270    537.200    561.548    -24.349    560.792    561.226    560.792    561.114    560.792
 17.370    574.000    561.380     12.620    560.624    561.055    560.624    560.948    560.624
 17.470    533.000    561.207    -28.207    560.452    560.881    560.452    560.778    560.452
 17.570    566.407    561.031      5.375    560.276    560.703    560.276    560.604    560.276
 17.670    516.485    560.855    -44.371    560.095    560.525    560.095    560.426    560.095
 17.770    531.000    560.713    -29.713    559.911    560.380    559.911    560.245    559.911
 17.870    538.000    560.600    -22.600    559.724    560.265    559.724    560.059    559.724
 17.970    573.000    560.418     12.582    559.532    560.081    559.532    559.870    559.532
 18.070    563.240    560.226      3.015    559.337    559.886    559.337    559.676    559.337
 18.170    527.564    560.030    -32.466    559.138    559.688    559.138    559.480    559.138
 18.270    601.656    559.831     41.825    558.935    559.487    558.935    559.279    558.935
 18.370    569.000    559.631      9.369    558.729    559.284    558.729    559.076    558.729
 18.470    554.000    559.429     -5.429    558.519    559.079    558.519    558.868    558.519
 18.570    568.000    559.221      8.779    558.305    558.869    558.305    558.658    558.305
 18.670    596.623    559.009     37.614    558.089    558.655    558.089    558.443    558.089
 18.770    590.000    558.795     31.205    557.869    558.438    557.869    558.226    557.869
 18.870    561.000    558.578      2.422    557.645    558.218    557.645    558.005    557.645
 18.970    552.000    558.358     -6.358    557.418    557.995    557.418    557.781    557.418
 19.070    524.000    558.135    -34.135    557.188    557.770    557.188    557.554    557.188
 19.170    518.000    557.910    -39.910    556.955    557.542    556.955    557.323    556.955
 19.270    505.000    557.682    -52.682    556.719    557.311    556.719    557.090    556.719
 19.370    585.396    557.455     27.941    556.480    557.081    556.480    556.854    556.480
 19.470    542.615    557.225    -14.609    556.237    556.848    556.237    556.614    556.237
 19.570    577.605    556.989     20.616    555.992    556.609    555.992    556.372    555.992
 19.670    557.000    556.751      0.249    555.743    556.368    555.743    556.127    555.743
 19.770    557.324    556.510      0.814    555.492    556.124    555.492    555.878    555.492
 19.870    555.000    556.267     -1.267    555.238    555.878    555.238    555.628    555.238
 19.970    564.637    556.022      8.615    554.981    555.629    554.981    555.374    554.981
 20.070    549.486    555.776     -6.290    554.721    555.380    554.721    555.118    554.721
 20.170    578.000    555.543     22.457    554.459    555.143    554.459    554.859    554.459
 20.270    544.000    555.344    -11.344    554.194    554.941    554.194    554.597    554.194
 20.370    550.000    555.097     -5.097    553.926    554.690    553.926    554.333    553.926
 20.470    519.000    554.843    -35.843    553.656    554.432    553.656    554.067    553.656
 20.570    517.000    554.589    -37.589    553.383    554.175    553.383    553.798    553.383
 20.670    584.283    554.333     29.949    553.107    553.915    553.107    553.526    553.107
 20.770    511.000    554.074    -43.074    552.830    553.651    552.830    553.252    552.830
 20.870    592.748    553.813     38.935    552.550    553.387    552.550    552.976    552.550
 20.970    537.551    553.551    -16.001    552.267    553.121    552.267    552.698    552.267
 21.070    585.142    553.288     31.854    551.982    552.853    551.982    552.417    551.982
 21.170    511.011    553.025    -42.014    551.695    552.585    551.695    552.135    551.695
 21.270    562.000    552.762      9.238    551.406    552.318    551.406    551.850    551.406
 21.370    524.000    552.501    -28.501    551.114    552.052    551.114    551.563    551.114
 21.470    540.000    552.277    -12.277    550.820    551.823    550.820    551.274    550.820
 21.570    592.617    552.017     40.600    550.525    551.558    550.525    550.983    550.525
 21.670    589.676    551.751     37.924    550.227    551.288    550.227    550.691    550.227
 21.770    521.000    551.486    -30.486    549.927    551.017    549.927    550.396    549.927
 21.870    554.229    551.222      3.007    549.625    550.748    549.625    550.100    549.625
 21.970    577.000    550.961     26.039    549.321    550.481    549.321    549.801    549.321
 22.070    516.000    550.708    -34.708    549.015    550.222    549.015    549.501    549.015
 22.170    592.624    550.450     42.174    548.708    549.958    548.708    549.200    548.708
 22.270    587.000    550.203     36.797    548.399    549.705    548.399    548.897    548.399
 22.370    533.000    549.952    -16.952    548.087    549.448    548.087    548.592    548.087
 22.470    557.000    549.718      7.282    547.775    549.207    547.775    548.285    547.775
 22.570    586.000    549.481     36.519    547.460    548.964    547.460    547.978    547.460
 22.670    551.000    549.242      1.758    547.144    548.718    547.144    547.668    547.144
 22.770    518.466    549.010    -30.544    546.826    548.479    546.826    547.358    546.826
 22.870    549.628    548.788      0.840    546.507    548.249    546.507    547.046    546.507
 22.970    501.000    548.581    -47.581    546.186    548.034    546.186    546.733    546.186
 23.070    584.000    548.406     35.594    545.863    547.852    545.863    546.418    545.863
 23.170    576.000    548.238     27.762    545.539    547.675    545.539    546.103    545.539
 23.270    537.000    548.104    -11.104    545.214    547.533    545.214    545.786    545.214
 23.370    558.419    547.980     10.439    544.887    547.399    544.887    545.468    544.887
 23.470    535.061    547.890    -12.829    544.559    547.301    544.559    545.150    544.559
 23.570    592.096    547.854     44.242    544.230    547.255    544.230    544.830    544.230
 23.670    507.299    547.922    -40.623    543.899    547.313    543.899    544.509    543.899
 23.770    550.845    548.052      2.792    543.567    547.433    543.567    544.188    543.567
 23.870    564.000    548.308     15.692    543.234    547.678    543.234    543.866    543.234
 23.970    540.000    548.755     -8.755    542.900    548.114    542.900    543.543    542.900
 24.070    550.000    549.563      0.437    542.564    548.911    542.564    543.220    542.564
 24.170    513.000    551.134    -38.134    542.228    550.471    542.228    542.896    542.228
 24.270    553.000    554.280     -1.280    541.890    553.606    541.890    542.571    541.890
 24.370    577.000    560.420     16.580    541.552    559.737    541.552    542.247    541.552
 24.470    544.000    571.422    -27.422    541.212    570.732    541.212    541.922    541.212
 24.570    586.000    588.286     -2.286    540.872    587.593    540.872    541.596    540.872
 24.670    578.217    608.937    -30.720    540.530    608.243    540.530    541.271    540.530
 24.770    607.000    625.995    -18.995    540.188    625.297    540.188    540.945    540.188
 24.870    614.000    629.201    -15.201    539.845    628.487    539.845    540.620    539.845
 24.970    592.000    615.749    -23.749    539.500    615.007    539.500    540.294    539.500
 25.070    587.000    594.522     -7.522    539.156    593.746    539.156    539.969    539.156
 25.170    568.000    575.098     -7.098    538.810    574.287    538.810    539.644    538.810
 25.270    545.000    561.359    -16.359    538.464    560.518    538.464    539.320    538.464
 25.370    538.000    553.104    -15.104    538.117    552.233    538.117    538.996    538.117
 25.470    542.565    548.572     -6.006    537.769    547.673    537.769    538.673    537.769
 25.570    581.000    546.069     34.931    537.421    545.142    537.421    538.351    537.421
 25.670    536.143    544.537     -8.394    537.072    543.582    537.072    538.030    537.072
 25.770    572.000    543.471     28.529    536.723    542.486    536.723    537.710    536.723
 25.870    550.000    542.656      7.344    536.373    541.639    536.373    537.392    536.373
 25.970    501.477    542.003    -40.526    536.022    540.951    536.022    537.075    536.022
 26.070    507.999    541.466    -33.468    535.671    540.378    535.671    536.761    535.671
 26.170    565.000    541.021     23.979    535.320    539.894    535.320    536.448    535.320
 26.270    565.000    540.653     24.347    534.968    539.484    534.968    536.138    534.968
 26.370    556.000    540.350     15.650    534.616    539.136    534.616    535.831    534.616
 26.470    562.000    540.110     21.890    534.264    538.848    534.264    535.527    534.264
 26.570    539.000    539.930     -0.930    533.911    538.615    533.911    535.226    533.911
 26.670    545.436    539.813      5.623    533.558    538.442    533.558    534.930    533.558
 26.770    516.439    539.767    -23.328    533.205    538.334    533.205    534.637    533.205
 26.870    518.000    539.801    -21.801    532.851    538.302    532.851    534.350    532.851
 26.970    523.000    539.932    -16.932    532.497    538.360    532.497    534.069    532.497
 27.070    536.000    540.183     -4.183    532.143    538.532    532.143    533.794    532.143
 27.170    583.000    540.586     42.414    531.789    538.848    531.789    533.527    531.789
 27.270    570.424    541.191     29.233    531.435    539.358    531.435    533.267    531.435
 27.370    599.000    542.076     56.924    531.081    540.139    531.081    533.017    531.081
 27.470    570.000    543.380     26.620    530.727    541.328    530.727    532.777    530.727
 27.570    600.000    545.469     54.531    530.372    543.291    530.372    532.549    530.372
 27.670    566.000    549.603     16.397    530.018    547.284    530.018    532.334    530.018
 27.770    592.240    559.892     32.348    529.664    557.416    529.664    532.133    529.664
 27.870    599.288    586.484     12.804    529.309    583.828    529.309    531.948    529.309
 27.970    671.000    645.262     25.738    528.955    642.399    528.955    531.781    528.955
 28.070    739.000    744.930     -5.930    528.601    741.830    528.601    531.634    528.601
 28.170    917.278    862.864     54.414    528.247    859.508    528.247    531.509    528.247
 28.270    980.537    936.800     43.736    527.893    933.191    527.893    531.407    527.893
 28.370    896.000    914.239    -18.239    527.540    910.382    527.540    531.330    527.540
 28.470    812.000    821.804     -9.804    527.186    817.678    527.186    531.281    527.186
 28.570    750.284    733.067     17.217    526.833    728.627    526.833    531.259    526.833
 28.670    692.000    699.856     -7.856    526.480    695.058    526.480    531.264    526.480
 28.770    741.177    728.626     12.551    526.128    723.438    526.128    531.295    526.128
 28.870    818.741    788.578     30.163    525.775    782.980    525.775    531.349    525.775
 28.970    864.143    827.388     36.755    525.423    821.376    525.423    531.419    525.423
 29.070    791.000    805.987    -14.987    525.072    799.564    525.072    531.495    525.072
 29.170    725.650    737.155    -11.505    524.721    730.322    524.721    531.564    524.721
 29.270    664.164    660.872      3.292    524.370    653.645    524.370    531.610    524.370
 29.370    599.000    603.927     -4.927    524.019    596.344    524.019    531.612    524.019
 29.470    591.033    571.106     19.927    523.669    563.231    523.669    531.550    523.669
 29.570    562.000    555.268      6.732    523.320    547.187    523.320    531.403    523.320
 29.670    598.000    548.082     49.918    522.971    539.897    522.971    531.157    522.971
 29.770    603.000    544.450     58.550    522.622    536.270    522.622    530.804    522.622
 29.870    612.000    542.174     69.826    522.274    534.106    522.274    530.343    522.274
 29.970    576.000    540.497     35.503    521.927    532.639    521.927    529.785    521.927
 30.070    519.616    539.190    -19.574    521.580    531.625    521.580    529.146    521.580
 30.170    591.000    538.219     52.781    521.234    531.008    521.234    528.445    521.234
 30.270    566.000    537.700     28.300    520.889    530.883    520.889    527.704    520.889
 30.370    563.000    538.040     24.960    520.544    531.640    520.544    526.942    520.544
