neutron_powder_diffraction_0082
R_wp: 4.464
Temperature (K): 803.908
Counts: 83470.00
Wavelength (Ã…): 2.52098
COMMENTS
Test file for demonstrating the .xyy file format in Reel1.0
END OF HEADER
   tth       Y_obs     Y_calc      Y_res    Background    Phase_1_Nuc    Phase_1_Mag    Phase_2_Nuc    Phase_2_Mag
  9.970    592.000    587.156      4.844    586.039    587.155    586.039    586.039    586.039
 10.070    646.000    587.626     58.374    586.420    587.626    586.420    586.420    586.420
 10.170    559.185    588.100    -28.916    586.791    588.100    586.791    586.791    586.791
 10.270    627.000    588.580     38.420    587.152    588.579    587.152    587.152    587.152
 10.370    547.565    589.069    -41.504    587.505    589.068    587.505    587.505    587.505
 10.470    625.000    589.571     35.429    587.848    589.571    587.848    587.848    587.848
 10.570    665.000    590.095     74.905    588.182    590.094    588.182    588.182    588.182
 10.670    621.000    590.642     30.358    588.507    590.641    588.507    588.507    588.507
 10.770    633.000    591.222     41.778    588.822    591.221    588.822    588.822    588.822
 10.870    580.390    591.850    -11.460    589.129    591.848    589.129    589.129    589.129
 10.970    568.109    592.541    -24.432    589.427    592.539    589.427    589.427    589.427
 11.070    550.000    593.319    -43.319    589.716    593.317    589.716    589.716    589.716
 11.170    608.116    594.218     13.897    589.996    594.216    589.996    589.996    589.996
 11.270    553.321    595.289    -41.968    590.267    595.286    590.267    590.267    590.267
 11.370    606.622    596.617     10.006    590.530    596.613    590.530    590.530    590.530
 11.470    623.000    598.373     24.627    590.785    598.369    590.785    590.785    590.785
 11.570    668.000    600.964     67.036    591.031    600.959    591.031    591.031    591.031
 11.670    632.000    605.398     26.602    591.268    605.390    591.268    591.268    591.268
 11.770    683.000    613.482     69.518    591.497    613.469    591.497    591.497    591.497
 11.870    698.000    628.074     69.926    591.718    628.054    591.718    591.718    591.718
 11.970    671.000    651.972     19.028    591.931    651.939    591.931    591.931    591.931
 12.070    685.723    684.750      0.972    592.135    684.699    592.135    592.135    592.135
 12.170    694.000    718.325    -24.325    592.332    718.254    592.332    592.332    592.332
 12.270    740.000    734.825      5.175    592.520    734.746    592.520    592.520    592.520
 12.370    693.000    721.463    -28.463    592.700    721.391    592.700    592.700    592.700
 12.470    703.895    689.274     14.621    592.873    689.220    592.873    592.873    592.873
 12.570    685.128    656.350     28.778    593.038    656.314    593.038    593.038    593.038
 12.670    618.000    631.789    -13.789    593.195    631.767    593.195    593.195    593.195
 12.770    632.517    616.656     15.860    593.344    616.644    593.344    593.344    593.344
 12.870    622.000    608.423     13.577    593.486    608.415    593.486    593.486    593.486
 12.970    601.000    604.131     -3.131    593.621    604.126    593.621    593.621    593.621
 13.070    576.000    601.773    -25.773    593.748    601.769    593.748    593.748    593.748
 13.170    632.291    600.333     31.958    593.867    600.329    593.867    593.867    593.867
 13.270    599.000    599.362     -0.362    593.979    599.359    593.979    593.979    593.979
 13.370    623.818    598.648     25.170    594.084    598.646    594.084    594.084    594.084
 13.470    556.822    598.114    -41.292    594.182    598.112    594.182    594.182    594.182
 13.570    549.000    597.707    -48.707    594.272    597.705    594.272    594.272    594.272
 13.670    556.000    597.392    -41.392    594.356    597.390    594.356    594.356    594.356
 13.770    625.003    597.145     27.858    594.432    597.144    594.432    594.432    594.432
 13.870    586.000    596.948    -10.948    594.502    596.947    594.502    594.502    594.502
 13.970    606.000    596.790      9.210    594.564    596.789    594.564    594.564    594.564
 14.070    594.000    596.660     -2.660    594.620    596.659    594.620    594.620    594.620
 14.170    593.000    596.552     -3.552    594.669    596.552    594.669    594.669    594.669
 14.270    611.000    596.462     14.538    594.712    596.462    594.712    594.712    594.712
 14.370    551.000    596.387    -45.387    594.747    596.386    594.747    594.747    594.747
 14.470    574.000    596.317    -22.317    594.777    596.316    594.777    594.777    594.777
 14.570    557.003    596.253    -39.250    594.799    596.253    594.799    594.799    594.799
 14.670    577.000    596.194    -19.194    594.815    596.193    594.815    594.815    594.815
 14.770    579.000    596.138    -17.138    594.825    596.137    594.825    594.825    594.825
 14.870    585.000    596.083    -11.083    594.829    596.082    594.829    594.829    594.829
 14.970    637.000    596.029     40.971    594.826    596.029    594.826    594.826    594.826
 15.070    549.871    595.976    -46.106    594.817    595.976    594.817    594.817    594.817
 15.170    594.898    595.921     -1.023    594.802    595.921    594.802    594.802    594.802
 15.270    560.000    595.870    -35.870    594.781    595.869    594.781    594.781    594.781
 15.370    585.000    595.872    -10.872    594.754    595.872    594.754    594.754    594.754
 15.470    559.000    595.831    -36.831    594.721    595.831    594.721    594.721    594.721
 15.570    588.169    595.768     -7.599    594.682    595.768    594.682    594.682    594.682
 15.670    566.000    595.701    -29.701    594.637    595.701    594.637    594.637    594.637
 15.770    588.000    595.635     -7.635    594.586    595.635    594.586    594.586    594.586
 15.870    614.000    595.563     18.437    594.530    595.563    594.530    594.530    594.530
 15.970    567.000    595.485    -28.485    594.468    595.485    594.468    594.468    594.468
 16.070    564.000    595.403    -31.403    594.400    595.403    594.400    594.400    594.400
 16.170    589.000    595.318     -6.318    594.327    595.318    594.327    594.327    594.327
 16.270    558.937    595.237    -36.299    594.248    595.236    594.248    594.248    594.248
 16.370    563.000    595.149    -32.149    594.164    595.148    594.164    594.164    594.164
 16.470    607.000    595.051     11.949    594.074    595.051    594.074    594.074    594.074
 16.570    629.295    594.949     34.347    593.979    594.949    593.979    593.979    593.979
 16.670    569.800    594.847    -25.048    593.879    594.847    593.879    593.879    593.879
 16.770    574.000    594.792    -20.792    593.774    594.791    593.774    593.774    593.774
 16.870    592.000    594.689     -2.689    593.663    594.689    593.663    593.663    593.663
 16.970    557.000    594.571    -37.571    593.547    594.571    593.547    593.547    593.547
 17.070    609.000    594.453     14.547    593.427    594.453    593.427    593.427    593.427
 17.170    584.000    594.350    -10.350    593.301    594.350    593.301    593.301    593.301
 17.270    573.000    594.227    -21.227    593.170    594.227    593.170    593.170    593.170
 17.370    615.421    594.099     21.323    593.035    594.099    593.035    593.035    593.035
 17.470    562.000    593.959    -31.959    592.895    593.959    592.895    592.895    592.895
 17.570    581.000    593.815    -12.815    592.749    593.815    592.749    592.749    592.749
 17.670    560.000    593.667    -33.667    592.600    593.667    592.600    592.600    592.600
 17.770    585.000    593.514     -8.514    592.445    593.514    592.445    592.445    592.445
 17.870    574.000    593.358    -19.358    592.286    593.358    592.286    592.286    592.286
 17.970    556.000    593.198    -37.198    592.122    593.198    592.122    592.122    592.122
 18.070    588.000    593.035     -5.035    591.954    593.035    591.954    591.954    591.954
 18.170    551.406    592.886    -41.479    591.781    592.886    591.781    591.781    591.781
 18.270    625.788    592.728     33.060    591.604    592.728    591.604    591.604    591.604
 18.370    630.441    592.560     37.881    591.423    592.560    591.423    591.423    591.423
 18.470    644.682    592.409     52.272    591.237    592.409    591.237    591.237    591.237
 18.570    585.000    592.243     -7.243    591.047    592.243    591.047    591.047    591.047
 18.670    626.443    592.083     34.360    590.853    592.083    590.853    590.853    590.853
 18.770    590.076    591.954     -1.878    590.654    591.954    590.654    590.654    590.654
 18.870    545.838    591.766    -45.928    590.452    591.766    590.452    590.452    590.452
 18.970    636.750    591.568     45.181    590.245    591.568    590.245    590.245    590.245
 19.070    589.000    591.369     -2.369    590.034    591.369    590.034    590.034    590.034
 19.170    547.000    591.181    -44.181    589.820    591.181    589.820    589.820    589.820
 19.270    584.682    591.021     -6.339    589.601    591.021    589.601    589.601    589.601
 19.370    600.000    590.840      9.160    589.379    590.840    589.379    589.379    589.379
 19.470    579.000    590.629    -11.629    589.153    590.629    589.153    589.153    589.153
 19.570    588.000    590.412     -2.412    588.923    590.412    588.923    588.923    588.923
 19.670    531.000    590.192    -59.192    588.690    590.192    588.690    588.690    588.690
 19.770    585.312    589.970     -4.657    588.452    589.970    588.452    588.452    588.452
 19.870    554.000    589.749    -35.749    588.211    589.749    588.211    588.211    588.211
 19.970    543.439    589.522    -46.083    587.967    589.522    587.967    587.967    587.967
 20.070    626.542    589.293     37.249    587.719    589.293    587.719    587.719    587.719
 20.170    597.834    589.063      8.771    587.468    589.063    587.468    587.468    587.468
 20.270    570.000    588.831    -18.831    587.213    588.831    587.213    587.213    587.213
 20.370    545.385    588.596    -43.211    586.954    588.596    586.954    586.954    586.954
 20.470    570.000    588.358    -18.358    586.693    588.358    586.693    586.693    586.693
 20.570    585.000    588.114     -3.114    586.428    588.114    586.428    586.428    586.428
 20.670    550.000    587.870    -37.870    586.160    587.870    586.160    586.160    586.160
 20.770    626.009    587.623     38.386    585.889    587.623    585.889    585.889    585.889
 20.870    568.000    587.374    -19.374    585.614    587.374    585.614    585.614    585.614
 20.970    575.995    587.122    -11.127    585.336    587.122    585.336    585.336    585.336
 21.070    564.000    586.871    -22.871    585.056    586.871    585.056    585.056    585.056
 21.170    634.708    586.616     48.092    584.772    586.616    584.772    584.772    584.772
 21.270    514.000    586.360    -72.360    584.485    586.360    584.485    584.485    584.485
 21.370    580.000    586.102     -6.102    584.196    586.102    584.196    584.196    584.196
 21.470    608.000    585.844     22.156    583.903    585.844    583.903    583.903    583.903
 21.570    598.000    585.584     12.416    583.608    585.584    583.608    583.608    583.608
 21.670    573.000    585.325    -12.325    583.310    585.325    583.310    583.310    583.310
 21.770    523.000    585.065    -62.065    583.009    585.065    583.009    583.009    583.009
 21.870    604.787    584.805     19.982    582.705    584.805    582.705    582.705    582.705
 21.970    593.000    584.546      8.454    582.399    584.546    582.399    582.399    582.399
 22.070    613.000    584.288     28.712    582.090    584.288    582.090    582.090    582.090
 22.170    586.000    584.031      1.969    581.779    584.032    581.779    581.779    581.779
 22.270    550.949    583.777    -32.828    581.465    583.777    581.465    581.465    581.465
 22.370    589.000    583.526      5.474    581.148    583.526    581.148    581.148    581.148
 22.470    547.000    583.279    -36.279    580.829    583.279    580.829    580.829    580.829
 22.570    594.000    583.036     10.964    580.508    583.036    580.508    580.508    580.508
 22.670    542.750    582.799    -40.049    580.184    582.800    580.184    580.184    580.184
 22.770    607.000    582.569     24.431    579.858    582.570    579.858    579.858    579.858
 22.870    550.916    582.348    -31.432    579.529    582.348    579.529    579.529    579.529
 22.970    590.243    582.137      8.105    579.198    582.138    579.198    579.198    579.198
 23.070    632.554    581.941     50.614    578.865    581.941    578.865    578.865    578.865
 23.170    554.000    581.761    -27.761    578.530    581.762    578.530    578.530    578.530
 23.270    563.375    581.604    -18.229    578.193    581.605    578.193    578.193    578.193
 23.370    560.574    581.475    -20.901    577.854    581.476    577.854    577.854    577.854
 23.470    531.151    581.382    -50.231    577.512    581.383    577.512    577.512    577.512
 23.570    543.000    581.334    -38.334    577.169    581.335    577.169    577.169    577.169
 23.670    585.000    581.347      3.653    576.823    581.349    576.823    576.823    576.823
 23.770    547.000    581.443    -34.443    576.476    581.444    576.476    576.476    576.476
 23.870    586.603    581.651      4.952    576.127    581.653    576.127    576.127    576.127
 23.970    615.000    582.026     32.974    575.775    582.028    575.775    575.775    575.775
 24.070    558.000    582.669    -24.669    575.422    582.672    575.422    575.422    575.422
 24.170    617.000    583.813     33.187    575.068    583.818    575.068    575.068    575.068
 24.270    639.000    585.987     53.013    574.711    585.993    574.711    574.711    574.711
 24.370    603.126    590.244     12.881    574.353    590.253    574.353    574.353    574.353
 24.470    601.865    598.228      3.637    573.993    598.243    573.993    573.993    573.993
 24.570    625.000    611.642     13.358    573.631    611.667    573.631    573.631    573.631
 24.670    663.000    630.771     32.229    573.268    630.809    573.268    573.268    573.268
 24.770    647.000    652.095     -5.095    572.903    652.149    572.903    572.903    572.903
 24.870    669.000    666.544      2.456    572.536    666.609    572.536    572.536    572.536
 24.970    612.525    664.808    -52.284    572.169    664.873    572.169    572.169    572.169
 25.070    713.000    648.039     64.961    571.799    648.091    571.799    571.799    571.799
 25.170    668.439    626.145     42.295    571.428    626.181    571.428    571.428    571.428
 25.270    609.000    607.291      1.709    571.056    607.314    571.056    571.056    571.056
 25.370    590.000    594.258     -4.258    570.683    594.272    570.683    570.683    570.683
 25.470    553.000    586.428    -33.428    570.308    586.436    570.308    570.308    570.308
 25.570    614.000    582.051     31.949    569.932    582.057    569.932    569.932    569.932
 25.670    553.784    579.569    -25.785    569.554    579.573    569.554    569.554    569.554
 25.770    607.000    578.026     28.974    569.175    578.029    569.175    569.175    569.175
 25.870    585.000    576.954      8.046    568.796    576.956    568.796    568.796    568.796
 25.970    550.600    576.152    -25.551    568.415    576.154    568.415    568.415    568.415
 26.070    533.074    575.530    -42.456    568.032    575.531    568.032    568.032    568.032
 26.170    521.077    575.044    -53.968    567.649    575.046    567.649    567.649    567.649
 26.270    524.699    574.672    -49.973    567.265    574.673    567.265    567.265    567.265
 26.370    651.000    574.399     76.601    566.879    574.400    566.879    566.879    566.879
 26.470    529.527    574.221    -44.694    566.493    574.221    566.493    566.493    566.493
 26.570    675.000    574.137    100.863    566.106    574.137    566.106    566.106    566.106
 26.670    614.000    574.154     39.846    565.717    574.154    565.717    565.717    565.717
 26.770    621.000    574.284     46.716    565.328    574.284    565.328    565.328    565.328
 26.870    609.000    574.546     34.454    564.938    574.545    564.938    564.938    564.938
 26.970    592.404    574.966     17.437    564.547    574.966    564.547    564.547    564.547
 27.070    596.106    575.585     20.521    564.156    575.584    564.156    564.156    564.156
 27.170    630.914    576.458     54.456    563.763    576.457    563.763    563.763    563.763
 27.270    622.000    577.666     44.334    563.370    577.664    563.370    563.370    563.370
 27.370    611.310    579.336     31.974    562.976    579.334    562.976    562.976    562.976
 27.470    633.000    581.694     51.306    562.581    581.691    562.581    562.581    562.581
 27.570    722.000    585.234    136.766    562.186    585.230    562.186    562.186    562.186
 27.670    653.000    591.206     61.794    561.790    591.200    561.790    561.790    561.790
 27.770    662.000    602.638     59.362    561.394    602.627    561.394    561.394    561.394
 27.870    626.000    625.581      0.419    560.996    625.562    560.996    560.996    560.996
 27.970    652.526    668.815    -16.289    560.599    668.782    560.599    560.599    560.599
 28.070    687.450    739.069    -51.619    560.201    739.016    560.201    560.201    560.201
 28.170    828.823    830.928     -2.105    559.802    830.858    559.802    559.802    559.802
 28.270    881.586    916.267    -34.681    559.403    916.192    559.403    559.403    559.403
 28.370    979.000    949.356     29.644    559.003    949.292    559.003    559.003    559.003
 28.470    957.000    910.474     46.526    558.604    910.430    558.604    558.604    558.604
 28.570    853.000    838.776     14.224    558.203    838.745    558.203    558.203    558.203
 28.670    788.000    784.903      3.097    557.803    784.879    557.803    557.803    557.803
 28.770    748.338    772.746    -24.408    557.402    772.724    557.402    557.402    557.402
 28.870    825.893    797.850     28.044    557.000    797.830    557.000    557.000    557.000
 28.970    841.000    833.521      7.479    556.599    833.509    556.599    556.599    556.599
 29.070    910.000    842.594     67.406    556.197    842.593    556.197    556.197    556.197
 29.170    776.299    806.552    -30.253    555.795    806.559    555.795    555.795    555.795
 29.270    783.587    744.235     39.352    555.393    744.243    555.393    555.393    555.393
 29.370    742.577    683.163     59.414    554.991    683.170    554.991    554.991    554.991
 29.470    711.000    637.130     73.870    554.588    637.134    554.588    554.588    554.588
 29.570    634.000    607.808     26.192    554.186    607.810    554.186    554.186    554.186
 29.670    626.000    591.076     34.924    553.783    591.076    553.783    553.783    553.783
 29.770    662.000    581.878     80.122    553.381    581.877    553.381    553.381    553.381
 29.870    621.994    576.580     45.414    552.978    576.579    552.978    552.978    552.978
 29.970    643.000    573.231     69.769    552.575    573.229    552.575    552.575    552.575
 30.070    614.289    570.967     43.322    552.173    570.965    552.173    552.173    552.173
 30.170    619.000    569.467     49.533    551.770    569.464    551.770    551.770    551.770
 30.270    615.000    568.685     46.315    551.368    568.681    551.368    551.368    551.368
 30.370    605.601    568.826     36.775    550.965    568.821    550.965    550.965    550.965
