neutron_powder_diffraction_0239
R_wp: 3.962
Temperature (K): 1005.647
Counts: 84063.00
Wavelength (Ã…): 2.52098
COMMENTS
Test file for demonstrating the .xyy file format in Reel1.0
END OF HEADER
   tth       Y_obs     Y_calc      Y_res    Background    Phase_1_Nuc    Phase_1_Mag    Phase_2_Nuc    Phase_2_Mag
  9.970    596.000    570.574     25.426    569.904    570.539    569.904    569.939    569.904
 10.070    610.000    570.726     39.274    569.986    570.690    569.986    570.022    569.986
 10.170    607.000    570.873     36.127    570.062    570.837    570.062    570.098    570.062
 10.270    538.952    571.018    -32.067    570.132    570.982    570.132    570.168    570.132
 10.370    600.000    571.169     28.831    570.196    571.132    570.196    570.232    570.196
 10.470    607.000    571.330     35.670    570.254    571.292    570.254    570.291    570.254
 10.570    551.000    571.509    -20.509    570.307    571.464    570.307    570.351    570.307
 10.670    546.839    571.705    -24.867    570.354    571.654    570.354    570.405    570.354
 10.770    595.754    571.920     23.834    570.395    571.867    570.395    570.447    570.395
 10.870    591.705    572.166     19.539    570.431    572.113    570.431    570.483    570.431
 10.970    624.000    572.456     51.544    570.461    572.403    570.461    570.513    570.461
 11.070    588.000    572.808     15.192    570.486    572.754    570.486    570.538    570.486
 11.170    568.000    573.246     -5.246    570.505    573.192    570.505    570.558    570.505
 11.270    564.000    573.808     -9.808    570.519    573.753    570.519    570.572    570.519
 11.370    565.000    574.560     -9.560    570.528    574.504    570.528    570.581    570.528
 11.470    580.000    575.642      4.358    570.531    575.586    570.531    570.585    570.531
 11.570    625.000    577.437     47.563    570.530    577.376    570.530    570.587    570.530
 11.670    545.832    580.984    -35.152    570.523    580.917    570.523    570.584    570.523
 11.770    663.000    588.663     74.337    570.511    588.591    570.511    570.573    570.511
 11.870    635.000    604.341     30.659    570.494    604.260    570.494    570.556    570.494
 11.970    618.604    631.241    -12.637    570.472    631.145    570.472    570.534    570.472
 12.070    618.401    666.667    -48.266    570.445    666.551    570.445    570.508    570.445
 12.170    677.000    696.598    -19.598    570.413    696.464    570.413    570.476    570.413
 12.270    727.456    701.181     26.276    570.377    701.044    570.377    570.440    570.377
 12.370    638.000    676.304    -38.304    570.335    676.182    570.335    570.399    570.335
 12.470    645.000    640.091      4.909    570.289    639.988    570.289    570.353    570.289
 12.570    577.000    609.997    -32.997    570.238    609.910    570.238    570.303    570.238
 12.670    630.000    591.413     38.587    570.183    591.336    570.183    570.247    570.183
 12.770    590.895    581.999      8.896    570.123    581.927    570.123    570.188    570.123
 12.870    550.000    577.641    -27.641    570.058    577.571    570.058    570.123    570.058
 12.970    519.000    575.488    -56.488    569.989    575.420    569.989    570.055    569.989
 13.070    525.000    574.214    -49.214    569.916    574.146    569.916    569.982    569.916
 13.170    536.000    573.329    -37.329    569.838    573.261    569.838    569.904    569.838
 13.270    553.000    572.660    -19.660    569.756    572.591    569.756    569.823    569.756
 13.370    581.000    572.131      8.869    569.669    572.059    569.669    569.740    569.669
 13.470    542.704    571.696    -28.992    569.579    571.623    569.579    569.650    569.579
 13.570    583.000    571.329     11.671    569.484    571.255    569.484    569.556    569.484
 13.670    511.000    571.010    -60.010    569.385    570.936    569.385    569.458    569.385
 13.770    585.000    570.729     14.271    569.281    570.654    569.281    569.355    569.281
 13.870    554.000    570.474    -16.474    569.174    570.399    569.174    569.249    569.174
 13.970    614.086    570.240     43.846    569.063    570.165    569.063    569.138    569.063
 14.070    526.000    570.022    -44.022    568.948    569.946    568.948    569.023    568.948
 14.170    571.604    569.815      1.789    568.828    569.739    568.828    568.904    568.828
 14.270    563.000    569.617     -6.617    568.705    569.540    568.705    568.782    568.705
 14.370    551.000    569.426    -18.426    568.579    569.349    568.579    568.655    568.579
 14.470    559.000    569.243    -10.243    568.448    569.166    568.448    568.525    568.448
 14.570    575.012    569.063      5.949    568.314    568.985    568.314    568.391    568.314
 14.670    586.000    568.882     17.118    568.176    568.804    568.176    568.254    568.176
 14.770    582.000    568.703     13.297    568.034    568.625    568.034    568.112    568.034
 14.870    596.000    568.525     27.475    567.889    568.446    567.889    567.967    567.889
 14.970    510.000    568.347    -58.347    567.740    568.267    567.740    567.819    567.740
 15.070    562.565    568.168     -5.604    567.587    568.088    567.587    567.667    567.587
 15.170    542.000    567.989    -25.989    567.432    567.909    567.432    567.512    567.432
 15.270    527.262    567.809    -40.548    567.272    567.729    567.272    567.353    567.272
 15.370    553.441    567.628    -14.187    567.110    567.547    567.110    567.191    567.110
 15.470    600.000    567.446     32.554    566.944    567.364    566.944    567.025    566.944
 15.570    605.466    567.261     38.205    566.774    567.179    566.774    566.856    566.774
 15.670    570.000    567.076      2.924    566.602    566.993    566.602    566.684    566.602
 15.770    593.000    566.888     26.112    566.426    566.805    566.426    566.510    566.426
 15.870    607.725    566.700     41.025    566.247    566.615    566.247    566.333    566.247
 15.970    525.000    566.508    -41.508    566.065    566.422    566.065    566.151    566.065
 16.070    520.981    566.315    -45.333    565.880    566.228    565.880    565.967    565.880
 16.170    540.000    566.119    -26.119    565.692    566.032    565.692    565.779    565.692
 16.270    606.374    565.921     40.454    565.501    565.833    565.501    565.588    565.501
 16.370    556.000    565.720     -9.720    565.307    565.632    565.307    565.395    565.307
 16.470    578.000    565.518     12.482    565.110    565.429    565.110    565.198    565.110
 16.570    591.000    565.313     25.687    564.910    565.224    564.910    564.999    564.910
 16.670    569.449    565.106      4.343    564.707    565.016    564.707    564.797    564.707
 16.770    605.432    564.897     40.535    564.502    564.806    564.502    564.592    564.502
 16.870    565.921    564.685      1.236    564.293    564.594    564.293    564.384    564.293
 16.970    541.000    564.472    -23.472    564.082    564.380    564.082    564.174    564.082
 17.070    528.261    564.257    -35.996    563.869    564.165    563.869    563.961    563.869
 17.170    527.000    564.040    -37.040    563.652    563.948    563.652    563.745    563.652
 17.270    546.000    563.820    -17.820    563.433    563.727    563.433    563.527    563.433
 17.370    563.000    563.597     -0.597    563.212    563.503    563.212    563.306    563.212
 17.470    576.000    563.373     12.627    562.988    563.278    562.988    563.082    562.988
 17.570    571.000    563.146      7.854    562.761    563.051    562.761    562.857    562.761
 17.670    523.000    562.917    -39.917    562.533    562.821    562.533    562.628    562.533
 17.770    578.000    562.686     15.314    562.301    562.590    562.301    562.398    562.301
 17.870    578.000    562.453     15.547    562.067    562.356    562.067    562.165    562.067
 17.970    526.000    562.218    -36.218    561.831    562.120    561.831    561.929    561.831
 18.070    577.292    561.983     15.309    561.593    561.884    561.593    561.692    561.593
 18.170    567.000    561.746      5.254    561.353    561.645    561.353    561.454    561.353
 18.270    571.000    561.510      9.490    561.110    561.403    561.110    561.217    561.110
 18.370    518.919    561.268    -42.349    560.865    561.159    560.865    560.973    560.865
 18.470    570.927    561.023      9.904    560.618    560.914    560.618    560.727    560.618
 18.570    517.000    560.777    -43.777    560.368    560.666    560.368    560.479    560.368
 18.670    524.591    560.528    -35.937    560.117    560.417    560.117    560.228    560.117
 18.770    571.000    560.278     10.722    559.864    560.167    559.864    559.976    559.864
 18.870    573.933    560.027     13.907    559.609    559.914    559.609    559.721    559.609
 18.970    530.922    559.773    -28.851    559.351    559.660    559.351    559.465    559.351
 19.070    545.000    559.518    -14.518    559.092    559.404    559.092    559.206    559.092
 19.170    554.000    559.261     -5.261    558.831    559.146    558.831    558.946    558.831
 19.270    549.167    559.003     -9.837    558.568    558.887    558.568    558.684    558.568
 19.370    551.061    558.744     -7.683    558.303    558.627    558.303    558.420    558.303
 19.470    586.948    558.488     28.460    558.037    558.369    558.037    558.155    558.037
 19.570    540.000    558.243    -18.243    557.768    558.124    557.768    557.887    557.768
 19.670    589.990    557.981     32.009    557.498    557.861    557.498    557.618    557.498
 19.770    566.000    557.716      8.284    557.226    557.595    557.226    557.348    557.226
 19.870    559.000    557.450      1.550    556.953    557.328    556.953    557.075    556.953
 19.970    550.000    557.183     -7.183    556.678    557.059    556.678    556.801    556.678
 20.070    559.000    556.914      2.086    556.402    556.790    556.402    556.526    556.402
 20.170    576.000    556.644     19.356    556.123    556.519    556.123    556.249    556.123
 20.270    554.000    556.373     -2.373    555.844    556.247    555.844    555.970    555.844
 20.370    567.000    556.101     10.899    555.563    555.974    555.563    555.690    555.563
 20.470    498.000    555.829    -57.829    555.280    555.700    555.280    555.409    555.280
 20.570    550.000    555.555     -5.555    554.996    555.425    554.996    555.126    554.996
 20.670    570.000    555.281     14.719    554.711    555.149    554.711    554.842    554.711
 20.770    541.000    555.006    -14.006    554.424    554.873    554.424    554.556    554.424
 20.870    542.000    554.730    -12.730    554.136    554.596    554.136    554.270    554.136
 20.970    525.000    554.454    -29.454    553.846    554.319    553.846    553.982    553.846
 21.070    578.000    554.177     23.823    553.556    554.041    553.556    553.692    553.556
 21.170    579.508    553.900     25.608    553.264    553.762    553.264    553.402    553.264
 21.270    558.000    553.623      4.377    552.971    553.484    552.971    553.110    552.971
 21.370    548.674    553.346     -4.673    552.676    553.205    552.676    552.818    552.676
 21.470    506.252    553.069    -46.817    552.381    552.927    552.381    552.524    552.381
 21.570    549.000    552.792     -3.792    552.085    552.648    552.085    552.229    552.085
 21.670    563.103    552.516     10.587    551.787    552.370    551.787    551.933    551.787
 21.770    514.655    552.241    -37.586    551.488    552.093    551.488    551.636    551.488
 21.870    592.955    551.970     40.985    551.189    551.821    551.189    551.338    551.189
 21.970    514.000    551.698    -37.698    550.888    551.546    550.888    551.040    550.888
 22.070    569.409    551.425     17.984    550.587    551.272    550.587    550.740    550.587
 22.170    533.000    551.155    -18.155    550.284    551.000    550.284    550.439    550.284
 22.270    601.000    550.887     50.113    549.981    550.729    549.981    550.139    549.981
 22.370    575.717    550.627     25.090    549.676    550.465    549.676    549.839    549.676
 22.470    597.000    550.365     46.635    549.371    550.200    549.371    549.536    549.371
 22.570    541.252    550.106     -8.854    549.065    549.939    549.065    549.233    549.065
 22.670    579.307    549.853     29.454    548.759    549.684    548.759    548.928    548.759
 22.770    515.131    549.617    -34.486    548.451    549.445    548.451    548.623    548.451
 22.870    547.660    549.446     -1.786    548.143    549.272    548.143    548.317    548.143
 22.970    505.036    549.336    -44.300    547.834    549.159    547.834    548.011    547.834
 23.070    567.000    549.135     17.865    547.524    548.955    547.524    547.704    547.524
 23.170    534.817    548.928    -14.111    547.214    548.746    547.214    547.397    547.214
 23.270    569.000    548.737     20.263    546.903    548.553    546.903    547.089    546.903
 23.370    534.000    548.568    -14.568    546.592    548.381    546.592    546.780    546.592
 23.470    514.000    548.427    -34.427    546.280    548.237    546.280    546.471    546.280
 23.570    502.747    548.324    -45.577    545.967    548.130    545.967    546.162    545.967
 23.670    559.000    548.269     10.731    545.654    548.072    545.654    545.852    545.654
 23.770    549.433    548.281      1.152    545.341    548.081    545.341    545.542    545.341
 23.870    559.000    548.389     10.611    545.027    548.185    545.027    545.232    545.027
 23.970    558.722    548.644     10.079    544.712    548.436    544.712    544.922    544.712
 24.070    552.000    549.165      2.835    544.397    548.954    544.397    544.611    544.397
 24.170    539.000    550.269    -11.269    544.082    550.055    544.082    544.300    544.082
 24.270    577.000    552.771     24.229    543.767    552.554    543.767    543.989    543.767
 24.370    580.000    558.342     21.658    543.451    558.124    543.451    543.678    543.451
 24.470    598.000    569.356     28.644    543.134    569.142    543.134    543.366    543.134
 24.570    587.036    587.305     -0.269    542.818    587.099    542.818    543.055    542.818
 24.670    610.000    609.630      0.370    542.501    609.434    542.501    542.744    542.501
 24.770    612.000    627.044    -15.044    542.184    626.855    542.184    542.433    542.184
 24.870    620.000    628.013     -8.013    541.867    627.819    541.867    542.121    541.867
 24.970    652.250    611.482     40.767    541.549    611.271    541.549    541.811    541.549
 25.070    589.000    588.499      0.501    541.232    588.264    541.232    541.500    541.232
 25.170    602.000    569.202     32.798    540.914    568.945    540.914    541.190    540.914
 25.270    543.598    556.857    -13.258    540.596    556.584    540.596    540.879    540.596
 25.370    575.000    550.250     24.750    540.278    549.965    540.278    540.570    540.278
 25.470    545.000    546.976     -1.976    539.960    546.680    539.960    540.261    539.960
 25.570    552.000    545.247      6.753    539.642    544.940    539.642    539.952    539.642
 25.670    498.993    544.174    -45.181    539.324    543.856    539.324    539.644    539.324
 25.770    510.072    543.405    -33.333    539.006    543.076    539.006    539.337    539.006
 25.870    572.747    542.800     29.947    538.688    542.459    538.688    539.031    538.688
 25.970    589.376    542.294     47.082    538.370    541.940    538.370    538.725    538.370
 26.070    579.944    541.862     38.082    538.052    541.495    538.052    538.421    538.052
 26.170    584.000    541.499     42.501    537.734    541.116    537.734    538.118    537.734
 26.270    539.000    541.194     -2.194    537.417    540.795    537.417    537.816    537.417
 26.370    613.000    540.946     72.054    537.099    540.529    537.099    537.516    537.099
 26.470    562.000    540.733     21.267    536.782    540.297    536.782    537.217    536.782
 26.570    499.448    540.567    -41.119    536.464    540.112    536.464    536.920    536.464
 26.670    572.000    540.459     31.541    536.147    539.980    536.147    536.626    536.147
 26.770    521.000    540.412    -19.412    535.830    539.909    535.830    536.334    535.830
 26.870    574.979    540.468     34.511    535.514    539.937    535.514    536.045    535.514
 26.970    490.984    540.570    -49.586    535.198    540.009    535.198    535.759    535.198
 27.070    581.764    540.777     40.987    534.881    540.182    534.881    535.476    534.881
 27.170    561.497    541.121     20.376    534.566    540.488    534.566    535.198    534.566
 27.270    574.571    541.644     32.928    534.250    540.968    534.250    534.925    534.250
 27.370    557.000    542.421     14.579    533.935    541.698    533.935    534.657    533.935
 27.470    522.000    543.580    -21.580    533.620    542.803    533.620    534.396    533.620
 27.570    545.000    545.457     -0.457    533.306    544.618    533.306    534.143    533.306
 27.670    534.000    549.131    -15.131    532.992    548.221    532.992    533.899    532.992
 27.770    557.000    558.617     -1.617    532.678    557.623    532.678    533.666    532.678
 27.870    582.000    584.792     -2.792    532.365    583.695    532.365    533.446    532.365
 27.970    655.000    646.180      8.820    532.052    644.954    532.052    533.242    532.052
 28.070    802.000    754.188     47.812    531.740    752.801    531.740    533.059    531.740
 28.170    850.000    882.588    -32.588    531.429    881.019    531.429    532.900    531.429
 28.270   1027.000    957.128     69.872    531.117    955.376    531.117    532.773    531.117
 28.370    915.000    919.528     -4.528    530.807    917.588    530.807    532.685    530.807
 28.470    796.000    809.970    -13.970    530.496    807.791    530.496    532.651    530.496
 28.570    700.000    714.371    -14.371    530.187    711.860    530.187    532.691    530.187
 28.670    657.286    685.425    -28.139    529.878    682.455    529.878    532.838    529.878
 28.770    697.142    724.900    -27.758    529.570    721.296    529.570    533.154    529.570
 28.870    808.000    795.652     12.348    529.262    791.144    529.262    533.745    529.262
 28.970    819.000    837.366    -18.366    528.955    831.516    528.955    534.787    528.955
 29.070    864.234    808.465     55.770    528.648    800.574    528.648    536.540    528.648
 29.170    738.319    731.801      6.518    528.342    720.836    528.342    539.320    528.342
 29.270    625.000    655.817    -30.817    528.037    640.448    528.037    543.419    528.037
 29.370    606.000    607.138     -1.138    527.733    585.945    527.733    548.933    527.733
 29.470    600.740    585.758     14.982    527.429    557.740    527.429    555.450    527.429
 29.570    631.000    579.902     51.098    527.126    545.445    527.126    561.583    527.126
 29.670    534.822    578.266    -43.444    526.824    540.166    526.824    564.923    526.824
 29.770    594.000    574.553     19.447    526.522    537.479    526.522    563.594    526.522
 29.870    616.610    567.778     48.832    526.222    535.790    526.222    558.207    526.222
 29.970    569.000    559.802      9.198    525.922    534.610    525.922    551.112    525.922
 30.070    574.477    552.489     21.988    525.623    533.785    525.623    544.324    525.623
 30.170    533.000    546.738    -13.738    525.324    533.281    525.324    538.779    525.324
 30.270    527.000    542.795    -15.795    525.027    533.178    525.027    534.641    525.027
 30.370    548.000    540.829      7.171    524.730    533.843    524.730    531.713    524.730
