neutron_powder_diffraction_0162
R_wp: 4.029
Temperature (K): 1074.000
Counts: 83676.00
Wavelength (Ã…): 2.52098
COMMENTS
Test file for demonstrating the .xyy file format in Reel1.0
END OF HEADER
   tth       Y_obs     Y_calc      Y_res    Background    Phase_1_Nuc    Phase_1_Mag    Phase_2_Nuc    Phase_2_Mag
  9.970    615.715    577.344     38.371    576.626    577.285    576.626    576.685    576.626
 10.070    634.000    577.409     56.591    576.633    577.349    576.633    576.693    576.633
 10.170    600.336    577.476     22.860    576.636    577.416    576.636    576.695    576.636
 10.270    530.752    577.548    -46.796    576.633    577.488    576.633    576.693    576.633
 10.370    610.000    577.628     32.372    576.625    577.567    576.625    576.685    576.625
 10.470    606.000    577.717     28.283    576.612    577.656    576.612    576.673    576.612
 10.570    597.000    577.820     19.180    576.594    577.759    576.594    576.655    576.594
 10.670    546.360    577.941    -31.582    576.572    577.880    576.572    576.633    576.572
 10.770    584.000    578.088      5.912    576.544    578.026    576.544    576.605    576.544
 10.870    549.000    578.268    -29.268    576.512    578.205    576.512    576.573    576.512
 10.970    572.000    578.494     -6.494    576.474    578.431    576.474    576.536    576.474
 11.070    603.374    578.784     24.590    576.432    578.721    576.432    576.494    576.432
 11.170    594.000    579.163     14.837    576.386    579.099    576.386    576.448    576.386
 11.270    548.000    579.672    -31.672    576.334    579.607    576.334    576.397    576.334
 11.370    594.000    580.379     13.621    576.278    580.313    576.278    576.341    576.278
 11.470    605.368    581.431     23.937    576.218    581.365    576.218    576.281    576.218
 11.570    593.000    583.244      9.756    576.153    583.177    576.153    576.216    576.153
 11.670    646.000    586.999     59.001    576.084    586.929    576.084    576.147    576.084
 11.770    625.000    595.439     29.561    576.010    595.364    576.010    576.074    576.010
 11.870    637.000    612.994     24.006    575.932    612.909    575.932    575.996    575.932
 11.970    694.622    643.104     51.518    575.849    643.002    575.849    575.914    575.849
 12.070    676.000    681.888     -5.888    575.762    681.763    575.762    575.827    575.762
 12.170    699.000    712.385    -13.385    575.671    712.242    575.671    575.737    575.671
 12.270    662.000    713.289    -51.289    575.576    713.144    575.576    575.642    575.576
 12.370    655.000    683.703    -28.703    575.477    683.571    575.477    575.547    575.477
 12.470    669.239    644.555     24.684    575.374    644.444    575.374    575.445    575.374
 12.570    614.000    613.569      0.431    575.266    613.475    575.266    575.338    575.266
 12.670    622.000    595.220     26.780    575.155    595.137    575.155    575.227    575.155
 12.770    585.000    586.250     -1.250    575.039    586.170    575.039    575.112    575.039
 12.870    532.341    582.161    -49.820    574.920    582.084    574.920    574.993    574.920
 12.970    562.000    580.106    -18.106    574.797    580.029    574.797    574.871    574.797
 13.070    628.994    578.846     50.149    574.670    578.769    574.670    574.744    574.670
 13.170    551.000    577.943    -26.943    574.539    577.867    574.539    574.614    574.539
 13.270    581.000    577.244      3.756    574.405    577.168    574.405    574.480    574.405
 13.370    592.000    576.677     15.323    574.267    576.600    574.267    574.342    574.267
 13.470    567.000    576.202     -9.202    574.125    576.125    574.125    574.201    574.125
 13.570    545.530    575.793    -30.262    573.980    575.716    573.980    574.056    573.980
 13.670    542.000    575.431    -33.431    573.831    575.355    573.831    573.907    573.831
 13.770    602.594    575.106     27.488    573.678    575.029    573.678    573.755    573.678
 13.870    575.000    574.807      0.193    573.522    574.730    573.522    573.599    573.522
 13.970    586.000    574.529     11.471    573.363    574.451    573.363    573.440    573.363
 14.070    549.490    574.266    -24.776    573.200    574.188    573.200    573.278    573.200
 14.170    576.000    574.015      1.985    573.034    573.936    573.034    573.112    573.034
 14.270    553.000    573.773    -20.773    572.865    573.694    572.865    572.943    572.865
 14.370    545.980    573.537    -27.558    572.692    573.458    572.692    572.771    572.692
 14.470    545.578    573.310    -27.732    572.516    573.231    572.516    572.596    572.516
 14.570    613.433    573.085     40.347    572.337    573.006    572.337    572.417    572.337
 14.670    569.000    572.862     -3.862    572.155    572.782    572.155    572.235    572.155
 14.770    596.000    572.640     23.360    571.970    572.559    571.970    572.050    571.970
 14.870    580.000    572.420      7.580    571.781    572.339    571.781    571.862    571.781
 14.970    576.000    572.200      3.800    571.590    572.118    571.590    571.671    571.590
 15.070    561.000    571.980    -10.980    571.395    571.898    571.395    571.477    571.395
 15.170    554.000    571.760    -17.760    571.198    571.678    571.198    571.280    571.198
 15.270    574.374    571.540      2.834    570.998    571.457    570.998    571.080    570.998
 15.370    524.336    571.319    -46.983    570.795    571.236    570.795    570.878    570.795
 15.470    547.000    571.097    -24.097    570.589    571.013    570.589    570.672    570.589
 15.570    565.000    570.874     -5.874    570.380    570.790    570.380    570.464    570.380
 15.670    559.000    570.651    -11.651    570.168    570.566    570.168    570.253    570.168
 15.770    549.000    570.427    -21.427    569.954    570.342    569.954    570.039    569.954
 15.870    523.202    570.200    -46.998    569.737    570.114    569.737    569.823    569.737
 15.970    574.908    569.971      4.937    569.518    569.885    569.518    569.604    569.518
 16.070    561.000    569.741     -8.741    569.296    569.654    569.296    569.382    569.296
 16.170    522.000    569.509    -47.509    569.071    569.421    569.071    569.158    569.071
 16.270    593.000    569.275     23.725    568.844    569.187    568.844    568.931    568.844
 16.370    565.000    569.039     -4.039    568.614    568.951    568.614    568.702    568.614
 16.470    583.000    568.802     14.198    568.382    568.713    568.382    568.470    568.382
 16.570    532.000    568.563    -36.563    568.147    568.474    568.147    568.236    568.147
 16.670    586.289    568.322     17.967    567.910    568.233    567.910    568.000    567.910
 16.770    550.129    568.080    -17.950    567.671    567.989    567.671    567.761    567.671
 16.870    561.456    567.835     -6.379    567.429    567.744    567.429    567.520    567.429
 16.970    593.622    567.589     26.033    567.186    567.498    567.186    567.277    567.186
 17.070    539.000    567.341    -28.341    566.939    567.249    566.939    567.031    566.939
 17.170    610.588    567.094     43.495    566.691    567.001    566.691    566.784    566.691
 17.270    578.000    566.843     11.157    566.441    566.749    566.441    566.534    566.441
 17.370    588.000    566.589     21.411    566.188    566.495    566.188    566.282    566.188
 17.470    568.000    566.334      1.666    565.933    566.240    565.933    566.028    565.933
 17.570    552.000    566.077    -14.077    565.677    565.982    565.677    565.772    565.677
 17.670    604.973    565.819     39.154    565.418    565.723    565.418    565.514    565.418
 17.770    550.000    565.561    -15.561    565.157    565.463    565.157    565.255    565.157
 17.870    544.315    565.300    -20.984    564.894    565.200    564.894    564.994    564.894
 17.970    557.000    565.037     -8.037    564.630    564.936    564.630    564.730    564.630
 18.070    597.763    564.772     32.991    564.363    564.670    564.363    564.464    564.363
 18.170    582.397    564.506     17.891    564.095    564.404    564.095    564.197    564.095
 18.270    548.000    564.238    -16.238    563.825    564.135    563.825    563.927    563.825
 18.370    539.000    563.969    -24.969    563.553    563.865    563.553    563.656    563.553
 18.470    559.000    563.698     -4.698    563.279    563.594    563.279    563.383    563.279
 18.570    578.000    563.425     14.575    563.004    563.320    563.004    563.108    563.004
 18.670    578.000    563.151     14.849    562.726    563.046    562.726    562.832    562.726
 18.770    568.769    562.876      5.893    562.448    562.770    562.448    562.554    562.448
 18.870    603.815    562.600     41.215    562.167    562.493    562.167    562.274    562.167
 18.970    565.519    562.322      3.197    561.885    562.214    561.885    561.993    561.885
 19.070    540.000    562.043    -22.043    561.602    561.934    561.602    561.710    561.602
 19.170    546.967    561.763    -14.796    561.317    561.654    561.317    561.426    561.317
 19.270    574.000    561.483     12.517    561.030    561.373    561.030    561.140    561.030
 19.370    565.000    561.201      3.799    560.742    561.089    560.742    560.853    560.742
 19.470    557.000    560.917     -3.917    560.452    560.805    560.452    560.565    560.452
 19.570    551.000    560.632     -9.632    560.161    560.519    560.161    560.275    560.161
 19.670    520.103    560.346    -40.243    559.869    560.232    559.869    559.983    559.869
 19.770    550.000    560.061    -10.061    559.575    559.946    559.575    559.691    559.575
 19.870    553.000    559.787     -6.787    559.281    559.671    559.281    559.397    559.281
 19.970    555.000    559.509     -4.509    558.984    559.392    558.984    559.101    558.984
 20.070    550.250    559.221     -8.971    558.687    559.103    558.687    558.805    558.687
 20.170    556.936    558.931     -1.995    558.388    558.812    558.388    558.507    558.388
 20.270    573.000    558.640     14.360    558.088    558.520    558.088    558.208    558.088
 20.370    527.000    558.349    -31.349    557.787    558.228    557.787    557.909    557.787
 20.470    564.000    558.057      5.943    557.485    557.935    557.485    557.607    557.485
 20.570    541.000    557.765    -16.765    557.182    557.641    557.182    557.305    557.182
 20.670    530.000    557.472    -27.472    556.877    557.348    556.877    557.002    556.877
 20.770    603.000    557.179     45.821    556.572    557.053    556.572    556.698    556.572
 20.870    583.000    556.886     26.114    556.265    556.759    556.265    556.393    556.265
 20.970    553.877    556.593     -2.715    555.958    556.464    555.958    556.087    555.958
 21.070    534.000    556.307    -22.307    555.650    556.178    555.650    555.779    555.650
 21.170    531.423    556.100    -24.677    555.340    555.968    555.340    555.471    555.340
 21.270    543.000    555.829    -12.829    555.030    555.696    555.030    555.163    555.030
 21.370    600.159    555.537     44.622    554.719    555.403    554.719    554.853    554.719
 21.470    563.000    555.244      7.756    554.407    555.109    554.407    554.542    554.407
 21.570    576.000    554.953     21.047    554.094    554.816    554.094    554.231    554.094
 21.670    518.186    554.661    -36.476    553.781    554.523    553.781    553.919    553.781
 21.770    573.101    554.373     18.728    553.466    554.233    553.466    553.606    553.466
 21.870    542.053    554.106    -12.053    553.151    553.964    553.151    553.293    553.151
 21.970    588.000    553.846     34.154    552.835    553.703    552.835    552.979    552.835
 22.070    577.078    553.563     23.515    552.519    553.418    552.519    552.664    552.519
 22.170    551.000    553.284     -2.284    552.202    553.137    552.202    552.349    552.202
 22.270    533.652    553.049    -19.397    551.884    552.900    551.884    552.033    551.884
 22.370    574.000    552.792     21.208    551.565    552.641    551.565    551.716    551.565
 22.470    542.734    552.523     -9.789    551.246    552.371    551.246    551.399    551.246
 22.570    581.000    552.254     28.746    550.927    552.099    550.927    551.082    550.927
 22.670    512.055    551.989    -39.935    550.607    551.833    550.607    550.764    550.607
 22.770    573.000    551.731     21.269    550.286    551.572    550.286    550.445    550.286
 22.870    556.000    551.480      4.520    549.965    551.319    549.965    550.127    549.965
 22.970    543.145    551.239     -8.094    549.643    551.075    549.643    549.808    549.643
 23.070    564.000    551.009     12.991    549.321    550.843    549.321    549.488    549.321
 23.170    605.000    550.796     54.204    548.999    550.627    548.999    549.168    548.999
 23.270    543.000    550.598     -7.598    548.676    550.427    548.676    548.848    548.676
 23.370    537.000    550.422    -13.422    548.353    550.248    548.353    548.528    548.353
 23.470    512.683    550.276    -37.593    548.029    550.099    548.029    548.207    548.029
 23.570    539.828    550.168    -10.340    547.706    549.988    547.706    547.886    547.706
 23.670    539.000    550.112    -11.112    547.382    549.929    547.382    547.565    547.382
 23.770    521.000    550.127    -29.127    547.057    549.942    547.057    547.244    547.057
 23.870    554.000    550.245      3.755    546.733    550.056    546.733    546.923    546.733
 23.970    594.000    550.520     43.480    546.408    550.328    546.408    546.602    546.408
 24.070    582.798    551.086     31.712    546.083    550.891    546.083    546.281    546.083
 24.170    570.000    552.318     17.682    545.757    552.119    545.757    545.960    545.757
 24.270    555.610    555.212      0.398    545.432    555.012    545.432    545.638    545.432
 24.370    562.000    561.847      0.153    545.107    561.647    545.107    545.317    545.107
 24.470    545.000    575.087    -30.087    544.781    574.892    544.781    544.996    544.781
 24.570    577.000    596.331    -19.331    544.455    596.146    544.455    544.676    544.455
 24.670    615.000    621.427     -6.427    544.130    621.255    544.130    544.355    544.130
 24.770    661.014    638.050     22.965    543.804    637.884    543.804    544.035    543.804
 24.870    670.000    633.983     36.017    543.478    633.809    543.478    543.715    543.478
 24.970    582.000    612.537    -30.537    543.152    612.342    543.152    543.395    543.152
 25.070    597.000    587.403      9.597    542.826    587.184    542.826    543.076    542.826
 25.170    611.000    568.182     42.818    542.501    567.943    542.501    542.757    542.501
 25.270    559.000    556.799      2.201    542.175    556.544    542.175    542.438    542.175
 25.370    596.310    551.068     45.242    541.849    550.802    541.849    542.120    541.849
 25.470    579.694    548.298     31.396    541.524    548.022    541.524    541.803    541.524
 25.570    570.197    546.800     23.397    541.198    546.514    541.198    541.487    541.198
 25.670    522.000    545.824    -23.824    540.873    545.528    540.873    541.171    540.873
 25.770    569.000    545.092     23.908    540.548    544.786    540.548    540.856    540.548
 25.870    553.000    544.508      8.492    540.223    544.190    540.223    540.542    540.223
 25.970    513.854    544.029    -30.175    539.899    543.699    539.899    540.229    539.899
 26.070    562.378    543.654     18.724    539.574    543.311    539.574    539.918    539.574
 26.170    510.882    543.341    -32.459    539.250    542.984    539.250    539.607    539.250
 26.270    517.725    543.062    -25.337    538.926    542.690    538.926    539.298    538.926
 26.370    550.493    542.837      7.656    538.602    542.448    538.602    538.991    538.602
 26.470    534.000    542.666     -8.666    538.279    542.260    538.279    538.685    538.279
 26.570    545.000    542.543      2.457    537.956    542.117    537.956    538.382    537.956
 26.670    535.000    542.478     -7.478    537.633    542.031    537.633    538.080    537.633
 26.770    598.000    542.488     55.512    537.311    542.018    537.311    537.781    537.311
 26.870    584.780    542.598     42.183    536.989    542.101    536.989    537.485    536.989
 26.970    570.000    542.806     27.194    536.668    542.281    536.668    537.192    536.668
 27.070    574.232    543.117     31.116    536.347    542.560    536.347    536.902    536.347
 27.170    530.000    543.591    -13.591    536.026    542.999    536.026    536.617    536.026
 27.270    535.000    544.287     -9.287    535.706    543.655    535.706    536.336    535.706
 27.370    579.687    545.294     34.393    535.386    544.617    535.386    536.061    535.386
 27.470    564.000    546.777     17.223    535.067    546.050    535.067    535.792    535.067
 27.570    578.936    549.162     29.774    534.748    548.377    534.748    535.531    534.748
 27.670    516.492    553.919    -37.427    534.430    553.067    534.430    535.278    534.430
 27.770    543.000    565.852    -22.852    534.112    564.920    534.112    535.036    534.112
 27.870    556.004    596.645    -40.641    533.795    595.616    533.795    534.806    533.795
 27.970    682.000    663.788     18.212    533.478    662.635    533.478    534.591    533.478
 28.070    790.000    774.184     15.816    533.162    772.880    533.162    534.395    533.162
 28.170    843.000    896.597    -53.597    532.847    895.123    532.847    534.222    532.847
 28.270    972.844    956.957     15.887    532.532    955.314    532.532    534.079    532.532
 28.370    952.240    906.433     45.807    532.218    904.616    532.218    533.974    532.218
 28.470    805.308    797.281      8.027    531.905    795.238    531.905    533.921    531.905
 28.570    699.000    712.657    -13.657    531.592    710.295    531.592    533.941    531.592
 28.670    724.831    695.639     29.192    531.280    692.834    531.280    534.069    531.280
 28.770    778.000    741.664     36.336    530.968    738.255    530.968    534.357    530.968
 28.870    837.000    810.805     26.195    530.658    806.565    530.658    534.884    530.658
 28.970    861.000    843.342     17.658    530.348    837.938    530.348    535.753    530.348
 29.070    769.000    803.831    -34.831    530.039    796.793    530.039    537.088    530.039
 29.170    745.000    722.921     22.079    529.730    713.654    529.730    539.010    529.730
 29.270    618.000    648.043    -30.043    529.422    635.881    529.422    541.592    529.422
 29.370    591.340    600.747     -9.408    529.116    585.092    529.116    544.774    529.116
 29.470    588.000    578.628      9.372    528.810    559.236    528.810    548.201    528.810
 29.570    605.139    570.411     34.728    528.504    547.871    528.504    551.042    528.504
 29.670    640.000    566.725     73.275    528.200    542.784    528.200    552.140    528.200
 29.770    596.000    562.979     33.021    527.896    540.042    527.896    550.832    527.896
 29.870    571.000    558.280     12.720    527.594    538.257    527.594    547.616    527.594
 29.970    575.000    553.332     21.668    527.292    536.998    527.292    543.624    527.292
 30.070    528.354    548.898    -20.544    526.991    536.125    526.991    539.762    526.991
 30.170    528.612    545.381    -16.769    526.691    535.611    526.691    536.459    526.691
 30.270    539.050    542.991     -3.941    526.392    535.565    526.392    533.816    526.392
 30.370    584.000    542.117     41.883    526.094    536.430    526.094    531.777    526.094
