neutron_powder_diffraction_0012
R_wp: 3.702
Temperature (K): 459.796
Counts: 82702.00
Wavelength (Ã…): 2.52098
COMMENTS
Test file for demonstrating the .xyy file format in Reel1.0
END OF HEADER
   tth       Y_obs     Y_calc      Y_res    Background    Phase_1_Nuc    Phase_1_Mag    Phase_2_Nuc    Phase_2_Mag
  9.970    722.000    731.119     -9.119    729.376    730.438    730.057    729.376    729.376
 10.070    701.258    730.074    -28.817    728.238    729.385    728.927    728.238    728.238
 10.170    757.000    729.047     27.953    727.107    728.351    727.803    727.107    727.107
 10.270    709.638    728.041    -18.402    725.982    727.337    726.685    725.982    725.982
 10.370    730.000    727.057      2.943    724.863    726.346    725.574    724.863    724.863
 10.470    741.895    726.100     15.794    723.751    725.381    724.469    723.751    723.751
 10.570    764.000    725.175     38.825    722.645    724.448    723.371    722.645    722.645
 10.670    757.000    724.287     32.713    721.545    723.552    722.279    721.545    721.545
 10.770    696.160    723.446    -27.286    720.452    722.703    721.194    720.452    720.452
 10.870    726.000    722.660      3.340    719.365    721.908    720.115    719.365    719.365
 10.970    733.000    721.940     11.060    718.284    721.180    719.042    718.284    718.284
 11.070    764.217    721.308     42.909    717.209    720.539    717.976    717.209    717.209
 11.170    701.014    720.793    -19.779    716.141    720.014    716.917    716.141    716.141
 11.270    747.000    720.429     26.571    715.078    719.641    715.863    715.078    715.078
 11.370    722.768    720.282      2.486    714.022    719.485    714.816    714.022    714.022
 11.470    772.181    720.472     51.709    712.972    719.665    713.775    712.972    712.972
 11.570    797.000    721.249     75.751    711.928    720.432    712.740    711.928    711.928
 11.670    705.000    723.187    -18.187    710.890    722.359    711.712    710.890    710.890
 11.770    761.000    727.440     33.560    709.859    726.600    710.690    709.859    709.859
 11.870    764.812    735.592     29.220    708.833    734.737    709.674    708.833    708.833
 11.970    802.347    749.853     52.494    707.814    748.979    708.664    707.814    707.814
 12.070    822.906    771.345     51.561    706.800    770.449    707.661    706.800    706.800
 12.170    858.000    797.691     60.309    705.793    796.769    706.664    705.793    705.793
 12.270    858.000    820.174     37.826    704.791    819.228    705.673    704.791    704.791
 12.370    834.000    825.617      8.383    703.796    824.657    704.688    703.796    703.796
 12.470    802.000    809.032     -7.032    702.807    808.070    703.710    702.807    702.807
 12.570    804.000    780.986     23.014    701.823    780.028    702.737    701.823    701.823
 12.670    799.000    754.088     44.912    700.846    753.133    701.771    700.846    700.846
 12.770    680.000    733.911    -53.911    699.874    732.956    700.811    699.874    699.874
 12.870    702.000    720.782    -18.782    698.909    719.822    699.857    698.909    698.909
 12.970    713.567    712.840      0.727    697.949    711.872    698.910    697.949    697.949
 13.070    707.143    707.996     -0.852    696.996    707.018    697.968    696.996    696.996
 13.170    755.606    704.780     50.826    696.048    703.791    697.033    696.048    696.048
 13.270    655.000    702.390    -47.390    695.106    701.389    696.104    695.106    695.106
 13.370    667.374    700.421    -33.047    694.170    699.408    695.180    694.170    694.170
 13.470    698.000    698.718     -0.718    693.239    697.692    694.263    693.239    693.239
 13.570    700.166    697.197      2.969    692.315    696.158    693.352    692.315    692.315
 13.670    722.774    695.809     26.965    691.396    694.757    692.447    691.396    691.396
 13.770    735.441    694.521     40.920    690.484    693.455    691.548    690.484    690.484
 13.870    664.000    693.311    -29.311    689.576    692.231    690.655    689.576    689.576
 13.970    671.000    692.162    -21.162    688.675    691.068    689.768    688.675    688.675
 14.070    673.000    691.063    -18.063    687.780    689.954    688.887    687.780    687.780
 14.170    672.000    690.004    -18.004    686.890    688.880    688.012    686.890    686.890
 14.270    704.409    688.978     15.431    686.006    687.839    687.144    686.006    686.006
 14.370    708.436    687.981     20.455    685.127    686.827    686.281    685.127    685.127
 14.470    669.887    687.009    -17.122    684.254    685.839    685.424    684.254    684.254
 14.570    664.000    686.058    -22.058    683.387    684.872    684.573    683.387    683.387
 14.670    675.421    685.126     -9.705    682.526    683.923    683.728    682.526    682.526
 14.770    656.934    684.216    -27.281    681.670    682.996    682.889    681.670    681.670
 14.870    664.850    683.316    -18.466    680.820    682.079    682.056    680.820    680.820
 14.970    610.000    682.430    -72.430    679.975    681.175    681.230    679.975    679.975
 15.070    682.270    681.556      0.714    679.136    680.283    680.409    679.136    679.136
 15.170    718.585    680.694     37.891    678.302    679.403    679.594    678.302    678.302
 15.270    709.000    679.845     29.155    677.474    678.535    678.785    677.474    677.474
 15.370    638.000    679.011    -41.011    676.652    677.681    677.982    676.652    676.652
 15.470    674.000    678.181     -4.181    675.835    676.831    677.185    675.835    675.835
 15.570    685.618    677.360      8.257    675.024    675.990    676.393    675.024    675.024
 15.670    673.000    676.548     -3.548    674.218    675.158    675.608    674.218    674.218
 15.770    683.070    675.745      7.325    673.417    674.333    674.829    673.417    673.417
 15.870    668.000    674.949     -6.949    672.622    673.516    674.055    672.622    672.622
 15.970    687.000    674.162     12.838    671.833    672.706    673.288    671.833    671.833
 16.070    628.359    673.383    -45.024    671.048    671.904    672.526    671.048    671.048
 16.170    719.266    672.613     46.653    670.270    671.112    671.771    670.270    670.270
 16.270    644.000    671.874    -27.874    669.496    670.348    671.021    669.496    669.496
 16.370    705.000    671.125     33.875    668.728    669.575    670.278    668.728    668.728
 16.470    659.000    670.376    -11.376    667.965    668.801    669.540    667.965    667.965
 16.570    636.000    669.635    -33.635    667.208    668.035    668.808    667.208    667.208
 16.670    648.403    668.901    -20.498    666.456    667.275    668.082    666.456    666.456
 16.770    622.478    668.182    -45.704    665.709    666.528    667.362    665.709    665.709
 16.870    675.000    667.467      7.533    664.968    665.786    666.648    664.968    664.968
 16.970    699.000    666.753     32.247    664.231    665.044    665.940    664.231    664.231
 17.070    665.000    666.045     -1.045    663.500    664.307    665.238    663.500    663.500
 17.170    675.000    665.344      9.656    662.775    663.577    664.542    662.775    662.775
 17.270    645.000    664.656    -19.656    662.054    662.858    663.853    662.054    662.054
 17.370    628.000    664.032    -36.032    661.339    662.200    663.172    661.339    661.339
 17.470    684.787    663.367     21.420    660.629    661.502    662.494    660.629    660.629
 17.570    682.000    662.694     19.306    659.924    660.796    661.822    659.924    659.924
 17.670    630.678    662.027    -31.349    659.224    660.095    661.156    659.224    659.224
 17.770    658.000    661.367     -3.367    658.529    659.399    660.496    658.529    658.529
 17.870    653.000    660.713     -7.713    657.840    658.710    659.842    657.840    657.840
 17.970    633.060    660.065    -27.005    657.155    658.026    659.195    657.155    657.155
 18.070    658.207    659.424     -1.217    656.476    657.347    658.553    656.476    656.476
 18.170    645.052    658.790    -13.738    655.802    656.674    657.917    655.802    655.802
 18.270    668.000    658.163      9.837    655.132    656.007    657.288    655.132    655.132
 18.370    653.324    657.542     -4.218    654.468    655.345    656.665    654.468    654.468
 18.470    639.488    656.928    -17.440    653.809    654.689    656.048    653.809    653.809
 18.570    654.000    656.321     -2.321    653.155    654.039    655.437    653.155    653.155
 18.670    613.000    655.731    -42.731    652.505    653.403    654.833    652.505    652.505
 18.770    635.000    655.140    -20.140    651.861    652.766    654.235    651.861    651.861
 18.870    634.000    654.553    -20.553    651.222    652.132    653.643    651.222    651.222
 18.970    666.000    653.973     12.027    650.587    651.503    653.058    650.587    650.587
 19.070    655.000    653.400      1.600    649.958    650.879    652.479    649.958    649.958
 19.170    619.000    652.837    -33.837    649.333    650.264    651.906    649.333    649.333
 19.270    629.000    652.282    -23.282    648.714    649.655    651.340    648.714    648.714
 19.370    677.000    651.754     25.246    648.099    649.071    650.781    648.099    648.099
 19.470    647.000    651.214     -4.214    647.489    648.473    650.230    647.489    647.489
 19.570    652.000    650.714      1.286    646.884    647.901    649.696    646.884    646.884
 19.670    650.156    650.223     -0.067    646.284    647.337    649.170    646.284    646.284
 19.770    629.000    649.704    -20.704    645.688    646.753    648.639    645.688    645.688
 19.870    620.854    649.188    -28.334    645.097    646.172    648.113    645.097    645.097
 19.970    598.000    648.682    -50.682    644.511    645.599    647.595    644.511    644.511
 20.070    605.129    648.202    -43.073    643.930    645.047    647.086    643.930    643.930
 20.170    584.000    647.750    -63.750    643.354    644.503    646.601    643.354    643.354
 20.270    598.595    647.297    -48.701    642.782    643.963    646.115    642.782    642.782
 20.370    643.000    646.850     -3.850    642.215    643.437    645.628    642.215    642.215
 20.470    691.000    646.424     44.576    641.652    642.929    645.147    641.652    641.652
 20.570    630.000    645.976    -15.976    641.095    642.397    644.673    641.095    641.095
 20.670    621.000    645.574    -24.574    640.542    641.908    644.207    640.542    640.542
 20.770    623.000    645.163    -22.163    639.993    641.407    643.750    639.993    639.993
 20.870    632.000    644.734    -12.734    639.449    640.884    643.300    639.449    639.449
 20.970    642.000    644.320     -2.320    638.910    640.369    642.861    638.910    638.910
 21.070    614.383    643.921    -29.538    638.376    639.865    642.432    638.376    638.376
 21.170    636.000    643.519     -7.519    637.845    639.358    642.007    637.845    637.845
 21.270    659.000    643.126     15.874    637.320    638.856    641.590    637.320    637.320
 21.370    680.204    642.744     37.460    636.799    638.361    641.182    636.799    636.799
 21.470    624.000    642.380    -18.380    636.283    637.879    640.784    636.283    636.283
 21.570    597.603    642.024    -44.421    635.771    637.400    640.395    635.771    635.771
 21.670    668.943    641.676     27.268    635.263    636.923    640.015    635.263    635.263
 21.770    653.429    641.339     12.089    634.760    636.454    639.646    634.760    634.760
 21.870    612.070    641.016    -28.946    634.261    635.991    639.286    634.261    634.261
 21.970    628.000    640.706    -12.706    633.767    635.535    638.938    633.767    633.767
 22.070    648.000    640.408      7.592    633.278    635.086    638.600    633.278    633.278
 22.170    593.934    640.126    -46.192    632.792    634.645    638.273    632.792    632.792
 22.270    614.000    639.861    -25.861    632.311    634.214    637.959    632.311    632.311
 22.370    643.000    639.612      3.388    631.835    633.791    637.656    631.835    631.835
 22.470    650.000    639.379     10.621    631.362    633.376    637.366    631.362    631.362
 22.570    642.332    639.166      3.166    630.895    632.971    637.090    630.895    630.895
 22.670    630.000    638.973     -8.973    630.431    632.577    636.827    630.431    630.431
 22.770    581.000    638.807    -57.807    629.972    632.199    636.580    629.972    629.972
 22.870    640.316    638.663      1.654    629.517    631.832    636.347    629.517    629.517
 22.970    604.000    638.542    -34.542    629.066    631.478    636.130    629.066    629.066
 23.070    657.483    638.451     19.033    628.619    631.141    635.929    628.619    628.619
 23.170    630.000    638.392     -8.392    628.177    630.824    635.746    628.177    628.177
 23.270    663.000    638.371     24.629    627.739    630.529    635.582    627.739    627.739
 23.370    625.000    638.391    -13.391    627.305    630.260    635.437    627.305    627.305
 23.470    631.260    638.460     -7.200    626.875    630.024    635.313    626.875    626.875
 23.570    641.000    638.586      2.414    626.450    629.826    635.210    626.450    626.450
 23.670    606.416    638.779    -32.363    626.029    629.678    635.131    626.029    626.029
 23.770    631.000    639.055     -8.055    625.611    629.591    635.077    625.611    625.611
 23.870    646.321    639.434      6.887    625.198    629.585    635.049    625.198    625.198
 23.970    667.497    639.946     27.551    624.789    629.687    635.050    624.789    624.789
 24.070    634.000    640.638     -6.638    624.384    629.942    635.082    624.384    624.384
 24.170    657.000    641.597     15.403    623.983    630.435    635.148    623.983    623.983
 24.270    685.983    642.999     42.984    623.586    631.341    635.248    623.586    623.586
 24.370    650.000    645.224      4.776    623.193    633.035    635.388    623.193    623.193
 24.470    686.000    648.983     37.017    622.805    636.226    635.569    622.805    622.805
 24.570    686.000    655.387     30.613    622.420    642.023    635.795    622.420    622.420
 24.670    718.622    665.694     52.927    622.039    651.680    636.072    622.039    622.039
 24.770    653.082    680.538    -27.456    621.662    665.826    636.403    621.662    621.662
 24.870    744.000    698.546     45.454    621.289    683.083    636.794    621.289    621.289
 24.970    696.000    714.670    -18.670    620.920    698.391    637.252    620.920    620.920
 25.070    733.892    720.724     13.168    620.555    703.554    637.782    620.555    620.555
 25.170    694.071    712.711    -18.640    620.194    694.563    638.393    620.194    620.194
 25.270    696.000    696.509     -0.509    619.836    677.291    639.094    619.836    619.836
 25.370    716.728    680.196     36.533    619.483    659.810    639.895    619.483    619.483
 25.470    686.204    667.820     18.384    619.133    646.160    640.810    619.133    619.133
 25.570    627.000    660.061    -33.061    618.787    637.007    641.851    618.787    618.787
 25.670    707.000    656.016     50.984    618.445    631.431    643.037    618.445    618.445
 25.770    643.778    654.425    -10.647    618.107    628.149    644.386    618.107    618.107
 25.870    680.031    654.292     25.739    617.773    626.144    645.923    617.773    617.773
 25.970    696.097    655.038     41.058    617.442    624.807    647.674    617.442    617.442
 26.070    676.355    656.392     19.963    617.115    623.833    649.675    617.115    617.115
 26.170    640.000    658.253    -18.253    616.792    623.076    651.968    616.792    616.792
 26.270    625.246    660.592    -35.346    616.472    622.470    654.594    616.472    616.472
 26.370    660.000    663.441     -3.441    616.157    621.980    657.616    616.157    616.157
 26.470    631.269    666.854    -35.585    615.844    621.588    661.110    615.844    615.844
 26.570    630.876    670.913    -40.036    615.536    621.279    665.168    615.536    615.536
 26.670    690.354    675.728     14.626    615.231    621.048    669.908    615.231    615.231
 26.770    680.000    681.447     -1.447    614.930    620.894    675.480    614.930    614.930
 26.870    701.000    688.268     12.732    614.632    620.818    682.078    614.632    614.632
 26.970    656.167    696.455    -40.287    614.338    620.829    689.959    614.338    614.338
 27.070    689.000    706.359    -17.359    614.048    620.939    699.462    614.048    614.048
 27.170    712.000    718.466     -6.466    613.761    621.166    711.054    613.761    613.761
 27.270    706.000    733.447    -27.447    613.477    621.539    725.377    613.477    613.477
 27.370    723.000    752.267    -29.267    613.198    622.099    743.355    613.198    613.198
 27.470    756.000    776.333    -20.333    612.921    622.907    766.334    612.921    612.921
 27.570    802.000    807.918     -5.918    612.648    624.062    796.487    612.648    612.648
 27.670    795.000    851.598    -56.598    612.379    625.765    838.189    612.379    612.379
 27.770    878.365    919.979    -41.614    612.113    628.562    903.496    612.113    612.113
 27.870   1083.000   1052.682     30.318    611.851    634.169   1030.304    611.851    611.851
 27.970   1337.000   1358.991    -21.991    611.592    647.312   1323.144    611.592    611.592
 28.070   2110.782   2062.232     48.550    611.336    677.640   1995.644    611.336    611.336
 28.170   3295.000   3442.605   -147.605    611.084    737.268   3315.857    611.084    611.084
 28.270   5335.000   5560.358   -225.358    610.835    828.828   5341.450    610.835    610.835
 28.370   7692.000   7862.905   -170.905    610.589    928.538   7543.823    610.589    610.589
 28.470   9093.000   9127.176    -34.176    610.347    983.777   8752.787    610.347    610.347
 28.570   8638.000   8466.304    171.696    610.108    956.708   8119.279    610.108    610.108
 28.670   6694.824   6551.618    143.206    609.873    877.306   6284.212    609.873    609.873
 28.770   4647.518   4739.807    -92.289    609.641    805.803   4543.823    609.641    609.641
 28.870   3875.000   3869.580      5.420    609.412    780.076   3699.037    609.412    609.412
 28.970   4010.000   4003.995      6.005    609.186    802.728   3810.485    609.186    609.186
 29.070   4685.000   4651.586     33.414    608.963    848.352   4412.231    608.963    608.963
 29.170   4982.705   5061.087    -78.382    608.744    875.767   4794.232    608.744    608.744
 29.270   4702.000   4704.431     -2.431    608.528    855.381   4457.923    608.528    608.528
 29.370   3748.000   3743.321      4.679    608.315    797.899   3554.149    608.315    608.315
 29.470   2475.000   2677.274   -202.274    608.105    733.841   2551.888    608.105    608.105
 29.570   1771.000   1844.533    -73.533    607.899    683.773   1768.894    607.899    607.899
 29.670   1396.207   1325.194     71.014    607.696    652.592   1280.431    607.696    607.696
 29.770   1057.000   1048.071      8.929    607.495    636.025   1019.609    607.495    607.495
 29.870    984.000    910.244     73.756    607.298    627.869    889.707    607.298    607.298
 29.970    911.000    838.372     72.628    607.104    623.708    821.786    607.104    607.104
 30.070    853.000    795.281     57.719    606.913    621.313    780.892    606.913    606.913
 30.170    799.000    765.708     33.292    606.725    619.784    752.656    606.725    606.725
 30.270    754.810    743.842     10.968    606.540    618.807    731.579    606.540    606.540
 30.370    755.043    727.297     27.746    606.358    618.308    715.349    606.358    606.358
