neutron_powder_diffraction_0222
R_wp: 3.885
Temperature (K): 1074.000
Counts: 83623.00
Wavelength (Ã…): 2.52098
COMMENTS
Test file for demonstrating the .xyy file format in Reel1.0
END OF HEADER
   tth       Y_obs     Y_calc      Y_res    Background    Phase_1_Nuc    Phase_1_Mag    Phase_2_Nuc    Phase_2_Mag
  9.970    638.000    581.425     56.575    580.798    581.397    580.798    580.826    580.798
 10.070    578.000    581.477     -3.477    580.794    581.448    580.794    580.823    580.794
 10.170    589.300    581.545      7.754    580.785    581.516    580.785    580.814    580.785
 10.270    608.000    581.605     26.395    580.771    581.576    580.771    580.799    580.771
 10.370    624.000    581.667     42.333    580.751    581.638    580.751    580.780    580.751
 10.470    539.583    581.739    -42.156    580.726    581.709    580.726    580.755    580.726
 10.570    607.572    581.822     25.749    580.695    581.792    580.695    580.724    580.695
 10.670    623.975    581.923     42.052    580.659    581.892    580.659    580.689    580.659
 10.770    626.804    582.047     44.757    580.619    582.016    580.619    580.649    580.619
 10.870    554.365    582.203    -27.838    580.573    582.170    580.573    580.604    580.573
 10.970    571.000    582.401    -11.401    580.522    582.368    580.522    580.554    580.522
 11.070    571.000    582.658    -11.658    580.466    582.625    580.466    580.498    580.466
 11.170    527.000    583.000    -56.000    580.405    582.966    580.405    580.437    580.405
 11.270    630.000    583.463     46.537    580.339    583.429    580.339    580.372    580.339
 11.370    570.000    584.113    -14.113    580.269    584.078    580.269    580.301    580.269
 11.470    559.000    585.089    -26.089    580.193    585.052    580.193    580.228    580.193
 11.570    614.000    586.792     27.208    580.113    586.742    580.113    580.159    580.113
 11.670    624.000    590.326     33.674    580.028    590.273    580.028    580.076    580.028
 11.770    652.000    598.340     53.660    579.939    598.282    579.939    579.987    579.939
 11.870    597.381    615.146    -17.765    579.845    615.078    579.845    579.893    579.845
 11.970    674.000    644.148     29.852    579.746    644.064    579.746    579.795    579.746
 12.070    714.000    681.646     32.354    579.643    681.541    579.643    579.692    579.643
 12.170    694.000    711.184    -17.184    579.536    711.062    579.536    579.585    579.536
 12.270    683.000    712.041    -29.041    579.424    711.918    579.424    579.473    579.424
 12.370    662.000    683.340    -21.340    579.308    683.233    579.308    579.357    579.308
 12.470    662.000    645.444     16.556    579.187    645.357    579.187    579.237    579.187
 12.570    626.529    615.556     10.973    579.062    615.480    579.062    579.118    579.062
 12.670    591.000    597.943     -6.943    578.934    597.876    578.934    578.990    578.934
 12.770    537.000    589.380    -52.380    578.800    589.317    578.800    578.858    578.800
 12.870    570.000    585.487    -15.487    578.663    585.426    578.663    578.721    578.663
 12.970    548.481    583.523    -35.042    578.522    583.463    578.522    578.580    578.522
 13.070    566.446    582.308    -15.862    578.377    582.247    578.377    578.435    578.377
 13.170    584.000    581.429      2.571    578.228    581.369    578.228    578.286    578.228
 13.270    574.000    580.742     -6.742    578.075    580.682    578.075    578.134    578.075
 13.370    597.675    580.179     17.496    577.918    580.119    577.918    577.977    577.918
 13.470    581.000    579.704      1.296    577.757    579.643    577.757    577.817    577.757
 13.570    614.612    579.290     35.323    577.593    579.229    577.593    577.653    577.593
 13.670    567.000    578.921    -11.921    577.425    578.860    577.425    577.485    577.425
 13.770    550.000    578.586    -28.586    577.253    578.525    577.253    577.313    577.253
 13.870    579.000    578.275      0.725    577.078    578.214    577.078    577.138    577.078
 13.970    611.668    577.984     33.685    576.898    577.922    576.898    576.959    576.898
 14.070    562.000    577.706    -15.706    576.716    577.645    576.716    576.777    576.716
 14.170    595.000    577.440     17.560    576.530    577.378    576.530    576.592    576.530
 14.270    565.000    577.181    -12.181    576.340    577.119    576.340    576.402    576.340
 14.370    638.000    576.929     61.071    576.148    576.867    576.148    576.210    576.148
 14.470    567.000    576.682     -9.682    575.951    576.619    575.951    576.014    575.951
 14.570    565.000    576.438    -11.438    575.752    576.374    575.752    575.816    575.752
 14.670    551.000    576.199    -25.199    575.549    576.132    575.549    575.616    575.549
 14.770    537.203    575.959    -38.756    575.343    575.891    575.343    575.411    575.343
 14.870    582.000    575.720      6.280    575.134    575.651    575.134    575.203    575.134
 14.970    565.110    575.484    -10.374    574.921    575.414    574.921    574.991    574.921
 15.070    585.000    575.246      9.754    574.706    575.176    574.706    574.776    574.706
 15.170    554.903    575.007    -20.104    574.488    574.936    574.488    574.558    574.488
 15.270    576.321    574.766      1.554    574.266    574.695    574.266    574.337    574.266
 15.370    586.000    574.525     11.475    574.042    574.453    574.042    574.113    574.042
 15.470    537.110    574.282    -37.173    573.814    574.210    573.814    573.886    573.814
 15.570    603.776    574.039     29.738    573.584    573.966    573.584    573.657    573.584
 15.670    563.000    573.793    -10.793    573.351    573.720    573.351    573.424    573.351
 15.770    575.000    573.546      1.454    573.115    573.473    573.115    573.188    573.115
 15.870    555.217    573.298    -18.081    572.876    573.224    572.876    572.950    572.876
 15.970    568.712    573.048     -4.336    572.635    572.973    572.635    572.709    572.635
 16.070    564.776    572.796     -8.020    572.391    572.721    572.391    572.466    572.391
 16.170    573.138    572.542      0.596    572.144    572.467    572.144    572.220    572.144
 16.270    600.000    572.286     27.714    571.895    572.211    571.895    571.971    571.895
 16.370    606.650    572.029     34.621    571.643    571.953    571.643    571.719    571.643
 16.470    535.281    571.770    -36.489    571.389    571.693    571.389    571.466    571.389
 16.570    606.000    571.509     34.491    571.132    571.432    571.132    571.209    571.132
 16.670    592.645    571.246     21.399    570.873    571.168    570.873    570.951    570.873
 16.770    493.000    570.982    -77.982    570.612    570.904    570.612    570.690    570.612
 16.870    543.000    570.716    -27.716    570.348    570.638    570.348    570.426    570.348
 16.970    567.000    570.448     -3.448    570.081    570.369    570.081    570.161    570.081
 17.070    604.458    570.179     34.279    569.813    570.098    569.813    569.894    569.813
 17.170    542.742    569.907    -27.165    569.542    569.825    569.542    569.624    569.542
 17.270    595.000    569.633     25.367    569.269    569.550    569.269    569.351    569.269
 17.370    536.000    569.357    -33.357    568.994    569.274    568.994    569.077    568.994
 17.470    549.000    569.079    -20.079    568.716    568.995    568.716    568.800    568.716
 17.570    598.452    568.799     29.652    568.437    568.715    568.437    568.521    568.437
 17.670    574.000    568.520      5.480    568.156    568.436    568.156    568.240    568.156
 17.770    598.337    568.238     30.099    567.872    568.153    567.872    567.958    567.872
 17.870    554.000    567.954    -13.954    567.587    567.868    567.587    567.673    567.587
 17.970    581.000    567.667     13.333    567.299    567.581    567.299    567.386    567.299
 18.070    547.000    567.379    -20.379    567.010    567.292    567.010    567.097    567.010
 18.170    562.000    567.090     -5.090    566.719    567.002    566.719    566.807    566.719
 18.270    551.000    566.799    -15.799    566.426    566.710    566.426    566.514    566.426
 18.370    507.000    566.506    -59.506    566.131    566.417    566.131    566.220    566.131
 18.470    564.000    566.212     -2.212    565.835    566.122    565.835    565.924    565.835
 18.570    600.433    565.916     34.516    565.536    565.826    565.536    565.627    565.536
 18.670    527.692    565.619    -37.927    565.237    565.528    565.237    565.328    565.237
 18.770    557.000    565.321     -8.321    564.935    565.229    564.935    565.027    564.935
 18.870    579.423    565.021     14.402    564.632    564.929    564.632    564.724    564.632
 18.970    559.207    564.720     -5.514    564.327    564.627    564.327    564.421    564.327
 19.070    603.391    564.423     38.968    564.021    564.324    564.021    564.120    564.021
 19.170    574.000    564.121      9.879    563.713    564.019    563.713    563.814    563.713
 19.270    557.544    563.817     -6.272    563.403    563.714    563.403    563.506    563.403
 19.370    552.000    563.511    -11.511    563.092    563.407    563.092    563.196    563.092
 19.470    571.000    563.205      7.795    562.780    563.100    562.780    562.885    562.780
 19.570    593.115    562.898     30.217    562.467    562.793    562.467    562.572    562.467
 19.670    530.311    562.590    -32.279    562.152    562.484    562.152    562.258    562.152
 19.770    534.713    562.280    -27.567    561.835    562.173    561.835    561.942    561.835
 19.870    577.617    561.969     15.647    561.518    561.861    561.518    561.626    561.518
 19.970    576.000    561.657     14.343    561.199    561.548    561.199    561.308    561.199
 20.070    579.000    561.345     17.655    560.879    561.235    560.879    560.989    560.879
 20.170    603.000    561.032     41.968    560.558    560.921    560.558    560.669    560.558
 20.270    549.000    560.719    -11.719    560.235    560.607    560.235    560.347    560.235
 20.370    545.000    560.417    -15.417    559.912    560.305    559.912    560.025    559.912
 20.470    556.361    560.112     -3.752    559.587    559.998    559.587    559.701    559.587
 20.570    578.739    559.797     18.941    559.262    559.682    559.262    559.377    559.262
 20.670    551.000    559.482     -8.482    558.935    559.365    558.935    559.051    558.935
 20.770    531.301    559.165    -27.865    558.607    559.048    558.607    558.725    558.607
 20.870    563.882    558.849      5.033    558.279    558.730    558.279    558.397    558.279
 20.970    556.000    558.532     -2.532    557.949    558.412    557.949    558.069    557.949
 21.070    530.000    558.215    -28.215    557.618    558.094    557.618    557.739    557.618
 21.170    542.000    557.898    -15.898    557.287    557.776    557.287    557.409    557.287
 21.270    549.000    557.581     -8.581    556.955    557.458    556.955    557.078    556.955
 21.370    535.427    557.265    -21.838    556.622    557.140    556.622    556.747    556.622
 21.470    558.415    556.949      1.466    556.288    556.823    556.288    556.414    556.288
 21.570    554.000    556.633     -2.633    555.953    556.505    555.953    556.081    555.953
 21.670    572.000    556.318     15.682    555.618    556.189    555.618    555.747    555.618
 21.770    577.286    556.004     21.281    555.282    555.874    555.282    555.413    555.282
 21.870    515.438    555.691    -40.253    554.945    555.559    554.945    555.077    554.945
 21.970    530.369    555.380    -25.011    554.608    555.246    554.608    554.742    554.608
 22.070    565.000    555.070      9.930    554.270    554.934    554.270    554.405    554.270
 22.170    558.000    554.762      3.238    553.931    554.625    553.931    554.069    553.931
 22.270    577.000    554.464     22.536    553.592    554.325    553.592    553.731    553.592
 22.370    509.000    554.244    -45.244    553.253    554.103    553.253    553.393    553.253
 22.470    513.525    553.986    -40.461    552.912    553.843    552.912    553.055    552.912
 22.570    581.121    553.719     27.402    552.572    553.575    552.572    552.716    552.572
 22.670    529.601    553.432    -23.830    552.231    553.285    552.231    552.377    552.231
 22.770    568.000    553.152     14.848    551.889    553.003    551.889    552.038    551.889
 22.870    550.000    552.921     -2.921    551.547    552.770    551.547    551.698    551.547
 22.970    548.000    552.675     -4.675    551.205    552.522    551.205    551.358    551.205
 23.070    538.000    552.421    -14.421    550.862    552.264    550.862    551.020    550.862
 23.170    550.000    552.178     -2.178    550.519    552.017    550.519    550.681    550.519
 23.270    567.000    551.951     15.049    550.176    551.788    550.176    550.340    550.176
 23.370    541.351    551.745    -10.395    549.833    551.579    549.833    549.999    549.833
 23.470    551.000    551.567     -0.567    549.489    551.398    549.489    549.658    549.489
 23.570    551.283    551.425     -0.142    549.145    551.253    549.145    549.317    549.145
 23.670    537.000    551.332    -14.332    548.801    551.157    548.801    548.976    548.801
 23.770    559.000    551.305      7.695    548.456    551.128    548.456    548.635    548.456
 23.870    556.000    551.375      4.625    548.112    551.195    548.112    548.294    548.112
 23.970    557.000    551.592      5.408    547.767    551.409    547.767    547.953    547.767
 24.070    535.000    552.082    -17.082    547.423    551.895    547.423    547.612    547.423
 24.170    560.000    553.195      6.805    547.078    553.006    547.078    547.271    547.078
 24.270    616.000    555.876     60.124    546.733    555.685    546.733    546.930    546.733
 24.370    593.491    562.134     31.357    546.388    561.944    546.388    546.589    546.388
 24.470    620.807    574.783     46.024    546.044    574.598    546.044    546.249    546.044
 24.570    626.549    595.258     31.291    545.699    595.082    545.699    545.909    545.699
 24.670    612.000    619.562     -7.562    545.354    619.399    545.354    545.569    545.354
 24.770    620.000    635.671    -15.671    545.009    635.516    545.009    545.230    545.009
 24.870    660.533    631.658     28.875    544.665    631.494    544.665    544.890    544.665
 24.970    625.000    610.767     14.233    544.320    610.583    544.320    544.552    544.320
 25.070    549.499    586.378    -36.879    543.976    586.170    543.976    544.214    543.976
 25.170    570.000    567.829      2.171    543.632    567.601    543.632    543.876    543.632
 25.270    571.923    556.924     14.999    543.288    556.682    543.288    543.539    543.288
 25.370    586.000    551.464     34.536    542.944    551.211    542.944    543.203    542.944
 25.470    527.000    548.842    -21.842    542.601    548.579    542.601    542.867    542.601
 25.570    537.000    547.422    -10.422    542.258    547.150    542.258    542.533    542.258
 25.670    551.384    546.477      4.907    541.915    546.195    541.915    542.199    541.915
 25.770    563.176    545.752     17.424    541.572    545.460    541.572    541.866    541.572
 25.870    559.000    545.161     13.839    541.230    544.858    541.230    541.534    541.230
 25.970    503.020    544.666    -41.646    540.888    544.352    540.888    541.203    540.888
 26.070    585.000    544.247     40.753    540.546    543.920    540.546    540.874    540.546
 26.170    509.389    543.888    -34.499    540.205    543.548    540.205    540.545    540.205
 26.270    606.000    543.581     62.419    539.864    543.227    539.864    540.219    539.864
 26.370    544.000    543.323      0.677    539.524    542.953    539.524    539.894    539.524
 26.470    572.000    543.110     28.890    539.184    542.723    539.184    539.571    539.184
 26.570    551.000    542.944      8.056    538.844    542.539    538.844    539.250    538.844
 26.670    525.000    542.835    -17.835    538.505    542.409    538.505    538.931    538.505
 26.770    599.000    542.811     56.189    538.167    542.363    538.167    538.615    538.167
 26.870    536.000    542.856     -6.856    537.829    542.383    537.829    538.301    537.829
 26.970    546.000    542.969      3.031    537.491    542.468    537.491    537.991    537.491
 27.070    517.000    543.193    -26.193    537.154    542.662    537.154    537.685    537.154
 27.170    538.071    543.565     -5.494    536.818    543.000    536.818    537.382    536.818
 27.270    559.436    544.138     15.298    536.482    543.535    536.482    537.085    536.482
 27.370    512.674    544.994    -32.319    536.147    544.347    536.147    536.792    536.147
 27.470    571.000    546.266     24.734    535.813    545.571    535.813    536.506    535.813
 27.570    542.000    548.345     -6.345    535.479    547.594    535.479    536.228    535.479
 27.670    587.894    552.549     35.345    535.146    551.733    535.146    535.958    535.146
 27.770    540.044    563.362    -23.318    534.813    562.470    534.813    535.699    534.813
 27.870    605.000    592.522     12.478    534.482    591.535    534.482    535.452    534.482
 27.970    680.000    658.576     21.424    534.151    657.469    534.151    535.220    534.151
 28.070    762.000    770.142     -8.142    533.820    768.885    533.820    535.008    533.820
 28.170    894.094    895.622     -1.528    533.491    894.199    533.491    534.818    533.491
 28.270    925.000    957.565    -32.565    533.162    955.976    533.162    534.658    533.162
 28.370    897.000    904.705     -7.705    532.834    902.946    532.834    534.535    532.834
 28.470    811.000    791.305     19.695    532.507    789.327    532.507    534.463    532.507
 28.570    715.728    703.866     11.862    532.181    701.578    532.181    534.459    532.181
 28.670    715.494    686.476     29.018    531.855    683.761    531.855    534.557    531.855
 28.770    713.671    733.753    -20.082    531.531    730.449    531.531    534.816    531.531
 28.870    778.000    804.662    -26.662    531.207    800.514    531.207    535.344    531.207
 28.970    811.000    838.346    -27.346    530.884    832.915    530.884    536.320    530.884
 29.070    765.167    798.958    -33.791    530.562    791.518    530.562    538.016    530.562
 29.170    701.637    718.361    -16.724    530.241    707.855    530.241    540.761    530.241
 29.270    616.000    645.414    -29.414    529.921    630.490    529.921    544.854    529.921
 29.370    587.000    601.816    -14.816    529.602    581.058    529.602    550.364    529.602
 29.470    584.163    584.160      0.003    529.284    556.654    529.284    556.791    529.284
 29.570    626.000    579.868     46.132    528.967    546.272    528.967    562.562    528.967
 29.670    649.000    578.143     70.857    528.651    541.710    528.651    565.083    528.651
 29.770    530.533    573.624    -43.091    528.336    539.243    528.336    562.715    528.336
 29.870    631.000    566.308     64.692    528.022    537.620    528.022    556.708    528.022
 29.970    565.000    558.404      6.596    527.709    536.464    527.709    549.647    527.709
 30.070    531.000    551.559    -20.559    527.397    535.656    527.397    543.298    527.397
 30.170    562.000    546.409     15.591    527.086    535.173    527.086    538.320    527.086
 30.270    612.000    543.065     68.935    526.776    535.119    526.776    534.720    526.776
 30.370    507.000    541.679    -34.679    526.467    535.914    526.467    532.229    526.467
