neutron_powder_diffraction_0199
R_wp: 3.905
Temperature (K): 1074.000
Counts: 83511.00
Wavelength (Ã…): 2.52098
COMMENTS
Test file for demonstrating the .xyy file format in Reel1.0
END OF HEADER
   tth       Y_obs     Y_calc      Y_res    Background    Phase_1_Nuc    Phase_1_Mag    Phase_2_Nuc    Phase_2_Mag
  9.970    631.000    572.928     58.072    572.259    572.903    572.259    572.284    572.259
 10.070    598.000    573.020     24.980    572.295    572.995    572.295    572.320    572.295
 10.170    601.566    573.115     28.451    572.327    573.090    572.327    572.352    572.327
 10.270    592.000    573.215     18.785    572.353    573.189    572.353    572.378    572.353
 10.370    575.000    573.322      1.678    572.375    573.296    572.375    572.400    572.375
 10.470    570.000    573.438     -3.438    572.391    573.412    572.391    572.417    572.391
 10.570    587.000    573.569     13.431    572.403    573.541    572.403    572.429    572.403
 10.670    565.000    573.717     -8.717    572.409    573.689    572.409    572.437    572.409
 10.770    562.134    573.888    -11.755    572.411    573.860    572.411    572.439    572.411
 10.870    570.276    574.093     -3.817    572.408    574.064    572.408    572.436    572.408
 10.970    595.000    574.343     20.657    572.400    574.314    572.400    572.428    572.400
 11.070    611.839    574.655     37.185    572.388    574.625    572.388    572.416    572.388
 11.170    576.000    575.055      0.945    572.371    575.024    572.371    572.400    572.371
 11.270    555.000    575.581    -20.581    572.349    575.549    572.349    572.379    572.349
 11.370    562.188    576.309    -14.121    572.323    576.267    572.323    572.363    572.323
 11.470    615.052    577.366     37.686    572.292    577.322    572.292    572.333    572.292
 11.570    588.000    579.166      8.834    572.257    579.121    572.257    572.299    572.257
 11.670    584.000    582.861      1.139    572.217    582.813    572.217    572.259    572.217
 11.770    645.000    591.125     53.875    572.173    591.073    572.173    572.215    572.173
 11.870    694.000    608.274     85.726    572.125    608.212    572.125    572.167    572.125
 11.970    680.000    637.659     42.341    572.073    637.580    572.073    572.115    572.073
 12.070    647.000    675.498    -28.498    572.016    675.397    572.016    572.058    572.016
 12.170    663.000    705.259    -42.259    571.955    705.140    571.955    571.998    571.955
 12.270    651.000    706.172    -55.172    571.890    706.048    571.890    571.938    571.890
 12.370    652.000    677.351    -25.351    571.820    677.242    571.820    571.869    571.820
 12.470    637.000    639.212     -2.212    571.747    639.124    571.747    571.796    571.747
 12.570    569.000    609.029    -40.029    571.670    608.958    571.670    571.719    571.670
 12.670    630.173    591.162     39.011    571.589    591.101    571.589    571.638    571.589
 12.770    598.385    582.436     15.949    571.503    582.380    571.503    571.553    571.503
 12.870    556.000    578.471    -22.471    571.414    578.417    571.414    571.465    571.414
 12.970    572.000    576.490     -4.490    571.321    576.437    571.321    571.372    571.321
 13.070    558.000    575.286    -17.286    571.225    575.232    571.225    571.275    571.225
 13.170    548.000    574.431    -26.431    571.124    574.378    571.124    571.175    571.124
 13.270    554.000    573.774    -19.774    571.020    573.721    571.020    571.071    571.020
 13.370    517.000    573.246    -56.246    570.912    573.194    570.912    570.964    570.912
 13.470    579.000    572.809      6.191    570.801    572.756    570.801    570.852    570.801
 13.570    544.000    572.436    -28.436    570.685    572.383    570.685    570.738    570.685
 13.670    562.074    572.110    -10.036    570.567    572.057    570.567    570.619    570.567
 13.770    565.226    571.819     -6.593    570.445    571.765    570.445    570.497    570.445
 13.870    563.000    571.553     -8.553    570.319    571.500    570.319    570.372    570.319
 13.970    557.000    571.308    -14.308    570.190    571.254    570.190    570.243    570.190
 14.070    582.000    571.077     10.923    570.058    571.023    570.058    570.111    570.058
 14.170    591.856    570.858     20.997    569.922    570.804    569.922    569.976    569.922
 14.270    587.000    570.649     16.351    569.783    570.593    569.783    569.838    569.783
 14.370    558.000    570.447    -12.447    569.640    570.390    569.640    569.698    569.640
 14.470    537.000    570.252    -33.252    569.495    570.194    569.495    569.553    569.495
 14.570    589.000    570.059     18.941    569.346    570.000    569.346    569.406    569.346
 14.670    519.000    569.867    -50.867    569.194    569.807    569.194    569.254    569.194
 14.770    578.000    569.676      8.324    569.039    569.616    569.039    569.099    569.039
 14.870    536.125    569.487    -33.363    568.881    569.426    568.881    568.942    568.881
 14.970    563.000    569.298     -6.298    568.720    569.237    568.720    568.782    568.720
 15.070    535.372    569.110    -33.737    568.556    569.048    568.556    568.618    568.556
 15.170    527.796    568.921    -41.125    568.389    568.859    568.389    568.451    568.389
 15.270    523.477    568.731    -45.254    568.219    568.669    568.219    568.282    568.219
 15.370    533.597    568.541    -34.943    568.047    568.478    568.047    568.109    568.047
 15.470    582.000    568.349     13.651    567.871    568.286    567.871    567.934    567.871
 15.570    596.977    568.157     28.820    567.692    568.093    567.692    567.756    567.692
 15.670    575.000    567.963      7.037    567.511    567.899    567.511    567.575    567.511
 15.770    571.533    567.768      3.765    567.327    567.703    567.327    567.392    567.327
 15.870    573.245    567.571      5.674    567.141    567.506    567.141    567.205    567.141
 15.970    548.000    567.373    -19.373    566.952    567.308    566.952    567.016    566.952
 16.070    582.000    567.173     14.827    566.760    567.107    566.760    566.825    566.760
 16.170    528.220    566.971    -38.751    566.565    566.905    566.565    566.631    566.565
 16.270    552.650    566.768    -14.119    566.368    566.702    566.368    566.434    566.368
 16.370    598.000    566.565     31.435    566.169    566.498    566.169    566.235    566.169
 16.470    577.458    566.358     11.100    565.967    566.291    565.967    566.034    565.967
 16.570    540.000    566.149    -26.149    565.762    566.082    565.762    565.830    565.762
 16.670    525.000    565.938    -40.938    565.556    565.870    565.556    565.624    565.556
 16.770    570.598    565.726      4.872    565.347    565.657    565.347    565.415    565.347
 16.870    577.544    565.513     12.031    565.135    565.443    565.135    565.205    565.135
 16.970    517.000    565.297    -48.297    564.921    565.226    564.921    564.992    564.921
 17.070    610.197    565.079     45.118    564.705    565.008    564.705    564.777    564.705
 17.170    611.184    564.859     46.325    564.487    564.788    564.487    564.559    564.487
 17.270    584.000    564.640     19.360    564.267    564.568    564.267    564.339    564.267
 17.370    524.382    564.417    -40.035    564.044    564.345    564.044    564.117    564.044
 17.470    567.000    564.192      2.808    563.819    564.119    563.819    563.893    563.819
 17.570    524.000    563.965    -39.965    563.593    563.891    563.593    563.666    563.593
 17.670    559.000    563.736     -4.736    563.364    563.662    563.364    563.438    563.364
 17.770    537.000    563.506    -26.506    563.133    563.431    563.133    563.208    563.133
 17.870    550.000    563.274    -13.274    562.900    563.199    562.900    562.975    562.900
 17.970    598.832    563.040     35.792    562.665    562.965    562.665    562.741    562.665
 18.070    573.586    562.805     10.781    562.429    562.729    562.429    562.505    562.429
 18.170    529.486    562.568    -33.082    562.190    562.491    562.190    562.267    562.190
 18.270    594.000    562.330     31.670    561.950    562.252    561.950    562.027    561.950
 18.370    544.000    562.090    -18.090    561.707    562.012    561.707    561.785    561.707
 18.470    545.000    561.848    -16.848    561.463    561.770    561.463    561.542    561.463
 18.570    565.000    561.606      3.394    561.217    561.527    561.217    561.297    561.217
 18.670    577.000    561.362     15.638    560.970    561.282    560.970    561.050    560.970
 18.770    570.000    561.116      8.884    560.721    561.036    560.721    560.801    560.721
 18.870    524.343    560.873    -36.530    560.470    560.788    560.470    560.555    560.470
 18.970    586.000    560.626     25.374    560.217    560.538    560.217    560.305    560.217
 19.070    596.000    560.376     35.624    559.963    560.288    559.963    560.052    559.963
 19.170    546.000    560.125    -14.125    559.707    560.036    559.707    559.797    559.707
 19.270    516.431    559.873    -43.441    559.450    559.783    559.450    559.540    559.450
 19.370    539.000    559.619    -20.619    559.191    559.529    559.191    559.282    559.191
 19.470    552.000    559.366     -7.366    558.931    559.274    558.931    559.022    558.931
 19.570    597.435    559.111     38.324    558.669    559.019    558.669    558.762    558.669
 19.670    515.148    558.854    -43.706    558.406    558.761    558.406    558.499    558.406
 19.770    576.000    558.596     17.404    558.142    558.502    558.142    558.236    558.142
 19.870    525.000    558.339    -33.339    557.876    558.244    557.876    557.970    557.876
 19.970    602.991    558.092     44.899    557.609    557.997    557.609    557.704    557.609
 20.070    578.047    557.842     20.205    557.340    557.746    557.340    557.436    557.340
 20.170    583.951    557.581     26.369    557.071    557.484    557.071    557.168    557.071
 20.270    548.000    557.319     -9.319    556.800    557.221    556.800    556.897    556.800
 20.370    561.913    557.057      4.857    556.527    556.958    556.527    556.626    556.527
 20.470    546.367    556.793    -10.426    556.254    556.693    556.254    556.354    556.254
 20.570    592.917    556.529     36.387    555.979    556.429    555.979    556.080    555.979
 20.670    572.000    556.265     15.735    555.704    556.163    555.704    555.805    555.704
 20.770    519.684    556.000    -36.316    555.427    555.897    555.427    555.530    555.427
 20.870    530.695    555.735    -25.040    555.149    555.631    555.149    555.253    555.149
 20.970    552.000    555.469     -3.469    554.870    555.364    554.870    554.975    554.870
 21.070    570.000    555.204     14.796    554.590    555.098    554.590    554.696    554.590
 21.170    545.163    554.938     -9.775    554.309    554.831    554.309    554.416    554.309
 21.270    538.948    554.672    -15.724    554.027    554.564    554.027    554.136    554.027
 21.370    543.000    554.407    -11.407    553.745    554.297    553.745    553.854    553.745
 21.470    560.000    554.150      5.850    553.461    554.039    553.461    553.571    553.461
 21.570    553.000    553.970     -0.970    553.176    553.858    553.176    553.288    553.176
 21.670    567.000    553.728     13.272    552.891    553.615    552.891    553.004    552.891
 21.770    560.159    553.466      6.692    552.605    553.352    552.605    552.719    552.605
 21.870    529.594    553.206    -23.612    552.317    553.090    552.317    552.433    552.317
 21.970    526.000    552.967    -26.967    552.030    552.850    552.030    552.147    552.030
 22.070    572.000    552.736     19.264    551.741    552.618    551.741    551.860    551.741
 22.170    521.408    552.482    -31.075    551.452    552.362    551.452    551.572    551.452
 22.270    557.000    552.232      4.768    551.162    552.111    551.162    551.283    551.162
 22.370    566.000    552.026     13.974    550.871    551.903    550.871    550.994    550.871
 22.470    560.000    551.797      8.203    550.579    551.672    550.579    550.704    550.579
 22.570    544.000    551.556     -7.556    550.287    551.430    550.287    550.414    550.287
 22.670    527.000    551.321    -24.321    549.995    551.193    549.995    550.123    549.995
 22.770    554.000    551.089      2.911    549.702    550.958    549.702    549.832    549.702
 22.870    557.553    550.865      6.689    549.408    550.731    549.408    549.542    549.408
 22.970    522.000    550.649    -28.649    549.114    550.512    549.114    549.251    549.114
 23.070    557.000    550.443      6.557    548.819    550.304    548.819    548.958    548.819
 23.170    548.000    550.250     -2.250    548.524    550.109    548.524    548.665    548.524
 23.270    541.000    550.075     -9.075    548.228    549.932    548.228    548.372    548.228
 23.370    510.310    549.921    -39.612    547.932    549.776    547.932    548.078    547.932
 23.470    560.934    549.796     11.138    547.635    549.648    547.635    547.784    547.635
 23.570    532.000    549.709    -17.709    547.338    549.559    547.338    547.489    547.338
 23.670    554.000    549.674      4.326    547.041    549.521    547.041    547.195    547.041
 23.770    566.000    549.705     16.295    546.743    549.550    546.743    546.900    546.743
 23.870    563.000    549.835     13.165    546.445    549.677    546.445    546.605    546.445
 23.970    521.000    550.118    -29.118    546.147    549.957    546.147    546.310    546.147
 24.070    528.000    550.680    -22.680    545.849    550.517    545.849    546.014    545.849
 24.170    555.000    551.883      3.117    545.550    551.718    545.550    545.719    545.550
 24.270    573.856    554.693     19.162    545.251    554.526    545.251    545.423    545.251
 24.370    591.344    561.140     30.204    544.952    560.975    544.952    545.128    544.952
 24.470    590.599    574.047     16.552    544.652    573.887    544.652    544.832    544.652
 24.570    608.000    594.826     13.174    544.353    594.676    544.353    544.537    544.353
 24.670    631.000    619.429     11.571    544.053    619.294    544.053    544.242    544.053
 24.770    596.000    635.749    -39.749    543.753    635.621    543.753    543.946    543.753
 24.870    610.000    631.773    -21.773    543.453    631.638    543.453    543.651    543.453
 24.970    601.000    610.762     -9.762    543.154    610.606    543.154    543.356    543.154
 25.070    583.000    586.176     -3.176    542.853    585.998    542.853    543.062    542.853
 25.170    560.000    567.437     -7.437    542.553    567.239    542.553    542.767    542.553
 25.270    574.459    556.386     18.072    542.253    556.175    542.253    542.473    542.253
 25.370    589.000    550.852     38.148    541.953    550.631    541.953    542.180    541.953
 25.470    554.000    548.194      5.806    541.653    547.964    541.653    541.887    541.653
 25.570    573.146    546.763     26.382    541.353    546.524    541.353    541.594    541.353
 25.670    580.000    545.834     34.166    541.053    545.587    541.053    541.302    541.053
 25.770    547.000    545.144      1.856    540.753    544.888    540.753    541.011    540.753
 25.870    522.923    544.593    -21.669    540.454    544.327    540.454    540.720    540.454
 25.970    534.000    544.142    -10.142    540.154    543.866    540.154    540.431    540.154
 26.070    588.740    543.770     44.969    539.855    543.484    539.855    540.142    539.855
 26.170    519.306    543.486    -24.180    539.555    543.188    539.555    539.854    539.555
 26.270    556.510    543.254     13.256    539.256    542.943    539.256    539.567    539.256
 26.370    558.000    543.050     14.950    538.957    542.725    538.957    539.282    538.957
 26.470    568.023    542.894     25.129    538.659    542.555    538.659    538.998    538.659
 26.570    500.044    542.794    -42.750    538.360    542.438    538.360    538.716    538.360
 26.670    556.000    542.754     13.246    538.062    542.381    538.062    538.436    538.062
 26.770    575.452    542.775     32.677    537.764    542.382    537.764    538.157    537.764
 26.870    547.000    542.875      4.125    537.466    542.460    537.466    537.881    537.466
 26.970    560.000    543.083     16.917    537.169    542.644    537.169    537.608    537.169
 27.070    562.000    543.434     18.566    536.872    542.968    536.872    537.338    536.872
 27.170    539.000    543.932     -4.932    536.576    543.436    536.576    537.071    536.576
 27.270    548.000    544.634      3.366    536.279    544.105    536.279    536.808    536.279
 27.370    509.000    545.643    -36.643    535.983    545.075    535.983    536.550    535.983
 27.470    560.000    547.118     12.882    535.688    546.508    535.688    536.297    535.688
 27.570    589.000    549.479     39.521    535.393    548.819    535.393    536.050    535.393
 27.670    590.000    554.163     35.837    535.098    553.446    535.098    535.811    535.098
 27.770    584.000    565.897     18.103    534.804    565.112    534.804    535.581    534.804
 27.870    564.948    596.270    -31.322    534.510    595.399    534.510    535.362    534.510
 27.970    645.000    662.719    -17.719    534.217    661.740    534.217    535.156    534.217
 28.070    824.000    772.329     51.671    533.924    771.214    533.924    534.966    533.924
 28.170    897.000    894.150      2.850    533.632    892.885    533.632    534.797    533.632
 28.270    927.000    954.255    -27.255    533.340    952.844    533.340    534.653    533.340
 28.370    959.859    903.788     56.071    533.049    902.232    533.049    534.542    533.049
 28.470    786.000    794.892     -8.892    532.759    793.147    532.759    534.475    532.759
 28.570    716.000    710.356      5.644    532.469    708.343    532.469    534.468    532.469
 28.670    674.000    692.800    -18.800    532.179    690.412    532.179    534.551    532.179
 28.770    774.000    737.542     36.458    531.890    734.637    531.890    534.775    531.890
 28.870    789.086    805.215    -16.128    531.602    801.568    531.602    535.234    531.602
 28.970    827.000    837.126    -10.126    531.315    832.356    531.315    536.084    531.315
 29.070    760.060    798.518    -38.459    531.028    791.998    531.028    537.558    531.028
 29.170    721.000    719.705      1.295    530.742    710.522    530.742    539.936    530.742
 29.270    660.000    647.426     12.574    530.456    634.421    530.456    543.468    530.456
 29.370    599.000    602.857     -3.857    530.171    584.821    530.171    548.210    530.171
 29.470    564.000    583.465    -19.465    529.887    559.625    529.887    553.726    529.887
 29.570    580.112    577.640      2.472    529.604    548.575    529.604    558.667    529.604
 29.670    579.885    575.131      4.754    529.321    543.634    529.321    560.815    529.321
 29.770    550.000    570.712    -20.712    529.040    540.974    529.040    558.775    529.040
 29.870    599.057    564.102     34.955    528.758    539.247    528.758    553.611    528.758
 29.970    566.000    557.089      8.911    528.478    538.036    528.478    547.530    528.478
 30.070    561.883    551.055     10.828    528.199    537.204    528.199    542.047    528.199
 30.170    569.950    546.542     23.408    527.920    536.727    527.920    537.733    527.920
 30.270    538.000    543.676     -5.676    527.642    536.716    527.642    534.599    527.642
 30.370    497.912    542.673    -44.761    527.365    537.615    527.365    532.419    527.365
