neutron_powder_diffraction_0020
R_wp: 3.848
Temperature (K): 496.730
Counts: 83539.00
Wavelength (Ã…): 2.52098
COMMENTS
Test file for demonstrating the .xyy file format in Reel1.0
END OF HEADER
   tth       Y_obs     Y_calc      Y_res    Background    Phase_1_Nuc    Phase_1_Mag    Phase_2_Nuc    Phase_2_Mag
  9.970    776.000    721.372     54.628    719.662    720.707    720.326    719.662    719.662
 10.070    752.229    720.370     31.858    718.569    719.698    719.241    718.569    718.569
 10.170    721.373    719.385      1.987    717.482    718.706    718.160    717.482    717.482
 10.270    726.000    718.419      7.581    716.400    717.733    717.085    716.400    716.400
 10.370    748.000    717.475     30.525    715.322    716.781    716.015    715.322    715.322
 10.470    728.000    716.556     11.444    714.251    715.855    714.951    714.251    714.251
 10.570    739.110    715.667     23.443    713.184    714.958    713.892    713.184    713.184
 10.670    741.000    714.814     26.186    712.122    714.097    712.838    712.122    712.122
 10.770    768.000    714.004     53.996    711.066    713.279    711.789    711.066    711.066
 10.870    754.000    713.247     40.753    710.015    712.514    710.746    710.015    710.015
 10.970    752.000    712.558     39.442    708.969    711.816    709.708    708.969    708.969
 11.070    711.000    711.954     -0.954    707.928    711.204    708.676    707.928    707.928
 11.170    701.304    711.464    -10.160    706.892    710.705    707.649    706.892    706.892
 11.270    690.000    711.126    -21.126    705.861    710.358    706.626    705.861    705.861
 11.370    739.127    711.005     28.123    704.836    710.228    705.610    704.836    704.836
 11.470    757.000    711.218     45.782    703.816    710.432    704.598    703.816    703.816
 11.570    749.000    712.023     36.977    702.801    711.226    703.592    702.801    702.801
 11.670    749.501    713.979     35.522    701.791    713.172    702.592    701.791    701.791
 11.770    811.000    718.227     92.773    700.786    717.407    701.596    700.786    700.786
 11.870    735.421    726.655      8.766    699.786    725.820    700.606    699.786    699.786
 11.970    791.000    741.501     49.499    698.791    740.647    699.621    698.791    698.791
 12.070    765.948    763.892      2.056    697.801    763.016    698.641    697.801    697.801
 12.170    832.000    791.140     40.860    696.817    790.238    697.666    696.817    696.817
 12.270    868.000    813.860     54.140    695.837    812.933    696.697    695.837    695.837
 12.370    825.508    818.276      7.232    694.863    817.336    695.733    694.863    694.863
 12.470    820.558    800.234     20.324    693.894    799.293    694.775    693.894    693.894
 12.570    757.000    771.200    -14.200    692.929    770.264    693.821    692.929    692.929
 12.670    750.000    743.962      6.038    691.970    743.031    692.873    691.970    691.970
 12.770    727.000    723.901      3.099    691.016    722.969    691.930    691.016    691.016
 12.870    698.605    711.076    -12.471    690.067    710.139    690.992    690.067    690.067
 12.970    681.000    703.428    -22.428    689.123    702.483    690.060    689.123    689.123
 13.070    727.997    698.788     29.209    688.184    697.834    689.132    688.184    688.184
 13.170    748.000    695.689     52.311    687.249    694.724    688.210    687.249    687.249
 13.270    694.611    693.355      1.256    686.320    692.379    687.293    686.320    686.320
 13.370    742.590    691.435     51.155    685.396    690.447    686.382    685.396    685.396
 13.470    656.702    689.772    -33.070    684.477    688.771    685.475    684.477    684.477
 13.570    681.000    688.282     -7.282    683.563    687.268    684.574    683.563    683.563
 13.670    662.000    686.919    -24.919    682.654    685.893    683.678    682.654    682.654
 13.770    653.000    685.652    -32.652    681.750    684.613    682.788    681.750    681.750
 13.870    679.000    684.461     -5.461    680.851    683.408    681.902    680.851    680.851
 13.970    755.000    683.343     71.657    679.956    682.275    681.023    679.956    679.956
 14.070    665.466    682.271    -16.805    679.067    681.189    680.148    679.067    679.067
 14.170    670.460    681.224    -10.764    678.183    680.127    679.278    678.183    678.183
 14.270    727.838    680.208     47.630    677.303    679.096    678.414    677.303    677.303
 14.370    633.000    679.219    -46.219    676.429    678.092    677.554    676.429    676.429
 14.470    729.366    678.253     51.113    675.559    677.111    676.700    675.559    675.559
 14.570    683.000    677.307      5.693    674.694    676.149    675.852    674.694    674.694
 14.670    682.254    676.379      5.874    673.834    675.205    675.008    673.834    673.834
 14.770    683.000    675.467      7.533    672.979    674.276    674.170    672.979    672.979
 14.870    621.682    674.569    -52.887    672.129    673.361    673.337    672.129    672.129
 14.970    602.000    673.683    -71.683    671.284    672.458    672.509    671.284    671.284
 15.070    621.000    672.813    -51.813    670.444    671.570    671.686    670.444    670.444
 15.170    671.000    671.953     -0.953    669.608    670.692    670.869    669.608    669.608
 15.270    721.739    671.100     50.639    668.778    669.821    670.057    668.778    668.778
 15.370    637.000    670.257    -33.257    667.952    668.959    669.250    667.952    667.952
 15.470    667.000    669.423     -2.423    667.131    668.106    668.448    667.131    667.131
 15.570    672.000    668.598      3.402    666.315    667.260    667.652    666.315    666.315
 15.670    680.717    667.780     12.937    665.503    666.423    666.860    665.503    665.503
 15.770    714.000    666.971     47.029    664.697    665.593    666.075    664.697    664.697
 15.870    662.641    666.169     -3.528    663.895    664.769    665.294    663.895    663.895
 15.970    640.000    665.374    -25.374    663.098    663.953    664.519    663.098    663.098
 16.070    716.048    664.587     51.461    662.306    663.144    663.749    662.306    662.306
 16.170    621.014    663.807    -42.793    661.518    662.341    662.984    661.518    661.518
 16.270    679.000    663.034     15.966    660.735    661.544    662.224    660.735    660.735
 16.370    653.000    662.270     -9.270    659.957    660.757    661.470    659.957    659.957
 16.470    646.000    661.514    -15.514    659.184    659.977    660.722    659.184    659.184
 16.570    683.000    660.761     22.239    658.416    659.199    659.978    658.416    658.416
 16.670    608.000    660.014    -52.014    657.652    658.426    659.240    657.652    657.652
 16.770    612.451    659.273    -46.822    656.893    657.659    658.507    656.893    656.893
 16.870    705.000    658.539     46.461    656.138    656.897    657.780    656.138    656.138
 16.970    642.799    657.810    -15.011    655.389    656.142    657.057    655.389    655.389
 17.070    706.863    657.092     49.771    654.644    655.395    656.341    654.644    654.644
 17.170    639.000    656.389    -17.389    653.903    654.662    655.630    653.903    653.903
 17.270    659.000    655.696      3.304    653.168    653.938    654.925    653.168    653.168
 17.370    671.000    655.057     15.943    652.437    653.266    654.227    652.437    652.437
 17.470    639.000    654.367    -15.367    651.710    652.545    653.532    651.710    651.710
 17.570    627.155    653.689    -26.534    650.988    651.835    652.843    650.988    650.988
 17.670    618.107    653.022    -34.916    650.271    651.135    652.159    650.271    650.271
 17.770    635.000    652.345    -17.345    649.559    650.424    651.480    649.559    649.559
 17.870    610.330    651.672    -41.342    648.851    649.716    650.807    648.851    648.851
 17.970    671.522    651.005     20.516    648.148    649.013    650.140    648.148    648.148
 18.070    706.559    650.345     56.214    647.449    648.316    649.478    647.449    647.449
 18.170    689.602    649.690     39.912    646.755    647.623    648.822    646.755    646.755
 18.270    597.000    649.042    -52.042    646.065    646.935    648.171    646.065    646.065
 18.370    675.000    648.399     26.601    645.380    646.253    647.526    645.380    645.380
 18.470    634.000    647.763    -13.763    644.699    645.575    646.887    644.699    644.699
 18.570    612.000    647.133    -35.133    644.023    644.903    646.254    644.023    644.023
 18.670    607.270    646.509    -39.239    643.352    644.235    645.626    643.352    643.352
 18.770    603.000    645.895    -42.895    642.685    643.576    645.004    642.685    642.685
 18.870    612.039    645.296    -33.257    642.022    642.930    644.389    642.022    642.022
 18.970    670.000    644.693     25.307    641.364    642.279    643.779    641.364    641.364
 19.070    630.000    644.094    -14.094    640.711    641.631    643.174    640.711    640.711
 19.170    629.000    643.503    -14.503    640.062    640.988    642.576    640.062    640.062
 19.270    621.000    642.922    -21.922    639.417    640.353    641.986    639.417    639.417
 19.370    643.000    642.395      0.605    638.777    639.756    641.416    638.777    638.777
 19.470    644.000    641.851      2.149    638.142    639.148    640.845    638.142    638.142
 19.570    644.627    641.291      3.336    637.510    638.529    640.272    637.510    637.510
 19.670    687.314    640.748     46.566    636.884    637.926    639.706    636.884    636.884
 19.770    607.097    640.210    -33.112    636.261    637.325    639.146    636.261    636.261
 19.870    598.350    639.667    -41.317    635.643    636.718    638.592    635.643    635.643
 19.970    613.000    639.132    -26.132    635.030    636.117    638.044    635.030    635.030
 20.070    625.000    638.609    -13.609    634.420    635.525    637.504    634.420    634.420
 20.170    612.655    638.120    -25.464    633.815    634.954    636.981    633.815    633.815
 20.270    626.000    637.645    -11.645    633.215    634.389    636.471    633.215    633.215
 20.370    624.000    637.156    -13.156    632.619    633.823    635.952    632.619    632.619
 20.470    616.000    636.704    -20.704    632.027    633.289    635.441    632.027    632.027
 20.570    583.021    636.242    -53.221    631.439    632.746    634.936    631.439    631.439
 20.670    592.555    635.788    -43.233    630.856    632.206    634.438    630.856    630.856
 20.770    664.000    635.320     28.680    630.277    631.650    633.947    630.277    630.277
 20.870    620.000    634.894    -14.894    629.703    631.131    633.465    629.703    629.703
 20.970    609.000    634.449    -25.449    629.132    630.591    632.990    629.132    629.132
 21.070    682.899    634.006     48.893    628.566    630.049    632.524    628.566    628.566
 21.170    578.411    633.582    -55.171    628.004    629.516    632.070    628.004    628.004
 21.270    671.000    633.161     37.839    627.447    628.986    631.621    627.447    627.447
 21.370    649.704    632.750     16.954    626.893    628.464    631.179    626.893    626.893
 21.470    605.000    632.356    -27.356    626.344    627.954    630.746    626.344    626.344
 21.570    594.000    631.963    -37.963    625.799    627.440    630.322    625.799    625.799
 21.670    597.000    631.578    -34.578    625.259    626.930    629.907    625.259    625.259
 21.770    634.000    631.205      2.795    624.722    626.426    629.501    624.722    624.722
 21.870    612.000    630.845    -18.845    624.190    625.929    629.105    624.190    624.190
 21.970    636.000    630.497      5.503    623.661    625.438    628.720    623.661    623.661
 22.070    581.629    630.165    -48.536    623.137    624.957    628.345    623.137    623.137
 22.170    659.000    629.845     29.155    622.618    624.481    627.981    622.618    622.618
 22.270    622.000    629.540     -7.540    622.102    624.013    627.629    622.102    622.102
 22.370    677.505    629.252     48.253    621.590    623.554    627.288    621.590    621.590
 22.470    637.000    628.983      8.017    621.083    623.106    626.960    621.083    621.083
 22.570    594.000    628.731    -34.731    620.579    622.665    626.645    620.579    620.579
 22.670    611.000    628.498    -17.498    620.080    622.235    626.343    620.080    620.080
 22.770    604.000    628.294    -24.294    619.584    621.822    626.057    619.584    619.584
 22.870    625.000    628.108     -3.108    619.093    621.417    625.784    619.093    619.093
 22.970    657.000    627.946     29.054    618.606    621.026    625.526    618.606    618.606
 23.070    609.000    627.813    -18.813    618.123    620.652    625.284    618.123    618.123
 23.170    585.000    627.712    -42.712    617.644    620.296    625.060    617.644    617.644
 23.270    650.000    627.647     22.353    617.169    619.963    624.854    617.169    617.169
 23.370    607.000    627.625    -20.625    616.698    619.655    624.668    616.698    616.698
 23.470    580.507    627.650    -47.143    616.231    619.380    624.501    616.231    616.231
 23.570    661.000    627.731     33.269    615.767    619.143    624.356    615.767    615.767
 23.670    591.334    627.880    -36.546    615.308    618.955    624.234    615.308    615.308
 23.770    662.715    628.110     34.605    614.853    618.828    624.136    614.853    614.853
 23.870    663.691    628.444     35.248    614.402    618.782    624.065    614.402    614.402
 23.970    611.000    628.909    -17.909    613.954    618.844    624.021    613.954    613.954
 24.070    627.593    629.555     -1.961    613.511    619.060    624.008    613.511    613.511
 24.170    589.000    630.469    -41.469    613.072    619.515    624.028    613.072    613.072
 24.270    627.205    631.838     -4.633    612.636    620.394    624.083    612.636    612.636
 24.370    627.000    634.057     -7.057    612.204    622.090    624.176    612.204    612.204
 24.470    629.367    637.900     -8.534    611.776    625.373    624.311    611.776    611.776
 24.570    621.000    644.589    -23.589    611.352    631.463    624.490    611.352    611.352
 24.670    711.324    655.508     55.816    610.932    641.741    624.719    610.932    610.932
 24.770    659.000    671.290    -12.290    610.516    656.835    625.001    610.516    610.516
 24.870    648.580    690.186    -41.606    610.103    674.990    625.343    610.103    610.103
 24.970    721.000    706.297     14.703    609.695    690.296    625.750    609.695    609.695
 25.070    703.000    710.994     -7.994    609.290    694.111    626.230    609.290    609.290
 25.170    722.000    701.139     20.861    608.889    683.289    626.790    608.889    608.889
 25.270    708.000    683.650     24.350    608.491    664.740    627.438    608.491    608.491
 25.370    722.000    666.855     55.145    608.098    646.789    628.187    608.098    608.098
 25.470    644.000    654.576    -10.576    607.708    633.251    629.048    607.708    607.708
 25.570    696.031    647.167     48.864    607.322    624.462    630.036    607.322    607.322
 25.670    680.000    643.469     36.531    606.939    619.247    631.166    606.939    606.939
 25.770    702.000    642.108     59.892    606.561    616.212    632.459    606.561    606.561
 25.870    621.000    642.091    -21.091    606.186    614.340    633.939    606.186    606.186
 25.970    652.000    642.878      9.122    605.814    613.061    635.632    605.814    605.814
 26.070    697.437    644.234     53.203    605.447    612.107    637.573    605.447    605.447
 26.170    681.000    646.080     34.920    605.083    611.357    639.804    605.083    605.083
 26.270    605.000    648.411    -43.411    604.722    610.758    642.374    604.722    604.722
 26.370    680.871    651.238     29.633    604.366    610.265    645.336    604.366    604.366
 26.470    689.982    654.626     35.356    604.013    609.866    648.770    604.013    604.013
 26.570    634.037    658.659    -24.622    603.663    609.550    652.769    603.663    603.663
 26.670    667.000    663.451      3.549    603.317    609.313    657.452    603.317    603.317
 26.770    659.000    669.153    -10.153    602.975    609.154    662.970    602.975    602.975
 26.870    718.677    675.965     42.712    602.636    609.078    669.518    602.636    602.636
 26.970    654.000    684.155    -30.155    602.301    609.093    677.357    602.301    602.301
 27.070    690.000    694.083     -4.083    601.969    609.214    686.831    601.969    601.969
 27.170    701.000    706.242     -5.242    601.641    609.463    698.412    601.641    601.641
 27.270    684.000    721.319    -37.319    601.317    609.871    712.754    601.317    601.317
 27.370    700.446    740.295    -39.849    600.996    610.484    730.794    600.996    600.996
 27.470    705.000    764.631    -59.631    600.678    611.372    753.921    600.678    600.678
 27.570    851.114    796.664     54.450    600.364    612.647    784.361    600.364    600.364
 27.670    837.000    841.179     -4.179    600.053    614.536    826.670    600.053    600.053
 27.770    862.954    911.369    -48.415    599.746    617.667    893.410    599.746    599.746
 27.870   1075.000   1048.086     26.914    599.442    623.971   1023.492    599.442    599.442
 27.970   1326.000   1361.332    -35.332    599.142    638.646   1321.693    599.142    599.142
 28.070   2116.616   2068.907     47.709    598.845    671.976   1995.482    598.845    598.845
 28.170   3324.000   3429.807   -105.807    598.552    736.199   3291.584    598.552    598.552
 28.270   5398.000   5468.801    -70.801    598.261    832.519   5233.616    598.261    598.261
 28.370   7629.848   7609.808     20.041    597.975    933.841   7272.786    597.975    597.975
 28.470   8691.311   8654.813     36.498    597.691    983.855   8267.653    597.691    597.691
 28.570   7941.277   7832.355    108.922    597.411    946.671   7482.622    597.411    597.411
 28.670   6116.000   5947.598    168.402    597.135    861.352   5683.358    597.135    597.135
 28.770   4370.000   4305.724     64.276    596.861    791.218   4111.499    596.861    596.861
 28.870   3569.162   3603.876    -34.714    596.591    770.803   3429.742    596.591    596.591
 28.970   3815.000   3819.615     -4.615    596.324    798.660   3617.261    596.324    596.324
 29.070   4448.000   4450.202     -2.202    596.061    846.314   4199.912    596.061    596.061
 29.170   4652.450   4780.308   -127.858    595.800    870.595   4505.585    595.800    595.800
 29.270   4378.000   4354.884     23.116    595.543    843.530   4107.134    595.543    595.543
 29.370   3492.218   3406.673     85.545    595.290    781.348   3220.929    595.290    595.290
 29.470   2371.000   2420.821    -49.821    595.039    716.452   2299.685    595.039    595.039
 29.570   1674.307   1679.915     -5.608    594.792    667.660   1607.237    594.792    594.792
 29.670   1287.000   1230.041     56.959    594.548    638.076   1186.622    594.548    594.548
 29.770    946.044    993.498    -47.454    594.307    622.585    965.274    594.307    594.307
 29.870    931.000    875.305     55.695    594.069    614.919    854.480    594.069    594.069
 29.970    857.000    812.020     44.980    593.834    610.897    794.970    593.834    593.834
 30.070    789.000    772.834     16.166    593.603    608.497    757.946    593.603    593.603
 30.170    775.000    745.375     29.625    593.374    606.927    731.826    593.374    593.374
 30.270    776.000    724.894     51.106    593.149    605.910    712.134    593.149    593.149
 30.370    705.000    709.378     -4.378    592.927    605.394    696.911    592.927    592.927
