neutron_powder_diffraction_0167
R_wp: 3.786
Temperature (K): 1074.000
Counts: 83879.00
Wavelength (Ã…): 2.52098
COMMENTS
Test file for demonstrating the .xyy file format in Reel1.0
END OF HEADER
   tth       Y_obs     Y_calc      Y_res    Background    Phase_1_Nuc    Phase_1_Mag    Phase_2_Nuc    Phase_2_Mag
  9.970    629.000    576.831     52.169    576.052    576.769    576.052    576.113    576.052
 10.070    600.033    576.849     23.185    576.007    576.787    576.007    576.069    576.007
 10.170    573.000    576.871     -3.871    575.958    576.809    575.958    576.019    575.958
 10.270    592.857    576.900     15.957    575.904    576.838    575.904    575.966    575.904
 10.370    595.000    576.938     18.062    575.846    576.875    575.846    575.908    575.846
 10.470    553.000    576.989    -23.989    575.783    576.926    575.783    575.846    575.783
 10.570    568.519    577.055     -8.536    575.717    576.992    575.717    575.779    575.717
 10.670    599.000    577.143     21.857    575.645    577.079    575.645    575.708    575.645
 10.770    605.285    577.259     28.026    575.570    577.195    575.570    575.633    575.570
 10.870    561.375    577.413    -16.038    575.490    577.349    575.490    575.554    575.490
 10.970    598.908    577.619     21.289    575.407    577.555    575.407    575.470    575.407
 11.070    596.420    577.896     18.524    575.319    577.831    575.319    575.383    575.319
 11.170    613.000    578.273     34.727    575.227    578.207    575.227    575.291    575.227
 11.270    599.000    578.791     20.209    575.131    578.725    575.131    575.195    575.131
 11.370    569.000    579.530    -10.530    575.031    579.463    575.031    575.096    575.031
 11.470    573.000    580.659     -7.659    574.927    580.591    574.927    574.992    574.927
 11.570    633.000    582.641     50.359    574.819    582.571    574.819    574.885    574.819
 11.670    593.000    586.685      6.315    574.708    586.613    574.708    574.773    574.708
 11.770    670.000    595.381     74.619    574.592    595.303    574.592    574.658    574.592
 11.870    626.000    612.563     13.437    574.473    612.476    574.473    574.539    574.473
 11.970    686.000    640.836     45.164    574.350    640.732    574.350    574.417    574.350
 12.070    685.766    676.282      9.484    574.224    676.158    574.224    574.291    574.224
 12.170    698.057    703.746     -5.689    574.094    703.606    574.094    574.161    574.094
 12.270    704.740    704.507      0.233    573.960    704.366    573.960    574.027    573.960
 12.370    671.000    677.777     -6.777    573.823    677.651    573.823    573.890    573.823
 12.470    601.000    641.945    -40.945    573.682    641.839    573.682    573.750    573.682
 12.570    628.000    612.816     15.184    573.538    612.726    573.538    573.606    573.538
 12.670    587.000    594.818     -7.818    573.390    594.737    573.390    573.458    573.390
 12.770    586.000    585.525      0.475    573.239    585.449    573.239    573.308    573.239
 12.870    595.337    581.063     14.274    573.084    580.990    573.084    573.154    573.084
 12.970    584.000    578.758      5.242    572.927    578.684    572.927    572.997    572.927
 13.070    594.000    577.343     16.657    572.766    577.266    572.766    572.840    572.766
 13.170    555.000    576.330    -21.330    572.601    576.252    572.601    572.678    572.601
 13.270    613.256    575.542     37.714    572.434    575.463    572.434    572.511    572.434
 13.370    546.963    574.900    -27.937    572.263    574.821    572.263    572.341    572.263
 13.470    530.000    574.359    -44.359    572.090    574.280    572.090    572.167    572.090
 13.570    545.440    573.892    -28.452    571.913    573.813    571.913    571.991    571.913
 13.670    598.000    573.478     24.522    571.733    573.399    571.733    571.812    571.733
 13.770    606.000    573.104     32.896    571.550    573.025    571.550    571.629    571.550
 13.870    519.000    572.761    -53.761    571.365    572.681    571.365    571.444    571.365
 13.970    570.000    572.441     -2.441    571.176    572.361    571.176    571.256    571.176
 14.070    570.648    572.139     -1.491    570.985    572.058    570.985    571.065    570.985
 14.170    600.117    571.850     28.266    570.790    571.770    570.790    570.871    570.790
 14.270    588.000    571.576     16.424    570.593    571.495    570.593    570.674    570.593
 14.370    564.000    571.308     -7.308    570.393    571.226    570.393    570.474    570.393
 14.470    548.000    571.045    -23.045    570.191    570.963    570.191    570.272    570.191
 14.570    547.000    570.788    -23.788    569.985    570.706    569.985    570.067    569.985
 14.670    533.000    570.536    -37.536    569.777    570.454    569.777    569.860    569.777
 14.770    515.000    570.285    -55.285    569.567    570.202    569.567    569.650    569.567
 14.870    599.000    570.036     28.964    569.354    569.953    569.354    569.437    569.354
 14.970    562.000    569.789     -7.789    569.138    569.705    569.138    569.222    569.138
 15.070    557.000    569.543    -12.543    568.920    569.458    568.920    569.004    568.920
 15.170    579.833    569.297     10.536    568.699    569.212    568.699    568.784    568.699
 15.270    562.000    569.051     -7.051    568.476    568.966    568.476    568.561    568.476
 15.370    577.539    568.806      8.733    568.251    568.720    568.251    568.336    568.251
 15.470    574.000    568.560      5.440    568.023    568.474    568.023    568.109    568.023
 15.570    555.722    568.314    -12.592    567.793    568.227    567.793    567.879    567.793
 15.670    544.000    568.067    -24.067    567.560    567.980    567.560    567.647    567.560
 15.770    596.958    567.819     29.139    567.326    567.731    567.326    567.413    567.326
 15.870    598.959    567.570     31.388    567.089    567.482    567.089    567.177    567.089
 15.970    573.000    567.321      5.679    566.850    567.232    566.850    566.938    566.850
 16.070    589.534    567.070     22.464    566.608    566.981    566.608    566.697    566.608
 16.170    546.688    566.818    -20.130    566.365    566.728    566.365    566.454    566.365
 16.270    581.878    566.565     15.313    566.119    566.475    566.119    566.209    566.119
 16.370    562.000    566.310     -4.310    565.872    566.220    565.872    565.963    565.872
 16.470    532.000    566.055    -34.055    565.622    565.964    565.622    565.714    565.622
 16.570    588.000    565.798     22.202    565.371    565.707    565.371    565.463    565.371
 16.670    552.982    565.540    -12.558    565.117    565.448    565.117    565.210    565.117
 16.770    559.000    565.283     -6.283    564.862    565.190    564.862    564.955    564.862
 16.870    551.000    565.023    -14.023    564.605    564.929    564.605    564.698    564.605
 16.970    562.000    564.760     -2.760    564.346    564.666    564.346    564.440    564.346
 17.070    529.255    564.497    -35.242    564.085    564.402    564.085    564.179    564.085
 17.170    566.000    564.232      1.768    563.822    564.137    563.822    563.917    563.822
 17.270    601.804    563.966     37.839    563.557    563.870    563.557    563.653    563.557
 17.370    518.902    563.698    -44.797    563.291    563.602    563.291    563.388    563.291
 17.470    559.000    563.429     -4.429    563.023    563.332    563.023    563.120    563.023
 17.570    558.000    563.159     -5.159    562.754    563.062    562.754    562.851    562.754
 17.670    576.206    562.888     13.318    562.483    562.789    562.483    562.581    562.483
 17.770    549.000    562.615    -13.615    562.210    562.516    562.210    562.309    562.210
 17.870    546.000    562.343    -16.343    561.935    562.243    561.935    562.035    561.935
 17.970    533.000    562.068    -29.068    561.659    561.968    561.659    561.760    561.659
 18.070    548.000    561.792    -13.792    561.382    561.691    561.382    561.483    561.382
 18.170    542.000    561.515    -19.515    561.103    561.413    561.103    561.205    561.103
 18.270    535.000    561.236    -26.236    560.823    561.134    560.823    560.926    560.823
 18.370    565.000    560.959      4.041    560.541    560.853    560.541    560.646    560.541
 18.470    537.000    560.679    -23.679    560.258    560.572    560.258    560.365    560.258
 18.570    535.116    560.398    -25.281    559.974    560.290    559.974    560.081    559.974
 18.670    559.292    560.115     -0.823    559.688    560.006    559.688    559.796    559.688
 18.770    553.286    559.831     -6.545    559.401    559.722    559.401    559.510    559.401
 18.870    558.293    559.546     -1.254    559.112    559.436    559.112    559.222    559.112
 18.970    516.000    559.261    -43.261    558.823    559.150    558.823    558.934    558.823
 19.070    551.531    558.974     -7.443    558.532    558.862    558.532    558.644    558.532
 19.170    577.000    558.687     18.313    558.240    558.574    558.240    558.353    558.240
 19.270    558.000    558.400     -0.400    557.947    558.286    557.947    558.060    557.947
 19.370    542.000    558.124    -16.124    557.652    558.010    557.652    557.767    557.652
 19.470    562.000    557.845      4.155    557.357    557.730    557.357    557.472    557.357
 19.570    548.000    557.556     -9.556    557.061    557.439    557.061    557.177    557.061
 19.670    575.000    557.264     17.736    556.763    557.147    556.763    556.880    556.763
 19.770    564.353    556.973      7.380    556.465    556.855    556.465    556.583    556.465
 19.870    564.000    556.681      7.319    556.165    556.561    556.165    556.284    556.165
 19.970    555.000    556.388     -1.388    555.865    556.268    555.865    555.985    555.865
 20.070    548.000    556.095     -8.095    555.563    555.973    555.563    555.685    555.563
 20.170    527.708    555.801    -28.093    555.261    555.679    555.261    555.384    555.261
 20.270    544.929    555.507    -10.578    554.958    555.384    554.958    555.081    554.958
 20.370    509.588    555.213    -45.625    554.654    555.088    554.654    554.779    554.654
 20.470    568.000    554.918     13.082    554.349    554.793    554.349    554.475    554.349
 20.570    563.000    554.624      8.376    554.043    554.497    554.043    554.171    554.043
 20.670    543.747    554.329    -10.582    553.737    554.201    553.737    553.865    553.737
 20.770    547.000    554.034     -7.034    553.430    553.905    553.430    553.559    553.430
 20.870    535.315    553.739    -18.424    553.122    553.609    553.122    553.253    553.122
 20.970    553.000    553.445     -0.445    552.813    553.313    552.813    552.946    552.813
 21.070    554.000    553.151      0.849    552.504    553.017    552.504    552.638    552.504
 21.170    577.822    552.857     24.966    552.194    552.722    552.194    552.329    552.194
 21.270    549.000    552.563     -3.563    551.884    552.427    551.884    552.020    551.884
 21.370    538.000    552.270    -14.270    551.573    552.132    551.573    551.711    551.573
 21.470    503.000    551.978    -48.978    551.261    551.839    551.261    551.400    551.261
 21.570    524.000    551.687    -27.687    550.949    551.546    550.949    551.090    550.949
 21.670    537.000    551.407    -14.407    550.636    551.265    550.636    550.779    550.636
 21.770    572.000    551.203     20.797    550.323    551.059    550.323    550.467    550.323
 21.870    553.000    550.937      2.063    550.009    550.791    550.009    550.155    550.009
 21.970    522.146    550.653    -28.507    549.695    550.505    549.695    549.843    549.695
 22.070    560.000    550.370      9.630    549.381    550.221    549.381    549.530    549.381
 22.170    580.000    550.089     29.911    549.066    549.938    549.066    549.217    549.066
 22.270    614.000    549.813     64.187    548.750    549.660    548.750    548.903    548.750
 22.370    587.655    549.546     38.109    548.435    549.391    548.435    548.590    548.435
 22.470    584.535    549.323     35.212    548.119    549.166    548.119    548.276    548.119
 22.570    545.000    549.096     -4.096    547.802    548.937    547.802    547.962    547.802
 22.670    562.269    548.865     13.404    547.486    548.704    547.486    547.647    547.486
 22.770    582.081    548.616     33.465    547.169    548.453    547.169    547.333    547.169
 22.870    525.886    548.373    -22.487    546.852    548.207    546.852    547.018    546.852
 22.970    555.000    548.140      6.860    546.534    547.972    546.534    546.703    546.534
 23.070    541.000    547.920     -6.920    546.217    547.750    546.217    546.388    546.217
 23.170    508.289    547.716    -39.427    545.899    547.543    545.899    546.073    545.899
 23.270    553.000    547.531      5.469    545.581    547.355    545.581    545.758    545.581
 23.370    518.000    547.371    -29.371    545.263    547.193    545.263    545.443    545.263
 23.470    539.000    547.244     -8.244    544.945    547.062    544.945    545.128    544.945
 23.570    566.423    547.159     19.264    544.627    546.974    544.627    544.813    544.627
 23.670    548.000    547.132      0.868    544.309    546.944    544.309    544.498    544.309
 23.770    518.611    547.181    -28.570    543.990    546.990    543.990    544.183    543.990
 23.870    551.000    547.343      3.657    543.672    547.149    543.672    543.868    543.672
 23.970    581.631    547.681     33.950    543.354    547.483    543.354    543.553    543.354
 24.070    568.000    548.347     19.653    543.035    548.146    543.035    543.239    543.035
 24.170    529.398    549.750    -20.352    542.717    549.546    542.717    542.925    542.717
 24.270    518.805    552.887    -34.081    542.399    552.682    542.399    542.611    542.399
 24.370    607.000    559.661     47.339    542.081    559.456    542.081    542.297    542.081
 24.470    595.000    572.464     22.536    541.763    572.263    541.763    541.984    541.763
 24.570    612.000    592.209     19.791    541.445    592.018    541.445    541.671    541.445
 24.670    625.000    614.956     10.044    541.127    614.777    541.127    541.359    541.127
 24.770    625.000    629.815     -4.815    540.809    629.640    540.809    541.046    540.809
 24.870    628.641    626.141      2.501    540.492    625.958    540.492    540.735    540.492
 24.970    605.000    606.817     -1.817    540.175    606.614    540.175    540.424    540.175
 25.070    605.000    583.823     21.177    539.858    583.598    539.858    540.113    539.858
 25.170    578.000    565.748     12.252    539.541    565.503    539.541    539.804    539.541
 25.270    592.000    554.584     37.416    539.224    554.324    539.224    539.495    539.224
 25.370    566.488    548.665     17.823    538.908    548.392    538.908    539.186    538.908
 25.470    575.000    545.679     29.321    538.592    545.396    538.592    538.879    538.592
 25.570    525.161    544.044    -18.883    538.276    543.750    538.276    538.572    538.276
 25.670    584.000    542.983     41.017    537.961    542.679    537.961    538.266    537.961
 25.770    586.614    542.195     44.419    537.646    541.880    537.646    537.962    537.646
 25.870    508.564    541.568    -33.004    537.331    541.241    537.331    537.658    537.331
 25.970    582.900    541.052     41.849    537.017    540.713    537.017    537.356    537.017
 26.070    548.000    540.628      7.372    536.703    540.276    536.703    537.055    536.703
 26.170    572.897    540.307     32.590    536.389    539.941    536.389    536.756    536.389
 26.270    541.000    540.032      0.968    536.076    539.650    536.076    536.458    536.076
 26.370    506.000    539.779    -33.779    535.764    539.381    535.764    536.162    535.764
 26.470    517.000    539.570    -22.570    535.452    539.154    535.452    535.868    535.452
 26.570    561.910    539.411     22.499    535.140    538.974    535.140    535.576    535.140
 26.670    549.000    539.305      9.695    534.829    538.847    534.829    535.287    534.829
 26.770    552.982    539.260     13.722    534.518    538.778    534.518    535.000    534.518
 26.870    545.000    539.298      5.702    534.208    538.789    534.208    534.716    534.208
 26.970    536.000    539.434     -3.434    533.898    538.896    533.898    534.436    533.898
 27.070    560.000    539.656     20.344    533.589    539.086    533.589    534.159    533.589
 27.170    508.000    540.017    -32.017    533.281    539.410    533.281    533.887    533.281
 27.270    527.054    540.567    -13.514    532.973    539.920    532.973    533.620    532.973
 27.370    510.889    541.382    -30.492    532.666    540.688    532.666    533.358    532.666
 27.470    597.000    542.595     54.405    532.359    541.849    532.359    533.103    532.359
 27.570    584.301    544.559     39.743    532.053    543.753    532.053    532.856    532.053
 27.670    518.441    548.566    -30.124    531.748    547.692    531.748    532.618    531.748
 27.770    573.000    559.180     13.820    531.443    558.225    531.443    532.391    531.443
 27.870    582.000    588.460     -6.460    531.139    587.406    531.139    532.177    531.139
 27.970    670.000    655.889     14.111    530.836    654.708    530.836    531.978    530.836
 28.070    727.000    770.858    -43.858    530.533    769.521    530.533    531.799    530.533
 28.170    931.839    900.541     31.298    530.232    899.027    530.232    531.643    530.232
 28.270    941.000    964.484    -23.484    529.931    962.797    529.931    531.518    529.931
 28.370    880.827    909.892    -29.065    529.630    908.028    529.630    531.433    529.630
 28.470    845.000    792.649     52.351    529.331    790.555    529.331    531.401    529.331
 28.570    734.000    702.513     31.487    529.032    700.091    529.032    531.444    529.032
 28.670    680.000    685.118     -5.118    528.734    682.240    528.734    531.598    528.734
 28.770    753.669    734.248     19.420    528.437    730.747    528.437    531.918    528.437
 28.870    795.342    807.200    -11.858    528.140    802.838    528.140    532.489    528.140
 28.970    800.000    841.745    -41.745    527.845    836.167    527.845    533.424    527.845
 29.070    804.000    801.471      2.529    527.550    794.171    527.550    534.863    527.550
 29.170    677.786    718.484    -40.698    527.257    708.812    527.257    536.942    527.257
 29.270    640.000    642.411     -2.411    526.964    629.632    526.964    539.750    526.964
 29.370    606.000    595.529     10.471    526.672    578.972    526.672    543.232    526.672
 29.470    621.215    574.618     46.598    526.381    553.989    526.381    547.009    526.381
 29.570    578.000    567.508     10.492    526.091    543.428    526.091    550.169    526.091
 29.670    628.000    564.479     63.521    525.801    538.855    525.801    551.424    525.801
 29.770    586.000    560.940     25.060    525.513    536.422    525.513    550.028    525.513
 29.870    524.000    556.161    -32.161    525.226    534.842    525.226    546.543    525.226
 29.970    588.015    551.025     36.990    524.939    533.731    524.939    542.231    524.939
 30.070    582.263    546.406     35.857    524.654    532.969    524.654    538.089    524.654
 30.170    536.026    542.744     -6.717    524.370    532.534    524.370    534.577    524.370
 30.270    555.000    540.249     14.751    524.086    532.538    524.086    531.795    524.086
 30.370    548.000    539.292      8.708    523.804    533.418    523.804    529.674    523.804
