neutron_powder_diffraction_0140
R_wp: 4.059
Temperature (K): 1074.000
Counts: 84117.00
Wavelength (Ã…): 2.52098
COMMENTS
Test file for demonstrating the .xyy file format in Reel1.0
END OF HEADER
   tth       Y_obs     Y_calc      Y_res    Background    Phase_1_Nuc    Phase_1_Mag    Phase_2_Nuc    Phase_2_Mag
  9.970    571.000    569.921      1.079    569.034    569.843    569.034    569.111    569.034
 10.070    658.000    570.126     87.874    569.167    570.048    569.167    569.245    569.167
 10.170    563.000    570.335     -7.335    569.295    570.257    569.295    569.373    569.295
 10.270    562.000    570.550     -8.550    569.415    570.471    569.415    569.494    569.415
 10.370    563.000    570.775     -7.775    569.530    570.694    569.530    569.610    569.530
 10.470    546.000    571.011    -25.011    569.638    570.928    569.638    569.719    569.638
 10.570    585.451    571.263     14.188    569.740    571.180    569.740    569.822    569.740
 10.670    592.000    571.538     20.462    569.835    571.455    569.835    569.918    569.835
 10.770    576.000    571.845      4.155    569.925    571.761    569.925    570.008    569.925
 10.870    616.835    572.194     44.642    570.008    572.110    570.008    570.091    570.008
 10.970    555.538    572.598    -17.060    570.086    572.514    570.086    570.169    570.086
 11.070    577.000    573.080      3.920    570.157    572.995    570.157    570.241    570.157
 11.170    564.000    573.672     -9.672    570.223    573.587    570.223    570.307    570.223
 11.270    580.000    574.424      5.576    570.282    574.337    570.282    570.367    570.282
 11.370    603.000    575.424     27.576    570.336    575.337    570.336    570.421    570.336
 11.470    572.101    576.875     -4.774    570.384    576.786    570.384    570.469    570.384
 11.570    643.000    579.298     63.702    570.427    579.208    570.427    570.512    570.427
 11.670    627.000    583.966     43.034    570.463    583.873    570.463    570.549    570.463
 11.770    592.396    593.378     -0.982    570.495    593.280    570.495    570.581    570.495
 11.870    648.000    610.930     37.070    570.520    610.821    570.520    570.607    570.520
 11.970    644.887    638.582      6.305    570.540    638.457    570.540    570.627    570.540
 12.070    656.000    672.300    -16.300    570.555    672.157    570.555    570.642    570.555
 12.170    677.804    698.072    -20.268    570.564    697.914    570.564    570.652    570.564
 12.270    742.000    698.904     43.096    570.569    698.746    570.569    570.657    570.569
 12.370    656.000    674.090    -18.090    570.567    673.945    570.567    570.656    570.567
 12.470    658.053    640.306     17.748    570.561    640.179    570.561    570.650    570.561
 12.570    573.000    612.141    -39.141    570.550    612.029    570.550    570.639    570.550
 12.670    620.000    594.086     25.914    570.533    593.983    570.533    570.623    570.533
 12.770    588.000    584.355      3.645    570.511    584.257    570.511    570.601    570.511
 12.870    567.000    579.534    -12.534    570.485    579.439    570.485    570.575    570.485
 12.970    554.000    577.054    -23.054    570.453    576.959    570.453    570.544    570.453
 13.070    597.000    575.589     21.411    570.417    575.495    570.417    570.508    570.417
 13.170    587.000    574.590     12.410    570.375    574.496    570.375    570.467    570.375
 13.270    568.000    573.845     -5.845    570.329    573.751    570.329    570.421    570.329
 13.370    607.791    573.263     34.528    570.278    573.169    570.278    570.371    570.278
 13.470    528.404    572.795    -44.391    570.223    572.700    570.223    570.316    570.223
 13.570    555.000    572.407    -17.407    570.163    572.313    570.163    570.256    570.163
 13.670    541.000    572.079    -31.079    570.098    571.984    570.098    570.192    570.098
 13.770    540.000    571.794    -31.794    570.029    571.699    570.029    570.123    570.029
 13.870    570.000    571.543     -1.543    569.955    571.447    569.955    570.050    569.955
 13.970    547.782    571.316    -23.534    569.877    571.220    569.877    569.972    569.877
 14.070    577.000    571.108      5.892    569.794    571.012    569.794    569.890    569.794
 14.170    553.543    570.915    -17.372    569.708    570.818    569.708    569.804    569.708
 14.270    550.923    570.733    -19.810    569.616    570.635    569.616    569.713    569.616
 14.370    549.000    570.559    -21.559    569.521    570.461    569.521    569.618    569.521
 14.470    526.000    570.391    -44.391    569.421    570.293    569.421    569.519    569.421
 14.570    583.000    570.228     12.772    569.318    570.129    569.318    569.416    569.318
 14.670    585.000    570.068     14.932    569.210    569.969    569.210    569.309    569.210
 14.770    544.000    569.911    -25.911    569.098    569.811    569.098    569.198    569.098
 14.870    573.351    569.754      3.596    568.982    569.654    568.982    569.082    568.982
 14.970    568.000    569.599     -1.599    568.863    569.498    568.863    568.963    568.863
 15.070    516.000    569.443    -53.443    568.739    569.342    568.739    568.840    568.739
 15.170    568.000    569.287     -1.287    568.611    569.185    568.611    568.713    568.611
 15.270    605.329    569.130     36.198    568.480    569.028    568.480    568.582    568.480
 15.370    610.957    568.973     41.985    568.345    568.870    568.345    568.448    568.345
 15.470    589.000    568.816     20.184    568.206    568.712    568.206    568.309    568.206
 15.570    560.031    568.656     -8.625    568.064    568.552    568.064    568.168    568.064
 15.670    560.000    568.494     -8.494    567.918    568.390    567.918    568.022    567.918
 15.770    524.969    568.331    -43.362    567.768    568.226    567.768    567.873    567.768
 15.870    529.289    568.165    -38.875    567.615    568.059    567.615    567.720    567.615
 15.970    584.739    567.996     16.743    567.458    567.889    567.458    567.564    567.458
 16.070    548.000    567.825    -19.825    567.298    567.718    567.298    567.405    567.298
 16.170    524.305    567.652    -43.347    567.134    567.544    567.134    567.242    567.134
 16.270    581.000    567.476     13.524    566.968    567.368    566.968    567.076    566.968
 16.370    522.723    567.298    -44.576    566.797    567.189    566.797    566.906    566.797
 16.470    570.000    567.118      2.882    566.624    567.008    566.624    566.733    566.624
 16.570    582.000    566.935     15.065    566.447    566.825    566.447    566.557    566.447
 16.670    575.326    566.750      8.577    566.267    566.639    566.267    566.378    566.267
 16.770    628.000    566.562     61.438    566.084    566.451    566.084    566.196    566.084
 16.870    541.000    566.372    -25.372    565.898    566.260    565.898    566.010    565.898
 16.970    553.450    566.179    -12.729    565.709    566.066    565.709    565.822    565.709
 17.070    608.000    565.984     42.016    565.517    565.870    565.517    565.631    565.517
 17.170    547.000    565.786    -18.786    565.322    565.672    565.322    565.436    565.322
 17.270    558.000    565.587     -7.587    565.124    565.472    565.124    565.239    565.124
 17.370    546.000    565.385    -19.385    564.923    565.269    564.923    565.039    564.923
 17.470    581.170    565.180     15.990    564.719    565.063    564.719    564.836    564.719
 17.570    503.000    564.974    -61.974    564.513    564.857    564.513    564.630    564.513
 17.670    584.892    564.779     20.114    564.304    564.661    564.304    564.422    564.304
 17.770    535.000    564.577    -29.577    564.092    564.459    564.092    564.210    564.092
 17.870    604.612    564.364     40.247    563.877    564.245    563.877    563.997    563.877
 17.970    517.000    564.148    -47.148    563.660    564.028    563.660    563.780    563.660
 18.070    564.795    563.929      0.866    563.440    563.808    563.440    563.561    563.440
 18.170    558.000    563.709     -5.709    563.217    563.586    563.217    563.339    563.217
 18.270    560.000    563.486     -3.486    562.992    563.363    562.992    563.115    562.992
 18.370    581.000    563.261     17.739    562.765    563.137    562.765    562.889    562.765
 18.470    593.000    563.033     29.967    562.535    562.909    562.535    562.660    562.535
 18.570    531.000    562.804    -31.804    562.303    562.678    562.303    562.428    562.303
 18.670    578.000    562.573     15.427    562.068    562.446    562.068    562.195    562.068
 18.770    529.000    562.340    -33.340    561.831    562.212    561.831    561.959    561.831
 18.870    575.966    562.104     13.861    561.592    561.976    561.592    561.720    561.592
 18.970    559.000    561.867     -2.867    561.350    561.738    561.350    561.480    561.350
 19.070    507.000    561.629    -54.629    561.107    561.498    561.107    561.237    561.107
 19.170    581.000    561.388     19.612    560.861    561.256    560.861    560.992    560.861
 19.270    564.000    561.146      2.854    560.613    561.014    560.613    560.745    560.613
 19.370    532.000    560.905    -28.905    560.363    560.772    560.363    560.496    560.363
 19.470    544.000    560.660    -16.660    560.111    560.525    560.111    560.245    560.111
 19.570    589.000    560.412     28.588    559.857    560.277    559.857    559.992    559.857
 19.670    559.683    560.163     -0.480    559.600    560.026    559.600    559.737    559.600
 19.770    557.000    559.913     -2.913    559.342    559.775    559.342    559.480    559.342
 19.870    555.484    559.663     -4.179    559.082    559.524    559.082    559.222    559.082
 19.970    541.000    559.414    -18.414    558.821    559.274    558.821    558.961    558.821
 20.070    575.000    559.160     15.840    558.557    559.018    558.557    558.699    558.557
 20.170    565.000    558.904      6.096    558.291    558.761    558.291    558.434    558.291
 20.270    607.000    558.647     48.353    558.024    558.503    558.024    558.168    558.024
 20.370    533.000    558.389    -25.389    557.755    558.243    557.755    557.901    557.755
 20.470    541.000    558.130    -17.130    557.484    557.983    557.484    557.631    557.484
 20.570    547.000    557.878    -10.878    557.212    557.729    557.212    557.360    557.212
 20.670    603.851    557.699     46.152    556.938    557.549    556.938    557.088    556.938
 20.770    572.000    557.459     14.541    556.663    557.308    556.663    556.814    556.663
 20.870    555.000    557.199     -2.199    556.385    557.046    556.385    556.538    556.385
 20.970    519.000    556.937    -37.937    556.107    556.783    556.107    556.261    556.107
 21.070    558.000    556.674      1.326    555.827    556.518    555.827    555.983    555.827
 21.170    551.000    556.410     -5.410    555.545    556.253    555.545    555.703    555.545
 21.270    518.000    556.147    -38.147    555.262    555.987    555.262    555.421    555.262
 21.370    554.664    555.883     -1.218    554.978    555.722    554.978    555.139    554.978
 21.470    582.416    555.619     26.797    554.692    555.456    554.692    554.855    554.692
 21.570    532.370    555.360    -22.990    554.405    555.196    554.405    554.569    554.405
 21.670    539.512    555.144    -15.632    554.116    554.978    554.116    554.283    554.116
 21.770    550.957    554.902     -3.945    553.827    554.734    553.827    553.995    553.827
 21.870    557.336    554.643      2.693    553.536    554.473    553.536    553.706    553.536
 21.970    551.577    554.384     -2.807    553.244    554.211    553.244    553.416    553.244
 22.070    570.382    554.126     16.256    552.951    553.952    552.951    553.125    552.951
 22.170    525.000    553.873    -28.873    552.656    553.696    552.656    552.833    552.656
 22.270    571.881    553.640     18.241    552.361    553.462    552.361    552.540    552.361
 22.370    584.000    553.418     30.582    552.064    553.237    552.064    552.246    552.064
 22.470    526.000    553.175    -27.175    551.767    552.992    551.767    551.950    551.767
 22.570    574.000    552.936     21.064    551.468    552.750    551.468    551.654    551.468
 22.670    548.508    552.702     -4.193    551.168    552.513    551.168    551.357    551.168
 22.770    556.000    552.475      3.525    550.868    552.284    550.868    551.060    550.868
 22.870    594.509    552.257     42.252    550.566    552.063    550.566    550.761    550.566
 22.970    544.000    552.051     -8.051    550.264    551.854    550.264    550.461    550.264
 23.070    579.000    551.858     27.142    549.961    551.658    549.961    550.161    549.961
 23.170    526.000    551.682    -25.682    549.657    551.479    549.657    549.860    549.657
 23.270    545.000    551.528     -6.528    549.352    551.322    549.352    549.559    549.352
 23.370    588.000    551.402     36.598    549.047    551.192    549.047    549.257    549.047
 23.470    514.000    551.315    -37.315    548.740    551.103    548.740    548.954    548.740
 23.570    530.000    551.287    -21.287    548.433    551.071    548.433    548.651    548.433
 23.670    582.015    551.325     30.690    548.125    551.106    548.125    548.347    548.125
 23.770    562.000    551.435     10.565    547.817    551.212    547.817    548.042    547.817
 23.870    538.523    551.671    -13.148    547.508    551.444    547.508    547.737    547.508
 23.970    514.229    552.113    -37.884    547.198    551.882    547.198    547.432    547.198
 24.070    542.000    552.948    -10.948    546.888    552.713    546.888    547.127    546.888
 24.170    580.115    554.640     25.475    546.578    554.402    546.578    546.821    546.578
 24.270    520.364    558.209    -37.845    546.266    557.968    546.266    546.515    546.266
 24.370    560.567    565.388     -4.822    545.955    565.148    545.955    546.208    545.955
 24.470    616.313    578.104     38.209    545.642    577.867    545.642    545.901    545.642
 24.570    560.640    596.772    -36.131    545.330    596.543    545.330    545.595    545.330
 24.670    657.000    617.596     39.404    545.017    617.376    545.017    545.288    545.017
 24.770    643.000    630.937     12.063    544.703    630.721    544.703    544.981    544.703
 24.870    567.000    627.645    -60.645    544.389    627.420    544.389    544.674    544.389
 24.970    580.000    610.183    -30.183    544.075    609.938    544.075    544.367    544.075
 25.070    560.000    588.935    -28.935    543.761    588.667    543.761    544.061    543.761
 25.170    547.000    571.586    -24.586    543.446    571.297    543.446    543.754    543.446
 25.270    574.623    560.314     14.310    543.131    560.008    543.131    543.448    543.131
 25.370    573.000    553.983     19.017    542.816    553.664    542.816    543.142    542.816
 25.470    553.000    550.622      2.378    542.500    550.290    542.500    542.837    542.500
 25.570    557.000    548.749      8.251    542.185    548.405    542.185    542.532    542.185
 25.670    568.000    547.556     20.444    541.869    547.200    541.869    542.227    541.869
 25.770    563.000    546.692     16.308    541.553    546.324    541.553    541.924    541.553
 25.870    530.000    546.028    -16.028    541.237    545.646    541.237    541.621    541.237
 25.970    585.804    545.501     40.303    540.921    545.105    540.921    541.319    540.921
 26.070    532.000    545.041    -13.041    540.605    544.629    540.605    541.018    540.605
 26.170    526.366    544.651    -18.285    540.289    544.222    540.289    540.718    540.289
 26.270    583.179    544.324     38.856    539.973    543.877    539.973    540.420    539.973
 26.370    576.061    544.052     32.009    539.656    543.586    539.656    540.123    539.656
 26.470    564.000    543.837     20.163    539.340    543.350    539.340    539.828    539.340
 26.570    496.348    543.674    -47.326    539.024    543.163    539.024    539.535    539.024
 26.670    545.000    543.576      1.424    538.708    543.040    538.708    539.244    538.708
 26.770    534.427    543.541     -9.114    538.392    542.977    538.392    538.956    538.392
 26.870    561.000    543.570     17.430    538.076    542.975    538.076    538.671    538.076
 26.970    521.000    543.686    -22.686    537.761    543.058    537.761    538.389    537.761
 27.070    535.000    543.914     -8.914    537.445    543.248    537.445    538.111    537.445
 27.170    565.000    544.289     20.711    537.130    543.580    537.130    537.837    537.130
 27.270    590.108    544.862     45.246    536.815    544.107    536.815    537.569    536.815
 27.370    579.000    545.711     33.289    536.500    544.903    536.500    537.307    536.500
 27.470    595.000    546.963     48.037    536.185    546.096    536.185    537.051    536.185
 27.570    577.021    548.996     28.024    535.871    548.061    535.871    536.804    535.871
 27.670    553.000    553.160     -0.160    535.557    552.147    535.557    536.566    535.557
 27.770    582.000    564.133     17.867    535.243    563.029    535.243    536.340    535.243
 27.870    591.951    593.956     -2.005    534.930    592.742    534.930    536.128    534.930
 27.970    755.000    661.570     93.430    534.617    660.217    534.617    535.933    534.617
 28.070    813.000    775.471     37.529    534.304    773.949    534.304    535.758    534.304
 28.170    901.000    902.975     -1.975    533.992    901.262    533.992    535.610    533.992
 28.270    949.310    965.712    -16.402    533.680    963.804    533.680    535.496    533.680
 28.370    854.852    912.601    -57.748    533.369    910.487    533.369    535.427    533.369
 28.470    773.288    797.971    -24.682    533.058    795.590    533.058    535.418    533.058
 28.570    739.000    709.263     29.737    532.748    706.514    532.748    535.489    532.748
 28.670    699.656    691.161      8.494    532.438    687.919    532.438    535.668    532.438
 28.770    687.083    737.578    -50.496    532.128    733.699    532.128    535.991    532.128
 28.870    820.000    806.995     13.005    531.820    802.305    531.820    536.501    531.820
 28.970    808.000    839.613    -31.613    531.511    833.887    531.511    537.244    531.511
 29.070    815.172    800.533     14.639    531.203    793.486    531.203    538.266    531.203
 29.170    762.916    719.910     43.005    530.896    711.223    530.896    539.598    530.896
 29.270    598.308    644.803    -46.495    530.590    634.168    530.590    541.233    530.590
 29.370    612.624    596.830     15.794    530.284    584.040    530.284    543.077    530.284
 29.470    629.000    573.669     55.331    529.979    558.765    529.979    544.882    529.979
 29.570    583.000    564.386     18.614    529.674    547.835    529.674    546.223    529.674
 29.670    584.000    560.294     23.706    529.370    543.044    529.370    546.618    529.370
 29.770    542.000    557.261    -15.261    529.067    540.506    529.067    545.820    529.067
 29.870    520.438    554.119    -33.681    528.764    538.870    528.764    544.011    528.764
 29.970    583.840    550.921     32.920    528.463    537.728    528.463    541.653    528.463
 30.070    605.000    547.985     57.015    528.162    536.952    528.162    539.192    528.162
 30.170    575.732    545.574     30.159    527.861    536.526    527.861    536.907    527.861
 30.270    543.000    543.930     -0.930    527.562    536.576    527.562    534.913    527.562
 30.370    590.000    543.548     46.452    527.263    537.575    527.263    533.232    527.263
