neutron_powder_diffraction_0188
R_wp: 3.946
Temperature (K): 1074.100
Counts: 84115.00
Wavelength (Ã…): 2.52098
COMMENTS
Test file for demonstrating the .xyy file format in Reel1.0
END OF HEADER
   tth       Y_obs     Y_calc      Y_res    Background    Phase_1_Nuc    Phase_1_Mag    Phase_2_Nuc    Phase_2_Mag
  9.970    607.000    569.020     37.980    568.335    568.990    568.335    568.364    568.335
 10.070    661.000    569.153     91.847    568.411    569.124    568.411    568.440    568.411
 10.170    536.685    569.289    -32.604    568.482    569.260    568.482    568.512    568.482
 10.270    616.000    569.431     46.569    568.548    569.400    568.548    568.578    568.548
 10.370    573.314    569.588      3.726    568.609    569.547    568.609    568.649    568.609
 10.470    555.209    569.746    -14.537    568.664    569.704    568.664    568.705    568.664
 10.570    543.000    569.917    -26.917    568.714    569.875    568.714    568.756    568.714
 10.670    602.000    570.106     31.894    568.759    570.063    568.759    568.801    568.759
 10.770    616.000    570.319     45.681    568.799    570.276    568.799    568.841    568.799
 10.870    577.378    570.566      6.812    568.833    570.523    568.833    568.875    568.833
 10.970    556.000    570.859    -14.859    568.863    570.816    568.863    568.905    568.863
 11.070    585.000    571.215     13.785    568.888    571.172    568.888    568.930    568.888
 11.170    557.000    571.660    -14.660    568.908    571.616    568.908    568.950    568.908
 11.270    616.286    572.234     44.052    568.923    572.189    568.923    568.966    568.923
 11.370    566.000    573.010     -7.010    568.933    572.959    568.933    568.981    568.933
 11.470    557.462    574.129    -16.666    568.938    574.076    568.938    568.987    568.938
 11.570    593.000    576.014     16.986    568.939    575.960    568.939    568.988    568.939
 11.670    588.734    579.844      8.890    568.935    579.788    568.935    568.985    568.935
 11.770    586.000    588.327     -2.327    568.926    588.266    568.926    568.976    568.926
 11.870    601.000    605.768     -4.768    568.913    605.697    568.913    568.963    568.913
 11.970    705.000    635.433     69.567    568.895    635.345    568.895    568.946    568.895
 12.070    719.000    673.428     45.572    568.873    673.319    568.873    568.924    568.873
 12.170    671.316    703.222    -31.906    568.847    703.096    568.847    568.898    568.847
 12.270    718.293    704.158     14.135    568.816    704.030    568.816    568.867    568.816
 12.370    675.000    675.370     -0.370    568.780    675.258    568.780    568.832    568.780
 12.470    666.000    637.151     28.849    568.741    637.061    568.741    568.793    568.741
 12.570    629.101    606.765     22.335    568.697    606.692    568.697    568.749    568.697
 12.670    631.644    588.675     42.969    568.649    588.612    568.649    568.701    568.649
 12.770    534.267    579.795    -45.528    568.597    579.736    568.597    568.649    568.597
 12.870    621.000    575.759     45.241    568.540    575.702    568.540    568.593    568.540
 12.970    560.564    573.761    -13.197    568.480    573.704    568.480    568.534    568.480
 13.070    535.672    572.565    -36.892    568.416    572.506    568.416    568.472    568.416
 13.170    564.000    571.726     -7.726    568.347    571.667    568.347    568.404    568.347
 13.270    562.000    571.090     -9.090    568.275    571.030    568.275    568.333    568.275
 13.370    527.000    570.586    -43.586    568.199    570.526    568.199    568.257    568.199
 13.470    547.000    570.173    -23.173    568.118    570.113    568.118    568.177    568.118
 13.570    566.281    569.827     -3.546    568.035    569.766    568.035    568.094    568.035
 13.670    580.941    569.529     11.411    567.947    569.469    567.947    568.007    567.947
 13.770    570.000    569.265      0.735    567.856    569.204    567.856    567.916    567.856
 13.870    567.000    569.028     -2.028    567.761    568.966    567.761    567.821    567.761
 13.970    596.000    568.810     27.190    567.662    568.749    567.662    567.723    567.662
 14.070    579.000    568.608     10.392    567.560    568.546    567.560    567.621    567.560
 14.170    589.680    568.417     21.263    567.454    568.355    567.454    567.516    567.454
 14.270    545.000    568.235    -23.235    567.345    568.172    567.345    567.407    567.345
 14.370    530.000    568.062    -38.062    567.232    568.000    567.232    567.294    567.232
 14.470    575.000    567.893      7.107    567.116    567.830    567.116    567.178    567.116
 14.570    534.000    567.726    -33.726    566.996    567.663    566.996    567.059    566.996
 14.670    547.000    567.562    -20.562    566.873    567.498    566.873    566.937    566.873
 14.770    589.372    567.399     21.973    566.747    567.335    566.747    566.811    566.747
 14.870    512.000    567.238    -55.238    566.618    567.173    566.618    566.682    566.618
 14.970    560.000    567.076     -7.076    566.485    567.012    566.485    566.549    566.485
 15.070    578.000    566.915     11.085    566.349    566.850    566.349    566.414    566.349
 15.170    583.000    566.754     16.246    566.210    566.688    566.210    566.275    566.210
 15.270    589.000    566.591     22.409    566.068    566.526    566.068    566.133    566.068
 15.370    569.000    566.428      2.572    565.923    566.362    565.923    565.989    565.923
 15.470    578.000    566.264     11.736    565.775    566.198    565.775    565.841    565.775
 15.570    525.000    566.099    -41.099    565.624    566.032    565.624    565.691    565.624
 15.670    586.000    565.933     20.067    565.469    565.864    565.469    565.538    565.469
 15.770    533.000    565.764    -32.764    565.313    565.695    565.313    565.382    565.313
 15.870    526.114    565.594    -39.481    565.153    565.525    565.153    565.222    565.153
 15.970    539.159    565.422    -26.263    564.990    565.352    564.990    565.060    564.990
 16.070    533.000    565.248    -32.248    564.825    565.178    564.825    564.895    564.825
 16.170    529.000    565.073    -36.073    564.656    565.002    564.656    564.727    564.656
 16.270    551.000    564.895    -13.895    564.486    564.824    564.486    564.557    564.486
 16.370    579.518    564.715     14.803    564.312    564.644    564.312    564.383    564.312
 16.470    521.642    564.534    -42.892    564.136    564.462    564.136    564.208    564.136
 16.570    581.000    564.350     16.650    563.957    564.278    563.957    564.029    563.957
 16.670    535.000    564.165    -29.165    563.776    564.092    563.776    563.848    563.776
 16.770    517.551    563.978    -46.426    563.592    563.904    563.592    563.665    563.592
 16.870    542.000    563.791    -21.791    563.405    563.717    563.405    563.479    563.405
 16.970    563.000    563.600     -0.600    563.217    563.526    563.217    563.291    563.217
 17.070    573.125    563.407      9.718    563.025    563.332    563.025    563.100    563.025
 17.170    496.000    563.212    -67.212    562.832    563.136    562.832    562.907    562.832
 17.270    532.000    563.014    -31.014    562.636    562.939    562.636    562.712    562.636
 17.370    537.000    562.815    -25.815    562.437    562.739    562.437    562.514    562.437
 17.470    605.000    562.614     42.386    562.237    562.537    562.237    562.314    562.237
 17.570    558.810    562.411     -3.601    562.034    562.334    562.034    562.112    562.034
 17.670    557.000    562.206     -5.206    561.829    562.128    561.829    561.907    561.829
 17.770    519.329    562.000    -42.671    561.622    561.921    561.622    561.701    561.622
 17.870    566.386    561.792      4.594    561.413    561.712    561.413    561.492    561.413
 17.970    554.000    561.586     -7.586    561.201    561.502    561.201    561.285    561.201
 18.070    547.000    561.377    -14.377    560.988    561.291    560.988    561.074    560.988
 18.170    576.000    561.164     14.836    560.773    561.077    560.773    560.860    560.773
 18.270    583.000    560.948     22.052    560.555    560.860    560.555    560.643    560.555
 18.370    574.000    560.731     13.269    560.336    560.643    560.336    560.424    560.336
 18.470    568.000    560.512      7.488    560.114    560.423    560.114    560.203    560.114
 18.570    576.000    560.292     15.708    559.891    560.202    559.891    559.981    559.891
 18.670    553.380    560.070     -6.690    559.666    559.980    559.666    559.756    559.666
 18.770    550.070    559.847     -9.777    559.439    559.756    559.439    559.530    559.439
 18.870    533.000    559.622    -26.622    559.211    559.530    559.211    559.302    559.211
 18.970    545.000    559.396    -14.396    558.980    559.303    558.980    559.072    558.980
 19.070    554.000    559.168     -5.168    558.748    559.075    558.748    558.841    558.748
 19.170    578.000    558.940     19.060    558.514    558.846    558.514    558.608    558.514
 19.270    555.435    558.723     -3.288    558.278    558.628    558.278    558.373    558.278
 19.370    557.603    558.501     -0.897    558.041    558.406    558.041    558.136    558.041
 19.470    539.000    558.269    -19.269    557.802    558.173    557.802    557.898    557.802
 19.570    544.000    558.034    -14.034    557.562    557.938    557.562    557.659    557.562
 19.670    567.063    557.799      9.265    557.320    557.701    557.320    557.418    557.320
 19.770    540.294    557.562    -17.268    557.077    557.464    557.077    557.175    557.077
 19.870    530.398    557.325    -26.927    556.832    557.225    556.832    556.931    556.832
 19.970    533.000    557.086    -24.086    556.585    556.986    556.585    556.685    556.585
 20.070    552.000    556.846     -4.846    556.338    556.745    556.338    556.439    556.338
 20.170    533.000    556.606    -23.606    556.088    556.504    556.088    556.190    556.088
 20.270    579.000    556.364     22.636    555.838    556.261    555.838    555.941    555.838
 20.370    517.441    556.122    -38.681    555.586    556.018    555.586    555.690    555.586
 20.470    582.000    555.879     26.121    555.333    555.774    555.333    555.438    555.333
 20.570    588.556    555.635     32.921    555.078    555.529    555.078    555.184    555.078
 20.670    532.000    555.391    -23.391    554.823    555.284    554.823    554.930    554.823
 20.770    526.000    555.146    -29.146    554.566    555.038    554.566    554.674    554.566
 20.870    531.000    554.901    -23.901    554.308    554.792    554.308    554.417    554.308
 20.970    583.000    554.655     28.345    554.049    554.545    554.049    554.159    554.049
 21.070    519.859    554.410    -34.551    553.788    554.298    553.788    553.900    553.788
 21.170    537.563    554.164    -16.601    553.527    554.051    553.527    553.639    553.527
 21.270    602.000    553.918     48.082    553.264    553.804    553.264    553.378    553.264
 21.370    569.753    553.672     16.081    553.001    553.557    553.001    553.116    553.001
 21.470    537.000    553.428    -16.428    552.736    553.312    552.736    552.852    552.736
 21.570    588.616    553.195     35.421    552.471    553.078    552.471    552.588    552.471
 21.670    538.000    553.035    -15.035    552.204    552.916    552.204    552.323    552.204
 21.770    512.922    552.816    -39.893    551.937    552.696    551.937    552.057    551.937
 21.870    529.000    552.575    -23.575    551.668    552.453    551.668    551.790    551.668
 21.970    505.000    552.334    -47.334    551.399    552.211    551.399    551.522    551.399
 22.070    612.000    552.096     59.904    551.129    551.971    551.129    551.254    551.129
 22.170    575.000    551.882     23.118    550.858    551.753    550.858    550.987    550.858
 22.270    542.000    551.675     -9.675    550.587    551.544    550.587    550.717    550.587
 22.370    597.927    551.445     46.482    550.314    551.313    550.314    550.447    550.314
 22.470    529.000    551.221    -22.221    550.041    551.087    550.041    550.175    550.041
 22.570    544.000    551.042     -7.042    549.767    550.906    549.767    549.903    549.767
 22.670    591.000    550.841     40.159    549.493    550.703    549.493    549.631    549.493
 22.770    522.000    550.629    -28.629    549.217    550.489    549.217    549.357    549.217
 22.870    539.116    550.424    -11.307    548.941    550.282    548.941    549.083    548.941
 22.970    505.401    550.227    -44.826    548.665    550.084    548.665    548.809    548.665
 23.070    518.192    550.042    -31.850    548.388    549.897    548.388    548.534    548.388
 23.170    539.000    549.872    -10.872    548.110    549.724    548.110    548.259    548.110
 23.270    551.000    549.719      1.281    547.832    549.569    547.832    547.983    547.832
 23.370    564.500    549.591     14.909    547.553    549.438    547.553    547.706    547.553
 23.470    597.000    549.490     47.510    547.274    549.335    547.274    547.430    547.274
 23.570    565.000    549.429     15.571    546.994    549.271    546.994    547.153    546.994
 23.670    508.943    549.420    -40.477    546.714    549.260    546.714    546.875    546.714
 23.770    557.000    549.484      7.516    546.433    549.321    546.433    546.598    546.433
 23.870    530.627    549.651    -19.024    546.152    549.485    546.152    546.320    546.152
 23.970    574.499    549.981     24.518    545.871    549.813    545.871    546.042    545.871
 24.070    576.000    550.617     25.383    545.589    550.445    545.589    545.763    545.589
 24.170    528.451    551.953    -23.501    545.307    551.779    545.307    545.485    545.307
 24.270    569.000    554.998     14.002    545.025    554.823    545.025    545.206    545.025
 24.370    523.999    561.753    -37.754    544.742    561.579    544.742    544.927    544.742
 24.470    673.000    574.825     98.175    544.459    574.657    544.459    544.648    544.459
 24.570    578.000    595.298    -17.298    544.176    595.140    544.176    544.370    544.176
 24.670    609.265    619.068     -9.804    543.893    618.923    543.893    544.091    543.893
 24.770    676.951    634.652     42.298    543.609    634.514    543.609    543.812    543.609
 24.870    594.897    630.854    -35.957    543.326    630.708    543.326    543.533    543.326
 24.970    608.000    610.705     -2.705    543.042    610.539    543.042    543.255    543.042
 25.070    587.336    586.833      0.502    542.758    586.645    542.758    542.977    542.758
 25.170    545.000    568.252    -23.252    542.474    568.045    542.474    542.699    542.474
 25.270    572.000    557.014     14.986    542.190    556.792    542.190    542.421    542.190
 25.370    537.000    551.233    -14.233    541.905    551.000    541.905    542.143    541.905
 25.470    526.000    548.405    -22.405    541.621    548.163    541.621    541.866    541.621
 25.570    530.143    546.891    -16.748    541.337    546.641    541.337    541.590    541.337
 25.670    551.000    545.934      5.066    541.053    545.674    541.053    541.314    541.053
 25.770    500.190    545.241    -45.052    540.768    544.973    540.768    541.039    540.768
 25.870    600.000    544.687     55.313    540.484    544.408    540.484    540.764    540.484
 25.970    553.000    544.235      8.765    540.200    543.946    540.200    540.490    540.200
 26.070    584.000    543.860     40.140    539.916    543.560    539.916    540.217    539.916
 26.170    542.000    543.549     -1.549    539.632    543.236    539.632    539.945    539.632
 26.270    554.000    543.296     10.704    539.348    542.970    539.348    539.674    539.348
 26.370    524.240    543.120    -18.879    539.064    542.779    539.064    539.405    539.064
 26.470    513.690    542.993    -29.303    538.780    542.636    538.780    539.137    538.780
 26.570    521.000    542.899    -21.899    538.497    542.525    538.497    538.871    538.497
 26.670    552.752    542.853      9.900    538.214    542.461    538.214    538.606    538.214
 26.770    542.507    542.871     -0.364    537.931    542.458    537.931    538.344    537.931
 26.870    590.000    542.966     47.034    537.648    542.530    537.648    538.083    537.648
 26.970    514.000    543.155    -29.155    537.365    542.694    537.365    537.826    537.365
 27.070    519.000    543.474    -24.474    537.083    542.985    537.083    537.572    537.083
 27.170    522.000    543.962    -21.962    536.801    543.441    536.801    537.321    536.801
 27.270    548.000    544.638      3.362    536.519    544.082    536.519    537.074    536.519
 27.370    519.950    545.606    -25.656    536.238    545.010    536.238    536.832    536.238
 27.470    526.472    547.022    -20.550    535.957    546.381    535.957    536.596    535.957
 27.570    572.413    549.283     23.130    535.676    548.591    535.676    536.366    535.676
 27.670    544.000    553.790     -9.790    535.396    553.038    535.396    536.144    535.396
 27.770    568.786    565.252      3.534    535.116    564.430    535.116    535.932    535.116
 27.870    634.000    595.515     38.485    534.837    594.604    534.837    535.730    534.837
 27.970    666.198    662.839      3.360    534.558    661.816    534.558    535.542    534.558
 28.070    730.000    775.129    -45.129    534.279    773.967    534.279    535.372    534.279
 28.170    874.000    900.559    -26.559    534.001    899.241    534.001    535.222    534.001
 28.270   1003.879    962.423     41.455    533.723    960.954    533.723    535.098    533.723
 28.370    869.301    910.091    -40.790    533.446    908.469    533.446    535.010    533.446
 28.470    885.000    797.425     87.575    533.169    795.605    533.169    534.966    533.169
 28.570    673.038    710.331    -37.293    532.893    708.227    532.893    534.987    532.893
 28.670    683.000    692.991     -9.991    532.618    690.494    532.618    535.101    532.618
 28.770    749.000    740.367      8.633    532.343    737.327    532.343    535.364    532.343
 28.870    800.000    811.381    -11.381    532.068    807.567    532.068    535.871    532.068
 28.970    886.984    844.935     42.049    531.794    839.960    531.794    536.774    531.794
 29.070    750.000    804.963    -54.963    531.521    798.207    531.521    538.291    531.521
 29.170    686.000    723.178    -37.178    531.248    713.760    531.248    540.680    531.248
 29.270    668.000    648.440     19.560    530.976    635.268    530.976    544.156    530.976
 29.370    605.445    602.707      2.738    530.705    584.666    530.705    548.749    530.705
 29.470    599.000    582.975     16.025    530.434    559.383    530.434    554.026    530.434
 29.570    540.959    577.051    -36.091    530.164    548.509    530.164    558.703    530.164
 29.670    608.415    574.553     33.862    529.895    543.725    529.895    560.720    529.895
 29.770    596.000    570.342     25.658    529.626    541.167    529.626    558.798    529.626
 29.870    585.000    564.062     20.938    529.358    539.506    529.358    553.912    529.358
 29.970    591.408    557.358     34.050    529.091    538.341    529.091    548.106    529.091
 30.070    587.000    551.535     35.465    528.825    537.541    528.825    542.816    528.825
 30.170    511.247    547.127    -35.880    528.559    537.084    528.559    538.600    528.559
 30.270    568.848    544.276     24.572    528.294    537.074    528.294    535.493    528.294
 30.370    521.068    543.223    -22.155    528.030    537.950    528.030    533.300    528.030
