neutron_powder_diffraction_0128
R_wp: 3.905
Temperature (K): 1027.396
Counts: 83442.00
Wavelength (Ã…): 2.52098
COMMENTS
Test file for demonstrating the .xyy file format in Reel1.0
END OF HEADER
   tth       Y_obs     Y_calc      Y_res    Background    Phase_1_Nuc    Phase_1_Mag    Phase_2_Nuc    Phase_2_Mag
  9.970    600.000    567.948     32.052    566.876    567.834    566.876    566.990    566.876
 10.070    603.000    568.171     34.829    567.016    568.057    567.016    567.130    567.016
 10.170    548.015    568.400    -20.386    567.149    568.285    567.149    567.263    567.149
 10.270    601.087    568.637     32.450    567.275    568.522    567.275    567.390    567.275
 10.370    571.000    568.885      2.115    567.395    568.769    567.395    567.510    567.395
 10.470    604.000    569.148     34.852    567.508    569.031    567.508    567.623    567.508
 10.570    613.000    569.431     43.569    567.614    569.314    567.614    567.730    567.614
 10.670    599.000    569.742     29.258    567.714    569.624    567.714    567.831    567.714
 10.770    616.275    570.089     46.186    567.807    569.971    567.807    567.924    567.807
 10.870    597.000    570.485     26.515    567.894    570.366    567.894    568.012    567.894
 10.970    597.000    570.948     26.052    567.975    570.828    567.975    568.093    567.975
 11.070    597.000    571.501     25.499    568.049    571.381    568.049    568.168    568.049
 11.170    537.253    572.182    -34.929    568.117    572.061    568.117    568.237    568.117
 11.270    583.877    573.048     10.829    568.180    572.926    568.180    568.299    568.180
 11.370    603.082    574.207     28.874    568.236    574.084    568.236    568.356    568.236
 11.470    595.565    575.899     19.666    568.286    575.775    568.286    568.406    568.286
 11.570    566.000    578.692    -12.692    568.330    578.565    568.330    568.451    568.330
 11.670    627.000    583.814     43.186    568.368    583.684    568.368    568.490    568.368
 11.770    595.224    593.414      1.810    568.400    593.278    568.400    568.522    568.400
 11.870    637.000    610.119     26.881    568.426    609.973    568.426    568.549    568.426
 11.970    653.000    635.202     17.798    568.447    635.041    568.447    568.571    568.447
 12.070    627.542    665.198    -37.656    568.462    665.020    568.462    568.586    568.462
 12.170    684.347    688.743     -4.396    568.472    688.551    568.472    568.596    568.472
 12.270    654.000    691.361    -37.361    568.475    691.167    568.475    568.601    568.475
 12.370    634.000    670.922    -36.922    568.474    670.739    568.474    568.600    568.474
 12.470    586.000    640.879    -54.879    568.467    640.713    568.467    568.593    568.467
 12.570    626.000    614.287     11.713    568.454    614.134    568.454    568.581    568.454
 12.670    591.000    595.966     -4.966    568.436    595.824    568.436    568.564    568.436
 12.770    582.939    585.226     -2.286    568.413    585.089    568.413    568.541    568.413
 12.870    558.000    579.476    -21.476    568.385    579.342    568.385    568.514    568.385
 12.970    575.103    576.391     -1.288    568.352    576.258    568.352    568.481    568.352
 13.070    611.000    574.571     36.429    568.313    574.438    568.313    568.443    568.313
 13.170    565.000    573.354     -8.354    568.269    573.221    568.269    568.400    568.269
 13.270    556.043    572.462    -16.419    568.221    572.329    568.221    568.352    568.221
 13.370    567.000    571.769     -4.769    568.167    571.636    568.167    568.299    568.167
 13.470    524.000    571.213    -47.213    568.109    571.079    568.109    568.241    568.109
 13.570    558.000    570.755    -12.755    568.045    570.621    568.045    568.178    568.045
 13.670    604.289    570.368     33.921    567.977    570.234    567.977    568.111    567.977
 13.770    569.000    570.036     -1.036    567.904    569.901    567.904    568.038    567.904
 13.870    562.000    569.744     -7.744    567.827    569.608    567.827    567.961    567.827
 13.970    537.304    569.482    -32.178    567.744    569.346    567.744    567.880    567.744
 14.070    603.000    569.244     33.756    567.658    569.108    567.658    567.794    567.658
 14.170    561.000    569.026     -8.026    567.566    568.889    567.566    567.703    567.566
 14.270    587.000    568.822     18.178    567.470    568.684    567.470    567.608    567.470
 14.370    575.171    568.627      6.544    567.370    568.488    567.370    567.509    567.370
 14.470    549.989    568.440    -18.450    567.266    568.301    567.266    567.405    567.266
 14.570    540.000    568.259    -28.259    567.157    568.119    567.157    567.296    567.157
 14.670    553.875    568.083    -14.208    567.043    567.942    567.043    567.184    567.043
 14.770    559.000    567.910     -8.910    566.926    567.769    566.926    567.067    566.926
 14.870    562.000    567.740     -5.740    566.804    567.598    566.804    566.946    566.804
 14.970    581.000    567.570     13.430    566.679    567.428    566.679    566.821    566.679
 15.070    582.059    567.402     14.657    566.549    567.259    566.549    566.692    566.549
 15.170    544.517    567.234    -22.717    566.415    567.090    566.415    566.559    566.415
 15.270    588.000    567.065     20.935    566.277    566.920    566.277    566.422    566.277
 15.370    509.000    566.896    -57.896    566.136    566.750    566.136    566.281    566.136
 15.470    541.000    566.726    -25.726    565.990    566.579    565.990    566.137    565.990
 15.570    611.772    566.555     45.217    565.841    566.407    565.841    565.988    565.841
 15.670    567.000    566.382      0.618    565.688    566.234    565.688    565.836    565.688
 15.770    569.000    566.207      2.793    565.531    566.058    565.531    565.680    565.531
 15.870    565.000    566.030     -1.030    565.370    565.880    565.370    565.520    565.370
 15.970    536.000    565.851    -29.851    565.206    565.700    565.206    565.356    565.206
 16.070    540.000    565.670    -25.670    565.038    565.519    565.038    565.189    565.038
 16.170    549.000    565.496    -16.496    564.866    565.344    564.866    565.019    564.866
 16.270    599.459    565.328     34.131    564.692    565.175    564.692    564.845    564.692
 16.370    538.803    565.141    -26.339    564.513    564.988    564.513    564.667    564.513
 16.470    528.000    564.951    -36.951    564.332    564.796    564.332    564.487    564.332
 16.570    578.143    564.759     13.384    564.146    564.603    564.146    564.302    564.146
 16.670    539.000    564.566    -25.566    563.958    564.409    563.958    564.115    563.958
 16.770    560.000    564.371     -4.371    563.766    564.213    563.766    563.924    563.766
 16.870    572.008    564.171      7.837    563.571    564.012    563.571    563.730    563.571
 16.970    564.000    563.968      0.032    563.373    563.809    563.373    563.533    563.373
 17.070    588.192    563.763     24.429    563.172    563.603    563.172    563.333    563.172
 17.170    593.976    563.556     30.420    562.968    563.394    562.968    563.130    562.968
 17.270    519.583    563.346    -43.763    562.761    563.183    562.761    562.923    562.761
 17.370    592.889    563.133     29.755    562.550    562.970    562.550    562.714    562.550
 17.470    572.000    562.918      9.082    562.337    562.754    562.337    562.502    562.337
 17.570    572.834    562.701     10.133    562.121    562.536    562.121    562.287    562.121
 17.670    542.000    562.482    -20.482    561.902    562.315    561.902    562.069    561.902
 17.770    539.424    562.259    -22.835    561.680    562.092    561.680    561.848    561.680
 17.870    526.000    562.035    -36.035    561.455    561.866    561.455    561.624    561.455
 17.970    553.000    561.809     -8.809    561.228    561.639    561.228    561.398    561.228
 18.070    590.129    561.581     28.548    560.998    561.410    560.998    561.169    560.998
 18.170    600.000    561.358     38.642    560.765    561.185    560.765    560.938    560.765
 18.270    514.000    561.125    -47.125    560.529    560.952    560.529    560.703    560.529
 18.370    573.000    560.890     12.110    560.291    560.715    560.291    560.467    560.291
 18.470    541.000    560.652    -19.652    560.051    560.476    560.051    560.227    560.051
 18.570    534.993    560.412    -25.419    559.808    560.235    559.808    559.986    559.808
 18.670    583.000    560.170     22.830    559.562    559.992    559.562    559.742    559.562
 18.770    595.000    559.926     35.074    559.315    559.746    559.315    559.495    559.315
 18.870    545.000    559.681    -14.681    559.064    559.499    559.064    559.246    559.064
 18.970    541.000    559.433    -18.433    558.812    559.250    558.812    558.995    558.812
 19.070    515.211    559.183    -43.972    558.557    558.999    558.557    558.742    558.557
 19.170    561.274    558.934      2.341    558.300    558.748    558.300    558.486    558.300
 19.270    515.307    558.711    -43.404    558.041    558.524    558.041    558.228    558.041
 19.370    559.000    558.529      0.471    557.779    558.340    557.779    557.968    557.779
 19.470    559.000    558.279      0.721    557.516    558.089    557.516    557.706    557.516
 19.570    546.000    558.021    -12.021    557.250    557.830    557.250    557.442    557.250
 19.670    521.000    557.761    -36.761    556.982    557.568    556.982    557.176    556.982
 19.770    576.000    557.500     18.500    556.712    557.306    556.712    556.908    556.712
 19.870    539.000    557.238    -18.238    556.441    557.041    556.441    556.637    556.441
 19.970    544.000    556.974    -12.974    556.167    556.776    556.167    556.365    556.167
 20.070    547.000    556.709     -9.709    555.891    556.509    555.891    556.092    555.891
 20.170    545.397    556.442    -11.045    555.614    556.240    555.614    555.816    555.614
 20.270    535.000    556.174    -21.174    555.335    555.971    555.335    555.538    555.335
 20.370    564.000    555.906      8.094    555.053    555.700    555.053    555.259    555.053
 20.470    599.000    555.636     43.364    554.771    555.429    554.771    554.978    554.771
 20.570    515.512    555.365    -39.853    554.486    555.156    554.486    554.696    554.486
 20.670    591.244    555.093     36.151    554.200    554.882    554.200    554.411    554.200
 20.770    528.000    554.821    -26.821    553.912    554.608    553.912    554.126    553.912
 20.870    526.000    554.551    -28.551    553.622    554.336    553.622    553.838    553.622
 20.970    541.000    554.312    -13.312    553.331    554.095    553.331    553.549    553.331
 21.070    549.117    554.070     -4.953    553.039    553.851    553.039    553.259    553.039
 21.170    540.000    553.800    -13.800    552.745    553.578    552.745    552.967    552.745
 21.270    511.864    553.526    -41.662    552.449    553.302    552.449    552.674    552.449
 21.370    560.000    553.254      6.746    552.152    553.027    552.152    552.379    552.152
 21.470    566.476    552.996     13.480    551.854    552.767    551.854    552.083    551.854
 21.570    582.204    552.735     29.469    551.554    552.504    551.554    551.786    551.554
 21.670    526.570    552.467    -25.897    551.253    552.233    551.253    551.487    551.253
 21.770    573.000    552.196     20.804    550.950    551.959    550.950    551.188    550.950
 21.870    573.716    551.927     21.789    550.647    551.687    550.647    550.887    550.647
 21.970    567.642    551.659     15.983    550.342    551.417    550.342    550.585    550.342
 22.070    574.000    551.394     22.606    550.036    551.149    550.036    550.282    550.036
 22.170    577.236    551.131     26.105    549.728    550.883    549.728    549.977    549.728
 22.270    512.382    550.872    -38.491    549.420    550.621    549.420    549.672    549.420
 22.370    580.000    550.629     29.371    549.110    550.375    549.110    549.366    549.110
 22.470    569.000    550.414     18.586    548.800    550.156    548.800    549.059    548.800
 22.570    538.000    550.177    -12.177    548.488    549.916    548.488    548.750    548.488
 22.670    526.000    549.940    -23.940    548.175    549.675    548.175    548.441    548.175
 22.770    587.116    549.712     37.404    547.862    549.443    547.862    548.132    547.862
 22.870    576.000    549.501     26.499    547.547    549.229    547.547    547.821    547.547
 22.970    546.527    549.299     -2.771    547.232    549.022    547.232    547.509    547.232
 23.070    524.000    549.109    -25.109    546.916    548.829    546.916    547.197    546.916
 23.170    530.000    548.939    -18.939    546.598    548.654    546.598    546.884    546.598
 23.270    562.000    548.794     13.206    546.280    548.505    546.280    546.571    546.280
 23.370    574.723    548.680     26.043    545.962    548.387    545.962    546.257    545.962
 23.470    587.991    548.608     39.383    545.642    548.310    545.642    545.942    545.642
 23.570    539.000    548.590     -9.590    545.322    548.286    545.322    545.627    545.322
 23.670    546.991    548.643     -1.653    545.001    548.335    545.001    545.311    545.001
 23.770    543.000    548.797     -5.797    544.679    548.484    544.679    544.995    544.679
 23.870    553.045    549.102      3.943    544.357    548.783    544.357    544.679    544.357
 23.970    565.000    549.655     15.345    544.034    549.331    544.034    544.362    544.034
 24.070    550.000    550.660     -0.660    543.711    550.330    543.711    544.045    543.711
 24.170    515.000    552.577    -37.577    543.386    552.242    543.386    543.727    543.386
 24.270    544.000    556.314    -12.314    543.062    555.975    543.062    543.410    543.062
 24.370    549.000    563.274    -14.274    542.737    562.933    542.737    543.092    542.737
 24.470    620.573    574.894     45.679    542.411    574.554    542.411    542.774    542.411
 24.570    566.000    591.343    -25.343    542.085    591.007    542.085    542.456    542.085
 24.670    585.000    609.753    -24.753    541.759    609.422    541.759    542.138    541.759
 24.770    616.805    622.719     -5.914    541.432    622.388    541.432    541.820    541.432
 24.870    659.704    622.176     37.528    541.105    621.836    541.105    541.503    541.105
 24.970    626.000    608.352     17.648    540.778    607.993    540.778    541.185    540.778
 25.070    632.199    589.391     42.808    540.450    589.007    540.450    540.868    540.450
 25.170    589.000    572.542     16.458    540.122    572.136    540.122    540.551    540.122
 25.270    575.719    560.582     15.136    539.794    560.155    539.794    540.235    539.794
 25.370    536.000    553.221    -17.221    539.465    552.776    539.465    539.919    539.465
 25.470    549.000    549.026     -0.026    539.137    548.565    539.137    539.604    539.137
 25.570    567.000    546.621     20.379    538.808    546.143    538.808    539.289    538.808
 25.670    564.000    545.115     18.885    538.479    544.621    538.479    538.976    538.479
 25.770    548.639    544.054      4.585    538.150    543.543    538.150    538.663    538.150
 25.870    552.258    543.239      9.019    537.820    542.710    537.820    538.351    537.820
 25.970    595.000    542.591     52.409    537.491    542.043    537.491    538.041    537.491
 26.070    555.000    542.043     12.957    537.162    541.474    537.162    537.732    537.162
 26.170    547.589    541.576      6.012    536.832    540.986    536.832    537.424    536.832
 26.270    585.000    541.180     43.820    536.503    540.565    536.503    537.119    536.503
 26.370    496.095    540.846    -44.752    536.174    540.206    536.174    536.815    536.174
 26.470    531.000    540.566     -9.566    535.844    539.897    535.844    536.514    535.844
 26.570    499.664    540.338    -40.674    535.515    539.639    535.515    536.215    535.515
 26.670    523.000    540.166    -17.166    535.186    539.433    535.186    535.919    535.186
 26.770    590.000    540.052     49.948    534.857    539.283    534.857    535.626    534.857
 26.870    498.936    540.005    -41.070    534.528    539.197    534.528    535.337    534.528
 26.970    563.000    540.038     22.962    534.199    539.186    534.199    535.052    534.199
 27.070    532.000    540.168     -8.168    533.871    539.267    533.871    534.772    533.871
 27.170    573.000    540.422     32.578    533.543    539.468    533.543    534.497    533.543
 27.270    541.000    540.841      0.159    533.215    539.828    533.215    534.228    533.215
 27.370    512.895    541.490    -28.595    532.887    540.410    532.887    533.967    532.887
 27.470    580.000    542.477     37.523    532.559    541.323    532.559    533.713    532.559
 27.570    580.144    544.113     36.031    532.232    542.874    532.232    533.470    532.232
 27.670    520.734    547.571    -26.837    531.905    546.236    531.905    533.238    531.905
 27.770    568.603    557.120     11.483    531.579    555.673    531.579    533.020    531.579
 27.870    603.000    584.222     18.778    531.253    582.641    531.253    532.818    531.253
 27.970    607.571    647.856    -40.285    530.927    646.110    530.927    532.636    530.927
 28.070    704.000    758.250    -54.250    530.601    756.305    530.601    532.478    530.601
 28.170    886.000    885.887      0.113    530.276    883.719    530.276    532.348    530.276
 28.270    982.000    955.389     26.611    529.952    952.994    529.952    532.253    529.952
 28.370    929.000    912.984     16.016    529.628    910.354    529.628    532.199    529.628
 28.470    818.000    802.724     15.276    529.304    799.812    529.304    532.195    529.304
 28.570    718.350    710.367      7.983    528.981    707.094    528.981    532.249    528.981
 28.670    679.000    685.974     -6.974    528.659    682.252    528.659    532.373    528.659
 28.770    728.000    727.738      0.262    528.337    723.483    528.337    532.575    528.337
 28.870    848.463    796.393     52.070    528.016    791.523    528.016    532.865    528.016
 28.970    795.000    833.283    -38.283    527.695    827.715    527.695    533.250    527.695
 29.070    750.480    800.951    -50.471    527.375    794.601    527.375    533.729    527.375
 29.170    649.000    723.247    -74.247    527.055    716.029    527.055    534.289    527.055
 29.270    620.953    645.903    -24.949    526.736    637.758    526.736    534.897    526.736
 29.370    604.000    593.514     10.486    526.418    584.452    526.418    535.491    526.418
 29.470    606.000    566.413     39.587    526.101    556.541    526.101    535.978    526.101
 29.570    590.029    554.693     35.336    525.784    544.232    525.784    536.247    525.784
 29.670    586.059    549.672     36.387    525.468    538.943    525.468    536.198    525.468
 29.770    578.000    546.914     31.086    525.152    536.287    525.152    535.780    525.152
 29.870    549.000    544.819      4.181    524.838    534.643    524.838    535.014    524.838
 29.970    585.936    542.970     42.966    524.524    533.512    524.524    533.982    524.524
 30.070    535.653    541.326     -5.673    524.211    532.741    524.211    532.796    524.211
 30.170    595.000    539.969     55.031    523.898    532.309    523.898    531.558    523.898
 30.270    568.000    539.093     28.907    523.587    532.335    523.587    530.343    523.587
 30.370    568.000    539.181     28.819    523.276    533.257    523.276    529.198    523.276
