neutron_powder_diffraction_0160
R_wp: 3.994
Temperature (K): 1074.000
Counts: 84124.00
Wavelength (Ã…): 2.52098
COMMENTS
Test file for demonstrating the .xyy file format in Reel1.0
END OF HEADER
   tth       Y_obs     Y_calc      Y_res    Background    Phase_1_Nuc    Phase_1_Mag    Phase_2_Nuc    Phase_2_Mag
  9.970    621.000    571.610     49.390    570.915    571.567    570.915    570.958    570.915
 10.070    596.000    571.656     24.344    570.905    571.613    570.905    570.948    570.905
 10.170    567.000    571.706     -4.706    570.890    571.662    570.890    570.934    570.890
 10.270    631.000    571.762     59.238    570.871    571.717    570.871    570.915    570.871
 10.370    542.707    571.827    -29.120    570.848    571.780    570.848    570.894    570.848
 10.470    543.000    571.901    -28.901    570.820    571.853    570.820    570.868    570.820
 10.570    601.000    571.988     29.012    570.787    571.939    570.787    570.835    570.787
 10.670    621.000    572.094     48.906    570.751    572.045    570.751    570.799    570.751
 10.770    593.000    572.225     20.775    570.710    572.176    570.710    570.758    570.710
 10.870    638.000    572.390     65.610    570.665    572.340    570.665    570.714    570.665
 10.970    553.000    572.602    -19.602    570.615    572.551    570.615    570.665    570.615
 11.070    600.000    572.876     27.124    570.562    572.825    570.562    570.612    570.562
 11.170    564.000    573.241     -9.241    570.504    573.189    570.504    570.554    570.504
 11.270    555.440    573.734    -18.294    570.443    573.682    570.443    570.493    570.443
 11.370    533.627    574.422    -40.795    570.377    574.369    570.377    570.427    570.377
 11.470    585.782    575.453     10.329    570.307    575.399    570.307    570.358    570.307
 11.570    529.331    577.241    -47.910    570.234    577.186    570.234    570.284    570.234
 11.670    619.764    580.965     38.799    570.156    580.908    570.156    570.207    570.156
 11.770    657.000    589.374     67.626    570.075    589.312    570.075    570.126    570.075
 11.870    577.150    606.906    -29.756    569.990    606.834    569.990    570.041    569.990
 11.970    641.357    637.009      4.348    569.901    636.920    569.901    569.952    569.901
 12.070    606.000    675.785    -69.785    569.808    675.673    569.808    569.860    569.808
 12.170    735.386    706.262     29.124    569.712    706.133    569.712    569.764    569.712
 12.270    684.000    707.159    -23.159    569.612    707.029    569.612    569.664    569.612
 12.370    697.000    677.580     19.420    569.508    677.466    569.508    569.561    569.508
 12.470    617.000    638.430    -21.430    569.401    638.338    569.401    569.454    569.401
 12.570    579.824    607.441    -27.617    569.290    607.366    569.290    569.344    569.290
 12.670    601.000    589.104     11.896    569.176    589.039    569.176    569.230    569.176
 12.770    578.000    580.155     -2.155    569.059    580.095    569.059    569.112    569.059
 12.870    607.724    576.086     31.637    568.938    576.029    568.938    568.992    568.938
 12.970    600.776    574.047     26.729    568.813    573.989    568.813    568.868    568.813
 13.070    569.000    572.797     -3.797    568.686    572.740    568.686    568.740    568.686
 13.170    595.000    571.904     23.096    568.555    571.846    568.555    568.611    568.555
 13.270    536.000    571.211    -35.211    568.421    571.153    568.421    568.477    568.421
 13.370    561.000    570.649     -9.649    568.283    570.591    568.283    568.340    568.283
 13.470    598.377    570.179     28.198    568.143    570.121    568.143    568.200    568.143
 13.570    541.000    569.775    -28.775    567.999    569.716    567.999    568.056    567.999
 13.670    586.843    569.418     17.425    567.852    569.360    567.852    567.910    567.852
 13.770    528.613    569.097    -40.484    567.702    569.039    567.702    567.760    567.702
 13.870    557.000    568.804    -11.804    567.550    568.745    567.550    567.608    567.550
 13.970    552.000    568.533    -16.533    567.394    568.473    567.394    567.452    567.394
 14.070    525.000    568.275    -43.275    567.235    568.215    567.235    567.294    567.235
 14.170    517.000    568.029    -51.029    567.073    567.970    567.073    567.133    567.073
 14.270    558.000    567.796     -9.796    566.909    567.736    566.909    566.968    566.909
 14.370    603.817    567.568     36.249    566.742    567.508    566.742    566.802    566.742
 14.470    595.000    567.344     27.656    566.572    567.284    566.572    566.632    566.572
 14.570    566.000    567.124     -1.124    566.399    567.064    566.399    566.459    566.399
 14.670    537.000    566.908    -29.908    566.223    566.847    566.223    566.284    566.223
 14.770    537.777    566.694    -28.916    566.045    566.632    566.045    566.106    566.045
 14.870    584.980    566.481     18.499    565.864    566.419    565.864    565.926    565.864
 14.970    544.000    566.269    -22.269    565.681    566.207    565.681    565.743    565.681
 15.070    516.000    566.058    -50.058    565.495    565.996    565.495    565.557    565.495
 15.170    570.000    565.848      4.152    565.306    565.785    565.306    565.369    565.306
 15.270    591.970    565.637     26.334    565.115    565.574    565.115    565.178    565.115
 15.370    541.000    565.425    -24.425    564.922    565.362    564.922    564.985    564.922
 15.470    568.000    565.214      2.786    564.726    565.150    564.726    564.789    564.726
 15.570    581.000    565.001     15.999    564.528    564.937    564.528    564.591    564.528
 15.670    583.000    564.788     18.212    564.327    564.723    564.327    564.391    564.327
 15.770    563.000    564.573     -1.573    564.124    564.508    564.124    564.189    564.124
 15.870    566.528    564.358      2.171    563.919    564.292    563.919    563.984    563.919
 15.970    596.645    564.141     32.504    563.711    564.075    563.711    563.777    563.711
 16.070    571.327    563.927      7.401    563.501    563.857    563.501    563.571    563.501
 16.170    567.000    563.709      3.291    563.290    563.637    563.290    563.361    563.290
 16.270    574.000    563.488     10.512    563.075    563.416    563.075    563.148    563.075
 16.370    585.000    563.266     21.734    562.859    563.194    562.859    562.932    562.859
 16.470    539.000    563.043    -24.043    562.641    562.970    562.641    562.714    562.641
 16.570    562.000    562.819     -0.819    562.421    562.745    562.421    562.494    562.421
 16.670    579.175    562.592     16.583    562.198    562.518    562.198    562.272    562.198
 16.770    542.000    562.365    -20.365    561.974    562.290    561.974    562.048    561.974
 16.870    584.000    562.138     21.862    561.748    562.063    561.748    561.823    561.748
 16.970    572.000    561.908     10.092    561.520    561.832    561.520    561.595    561.520
 17.070    509.000    561.676    -52.676    561.290    561.600    561.290    561.365    561.290
 17.170    605.448    561.442     44.006    561.058    561.366    561.058    561.134    561.058
 17.270    554.000    561.207     -7.207    560.824    561.131    560.824    560.900    560.824
 17.370    591.158    560.971     30.187    560.588    560.894    560.588    560.665    560.588
 17.470    541.000    560.733    -19.733    560.351    560.655    560.351    560.429    560.351
 17.570    515.000    560.494    -45.494    560.112    560.416    560.112    560.190    560.112
 17.670    517.000    560.254    -43.254    559.871    560.175    559.871    559.950    559.871
 17.770    566.000    560.012      5.988    559.629    559.932    559.629    559.708    559.629
 17.870    526.000    559.769    -33.769    559.385    559.689    559.385    559.465    559.385
 17.970    585.000    559.524     25.476    559.139    559.444    559.139    559.219    559.139
 18.070    535.645    559.279    -23.634    558.892    559.198    558.892    558.973    558.892
 18.170    576.736    559.032     17.703    558.643    558.951    558.643    558.725    558.643
 18.270    557.000    558.785     -1.785    558.393    558.703    558.393    558.475    558.393
 18.370    585.000    558.537     26.463    558.141    558.454    558.141    558.224    558.141
 18.470    554.409    558.286     -3.877    557.888    558.203    557.888    557.971    557.888
 18.570    569.000    558.034     10.966    557.633    557.951    557.633    557.717    557.633
 18.670    576.000    557.782     18.218    557.377    557.697    557.377    557.462    557.377
 18.770    545.000    557.528    -12.528    557.120    557.442    557.120    557.205    557.120
 18.870    550.000    557.273     -7.273    556.861    557.187    556.861    556.947    556.861
 18.970    571.000    557.017     13.983    556.601    556.930    556.601    556.687    556.601
 19.070    590.000    556.760     33.240    556.340    556.673    556.340    556.427    556.340
 19.170    540.000    556.502    -16.502    556.077    556.414    556.077    556.165    556.077
 19.270    544.000    556.244    -12.244    555.813    556.156    555.813    555.902    555.813
 19.370    535.000    555.998    -20.998    555.548    555.909    555.548    555.637    555.548
 19.470    557.000    555.748      1.252    555.282    555.658    555.282    555.372    555.282
 19.570    520.000    555.488    -35.488    555.014    555.397    555.014    555.105    555.014
 19.670    529.000    555.226    -26.226    554.746    555.134    554.746    554.838    554.746
 19.770    557.000    554.963      2.037    554.476    554.871    554.476    554.569    554.476
 19.870    513.100    554.700    -41.600    554.206    554.607    554.206    554.299    554.206
 19.970    565.000    554.436     10.564    553.934    554.342    553.934    554.028    553.934
 20.070    554.000    554.172     -0.172    553.662    554.077    553.662    553.756    553.662
 20.170    584.338    553.907     30.432    553.388    553.811    553.388    553.484    553.388
 20.270    548.000    553.641     -5.641    553.113    553.545    553.113    553.210    553.113
 20.370    567.668    553.375     14.293    552.838    553.278    552.838    552.935    552.838
 20.470    530.000    553.109    -23.109    552.562    553.011    552.562    552.660    552.562
 20.570    542.609    552.843    -10.234    552.284    552.744    552.284    552.384    552.284
 20.670    542.307    552.578    -10.271    552.006    552.476    552.006    552.108    552.006
 20.770    536.933    552.312    -15.380    551.727    552.208    551.727    551.831    551.727
 20.870    544.000    552.054     -8.054    551.447    551.949    551.447    551.552    551.447
 20.970    595.039    551.874     43.165    551.167    551.768    551.167    551.273    551.167
 21.070    555.000    551.629      3.371    550.886    551.522    550.886    550.993    550.886
 21.170    520.000    551.365    -31.365    550.604    551.257    550.604    550.712    550.604
 21.270    565.000    551.099     13.901    550.321    550.990    550.321    550.430    550.321
 21.370    521.272    550.834    -29.562    550.038    550.723    550.038    550.148    550.038
 21.470    536.000    550.569    -14.569    549.754    550.457    549.754    549.865    549.754
 21.570    571.928    550.305     21.623    549.469    550.192    549.469    549.582    549.469
 21.670    518.811    550.046    -31.235    549.184    549.932    549.184    549.298    549.184
 21.770    566.000    549.811     16.189    548.898    549.695    548.898    549.014    548.898
 21.870    557.000    549.582      7.418    548.612    549.465    548.612    548.729    548.612
 21.970    573.000    549.326     23.674    548.325    549.208    548.325    548.443    548.325
 22.070    567.450    549.070     18.380    548.038    548.950    548.038    548.157    548.038
 22.170    521.000    548.820    -27.820    547.750    548.699    547.750    547.871    547.750
 22.270    537.000    548.614    -11.614    547.461    548.491    547.461    547.584    547.461
 22.370    569.000    548.384     20.616    547.173    548.260    547.173    547.297    547.173
 22.470    508.666    548.141    -39.475    546.883    548.015    546.883    547.009    546.883
 22.570    554.769    547.901      6.868    546.594    547.774    546.594    546.722    546.594
 22.670    527.000    547.667    -20.667    546.304    547.538    546.304    546.433    546.304
 22.770    560.000    547.439     12.561    546.014    547.308    546.014    546.145    546.014
 22.870    535.000    547.219    -12.219    545.723    547.086    545.723    545.856    545.723
 22.970    543.000    547.008     -4.008    545.432    546.873    545.432    545.568    545.432
 23.070    545.210    546.809     -1.599    545.141    546.672    545.141    545.278    545.141
 23.170    573.692    546.624     27.068    544.850    546.485    544.850    544.989    544.850
 23.270    532.000    546.457    -14.457    544.558    546.316    544.558    544.700    544.558
 23.370    558.000    546.313     11.687    544.266    546.170    544.266    544.410    544.266
 23.470    531.000    546.199    -15.199    543.974    546.053    543.974    544.121    543.974
 23.570    563.000    546.123     16.877    543.682    545.975    543.682    543.831    543.682
 23.670    586.000    546.101     39.899    543.390    545.950    543.390    543.541    543.390
 23.770    504.000    546.151    -42.151    543.097    545.998    543.097    543.251    543.097
 23.870    563.501    546.303     17.198    542.805    546.147    542.805    542.962    542.805
 23.970    558.406    546.615     11.790    542.512    546.457    542.512    542.672    542.512
 24.070    559.000    547.227     11.773    542.219    547.066    542.219    542.383    542.219
 24.170    586.109    548.527     37.583    541.927    548.364    541.927    542.093    541.927
 24.270    588.664    551.526     37.138    541.634    551.363    541.634    541.804    541.634
 24.370    568.489    558.275     10.214    541.341    558.112    541.341    541.515    541.341
 24.470    589.000    571.504     17.496    541.048    571.348    541.048    541.226    541.048
 24.570    599.000    592.433      6.567    540.755    592.287    540.755    540.937    540.755
 24.670    638.000    616.882     21.118    540.463    616.750    540.463    540.648    540.463
 24.770    675.767    632.981     42.785    540.170    632.857    540.170    540.360    540.170
 24.870    662.138    629.074     33.064    539.878    628.942    539.878    540.072    539.878
 24.970    647.541    608.325     39.216    539.585    608.173    539.585    539.785    539.585
 25.070    638.000    583.807     54.193    539.293    583.632    539.293    539.498    539.293
 25.170    579.000    564.854     14.146    539.001    564.660    539.001    539.212    539.001
 25.270    508.000    553.488    -45.488    538.709    553.280    538.709    538.926    538.709
 25.370    545.000    547.705     -2.705    538.417    547.487    538.417    538.640    538.417
 25.470    559.427    544.909     14.518    538.125    544.682    538.125    538.355    538.125
 25.570    543.000    543.416     -0.416    537.834    543.181    537.834    538.071    537.834
 25.670    535.015    542.460     -7.445    537.543    542.217    537.543    537.788    537.543
 25.770    508.000    541.762    -33.762    537.252    541.509    537.252    537.506    537.252
 25.870    539.977    541.221     -1.244    536.961    540.959    536.961    537.224    536.961
 25.970    547.000    540.773      6.227    536.671    540.502    536.671    536.944    536.671
 26.070    553.539    540.429     13.110    536.381    540.147    536.381    536.664    536.381
 26.170    533.561    540.150     -6.588    536.091    539.856    536.091    536.386    536.091
 26.270    510.016    539.908    -29.891    535.802    539.601    535.802    536.109    535.802
 26.370    571.963    539.710     32.254    535.513    539.390    535.513    535.833    535.513
 26.470    523.000    539.562    -16.562    535.225    539.228    535.225    535.559    535.225
 26.570    518.000    539.469    -21.469    534.936    539.118    534.936    535.287    534.936
 26.670    525.000    539.434    -14.434    534.649    539.065    534.649    535.017    534.649
 26.770    544.000    539.467      4.533    534.361    539.079    534.361    534.749    534.361
 26.870    543.000    539.592      3.408    534.074    539.182    534.074    534.483    534.074
 26.970    580.000    539.828     40.172    533.788    539.395    533.788    534.220    533.788
 27.070    523.000    540.167    -17.167    533.502    539.707    533.502    533.960    533.502
 27.170    575.000    540.667     34.333    533.217    540.179    533.217    533.704    533.217
 27.270    549.364    541.389      7.975    532.932    540.868    532.932    533.452    532.932
 27.370    543.000    542.422      0.578    532.647    541.864    532.647    533.205    532.647
 27.470    539.000    543.930     -4.930    532.363    543.329    532.363    532.962    532.363
 27.570    554.000    546.341      7.659    532.080    545.692    532.080    532.727    532.080
 27.670    619.000    551.136     67.864    531.797    550.430    531.797    532.499    531.797
 27.770    577.000    563.111     13.889    531.515    562.339    531.515    532.279    531.515
 27.870    583.420    593.942    -10.522    531.233    593.086    531.233    532.070    531.233
 27.970    695.000    661.028     33.972    530.952    660.064    530.952    531.875    530.952
 28.070    765.000    771.160     -6.160    530.672    770.064    530.672    531.695    530.672
 28.170    916.000    893.152     22.848    530.392    891.908    530.392    531.535    530.392
 28.270    976.000    953.260     22.740    530.113    951.875    530.113    531.399    530.113
 28.370    855.330    902.909    -47.580    529.835    901.384    529.835    531.296    529.835
 28.470    783.000    794.072    -11.072    529.557    792.365    529.557    531.236    529.557
 28.570    685.438    709.546    -24.108    529.280    707.576    529.280    531.236    529.280
 28.670    730.000    692.336     37.664    529.004    689.998    529.004    531.325    529.004
 28.770    691.022    738.012    -46.989    528.729    735.165    528.729    531.554    528.729
 28.870    832.000    806.792     25.208    528.454    803.229    528.454    532.002    528.454
 28.970    802.764    839.121    -36.357    528.180    834.508    528.180    532.793    528.180
 29.070    761.583    799.688    -38.105    527.906    793.517    527.906    534.087    527.906
 29.170    699.574    719.087    -19.513    527.634    710.668    527.634    536.063    527.634
 29.270    617.000    644.682    -27.682    527.362    633.194    527.362    538.857    527.362
 29.370    605.390    598.022      7.368    527.091    582.659    527.091    542.456    527.091
 29.470    588.228    576.667     11.561    526.821    556.990    526.821    546.498    526.821
 29.570    568.000    569.197     -1.197    526.552    545.750    526.552    549.996    526.552
 29.670    579.000    565.911     13.089    526.284    540.746    526.284    551.447    526.284
 29.770    602.999    561.994     41.006    526.016    538.066    526.016    549.941    526.016
 29.870    609.000    556.754     52.246    525.749    536.334    525.749    546.167    525.749
 29.970    522.000    551.253    -29.253    525.484    535.122    525.484    541.613    525.484
 30.070    574.000    546.444     27.556    525.219    534.292    525.219    537.368    525.219
 30.170    595.000    542.758     52.242    524.955    533.819    524.955    533.891    524.955
 30.270    581.000    540.364     40.636    524.692    533.812    524.692    531.240    524.692
 30.370    589.000    539.591     49.409    524.429    534.716    524.429    529.300    524.429
