neutron_powder_diffraction_0249
R_wp: 4.218
Temperature (K): 953.333
Counts: 83837.00
Wavelength (Ã…): 2.52098
COMMENTS
Test file for demonstrating the .xyy file format in Reel1.0
END OF HEADER
   tth       Y_obs     Y_calc      Y_res    Background    Phase_1_Nuc    Phase_1_Mag    Phase_2_Nuc    Phase_2_Mag
  9.970    535.000    558.646    -23.646    558.055    558.614    558.055    558.087    558.055
 10.070    586.000    558.937     27.063    558.296    558.904    558.296    558.328    558.296
 10.170    595.000    559.227     35.773    558.530    559.194    558.530    558.562    558.530
 10.270    602.000    559.518     42.482    558.756    559.485    558.756    558.789    558.756
 10.370    562.000    559.814      2.186    558.976    559.781    558.976    559.008    558.976
 10.470    591.000    560.124     30.876    559.188    560.091    559.188    559.220    559.188
 10.570    554.000    560.443     -6.443    559.393    560.409    559.393    559.426    559.393
 10.670    555.000    560.766     -5.766    559.591    560.733    559.591    559.624    559.591
 10.770    555.793    561.107     -5.314    559.782    561.073    559.782    559.816    559.782
 10.870    566.461    561.476      4.985    559.967    561.440    559.967    560.002    559.967
 10.970    638.000    561.879     76.121    560.144    561.842    560.144    560.180    560.144
 11.070    553.264    562.333     -9.069    560.315    562.296    560.315    560.351    560.315
 11.170    599.000    562.859     36.141    560.479    562.821    560.479    560.515    560.479
 11.270    531.154    563.490    -32.336    560.636    563.452    560.636    560.672    560.636
 11.370    576.000    564.279     11.721    560.787    564.240    560.787    560.823    560.787
 11.470    600.310    565.335     34.976    560.931    565.295    560.931    560.968    560.931
 11.570    561.000    566.953     -5.953    561.069    566.911    561.069    561.107    561.069
 11.670    593.000    570.012     22.988    561.200    569.966    561.200    561.241    561.200
 11.770    608.000    576.781     31.219    561.325    576.720    561.325    561.378    561.325
 11.870    567.607    591.456    -23.849    561.444    591.386    561.444    561.498    561.444
 11.970    669.000    618.480     50.520    561.556    618.394    561.556    561.610    561.556
 12.070    625.652    656.595    -30.943    561.663    656.488    561.663    561.717    561.663
 12.170    655.000    691.747    -36.747    561.763    691.619    561.763    561.818    561.763
 12.270    659.000    700.770    -41.770    561.857    700.637    561.857    561.912    561.857
 12.370    619.000    675.525    -56.525    561.945    675.406    561.945    562.000    561.945
 12.470    642.000    635.831      6.169    562.027    635.734    562.027    562.083    562.027
 12.570    561.614    602.703    -41.089    562.104    602.623    562.104    562.161    562.104
 12.670    544.000    582.830    -38.830    562.174    582.755    562.174    562.237    562.174
 12.770    537.000    573.311    -36.311    562.239    573.241    562.239    562.303    562.239
 12.870    536.828    569.226    -32.397    562.298    569.158    562.298    562.362    562.298
 12.970    558.329    567.351     -9.022    562.351    567.284    562.351    562.416    562.351
 13.070    571.000    566.301      4.699    562.399    566.235    562.399    562.464    562.399
 13.170    606.000    565.606     40.394    562.441    565.540    562.441    562.506    562.441
 13.270    509.000    565.107    -56.107    562.478    565.040    562.478    562.543    562.478
 13.370    533.000    564.733    -31.733    562.509    564.666    562.509    562.575    562.509
 13.470    549.000    564.445    -15.445    562.535    564.378    562.535    562.601    562.535
 13.570    537.453    564.219    -26.766    562.556    564.151    562.556    562.622    562.556
 13.670    596.000    564.036     31.964    562.571    563.968    562.571    562.638    562.571
 13.770    571.000    563.884      7.116    562.581    563.817    562.581    562.648    562.581
 13.870    604.935    563.757     41.179    562.586    563.689    562.586    562.653    562.586
 13.970    522.141    563.646    -41.505    562.585    563.577    562.585    562.653    562.585
 14.070    610.000    563.548     46.452    562.580    563.479    562.580    562.648    562.580
 14.170    514.000    563.459    -49.459    562.570    563.390    562.570    562.638    562.570
 14.270    525.000    563.376    -38.376    562.554    563.307    562.554    562.623    562.554
 14.370    561.000    563.298     -2.298    562.534    563.228    562.534    562.604    562.534
 14.470    551.598    563.223    -11.625    562.509    563.153    562.509    562.579    562.509
 14.570    559.000    563.149     -4.149    562.479    563.079    562.479    562.549    562.479
 14.670    566.149    563.078      3.071    562.444    563.006    562.444    562.516    562.444
 14.770    499.000    563.008    -64.008    562.405    562.933    562.405    562.480    562.405
 14.870    518.733    562.935    -44.202    562.361    562.859    562.361    562.437    562.361
 14.970    578.628    562.861     15.767    562.312    562.783    562.312    562.390    562.312
 15.070    608.478    562.785     45.693    562.259    562.707    562.259    562.337    562.259
 15.170    543.876    562.709    -18.833    562.201    562.630    562.201    562.280    562.201
 15.270    572.000    562.634      9.366    562.139    562.554    562.139    562.219    562.139
 15.370    546.000    562.551    -16.551    562.073    562.471    562.073    562.153    562.073
 15.470    566.000    562.466      3.534    562.002    562.385    562.002    562.082    562.002
 15.570    555.000    562.377     -7.377    561.927    562.297    561.927    562.007    561.927
 15.670    578.139    562.286     15.853    561.847    562.205    561.847    561.928    561.847
 15.770    585.251    562.192     23.059    561.763    562.110    561.763    561.845    561.763
 15.870    556.490    562.095     -5.604    561.676    562.012    561.676    561.758    561.676
 15.970    535.009    561.994    -26.985    561.584    561.912    561.584    561.666    561.584
 16.070    600.362    561.891     38.472    561.488    561.808    561.488    561.571    561.488
 16.170    572.019    561.784     10.235    561.388    561.700    561.388    561.471    561.388
 16.270    594.344    561.674     32.670    561.284    561.590    561.284    561.368    561.284
 16.370    528.257    561.561    -33.303    561.176    561.476    561.176    561.260    561.176
 16.470    522.726    561.444    -38.718    561.064    561.359    561.064    561.149    561.064
 16.570    584.000    561.324     22.676    560.948    561.239    560.948    561.034    560.948
 16.670    523.004    561.201    -38.198    560.829    561.115    560.829    560.915    560.829
 16.770    568.000    561.075      6.925    560.706    560.988    560.706    560.792    560.706
 16.870    536.000    560.946    -24.946    560.579    560.858    560.579    560.666    560.579
 16.970    532.000    560.813    -28.813    560.448    560.725    560.448    560.536    560.448
 17.070    547.000    560.678    -13.678    560.314    560.588    560.314    560.403    560.314
 17.170    527.505    560.540    -33.035    560.176    560.449    560.176    560.267    560.176
 17.270    538.000    560.398    -22.398    560.035    560.306    560.035    560.127    560.035
 17.370    577.458    560.252     17.206    559.891    560.160    559.891    559.983    559.891
 17.470    559.924    560.104     -0.179    559.742    560.011    559.742    559.835    559.742
 17.570    571.291    559.952     11.339    559.591    559.859    559.591    559.685    559.591
 17.670    573.338    559.798     13.540    559.436    559.704    559.436    559.531    559.436
 17.770    555.124    559.643     -4.518    559.278    559.548    559.278    559.373    559.278
 17.870    571.869    559.483     12.387    559.117    559.387    559.117    559.212    559.117
 17.970    555.000    559.319     -4.319    558.952    559.223    558.952    559.049    558.952
 18.070    534.951    559.153    -24.202    558.785    559.056    558.785    558.882    558.785
 18.170    624.000    558.984     65.016    558.614    558.886    558.614    558.712    558.614
 18.270    559.348    558.812      0.536    558.440    558.714    558.440    558.538    558.440
 18.370    546.000    558.637    -12.637    558.263    558.538    558.263    558.362    558.263
 18.470    553.000    558.460     -5.460    558.083    558.360    558.083    558.183    558.083
 18.570    566.085    558.280      7.805    557.900    558.179    557.900    558.001    557.900
 18.670    547.000    558.097    -11.097    557.715    557.995    557.715    557.816    557.715
 18.770    579.312    557.911     21.401    557.526    557.809    557.526    557.628    557.526
 18.870    561.523    557.724      3.799    557.335    557.621    557.335    557.438    557.335
 18.970    551.000    557.534     -6.534    557.140    557.430    557.140    557.244    557.140
 19.070    539.000    557.342    -18.342    556.943    557.237    556.943    557.048    556.943
 19.170    532.613    557.151    -24.539    556.744    557.041    556.744    556.854    556.744
 19.270    539.000    556.957    -17.957    556.541    556.843    556.541    556.655    556.541
 19.370    564.000    556.758      7.242    556.337    556.643    556.337    556.452    556.337
 19.470    532.634    556.556    -23.921    556.129    556.440    556.129    556.245    556.129
 19.570    576.000    556.351     19.649    555.919    556.234    555.919    556.036    555.919
 19.670    591.706    556.144     35.562    555.706    556.026    555.706    555.824    555.706
 19.770    595.997    555.936     40.061    555.491    555.817    555.491    555.610    555.491
 19.870    542.735    555.725    -12.990    555.274    555.605    555.274    555.394    555.274
 19.970    526.000    555.512    -29.512    555.054    555.391    555.054    555.175    555.054
 20.070    590.000    555.297     34.703    554.832    555.175    554.832    554.954    554.832
 20.170    538.000    555.082    -17.082    554.607    554.959    554.607    554.731    554.607
 20.270    525.667    554.879    -29.212    554.381    554.755    554.381    554.505    554.381
 20.370    514.000    554.666    -40.666    554.152    554.540    554.152    554.277    554.152
 20.470    518.000    554.444    -36.444    553.921    554.318    553.921    554.047    553.921
 20.570    562.000    554.221      7.779    553.687    554.093    553.687    553.815    553.687
 20.670    584.032    553.996     30.036    553.452    553.867    553.452    553.581    553.452
 20.770    519.065    553.769    -34.704    553.214    553.639    553.214    553.344    553.214
 20.870    600.717    553.541     47.176    552.975    553.410    552.975    553.106    552.975
 20.970    536.000    553.312    -17.312    552.733    553.179    552.733    552.866    552.733
 21.070    522.211    553.082    -30.871    552.489    552.948    552.489    552.624    552.489
 21.170    510.898    552.850    -41.952    552.244    552.715    552.244    552.380    552.244
 21.270    520.000    552.618    -32.618    551.997    552.481    551.997    552.134    551.997
 21.370    541.000    552.384    -11.384    551.747    552.246    551.747    551.886    551.747
 21.470    523.317    552.150    -28.833    551.496    552.010    551.496    551.636    551.496
 21.570    511.000    551.916    -40.916    551.243    551.774    551.243    551.385    551.243
 21.670    562.518    551.681     10.837    550.989    551.537    550.989    551.132    550.989
 21.770    588.000    551.445     36.555    550.732    551.301    550.732    550.877    550.732
 21.870    581.000    551.210     29.790    550.474    551.063    550.474    550.621    550.474
 21.970    553.000    550.984      2.016    550.214    550.836    550.214    550.363    550.214
 22.070    549.000    550.842     -1.842    549.953    550.692    549.953    550.103    549.953
 22.170    562.000    550.621     11.379    549.690    550.469    549.690    549.842    549.690
 22.270    555.000    550.389      4.611    549.426    550.235    549.426    549.580    549.426
 22.370    541.000    550.158     -9.158    549.160    550.002    549.160    549.316    549.160
 22.470    544.000    549.933     -5.933    548.892    549.775    548.892    549.050    548.892
 22.570    564.654    549.747     14.907    548.623    549.587    548.623    548.783    548.623
 22.670    519.000    549.537    -30.537    548.353    549.375    548.353    548.515    548.353
 22.770    542.000    549.320     -7.320    548.081    549.156    548.081    548.246    548.081
 22.870    539.591    549.108     -9.517    547.808    548.941    547.808    547.975    547.808
 22.970    577.000    548.902     28.098    547.534    548.733    547.534    547.703    547.534
 23.070    557.677    548.706      8.971    547.258    548.534    547.258    547.430    547.258
 23.170    579.349    548.533     30.817    546.981    548.356    546.981    547.158    546.981
 23.270    555.000    548.415      6.585    546.703    548.235    546.703    546.884    546.703
 23.370    574.000    548.267     25.733    546.423    548.083    546.423    546.607    546.423
 23.470    535.000    548.136    -13.136    546.143    547.949    546.143    546.330    546.143
 23.570    589.000    548.035     40.965    545.861    547.846    545.861    546.051    545.861
 23.670    583.000    547.976     35.024    545.578    547.783    545.578    545.772    545.578
 23.770    547.000    547.973     -0.973    545.294    547.777    545.294    545.491    545.294
 23.870    577.000    548.049     28.951    545.009    547.850    545.009    545.210    545.009
 23.970    557.000    548.244      8.756    544.723    548.041    544.723    544.928    544.723
 24.070    597.038    548.642     48.396    544.436    548.436    544.436    544.645    544.436
 24.170    582.000    549.472     32.528    544.149    549.263    544.149    544.361    544.149
 24.270    555.995    551.381      4.614    543.860    551.168    543.860    544.077    543.860
 24.370    588.692    555.894     32.797    543.570    555.681    543.570    543.792    543.570
 24.470    613.000    565.616     47.384    543.280    565.405    543.280    543.506    543.280
 24.570    602.443    582.985     19.458    542.988    582.781    542.988    543.219    542.988
 24.670    613.000    606.831      6.169    542.696    606.639    542.696    542.933    542.696
 24.770    603.000    628.571    -25.571    542.403    628.389    542.403    542.645    542.403
 24.870    617.000    634.378    -17.378    542.109    634.196    542.109    542.357    542.109
 24.970    678.000    619.008     58.992    541.815    618.808    541.815    542.069    541.815
 25.070    595.105    593.871      1.235    541.520    593.646    541.520    541.781    541.520
 25.170    553.000    571.881    -18.881    541.224    571.633    541.224    541.492    541.224
 25.270    546.010    557.826    -11.816    540.928    557.562    540.928    541.203    540.928
 25.370    535.590    550.540    -14.950    540.631    550.262    540.631    540.914    540.631
 25.470    506.000    547.122    -41.122    540.333    546.834    540.333    540.625    540.333
 25.570    552.000    545.426      6.574    540.035    545.127    540.035    540.336    540.035
 25.670    569.000    544.411     24.589    539.736    544.102    539.736    540.047    539.736
 25.770    585.000    543.677     41.323    539.437    543.357    539.437    539.758    539.437
 25.870    550.000    543.114      6.886    539.137    542.782    539.137    539.470    539.137
 25.970    562.000    542.638     19.362    538.837    542.294    538.837    539.182    538.837
 26.070    500.848    542.239    -41.391    538.537    541.883    538.537    538.894    538.537
 26.170    505.930    541.902    -35.972    538.236    541.531    538.236    538.607    538.236
 26.270    520.061    541.621    -21.559    537.934    541.234    537.934    538.321    537.934
 26.370    544.000    541.388      2.612    537.633    540.985    537.633    538.036    537.633
 26.470    537.226    541.199     -3.973    537.331    540.778    537.331    537.752    537.331
 26.570    547.515    541.056      6.459    537.028    540.615    537.028    537.469    537.028
 26.670    555.359    540.964     14.395    536.726    540.501    536.726    537.188    536.726
 26.770    518.000    540.928    -22.928    536.423    540.442    536.423    536.909    536.423
 26.870    588.000    540.961     47.039    536.120    540.448    536.120    536.632    536.120
 26.970    505.492    541.086    -35.594    535.817    540.544    535.817    536.358    535.817
 27.070    586.000    541.348     44.652    535.514    540.774    535.514    536.087    535.514
 27.170    560.000    541.722     18.278    535.210    541.112    535.210    535.819    535.210
 27.270    575.196    542.258     32.938    534.906    541.608    534.906    535.556    534.906
 27.370    585.553    543.045     42.509    534.603    542.349    534.603    535.297    534.603
 27.470    492.000    544.210    -52.210    534.299    543.463    534.299    535.044    534.299
 27.570    541.334    546.048     -4.714    533.995    545.243    533.995    534.798    533.995
 27.670    618.000    549.588     68.412    533.691    548.715    533.691    534.561    533.691
 27.770    550.000    558.420     -8.420    533.387    557.467    533.387    534.333    533.387
 27.870    596.000    582.184     13.816    533.083    581.134    533.083    534.118    533.083
 27.970    635.000    637.542     -2.542    532.779    636.370    532.779    533.917    532.779
 28.070    716.772    736.198    -19.426    532.476    734.874    532.476    533.734    532.476
 28.170    892.000    858.426     33.574    532.172    856.931    532.172    533.575    532.172
 28.270    928.000    939.885    -11.885    531.868    938.215    531.868    533.444    531.868
 28.370    929.000    920.876      8.124    531.565    919.027    531.565    533.350    531.565
 28.470    800.213    824.180    -23.967    531.261    822.107    531.261    533.305    531.261
 28.570    721.000    727.631     -6.631    530.958    725.250    530.958    533.326    530.958
 28.670    664.000    688.901    -24.901    530.655    686.099    530.655    533.444    530.655
 28.770    669.602    717.836    -48.234    530.353    714.457    530.353    533.710    530.353
 28.870    758.000    783.847    -25.847    530.050    779.650    530.050    534.221    530.050
 28.970    784.000    830.714    -46.714    529.748    825.302    529.748    535.142    529.748
 29.070    856.000    813.525     42.475    529.446    806.237    529.446    536.733    529.446
 29.170    663.000    744.080    -81.080    529.144    733.899    529.144    539.336    529.144
 29.270    643.000    667.530    -24.530    528.843    653.078    528.843    543.306    528.843
 29.370    592.000    614.697    -22.697    528.542    594.408    528.542    548.838    528.542
 29.470    608.356    589.716     18.640    528.241    562.306    528.241    555.654    528.241
 29.570    591.000    582.385      8.615    527.941    547.804    527.941    562.521    527.941
 29.670    607.000    580.983     26.017    527.641    541.611    527.641    567.011    527.641
 29.770    667.000    578.009     88.991    527.341    538.594    527.341    566.754    527.341
 29.870    621.000    571.451     49.549    527.042    536.767    527.042    561.724    527.042
 29.970    585.000    563.035     21.965    526.743    535.503    526.743    554.273    526.743
 30.070    557.000    555.015      1.985    526.445    534.613    526.445    546.845    526.445
 30.170    547.000    548.587     -1.587    526.147    534.038    526.147    540.694    526.147
 30.270    584.000    544.094     39.906    525.850    533.838    525.850    536.104    525.850
 30.370    565.000    541.650     23.350    525.554    534.314    525.554    532.886    525.554
