neutron_powder_diffraction_0115
R_wp: 3.845
Temperature (K): 962.274
Counts: 83685.00
Wavelength (Ã…): 2.52098
COMMENTS
Test file for demonstrating the .xyy file format in Reel1.0
END OF HEADER
   tth       Y_obs     Y_calc      Y_res    Background    Phase_1_Nuc    Phase_1_Mag    Phase_2_Nuc    Phase_2_Mag
  9.970    600.000    557.510     42.490    556.338    557.307    556.338    556.542    556.338
 10.070    562.000    557.894      4.106    556.638    557.689    556.638    556.842    556.638
 10.170    532.357    558.281    -25.924    556.930    558.075    556.930    557.135    556.930
 10.270    597.000    558.673     38.327    557.212    558.467    557.212    557.418    557.212
 10.370    562.000    559.074      2.926    557.487    558.867    557.487    557.693    557.487
 10.470    596.000    559.488     36.512    557.752    559.280    557.752    557.960    557.752
 10.570    532.991    559.920    -26.929    558.010    559.711    558.010    558.218    558.010
 10.670    597.000    560.377     36.623    558.259    560.166    558.259    558.468    558.259
 10.770    564.386    560.867      3.519    558.499    560.656    558.499    558.710    558.499
 10.870    543.204    561.404    -18.200    558.732    561.192    558.732    558.943    558.732
 10.970    551.000    562.007    -11.007    558.957    561.794    558.957    559.168    558.957
 11.070    600.000    562.693     37.307    559.173    562.478    559.173    559.386    559.173
 11.170    579.173    563.499     15.674    559.382    563.283    559.382    559.595    559.382
 11.270    585.000    564.481     20.519    559.582    564.263    559.582    559.797    559.582
 11.370    578.000    565.735     12.265    559.775    565.517    559.775    559.991    559.775
 11.470    532.129    567.476    -35.347    559.960    567.256    559.960    560.177    559.960
 11.570    557.000    570.216    -13.216    560.138    569.993    560.138    560.355    560.138
 11.670    590.000    575.121     14.879    560.308    574.894    560.308    560.526    560.308
 11.770    581.851    584.372     -2.522    560.470    584.140    560.470    560.689    560.470
 11.870    663.000    600.902     62.098    560.625    600.659    560.625    560.845    560.625
 11.970    668.000    626.621     41.379    560.772    626.364    560.772    560.993    560.772
 12.070    691.000    658.838     32.162    560.912    658.561    560.912    561.134    560.912
 12.170    645.896    686.399    -40.503    561.045    686.106    561.045    561.268    561.045
 12.270    700.000    692.829      7.171    561.171    692.532    561.171    561.395    561.171
 12.370    725.000    672.925     52.075    561.289    672.638    561.289    561.515    561.289
 12.470    621.000    640.711    -19.711    561.401    640.441    561.401    561.627    561.401
 12.570    594.000    611.494    -17.494    561.505    611.239    561.505    561.733    561.505
 12.670    595.652    591.293      4.359    561.603    591.048    561.603    561.831    561.603
 12.770    558.000    579.576    -21.576    561.694    579.337    561.694    561.923    561.694
 12.870    534.000    573.455    -39.455    561.777    573.218    561.777    562.008    561.777
 12.970    581.000    570.286     10.714    561.855    570.050    561.855    562.086    561.855
 13.070    573.000    568.489      4.511    561.925    568.253    561.925    562.158    561.925
 13.170    555.000    567.333    -12.333    561.989    567.096    561.989    562.223    561.989
 13.270    587.000    566.515     20.485    562.046    566.278    562.046    562.281    562.046
 13.370    565.000    565.908     -0.908    562.097    565.670    562.097    562.333    562.097
 13.470    526.000    565.440    -39.440    562.142    565.201    562.142    562.379    562.142
 13.570    538.000    565.072    -27.072    562.180    564.833    562.180    562.418    562.180
 13.670    552.000    564.778    -12.778    562.212    564.537    562.212    562.451    562.212
 13.770    568.653    564.538      4.115    562.238    564.296    562.238    562.478    562.238
 13.870    578.000    564.338     13.662    562.257    564.096    562.257    562.499    562.257
 13.970    571.000    564.169      6.831    562.271    563.926    562.271    562.513    562.271
 14.070    530.000    564.024    -34.024    562.278    563.780    562.278    562.522    562.278
 14.170    518.000    563.896    -45.896    562.279    563.650    562.279    562.525    562.279
 14.270    543.000    563.780    -20.780    562.275    563.533    562.275    562.521    562.275
 14.370    543.000    563.674    -20.674    562.265    563.426    562.265    562.512    562.265
 14.470    546.572    563.575    -17.003    562.248    563.326    562.248    562.498    562.248
 14.570    536.790    563.481    -26.691    562.227    563.230    562.227    562.477    562.227
 14.670    576.000    563.391     12.609    562.199    563.139    562.199    562.451    562.199
 14.770    550.000    563.302    -13.302    562.166    563.049    562.166    562.419    562.166
 14.870    569.000    563.215      5.785    562.127    562.960    562.127    562.382    562.127
 14.970    519.000    563.127    -44.127    562.083    562.872    562.083    562.339    562.083
 15.070    597.773    563.040     34.733    562.034    562.782    562.034    562.291    562.034
 15.170    543.000    562.951    -19.951    561.979    562.692    561.979    562.237    561.979
 15.270    531.000    562.860    -31.860    561.919    562.600    561.919    562.178    561.919
 15.370    575.000    562.768     12.232    561.853    562.506    561.853    562.114    561.853
 15.470    574.000    562.675     11.325    561.782    562.412    561.782    562.045    561.782
 15.570    535.000    562.599    -27.599    561.707    562.334    561.707    561.971    561.707
 15.670    538.000    562.506    -24.506    561.626    562.240    561.626    561.891    561.626
 15.770    546.000    562.407    -16.407    561.540    562.140    561.540    561.807    561.540
 15.870    524.238    562.302    -38.063    561.449    562.033    561.449    561.718    561.449
 15.970    520.000    562.193    -42.193    561.353    561.922    561.353    561.623    561.353
 16.070    586.000    562.080     23.920    561.253    561.808    561.253    561.524    561.253
 16.170    539.000    561.964    -22.964    561.147    561.690    561.147    561.420    561.147
 16.270    596.043    561.844     34.199    561.037    561.569    561.037    561.312    561.037
 16.370    556.499    561.721     -5.222    560.922    561.444    560.922    561.199    560.922
 16.470    540.000    561.594    -21.594    560.803    561.316    560.803    561.081    560.803
 16.570    562.000    561.464      0.536    560.679    561.184    560.679    560.959    560.679
 16.670    524.258    561.330    -37.071    560.550    561.048    560.550    560.832    560.550
 16.770    520.219    561.194    -40.975    560.417    560.911    560.417    560.700    560.417
 16.870    585.834    561.078     24.757    560.280    560.792    560.280    560.565    560.280
 16.970    565.000    561.030      3.970    560.138    560.743    560.138    560.425    560.138
 17.070    541.000    560.891    -19.891    559.992    560.602    559.992    560.280    559.992
 17.170    532.253    560.739    -28.486    559.842    560.449    559.842    560.132    559.842
 17.270    553.000    560.583     -7.583    559.687    560.291    559.687    559.979    559.687
 17.370    526.129    560.424    -34.295    559.529    560.131    559.529    559.823    559.529
 17.470    597.000    560.262     36.738    559.366    559.966    559.366    559.662    559.366
 17.570    550.382    560.096     -9.714    559.199    559.798    559.199    559.497    559.199
 17.670    537.000    559.930    -22.930    559.028    559.630    559.028    559.328    559.028
 17.770    572.000    559.761     12.239    558.854    559.459    558.854    559.155    558.854
 17.870    594.336    559.585     34.751    558.675    559.281    558.675    558.979    558.675
 17.970    504.000    559.405    -55.405    558.493    559.099    558.493    558.799    558.493
 18.070    554.000    559.222     -5.222    558.306    558.914    558.306    558.614    558.306
 18.170    520.000    559.036    -39.036    558.117    558.726    558.117    558.427    558.117
 18.270    561.426    558.846      2.579    557.923    558.534    557.923    558.235    557.923
 18.370    522.000    558.653    -36.653    557.726    558.339    557.726    558.040    557.726
 18.470    523.000    558.457    -35.457    557.525    558.141    557.525    557.842    557.525
 18.570    576.406    558.258     18.147    557.321    557.939    557.321    557.640    557.321
 18.670    545.000    558.056    -13.056    557.113    557.735    557.113    557.434    557.113
 18.770    581.000    557.851     23.149    556.901    557.528    556.901    557.225    556.901
 18.870    549.015    557.643     -8.628    556.687    557.317    556.687    557.013    556.687
 18.970    535.853    557.433    -21.579    556.469    557.104    556.469    556.797    556.469
 19.070    543.427    557.219    -13.792    556.248    556.888    556.248    556.579    556.248
 19.170    563.000    557.004      5.996    556.023    556.671    556.023    556.357    556.023
 19.270    587.504    556.786     30.718    555.795    556.450    555.795    556.132    555.795
 19.370    534.000    556.578    -22.578    555.564    556.239    555.564    555.903    555.564
 19.470    577.479    556.413     21.067    555.330    556.071    555.330    555.672    555.330
 19.570    581.000    556.194     24.806    555.093    555.850    555.093    555.438    555.093
 19.670    574.000    555.968     18.032    554.853    555.620    554.853    555.201    554.853
 19.770    601.318    555.737     45.582    554.610    555.386    554.610    554.961    554.610
 19.870    546.000    555.503     -9.503    554.365    555.150    554.365    554.718    554.365
 19.970    565.000    555.267      9.733    554.116    554.911    554.116    554.472    554.116
 20.070    519.000    555.029    -36.029    553.864    554.670    553.864    554.224    553.864
 20.170    576.000    554.789     21.211    553.610    554.427    553.610    553.972    553.610
 20.270    538.667    554.548    -15.881    553.353    554.182    553.353    553.718    553.353
 20.370    522.000    554.317    -32.317    553.093    553.948    553.093    553.462    553.093
 20.470    536.390    554.088    -17.698    552.830    553.716    552.830    553.203    552.830
 20.570    518.000    553.886    -35.886    552.565    553.510    552.565    552.941    552.565
 20.670    565.795    553.645     12.150    552.298    553.265    552.298    552.677    552.298
 20.770    561.000    553.395      7.605    552.028    553.012    552.028    552.411    552.028
 20.870    586.154    553.143     33.011    551.755    552.757    551.755    552.142    551.755
 20.970    517.320    552.891    -35.571    551.480    552.500    551.480    551.871    551.480
 21.070    545.606    552.639     -7.033    551.203    552.244    551.203    551.597    551.203
 21.170    571.000    552.403     18.597    550.923    552.005    550.923    551.322    550.923
 21.270    559.000    552.153      6.847    550.641    551.750    550.641    551.044    550.641
 21.370    574.000    551.897     22.103    550.357    551.490    550.357    550.764    550.357
 21.470    548.102    551.640     -3.539    550.070    551.229    550.070    550.482    550.070
 21.570    589.130    551.384     37.747    549.781    550.968    549.781    550.198    549.781
 21.670    571.234    551.127     20.107    549.491    550.707    549.491    549.911    549.491
 21.770    525.280    550.871    -25.591    549.198    550.446    549.198    549.623    549.198
 21.870    499.000    550.616    -51.616    548.903    550.186    548.903    549.333    548.903
 21.970    593.212    550.361     42.850    548.606    549.926    548.606    549.041    548.606
 22.070    549.576    550.108     -0.532    548.307    549.668    548.307    548.748    548.307
 22.170    559.995    549.860     10.135    548.006    549.414    548.006    548.452    548.006
 22.270    544.000    549.637     -5.637    547.703    549.185    547.703    548.155    547.703
 22.370    558.001    549.401      8.600    547.398    548.944    547.398    547.856    547.398
 22.470    544.971    549.185     -4.214    547.092    548.721    547.092    547.556    547.092
 22.570    585.013    548.952     36.060    546.784    548.483    546.784    547.254    546.784
 22.670    581.911    548.724     33.187    546.474    548.248    546.474    546.950    546.474
 22.770    579.000    548.510     30.490    546.162    548.028    546.162    546.645    546.162
 22.870    541.000    548.340     -7.340    545.849    547.851    545.849    546.338    545.849
 22.970    528.000    548.160    -20.160    545.534    547.664    545.534    546.031    545.534
 23.070    535.000    547.987    -12.987    545.217    547.483    545.217    545.721    545.217
 23.170    562.482    547.825     14.657    544.899    547.314    544.899    545.411    544.899
 23.270    516.528    547.703    -31.174    544.580    547.184    544.580    545.099    544.580
 23.370    537.000    547.633    -10.633    544.259    547.106    544.259    544.786    544.259
 23.470    570.280    547.563     22.718    543.936    547.028    543.936    544.473    543.936
 23.570    531.000    547.539    -16.539    543.612    546.995    543.612    544.158    543.612
 23.670    568.000    547.583     20.417    543.287    547.031    543.287    543.842    543.287
 23.770    546.821    547.727     -0.906    542.961    547.165    542.961    543.525    542.961
 23.870    535.000    547.997    -12.997    542.633    547.425    542.633    543.207    542.633
 23.970    542.000    548.477     -6.477    542.304    547.895    542.304    542.888    542.304
 24.070    539.209    549.349    -10.141    541.974    548.758    541.974    542.569    541.974
 24.170    508.875    550.968    -42.093    541.642    550.366    541.642    542.249    541.642
 24.270    587.000    554.166     32.834    541.309    553.554    541.309    541.928    541.309
 24.370    551.509    560.347     -8.838    540.976    559.728    540.976    541.607    540.976
 24.470    548.891    571.216    -22.325    540.641    570.592    540.641    541.286    540.641
 24.570    580.877    587.654     -6.777    540.305    587.028    540.305    540.964    540.305
 24.670    623.401    607.685     15.716    539.968    607.059    539.968    540.641    539.968
 24.770    626.000    624.438      1.562    539.630    623.808    539.630    540.319    539.630
 24.870    638.000    628.158      9.842    539.291    627.516    539.291    539.996    539.291
 24.970    665.000    615.733     49.267    538.952    615.065    538.952    539.673    538.952
 25.070    568.748    595.280    -26.532    538.611    594.580    538.611    539.351    538.611
 25.170    543.364    576.070    -32.707    538.270    575.337    538.270    539.028    538.270
 25.270    525.033    562.137    -37.105    537.928    561.374    537.928    538.706    537.928
 25.370    590.000    553.549     36.451    537.585    552.759    537.585    538.384    537.585
 25.470    523.000    548.741    -25.741    537.241    547.924    537.241    538.063    537.241
 25.570    553.818    546.071      7.746    536.896    545.229    536.896    537.743    536.896
 25.670    569.000    544.459     24.541    536.551    543.591    536.551    537.423    536.551
 25.770    537.840    543.358     -5.518    536.205    542.462    536.205    537.104    536.205
 25.870    524.171    542.531    -18.360    535.859    541.605    535.859    536.787    535.859
 25.970    515.000    541.876    -26.876    535.512    540.918    535.512    536.471    535.512
 26.070    571.000    541.345     29.655    535.164    540.354    535.164    536.156    535.164
 26.170    624.000    540.911     83.089    534.816    539.885    534.816    535.844    534.816
 26.270    559.000    540.559     18.441    534.468    539.494    534.468    535.533    534.468
 26.370    573.000    540.279     32.721    534.119    539.173    534.119    535.225    534.119
 26.470    539.280    540.067     -0.787    533.769    538.916    533.769    534.920    533.769
 26.570    547.961    539.923      8.038    533.419    538.724    533.419    534.618    533.419
 26.670    536.000    539.850     -3.850    533.069    538.600    533.069    534.319    533.069
 26.770    546.000    539.858      6.142    532.718    538.551    532.718    534.025    532.718
 26.870    515.000    539.958    -24.958    532.367    538.590    532.367    533.735    532.367
 26.970    553.000    540.170     12.830    532.016    538.735    532.016    533.450    532.016
 27.070    570.000    540.519     29.481    531.664    539.012    531.664    533.172    531.664
 27.170    569.560    541.046     28.514    531.313    539.459    531.313    532.899    531.313
 27.270    508.265    541.809    -33.544    530.961    540.135    530.961    532.635    530.961
 27.370    522.503    542.900    -20.398    530.608    541.129    530.608    532.378    530.608
 27.470    562.000    544.488     17.512    530.256    542.611    530.256    532.132    530.256
 27.570    557.913    547.006     10.907    529.904    545.012    529.904    531.896    529.904
 27.670    540.859    551.853    -10.995    529.551    549.729    529.551    531.672    529.551
 27.770    593.000    563.242     29.758    529.199    560.971    529.199    531.462    529.199
 27.870    608.000    590.814     17.186    528.846    588.376    528.846    531.266    528.846
 27.970    649.000    648.696      0.304    528.493    646.065    528.493    531.088    528.493
 28.070    754.000    743.822     10.178    528.141    740.969    528.141    530.929    528.141
 28.170    806.000    855.371    -49.371    527.788    852.282    527.788    530.790    527.788
 28.270    904.000    926.966    -22.966    527.435    923.639    527.435    530.674    527.435
 28.370    935.000    909.523     25.477    527.083    905.963    527.083    530.582    527.083
 28.470    817.000    825.436     -8.436    526.731    821.620    526.731    530.516    526.731
 28.570    775.000    741.895     33.105    526.378    737.782    526.378    530.477    526.378
 28.670    688.562    707.881    -19.319    526.026    703.429    526.026    530.465    526.026
 28.770    735.000    731.310      3.690    525.675    726.486    525.675    530.479    525.675
 28.870    805.000    785.193     19.807    525.323    779.979    525.323    530.517    525.323
 28.970    829.000    821.382      7.618    524.971    815.769    524.971    530.571    524.971
 29.070    805.000    802.437      2.563    524.620    796.426    524.620    530.634    524.620
 29.170    741.000    738.188      2.812    524.269    731.777    524.269    530.692    524.269
 29.270    655.000    665.115    -10.115    523.919    658.318    523.919    530.729    523.919
 29.370    591.000    608.827    -17.827    523.569    601.679    523.569    530.726    523.569
 29.470    585.281    574.999     10.282    523.219    567.562    523.219    530.662    523.219
 29.570    585.000    557.852     27.148    522.869    550.208    522.869    530.515    522.869
 29.670    609.000    549.725     59.275    522.520    541.975    522.520    530.272    522.520
 29.770    617.000    545.549     71.451    522.171    537.799    522.171    529.922    522.171
 29.870    564.076    542.964     21.112    521.823    535.320    521.823    529.467    521.823
 29.970    543.000    541.098      1.902    521.476    533.658    521.476    528.915    521.476
 30.070    507.000    539.672    -32.672    521.128    532.516    521.128    528.284    521.128
 30.170    539.000    538.637      0.363    520.782    531.826    520.782    527.592    520.782
 30.270    543.000    538.112      4.888    520.435    531.685    520.435    526.861    520.435
 30.370    555.000    538.510     16.490    520.090    532.487    520.090    526.110    520.090
