neutron_powder_diffraction_0143
R_wp: 4.249
Temperature (K): 1074.000
Counts: 83255.00
Wavelength (Ã…): 2.52098
COMMENTS
Test file for demonstrating the .xyy file format in Reel1.0
END OF HEADER
   tth       Y_obs     Y_calc      Y_res    Background    Phase_1_Nuc    Phase_1_Mag    Phase_2_Nuc    Phase_2_Mag
  9.970    595.000    573.302     21.698    572.470    573.240    572.470    572.531    572.470
 10.070    570.000    573.412     -3.412    572.511    573.349    572.511    572.574    572.511
 10.170    519.461    573.525    -54.063    572.547    573.461    572.547    572.610    572.547
 10.270    629.282    573.644     55.639    572.578    573.580    572.578    572.641    572.578
 10.370    586.000    573.772     12.228    572.603    573.708    572.603    572.666    572.603
 10.470    623.000    573.913     49.087    572.622    573.848    572.622    572.686    572.622
 10.570    567.000    574.071     -7.071    572.637    574.006    572.637    572.701    572.637
 10.670    580.618    574.251      6.367    572.646    574.186    572.646    572.710    572.646
 10.770    613.000    574.460     38.540    572.650    574.395    572.650    572.714    572.650
 10.870    589.000    574.710     14.290    572.649    574.644    572.649    572.713    572.649
 10.970    607.000    575.014     31.986    572.642    574.948    572.642    572.707    572.642
 11.070    603.088    575.394     27.694    572.631    575.327    572.631    572.696    572.631
 11.170    619.449    575.879     43.569    572.615    575.812    572.615    572.680    572.615
 11.270    612.000    576.517     35.483    572.594    576.449    572.594    572.659    572.594
 11.370    547.000    577.390    -30.390    572.567    577.321    572.567    572.634    572.567
 11.470    594.000    578.686     15.314    572.537    578.616    572.537    572.603    572.537
 11.570    632.000    580.899     51.101    572.501    580.828    572.501    572.568    572.501
 11.670    616.409    585.291     31.118    572.461    585.217    572.461    572.528    572.461
 11.770    637.000    594.453     42.547    572.415    594.373    572.415    572.483    572.415
 11.870    653.000    612.083     40.917    572.366    611.993    572.366    572.433    572.366
 11.970    656.000    640.526     15.474    572.311    640.420    572.311    572.379    572.311
 12.070    716.000    675.747     40.253    572.253    675.620    572.253    572.321    572.253
 12.170    698.000    702.874     -4.874    572.189    702.732    572.189    572.258    572.189
 12.270    672.000    703.685    -31.685    572.122    703.542    572.122    572.190    572.122
 12.370    643.000    677.415    -34.415    572.049    677.287    572.049    572.119    572.049
 12.470    636.000    641.959     -5.959    571.973    641.850    571.973    572.042    571.973
 12.570    624.000    612.813     11.187    571.892    612.720    571.892    571.962    571.892
 12.670    551.505    594.508    -43.003    571.807    594.425    571.807    571.877    571.807
 12.770    601.000    584.876     16.124    571.718    584.798    571.718    571.789    571.718
 12.870    538.117    580.193    -42.075    571.625    580.117    571.625    571.695    571.625
 12.970    546.000    577.783    -31.783    571.527    577.708    571.527    571.598    571.527
 13.070    545.000    576.328    -31.328    571.426    576.254    571.426    571.497    571.426
 13.170    588.349    575.311     13.038    571.320    575.237    571.320    571.392    571.320
 13.270    554.000    574.536    -20.536    571.211    574.462    571.211    571.283    571.211
 13.370    582.000    573.917      8.083    571.097    573.843    571.097    571.170    571.097
 13.470    501.000    573.407    -72.407    570.980    573.333    570.980    571.053    570.980
 13.570    564.000    572.974     -8.974    570.859    572.900    570.859    570.932    570.859
 13.670    540.298    572.602    -32.304    570.734    572.527    570.734    570.808    570.734
 13.770    539.496    572.270    -32.774    570.606    572.195    570.606    570.680    570.606
 13.870    624.945    571.969     52.977    570.473    571.894    570.473    570.548    570.473
 13.970    565.000    571.692     -6.692    570.337    571.616    570.337    570.412    570.337
 14.070    594.621    571.433     23.187    570.198    571.358    570.198    570.273    570.198
 14.170    553.000    571.189    -18.189    570.055    571.113    570.055    570.130    570.055
 14.270    616.394    570.956     45.439    569.908    570.880    569.908    569.984    569.908
 14.370    522.805    570.731    -47.927    569.758    570.654    569.758    569.834    569.758
 14.470    584.940    570.513     14.428    569.605    570.436    569.605    569.681    569.605
 14.570    595.000    570.299     24.701    569.448    570.222    569.448    569.525    569.448
 14.670    537.000    570.090    -33.090    569.287    570.012    569.287    569.365    569.287
 14.770    554.000    569.883    -15.883    569.124    569.805    569.124    569.202    569.124
 14.870    552.000    569.677    -17.677    568.957    569.599    568.957    569.035    568.957
 14.970    534.968    569.473    -34.505    568.787    569.394    568.787    568.866    568.787
 15.070    566.000    569.270     -3.270    568.614    569.190    568.614    568.693    568.614
 15.170    600.000    569.066     30.934    568.437    568.987    568.437    568.517    568.437
 15.270    588.468    568.863     19.605    568.258    568.783    568.258    568.338    568.258
 15.370    549.000    568.659    -19.659    568.076    568.578    568.076    568.156    568.076
 15.470    534.000    568.454    -34.454    567.890    568.373    567.890    567.971    567.890
 15.570    522.579    568.248    -45.669    567.702    568.167    567.702    567.783    567.702
 15.670    567.000    568.041     -1.041    567.510    567.959    567.510    567.592    567.510
 15.770    559.000    567.833     -8.833    567.316    567.750    567.316    567.398    567.316
 15.870    556.121    567.623    -11.502    567.119    567.540    567.119    567.202    567.119
 15.970    556.676    567.413    -10.737    566.919    567.328    566.919    567.004    566.919
 16.070    571.000    567.201      3.799    566.716    567.115    566.716    566.803    566.716
 16.170    569.028    566.989      2.038    566.511    566.902    566.511    566.598    566.511
 16.270    559.000    566.773     -7.773    566.303    566.686    566.303    566.390    566.303
 16.370    583.000    566.555     16.445    566.092    566.467    566.092    566.180    566.092
 16.470    601.316    566.335     34.980    565.879    566.247    565.879    565.967    565.879
 16.570    533.000    566.114    -33.114    565.663    566.025    565.663    565.752    565.663
 16.670    502.000    565.890    -63.890    565.445    565.801    565.445    565.534    565.445
 16.770    577.000    565.665     11.335    565.224    565.575    565.224    565.313    565.224
 16.870    561.000    565.438     -4.438    565.000    565.347    565.000    565.091    565.000
 16.970    597.000    565.209     31.791    564.774    565.118    564.774    564.865    564.774
 17.070    589.000    564.979     24.021    564.546    564.888    564.546    564.638    564.546
 17.170    590.471    564.747     25.724    564.316    564.654    564.316    564.408    564.316
 17.270    591.000    564.512     26.488    564.083    564.419    564.083    564.176    564.083
 17.370    556.000    564.275     -8.275    563.848    564.182    563.848    563.941    563.848
 17.470    551.000    564.037    -13.037    563.611    563.943    563.611    563.705    563.611
 17.570    520.000    563.797    -43.797    563.371    563.702    563.371    563.466    563.371
 17.670    574.212    563.555     10.657    563.129    563.460    563.129    563.225    563.129
 17.770    541.000    563.312    -22.312    562.886    563.216    562.886    562.981    562.886
 17.870    567.000    563.066      3.934    562.640    562.970    562.640    562.736    562.640
 17.970    595.000    562.819     32.181    562.392    562.722    562.392    562.489    562.392
 18.070    576.000    562.570     13.430    562.142    562.473    562.142    562.240    562.142
 18.170    529.000    562.320    -33.320    561.890    562.221    561.890    561.989    561.890
 18.270    531.000    562.068    -31.068    561.636    561.969    561.636    561.735    561.636
 18.370    537.000    561.814    -24.814    561.381    561.714    561.381    561.480    561.381
 18.470    548.000    561.560    -13.560    561.123    561.460    561.123    561.224    561.123
 18.570    587.234    561.318     25.917    560.864    561.217    560.864    560.965    560.864
 18.670    562.000    561.070      0.930    560.602    560.968    560.602    560.704    560.602
 18.770    598.311    560.812     37.499    560.339    560.709    560.339    560.442    560.339
 18.870    580.000    560.551     19.449    560.074    560.447    560.074    560.178    560.074
 18.970    548.000    560.289    -12.289    559.808    560.184    559.808    559.912    559.808
 19.070    588.000    560.025     27.975    559.540    559.920    559.540    559.645    559.540
 19.170    535.000    559.760    -24.760    559.270    559.654    559.270    559.376    559.270
 19.270    594.000    559.494     34.506    558.999    559.387    558.999    559.106    558.999
 19.370    538.206    559.227    -21.021    558.726    559.119    558.726    558.834    558.726
 19.470    539.000    558.958    -19.958    558.451    558.850    558.451    558.560    558.451
 19.570    521.000    558.689    -37.689    558.176    558.579    558.176    558.285    558.176
 19.670    554.524    558.418     -3.894    557.898    558.308    557.898    558.008    557.898
 19.770    592.000    558.146     33.854    557.619    558.035    557.619    557.731    557.619
 19.870    526.000    557.874    -31.874    557.339    557.761    557.339    557.451    557.339
 19.970    559.982    557.600      2.382    557.057    557.487    557.057    557.171    557.057
 20.070    509.643    557.326    -47.683    556.774    557.212    556.774    556.889    556.774
 20.170    570.000    557.051     12.949    556.490    556.935    556.490    556.605    556.490
 20.270    560.033    556.775      3.258    556.205    556.659    556.205    556.321    556.205
 20.370    545.000    556.498    -11.498    555.918    556.381    555.918    556.035    555.918
 20.470    555.000    556.221     -1.221    555.630    556.103    555.630    555.748    555.630
 20.570    536.000    555.944    -19.944    555.341    555.824    555.341    555.460    555.341
 20.670    558.992    555.665      3.327    555.050    555.545    555.050    555.171    555.050
 20.770    576.046    555.387     20.658    554.759    555.265    554.759    554.881    554.759
 20.870    529.000    555.120    -26.120    554.466    554.997    554.466    554.589    554.466
 20.970    557.303    554.930      2.373    554.172    554.806    554.172    554.297    554.172
 21.070    580.000    554.674     25.326    553.878    554.548    553.878    554.003    553.878
 21.170    508.158    554.396    -46.238    553.582    554.269    553.582    553.709    553.582
 21.270    562.000    554.118      7.882    553.285    553.990    553.285    553.414    553.285
 21.370    540.000    553.840    -13.840    552.988    553.710    552.988    553.118    552.988
 21.470    541.000    553.562    -12.562    552.689    553.431    552.689    552.820    552.689
 21.570    508.000    553.286    -45.286    552.390    553.153    552.390    552.522    552.390
 21.670    595.000    553.010     41.990    552.090    552.876    552.090    552.224    552.090
 21.770    597.363    552.735     44.628    551.788    552.599    551.788    551.924    551.788
 21.870    512.638    552.466    -39.828    551.487    552.329    551.487    551.624    551.487
 21.970    556.173    552.240      3.933    551.184    552.101    551.184    551.323    551.184
 22.070    539.000    551.989    -12.989    550.880    551.849    550.880    551.021    550.880
 22.170    540.000    551.725    -11.725    550.576    551.583    550.576    550.719    550.576
 22.270    536.000    551.482    -15.482    550.271    551.338    550.271    550.416    550.271
 22.370    552.000    551.248      0.752    549.966    551.102    549.966    550.112    549.966
 22.470    555.000    550.996      4.004    549.660    550.848    549.660    549.808    549.660
 22.570    514.537    550.745    -36.208    549.353    550.595    549.353    549.503    549.353
 22.670    532.000    550.500    -18.500    549.046    550.348    549.046    549.198    549.046
 22.770    592.669    550.262     42.406    548.738    550.108    548.738    548.892    548.738
 22.870    548.318    550.033     -1.715    548.429    549.877    548.429    548.586    548.429
 22.970    513.000    549.815    -36.815    548.120    549.657    548.120    548.279    548.120
 23.070    559.000    549.610      9.390    547.811    549.449    547.811    547.972    547.811
 23.170    512.000    549.422    -37.422    547.501    549.258    547.501    547.665    547.501
 23.270    569.000    549.254     19.746    547.191    549.088    547.191    547.357    547.191
 23.370    551.847    549.113      2.734    546.880    548.945    546.880    547.049    546.880
 23.470    535.000    549.006    -14.006    546.569    548.835    546.569    546.741    546.569
 23.570    597.344    548.945     48.400    546.258    548.771    546.258    546.433    546.258
 23.670    510.000    548.944    -38.944    545.946    548.767    545.946    546.124    545.946
 23.770    527.000    549.027    -22.027    545.634    548.847    545.634    545.815    545.634
 23.870    544.000    549.231     -5.231    545.321    549.048    545.321    545.506    545.321
 23.970    593.000    549.630     43.370    545.009    549.444    545.009    545.197    545.009
 24.070    557.000    550.394      6.606    544.696    550.205    544.696    544.888    544.696
 24.170    536.000    551.952    -15.952    544.383    551.761    544.383    544.579    544.383
 24.270    551.419    555.334     -3.916    544.070    555.141    544.070    544.270    544.070
 24.370    589.431    562.404     27.027    543.756    562.212    543.756    543.961    543.756
 24.470    637.000    575.383     61.617    543.443    575.195    543.443    543.652    543.443
 24.570    586.000    594.959     -8.959    543.129    594.782    543.129    543.343    543.129
 24.670    653.553    617.205     36.348    542.816    617.039    542.816    543.034    542.816
 24.770    610.854    631.655    -20.801    542.502    631.494    542.502    542.726    542.502
 24.870    665.000    628.114     36.886    542.188    627.945    542.188    542.417    542.188
 24.970    636.000    609.329     26.671    541.874    609.141    541.874    542.109    541.874
 25.070    617.000    586.769     30.231    541.560    586.559    541.560    541.802    541.560
 25.170    575.000    568.726      6.274    541.246    568.496    541.246    541.495    541.246
 25.270    598.000    557.324     40.676    540.933    557.079    540.933    541.188    540.933
 25.370    531.000    551.127    -20.127    540.619    550.870    540.619    540.882    540.619
 25.470    563.000    547.934     15.066    540.305    547.667    540.305    540.576    540.305
 25.570    520.596    546.177    -25.581    539.992    545.900    539.992    540.271    539.992
 25.670    504.015    545.077    -41.061    539.679    544.790    539.679    539.967    539.679
 25.770    558.000    544.275     13.725    539.365    543.978    539.365    539.664    539.365
 25.870    543.000    543.624     -0.624    539.052    543.316    539.052    539.362    539.052
 25.970    566.749    543.092     23.657    538.740    542.772    538.740    539.060    538.740
 26.070    520.000    542.650    -22.650    538.427    542.318    538.427    538.760    538.427
 26.170    560.000    542.277     17.723    538.115    541.931    538.115    538.461    538.115
 26.270    515.689    541.975    -26.285    537.802    541.615    537.802    538.163    537.802
 26.370    566.000    541.740     24.260    537.491    541.364    537.491    537.867    537.491
 26.470    537.204    541.534     -4.330    537.179    541.140    537.179    537.573    537.179
 26.570    567.803    541.378     26.425    536.868    540.966    536.868    537.280    536.868
 26.670    543.541    541.279      2.262    536.557    540.846    536.557    536.990    536.557
 26.770    551.867    541.242     10.624    536.246    540.787    536.246    536.702    536.246
 26.870    490.235    541.282    -51.047    535.936    540.801    535.936    536.417    535.936
 26.970    609.000    541.416     67.584    535.627    540.908    535.627    536.135    535.627
 27.070    519.147    541.659    -22.512    535.317    541.120    535.317    535.856    535.317
 27.170    555.000    542.057     12.943    535.008    541.484    535.008    535.581    535.008
 27.270    558.000    542.653     15.347    534.700    542.041    534.700    535.311    534.700
 27.370    496.669    543.516    -46.847    534.392    542.861    534.392    535.046    534.392
 27.470    500.128    544.800    -44.671    534.084    544.095    534.084    534.787    534.084
 27.570    558.942    546.878     12.064    533.777    546.118    533.777    534.535    533.777
 27.670    496.351    551.115    -54.764    533.471    550.291    533.471    534.292    533.471
 27.770    571.000    562.232      8.768    533.165    561.331    533.165    534.059    533.165
 27.870    609.000    592.358     16.642    532.860    591.363    532.860    533.838    532.860
 27.970    686.000    660.612     25.388    532.555    659.498    532.555    533.631    532.555
 28.070    741.327    775.607    -34.281    532.251    774.346    532.251    533.442    532.251
 28.170    861.204    904.421    -43.216    531.947    902.995    531.947    533.275    531.947
 28.270   1000.608    967.834     32.774    531.644    966.247    531.644    533.137    531.644
 28.370    874.000    914.074    -40.074    531.342    912.323    531.342    533.035    531.342
 28.470    821.904    798.193     23.710    531.041    796.227    531.041    532.985    531.041
 28.570    685.000    708.680    -23.680    530.740    706.406    530.740    533.005    530.740
 28.670    702.000    690.822     11.178    530.439    688.121    530.439    533.127    530.439
 28.770    784.155    738.644     45.511    530.140    735.369    530.140    533.397    530.140
 28.870    834.546    809.963     24.583    529.841    805.914    529.841    533.878    529.841
 28.970    811.687    843.524    -31.837    529.543    838.421    529.543    534.650    529.543
 29.070    726.000    803.489    -77.489    529.246    796.948    529.246    535.801    529.246
 29.170    725.000    721.032      3.968    528.949    712.581    528.949    537.414    528.949
 29.270    675.452    644.627     30.825    528.654    633.761    528.654    539.528    528.654
 29.370    600.000    596.402      3.598    528.359    582.692    528.359    542.072    528.359
 29.470    570.000    573.756     -3.756    528.065    557.073    528.065    544.747    528.065
 29.570    544.074    565.183    -21.109    527.772    546.050    527.772    546.903    527.772
 29.670    527.100    561.439    -34.339    527.479    541.229    527.479    547.687    527.479
 29.770    558.000    558.116     -0.116    527.188    538.674    527.188    546.626    527.188
 29.870    566.000    554.206     11.794    526.897    537.026    526.897    544.075    526.897
 29.970    568.476    550.131     18.345    526.607    535.874    526.607    540.862    526.607
 30.070    549.101    546.460      2.641    526.319    535.088    526.319    537.688    526.319
 30.170    556.000    543.529     12.471    526.031    534.649    526.031    534.908    526.031
 30.270    570.000    541.561     28.439    525.744    534.678    525.744    532.624    525.744
 30.370    597.000    540.994     56.006    525.458    535.635    525.458    530.812    525.458
