neutron_powder_diffraction_0210
R_wp: 3.945
Temperature (K): 1074.100
Counts: 84245.00
Wavelength (Ã…): 2.52098
COMMENTS
Test file for demonstrating the .xyy file format in Reel1.0
END OF HEADER
   tth       Y_obs     Y_calc      Y_res    Background    Phase_1_Nuc    Phase_1_Mag    Phase_2_Nuc    Phase_2_Mag
  9.970    619.186    576.046     43.140    575.348    576.000    575.348    575.394    575.348
 10.070    578.000    576.102      1.898    575.347    576.055    575.347    575.394    575.347
 10.170    624.000    576.160     47.840    575.342    576.114    575.342    575.388    575.342
 10.270    609.339    576.224     33.115    575.331    576.177    575.331    575.377    575.331
 10.370    605.000    576.295     28.705    575.315    576.247    575.315    575.362    575.315
 10.470    607.828    576.375     31.453    575.294    576.328    575.294    575.342    575.294
 10.570    536.448    576.470    -40.022    575.269    576.421    575.269    575.317    575.269
 10.670    601.679    576.588     25.091    575.239    576.534    575.239    575.292    575.239
 10.770    577.000    576.726      0.274    575.204    576.671    575.204    575.258    575.204
 10.870    592.024    576.897     15.127    575.164    576.842    575.164    575.219    575.164
 10.970    600.791    577.114     23.677    575.120    577.058    575.120    575.175    575.120
 11.070    587.192    577.394      9.798    575.071    577.338    575.071    575.126    575.071
 11.170    596.910    577.763     19.146    575.018    577.706    575.018    575.073    575.018
 11.270    620.030    578.260     41.770    574.960    578.203    574.960    575.016    574.960
 11.370    627.000    578.953     48.047    574.898    578.895    574.898    574.954    574.898
 11.470    575.000    579.989     -4.989    574.831    579.930    574.831    574.887    574.831
 11.570    562.536    581.779    -19.243    574.760    581.718    574.760    574.817    574.760
 11.670    583.000    585.494     -2.494    574.685    585.431    574.685    574.742    574.685
 11.770    618.000    593.859     24.141    574.605    593.791    574.605    574.662    574.605
 11.870    649.000    611.278     37.722    574.521    611.200    574.521    574.579    574.521
 11.970    662.000    641.178     20.822    574.433    641.083    574.433    574.491    574.433
 12.070    732.000    679.709     52.291    574.341    679.593    574.341    574.399    574.341
 12.170    711.000    710.012      0.988    574.245    709.877    574.245    574.304    574.245
 12.270    653.000    710.902    -57.902    574.145    710.764    574.145    574.207    574.145
 12.370    639.000    681.486    -42.486    574.041    681.362    574.041    574.104    574.041
 12.470    639.573    642.582     -3.009    573.933    642.479    573.933    573.997    573.933
 12.570    574.000    611.803    -37.803    573.821    611.718    573.821    573.885    573.821
 12.670    605.000    593.588     11.412    573.705    593.512    573.705    573.770    573.705
 12.770    549.966    584.687    -34.721    573.585    584.615    573.585    573.651    573.585
 12.870    565.000    580.630    -15.630    573.462    580.560    573.462    573.528    573.462
 12.970    585.453    578.588      6.865    573.335    578.519    573.335    573.401    573.335
 13.070    561.581    577.334    -15.753    573.204    577.265    573.204    573.270    573.204
 13.170    590.000    576.435     13.565    573.069    576.366    573.069    573.136    573.069
 13.270    542.000    575.736    -33.736    572.931    575.668    572.931    572.998    572.931
 13.370    575.000    575.169     -0.169    572.790    575.101    572.790    572.857    572.790
 13.470    580.000    574.694      5.306    572.644    574.625    572.644    572.712    572.644
 13.570    538.513    574.284    -35.770    572.496    574.215    572.496    572.564    572.496
 13.670    595.628    573.921     21.706    572.344    573.852    572.344    572.412    572.344
 13.770    528.000    573.594    -45.594    572.188    573.525    572.188    572.257    572.188
 13.870    551.000    573.294    -22.294    572.030    573.224    572.030    572.099    572.030
 13.970    610.000    573.014     36.986    571.867    572.944    571.867    571.937    571.867
 14.070    600.563    572.749     27.814    571.702    572.679    571.702    571.772    571.702
 14.170    613.314    572.496     40.818    571.533    572.425    571.533    571.604    571.533
 14.270    609.662    572.252     37.410    571.362    572.181    571.362    571.432    571.362
 14.370    562.000    572.015    -10.015    571.187    571.944    571.187    571.258    571.187
 14.470    586.000    571.783     14.217    571.009    571.711    571.009    571.080    571.009
 14.570    498.000    571.555    -73.555    570.828    571.483    570.828    570.899    570.828
 14.670    552.000    571.333    -19.333    570.644    571.260    570.644    570.716    570.644
 14.770    573.000    571.112      1.888    570.456    571.038    570.456    570.529    570.456
 14.870    554.000    570.891    -16.891    570.266    570.816    570.266    570.341    570.266
 14.970    553.000    570.670    -17.670    570.073    570.595    570.073    570.149    570.073
 15.070    605.295    570.449     34.846    569.878    570.373    569.878    569.953    569.878
 15.170    531.000    570.228    -39.228    569.679    570.152    569.679    569.755    569.679
 15.270    542.000    570.007    -28.007    569.477    569.930    569.477    569.554    569.477
 15.370    556.768    569.785    -13.016    569.273    569.708    569.273    569.350    569.273
 15.470    586.910    569.562     17.349    569.066    569.484    569.066    569.144    569.066
 15.570    554.000    569.338    -15.338    568.857    569.260    568.857    568.934    568.857
 15.670    563.000    569.113     -6.113    568.644    569.035    568.644    568.723    568.644
 15.770    602.000    568.887     33.113    568.430    568.808    568.430    568.508    568.430
 15.870    527.398    568.659    -41.261    568.212    568.580    568.212    568.291    568.212
 15.970    571.000    568.430      2.570    567.992    568.350    567.992    568.072    567.992
 16.070    553.000    568.199    -15.199    567.770    568.119    567.770    567.850    567.770
 16.170    522.438    567.967    -45.529    567.545    567.886    567.545    567.625    567.545
 16.270    531.824    567.734    -35.910    567.318    567.653    567.318    567.399    567.318
 16.370    578.994    567.500     11.494    567.088    567.419    567.088    567.169    567.088
 16.470    559.848    567.263     -7.415    566.856    567.181    566.856    566.938    566.856
 16.570    566.000    567.024     -1.024    566.621    566.942    566.621    566.704    566.621
 16.670    578.873    566.784     12.089    566.385    566.700    566.385    566.468    566.385
 16.770    572.000    566.541      5.459    566.146    566.458    566.146    566.229    566.146
 16.870    562.000    566.297     -4.297    565.905    566.213    565.905    565.989    565.905
 16.970    593.952    566.052     27.901    565.662    565.967    565.662    565.746    565.662
 17.070    567.338    565.804      1.534    565.416    565.719    565.416    565.501    565.416
 17.170    533.000    565.555    -32.555    565.169    565.469    565.169    565.254    565.169
 17.270    530.219    565.305    -35.086    564.919    565.218    564.919    565.006    564.919
 17.370    554.000    565.057    -11.057    564.667    564.965    564.667    564.759    564.667
 17.470    598.171    564.807     33.364    564.414    564.713    564.414    564.508    564.414
 17.570    574.000    564.552      9.448    564.158    564.457    564.158    564.253    564.158
 17.670    589.829    564.295     25.534    563.901    564.199    563.901    563.997    563.901
 17.770    568.000    564.036      3.964    563.641    563.940    563.641    563.738    563.641
 17.870    560.000    563.776     -3.776    563.380    563.679    563.380    563.477    563.380
 17.970    585.625    563.514     22.111    563.117    563.416    563.117    563.215    563.117
 18.070    580.000    563.251     16.749    562.852    563.152    562.852    562.951    562.852
 18.170    565.000    562.986      2.014    562.585    562.887    562.585    562.685    562.585
 18.270    537.631    562.719    -25.088    562.317    562.620    562.317    562.417    562.317
 18.370    587.000    562.452     24.548    562.047    562.351    562.047    562.148    562.047
 18.470    529.509    562.183    -32.673    561.775    562.081    561.775    561.876    561.775
 18.570    554.140    561.912     -7.772    561.502    561.810    561.502    561.604    561.502
 18.670    534.121    561.640    -27.520    561.227    561.537    561.227    561.330    561.227
 18.770    520.474    561.367    -40.893    560.950    561.264    560.950    561.054    560.950
 18.870    564.787    561.093      3.695    560.672    560.988    560.672    560.776    560.672
 18.970    582.242    560.817     21.425    560.392    560.712    560.392    560.498    560.392
 19.070    546.000    560.541    -14.541    560.111    560.435    560.111    560.217    560.111
 19.170    588.102    560.263     27.839    559.829    560.156    559.829    559.936    559.829
 19.270    560.000    559.985      0.015    559.545    559.878    559.545    559.652    559.545
 19.370    585.854    559.707     26.147    559.259    559.598    559.259    559.368    559.259
 19.470    541.558    559.426    -17.868    558.973    559.316    558.973    559.082    558.973
 19.570    564.000    559.144      4.856    558.685    559.033    558.685    558.795    558.685
 19.670    527.000    558.861    -31.861    558.395    558.749    558.395    558.507    558.395
 19.770    564.000    558.577      5.423    558.105    558.465    558.105    558.217    558.105
 19.870    550.000    558.292     -8.292    557.813    558.179    557.813    557.926    557.813
 19.970    549.000    558.008     -9.008    557.520    557.894    557.520    557.634    557.520
 20.070    552.000    557.735     -5.735    557.225    557.620    557.225    557.341    557.225
 20.170    544.481    557.458    -12.977    556.930    557.342    556.930    557.046    556.930
 20.270    568.551    557.172     11.379    556.633    557.054    556.633    556.751    556.633
 20.370    523.000    556.884    -33.884    556.336    556.765    556.336    556.454    556.336
 20.470    564.137    556.595      7.541    556.037    556.476    556.037    556.157    556.037
 20.570    544.000    556.306    -12.306    555.737    556.186    555.737    555.858    555.737
 20.670    545.000    556.017    -11.017    555.437    555.895    555.437    555.559    555.437
 20.770    505.000    555.728    -50.728    555.135    555.604    555.135    555.258    555.135
 20.870    582.000    555.438     26.562    554.832    555.313    554.832    554.957    554.832
 20.970    523.000    555.148    -32.148    554.529    555.022    554.529    554.654    554.529
 21.070    553.000    554.858     -1.858    554.224    554.731    554.224    554.351    554.224
 21.170    569.096    554.568     14.528    553.919    554.440    553.919    554.047    553.919
 21.270    572.000    554.278     17.722    553.613    554.149    553.613    553.742    553.613
 21.370    583.449    553.989     29.460    553.306    553.858    553.306    553.437    553.306
 21.470    529.000    553.700    -24.700    552.998    553.567    552.998    553.130    552.998
 21.570    521.000    553.411    -32.411    552.689    553.277    552.689    552.823    552.689
 21.670    596.000    553.124     42.876    552.380    552.988    552.380    552.516    552.380
 21.770    577.542    552.840     24.703    552.070    552.700    552.070    552.210    552.070
 21.870    532.000    552.555    -20.555    551.759    552.413    551.759    551.901    551.759
 21.970    523.000    552.271    -29.271    551.448    552.127    551.448    551.592    551.448
 22.070    528.074    551.997    -23.923    551.136    551.851    551.136    551.282    551.136
 22.170    563.000    551.801     11.199    550.823    551.653    550.823    550.971    550.823
 22.270    590.000    551.566     38.434    550.510    551.416    550.510    550.660    550.510
 22.370    553.000    551.320      1.680    550.196    551.169    550.196    550.348    550.196
 22.470    589.000    551.053     37.947    549.882    550.900    549.882    550.036    549.882
 22.570    540.748    550.793    -10.045    549.567    550.638    549.567    549.723    549.567
 22.670    559.123    550.581      8.542    549.252    550.424    549.252    549.410    549.252
 22.770    570.679    550.345     20.334    548.936    550.185    548.936    549.096    548.936
 22.870    552.465    550.099      2.366    548.620    549.938    548.620    548.782    548.620
 22.970    550.250    549.862      0.388    548.304    549.697    548.304    548.468    548.304
 23.070    541.000    549.635     -8.635    547.987    549.468    547.987    548.154    547.987
 23.170    583.946    549.422     34.523    547.669    549.253    547.669    547.839    547.669
 23.270    564.000    549.227     14.773    547.352    549.055    547.352    547.524    547.352
 23.370    556.000    549.055      6.945    547.034    548.880    547.034    547.209    547.034
 23.470    543.000    548.911     -5.911    546.716    548.734    546.716    546.894    546.716
 23.570    519.000    548.806    -29.806    546.397    548.625    546.397    546.578    546.397
 23.670    538.000    548.752    -10.752    546.078    548.569    546.078    546.263    546.078
 23.770    512.909    548.772    -35.862    545.759    548.585    545.759    545.947    545.759
 23.870    535.000    548.889    -13.889    545.440    548.699    545.440    545.632    545.440
 23.970    553.000    549.162      3.838    545.121    548.969    545.121    545.316    545.121
 24.070    536.118    549.723    -13.605    544.801    549.526    544.801    545.000    544.801
 24.170    572.000    550.939     21.061    544.482    550.740    544.482    544.685    544.482
 24.270    540.000    553.801    -13.801    544.162    553.599    544.162    544.369    544.162
 24.370    565.000    560.373      4.627    543.842    560.172    543.842    544.054    543.842
 24.470    589.000    573.518     15.482    543.522    573.322    543.522    543.738    543.522
 24.570    571.918    594.649    -22.730    543.202    594.463    543.202    543.423    543.202
 24.670    634.850    619.634     15.216    542.882    619.462    542.882    543.109    542.882
 24.770    649.566    636.174     13.393    542.562    636.008    542.562    542.794    542.562
 24.870    592.138    632.093    -39.955    542.242    631.919    542.242    542.480    542.242
 24.970    604.000    610.709     -6.709    541.922    610.514    541.922    542.166    541.922
 25.070    599.000    585.693     13.307    541.603    585.473    541.603    541.853    541.603
 25.170    606.461    566.597     39.864    541.283    566.357    541.283    541.540    541.283
 25.270    530.871    555.333    -24.462    540.963    555.077    540.963    541.228    540.963
 25.370    586.000    549.690     36.310    540.644    549.422    540.644    540.916    540.644
 25.470    496.000    546.968    -50.968    540.324    546.691    540.324    540.605    540.324
 25.570    562.000    545.492     16.508    540.005    545.204    540.005    540.295    540.005
 25.670    571.562    544.525     27.037    539.686    544.227    539.686    539.985    539.686
 25.770    564.000    543.803     20.197    539.367    543.495    539.367    539.677    539.367
 25.870    522.042    543.227    -21.185    539.048    542.908    539.048    539.369    539.048
 25.970    522.000    542.751    -20.751    538.730    542.420    538.730    539.062    538.730
 26.070    518.000    542.355    -24.355    538.412    542.010    538.412    538.757    538.412
 26.170    574.000    542.023     31.977    538.094    541.665    538.094    538.453    538.094
 26.270    574.806    541.744     33.062    537.777    541.370    537.777    538.151    537.777
 26.370    523.000    541.515    -18.515    537.459    541.125    537.459    537.850    537.459
 26.470    534.000    541.339     -7.339    537.142    540.931    537.142    537.551    537.142
 26.570    532.000    541.240     -9.240    536.826    540.812    536.826    537.254    536.826
 26.670    602.000    541.195     60.805    536.510    540.746    536.510    536.959    536.510
 26.770    602.000    541.194     60.806    536.194    540.721    536.194    536.667    536.194
 26.870    566.227    541.269     24.958    535.878    540.769    535.878    536.377    535.878
 26.970    581.517    541.443     40.075    535.564    540.914    535.564    536.091    535.564
 27.070    550.000    541.742      8.258    535.249    541.181    535.249    535.809    535.249
 27.170    527.966    542.199    -14.234    534.935    541.603    534.935    535.531    534.935
 27.270    504.000    542.880    -38.880    534.621    542.243    534.621    535.257    534.621
 27.370    551.000    543.859      7.141    534.308    543.177    534.308    534.989    534.308
 27.470    513.000    545.306    -32.306    533.996    544.572    533.996    534.728    533.996
 27.570    596.000    547.587     48.413    533.684    546.794    533.684    534.474    533.684
 27.670    536.886    552.127    -15.241    533.372    551.266    533.372    534.230    533.372
 27.770    573.611    563.684      9.927    533.061    562.742    533.061    533.996    533.061
 27.870    589.000    594.286     -5.286    532.751    593.243    532.751    533.775    532.751
 27.970    626.435    662.624    -36.188    532.441    661.454    532.441    533.570    532.441
 28.070    762.000    776.976    -14.976    532.132    775.649    532.132    533.384    532.132
 28.170    914.000    905.028      8.972    531.824    903.524    531.824    533.222    531.824
 28.270    953.000    968.276    -15.276    531.516    966.596    531.516    533.091    531.516
 28.370    963.470    914.745     48.725    531.208    912.888    531.208    532.999    531.208
 28.470    823.000    799.703     23.297    530.902    797.616    530.902    532.960    530.902
 28.570    727.000    711.037     15.963    530.596    708.625    530.596    532.994    530.596
 28.670    709.000    693.734     15.266    530.291    690.871    530.291    533.136    530.291
 28.770    720.000    742.517    -22.517    529.986    739.032    529.986    533.449    529.986
 28.870    775.893    815.443    -39.550    529.683    811.071    529.683    534.039    529.683
 28.970    841.452    850.004     -8.552    529.380    844.311    529.380    535.072    529.380
 29.070    834.527    809.231     25.296    529.078    801.537    529.078    536.782    529.078
 29.170    718.000    725.741     -7.741    528.776    715.092    528.776    539.436    528.776
 29.270    628.000    649.626    -21.626    528.476    634.854    528.476    543.255    528.476
 29.370    670.000    603.264     66.736    528.176    583.189    528.176    548.253    528.176
 29.470    572.696    583.469    -10.773    527.877    557.394    527.877    553.952    527.877
 29.570    625.000    577.679     47.321    527.579    546.289    527.579    558.967    527.579
 29.670    666.000    575.215     90.785    527.281    541.380    527.281    561.115    527.281
 29.770    629.000    570.803     58.197    526.985    538.734    526.985    559.052    526.985
 29.870    653.000    564.117     88.883    526.689    537.005    526.689    553.800    526.689
 29.970    541.942    556.915    -14.974    526.395    535.783    526.395    547.525    526.395
 30.070    513.721    550.605    -36.884    526.101    534.936    526.101    541.768    526.101
 30.170    544.083    545.771     -1.689    525.808    534.436    525.808    537.142    525.808
 30.270    568.000    542.571     25.429    525.516    534.385    525.516    533.699    525.516
 30.370    526.385    541.241    -14.856    525.225    535.217    525.225    531.245    525.225
