neutron_powder_diffraction_0023
R_wp: 3.682
Temperature (K): 510.464
Counts: 83664.00
Wavelength (Ã…): 2.52098
COMMENTS
Test file for demonstrating the .xyy file format in Reel1.0
END OF HEADER
   tth       Y_obs     Y_calc      Y_res    Background    Phase_1_Nuc    Phase_1_Mag    Phase_2_Nuc    Phase_2_Mag
  9.970    721.000    716.213      4.787    714.542    715.582    715.173    714.542    714.542
 10.070    708.125    715.275     -7.150    713.514    714.638    714.151    713.514    713.514
 10.170    742.000    714.354     27.646    712.491    713.710    713.135    712.491    712.491
 10.270    655.767    713.451    -57.684    711.472    712.800    712.123    711.472    711.472
 10.370    766.000    712.570     53.430    710.459    711.911    711.116    710.459    710.459
 10.470    680.000    711.713    -31.713    709.450    711.048    710.115    709.450    709.450
 10.570    741.000    710.886     30.114    708.446    710.213    709.118    708.446    708.446
 10.670    739.000    710.094     28.906    707.447    709.414    708.126    707.447    707.447
 10.770    742.000    709.345     32.655    706.452    708.657    707.139    706.452    706.452
 10.870    713.000    708.649      4.351    705.462    707.953    706.157    705.462    705.462
 10.970    734.000    708.020     25.980    704.477    707.316    705.180    704.477    704.477
 11.070    735.000    707.477     27.523    703.497    706.765    704.207    703.497    703.497
 11.170    742.000    707.046     34.954    702.522    706.326    703.240    702.522    702.522
 11.270    700.661    706.768     -6.107    701.551    706.040    702.277    701.551    701.551
 11.370    656.490    706.707    -50.217    700.585    705.970    701.320    700.585    700.585
 11.470    711.000    706.982      4.018    699.624    706.235    700.367    699.624    699.624
 11.570    749.959    707.847     42.112    698.668    707.091    699.419    698.668    698.668
 11.670    721.794    709.878     11.916    697.716    709.111    698.476    697.716    697.716
 11.770    736.157    714.244     21.914    696.769    713.465    697.538    696.769    696.769
 11.870    769.000    722.889     46.111    695.827    722.096    696.605    695.827    695.827
 11.970    838.000    738.129     99.871    694.889    737.318    695.677    694.889    694.889
 12.070    786.000    761.112     24.888    693.957    760.278    694.754    693.957    693.957
 12.170    834.000    788.979     45.021    693.029    788.120    693.835    693.029    693.029
 12.270    863.000    811.842     51.158    692.105    810.959    692.921    692.105    692.105
 12.370    872.000    815.845     56.155    691.187    814.949    692.013    691.187    691.187
 12.470    770.469    797.125    -26.656    690.273    796.230    691.109    690.273    690.273
 12.570    801.492    767.636     33.856    689.363    766.747    690.210    689.363    689.363
 12.670    745.000    740.138      4.862    688.459    739.253    689.316    688.459    688.459
 12.770    722.000    720.061      1.939    687.559    719.176    688.426    687.559    687.559
 12.870    671.000    707.350    -36.350    686.664    706.460    687.542    686.664    686.664
 12.970    728.000    699.841     28.159    685.773    698.945    686.662    685.773    685.773
 13.070    625.000    695.319    -70.319    684.887    694.413    685.787    684.887    684.887
 13.170    645.000    692.312    -47.312    684.006    691.396    684.918    684.006    684.006
 13.270    645.000    690.053    -45.053    683.129    689.126    684.053    683.129    683.129
 13.370    625.000    688.196    -63.196    682.257    687.258    683.192    682.257    682.257
 13.470    685.000    686.590     -1.590    681.390    685.641    682.337    681.390    681.390
 13.570    679.000    685.157     -6.157    680.527    684.195    681.487    680.527    680.527
 13.670    621.000    683.849    -62.849    679.669    682.875    680.641    679.669    679.669
 13.770    670.000    682.636    -12.636    678.815    681.649    679.801    678.815    678.815
 13.870    690.017    681.496      8.521    677.966    680.496    678.965    677.966    677.966
 13.970    709.000    680.414     28.586    677.122    679.401    678.134    677.122    677.122
 14.070    649.347    679.378    -30.030    676.282    678.351    677.308    676.282    676.282
 14.170    674.000    678.380     -4.380    675.447    677.340    676.486    675.447    675.447
 14.270    735.000    677.416     57.584    674.616    676.361    675.670    674.616    674.616
 14.370    701.000    676.495     24.505    673.790    675.426    674.859    673.790    673.790
 14.470    661.000    675.590    -14.590    672.969    674.505    674.052    672.969    672.969
 14.570    673.000    674.693     -1.693    672.152    673.593    673.251    672.152    672.152
 14.670    682.000    673.812      8.188    671.340    672.697    672.454    671.340    671.340
 14.770    642.255    672.947    -30.692    670.532    671.816    671.662    670.532    670.532
 14.870    656.187    672.095    -15.908    669.729    670.948    670.875    669.729    669.729
 14.970    646.369    671.256    -24.886    668.930    670.093    670.092    668.930    668.930
 15.070    674.000    670.427      3.573    668.136    669.248    669.315    668.136    668.136
 15.170    612.000    669.610    -57.610    667.346    668.413    668.542    667.346    667.346
 15.270    680.092    668.802     11.289    666.561    667.588    667.775    666.561    666.561
 15.370    677.000    668.008      8.992    665.780    666.775    667.012    665.780    665.780
 15.470    683.004    667.219     15.784    665.004    665.969    666.254    665.004    665.004
 15.570    666.864    666.438      0.426    664.232    665.168    665.501    664.232    664.232
 15.670    662.000    665.664     -3.664    663.465    664.375    664.753    663.465    663.465
 15.770    647.432    664.897    -17.465    662.702    663.589    664.010    662.702    662.702
 15.870    703.151    664.138     39.013    661.944    662.809    663.272    661.944    661.944
 15.970    620.693    663.385    -42.692    661.190    662.036    662.538    661.190    661.190
 16.070    636.000    662.640    -26.640    660.440    661.270    661.810    660.440    660.440
 16.170    621.000    661.901    -40.901    659.695    660.509    661.087    659.695    659.695
 16.270    674.000    661.168     12.832    658.955    659.755    660.368    658.955    658.955
 16.370    639.000    660.442    -21.442    658.218    659.006    659.655    658.218    658.218
 16.470    641.000    659.723    -18.723    657.487    658.263    658.946    657.487    657.487
 16.570    677.910    659.009     18.901    656.759    657.526    658.242    656.759    656.759
 16.670    640.000    658.302    -18.302    656.036    656.794    657.544    656.036    656.036
 16.770    641.000    657.604    -16.604    655.318    656.072    656.850    655.318    655.318
 16.870    635.000    656.912    -21.912    654.604    655.354    656.162    654.604    654.604
 16.970    662.000    656.223      5.777    653.894    654.638    655.478    653.894    653.894
 17.070    679.000    655.539     23.461    653.188    653.927    654.800    653.188    653.188
 17.170    637.000    654.861    -17.861    652.487    653.222    654.126    652.487    652.487
 17.270    652.000    654.191     -2.191    651.791    652.523    653.458    651.791    651.791
 17.370    669.414    653.552     15.861    651.098    651.854    652.796    651.098    651.098
 17.470    621.000    652.957    -31.957    650.410    651.228    652.139    650.410    650.410
 17.570    607.000    652.309    -45.309    649.726    650.549    651.486    649.726    649.726
 17.670    621.066    651.660    -30.594    649.047    649.868    650.838    649.047    649.047
 17.770    669.631    651.017     18.614    648.372    649.193    650.196    648.372    648.372
 17.870    657.000    650.379      6.621    647.701    648.522    649.558    647.701    647.701
 17.970    645.000    649.749     -4.749    647.034    647.858    648.926    647.034    647.034
 18.070    637.000    649.142    -12.142    646.372    647.216    648.298    646.372    646.372
 18.170    654.000    648.534      5.466    645.714    646.571    647.677    645.714    645.714
 18.270    646.000    647.920     -1.920    645.060    645.920    647.060    645.060    645.060
 18.370    634.000    647.311    -13.311    644.411    645.274    646.449    644.411    644.411
 18.470    630.865    646.708    -15.843    643.766    644.631    645.843    643.766    643.766
 18.570    637.299    646.111     -8.812    643.125    643.994    645.242    643.125    643.125
 18.670    695.163    645.520     49.643    642.488    643.361    644.647    642.488    642.488
 18.770    653.979    644.935      9.045    641.855    642.732    644.057    641.855    641.855
 18.870    646.000    644.359      1.641    641.227    642.113    643.473    641.227    641.227
 18.970    601.000    643.795    -42.795    640.603    641.503    642.895    640.603    640.603
 19.070    627.000    643.228    -16.228    639.983    640.889    642.322    639.983    639.983
 19.170    624.839    642.667    -17.828    639.367    640.280    641.754    639.367    639.367
 19.270    621.235    642.112    -20.877    638.755    639.674    641.193    638.755    638.755
 19.370    609.400    641.568    -32.169    638.148    639.078    640.638    638.148    638.148
 19.470    657.956    641.081     16.875    637.544    638.521    640.105    637.544    637.544
 19.570    599.000    640.567    -41.567    636.945    637.945    639.567    636.945    636.945
 19.670    645.000    640.039      4.961    636.350    637.360    639.030    636.350    636.350
 19.770    676.374    639.518     36.856    635.759    636.780    638.497    635.759    635.759
 19.870    684.620    639.022     45.598    635.172    636.222    637.972    635.172    635.172
 19.970    630.000    638.521     -8.521    634.590    635.658    637.452    634.590    634.590
 20.070    651.000    638.021     12.979    634.011    635.093    636.939    634.011    634.011
 20.170    592.000    637.529    -45.529    633.437    634.533    636.433    633.437    633.437
 20.270    607.000    637.076    -30.076    632.866    633.998    635.944    632.866    632.866
 20.370    623.456    636.623    -13.167    632.300    633.459    635.463    632.300    632.300
 20.470    609.000    636.173    -27.173    631.737    632.932    634.977    631.737    631.737
 20.570    630.000    635.766     -5.766    631.179    632.447    634.498    631.179    631.179
 20.670    627.000    635.333     -8.333    630.625    631.933    634.025    630.625    630.625
 20.770    609.000    634.908    -25.908    630.075    631.423    633.559    630.075    630.075
 20.870    601.078    634.474    -33.396    629.529    630.902    633.100    629.529    629.529
 20.970    614.000    634.085    -20.085    628.986    630.422    632.649    628.986    628.986
 21.070    627.820    633.666     -5.846    628.448    629.909    632.205    628.448    628.448
 21.170    629.137    633.252     -4.115    627.914    629.397    631.768    627.914    627.914
 21.270    669.000    632.847     36.153    627.384    628.891    631.340    627.384    627.384
 21.370    638.000    632.465      5.535    626.857    628.397    630.925    626.857    626.857
 21.470    634.000    632.087      1.913    626.335    627.908    630.514    626.335    626.335
 21.570    605.262    631.728    -26.466    625.817    627.434    630.111    625.817    625.817
 21.670    594.000    631.366    -37.366    625.302    626.953    629.716    625.302    625.302
 21.770    644.000    631.013     12.987    624.792    626.475    629.330    624.792    624.792
 21.870    616.000    630.671    -14.671    624.285    626.003    628.953    624.285    624.285
 21.970    654.000    630.341     23.659    623.783    625.538    628.586    623.783    623.783
 22.070    657.581    630.025     27.556    623.284    625.079    628.229    623.284    623.284
 22.170    638.000    629.722      8.278    622.789    624.628    627.883    622.789    622.789
 22.270    621.000    629.435     -8.435    622.298    624.186    627.547    622.298    622.298
 22.370    679.000    629.163     49.837    621.811    623.751    627.222    621.811    621.811
 22.470    607.067    628.906    -21.839    621.327    623.324    626.909    621.327    621.327
 22.570    658.149    628.668     29.481    620.848    622.907    626.609    620.848    620.848
 22.670    599.182    628.450    -29.268    620.372    622.502    626.320    620.372    620.372
 22.770    597.000    628.252    -31.252    619.900    622.107    626.046    619.900    619.900
 22.870    646.000    628.083     17.917    619.432    621.729    625.787    619.432    619.432
 22.970    641.000    627.933     13.067    618.968    621.360    625.541    618.968    618.968
 23.070    603.000    627.809    -24.809    618.508    621.007    625.310    618.508    618.508
 23.170    590.553    627.717    -37.164    618.051    620.673    625.096    618.051    618.051
 23.270    628.000    627.660      0.340    617.598    620.360    624.899    617.598    617.598
 23.370    631.111    627.643      3.467    617.149    620.073    624.720    617.149    617.149
 23.470    630.000    627.675      2.325    616.704    619.818    624.561    616.704    616.704
 23.570    674.632    627.760     46.872    616.262    619.601    624.422    616.262    616.262
 23.670    649.592    627.911     21.681    615.824    619.432    624.304    615.824    615.824
 23.770    611.601    628.143    -16.542    615.390    619.325    624.210    615.390    615.390
 23.870    583.385    628.477    -45.092    614.960    619.297    624.141    614.960    614.960
 23.970    668.188    628.941     39.247    614.533    619.378    624.098    614.533    614.533
 24.070    646.000    629.584     16.416    614.110    619.612    624.084    614.110    614.110
 24.170    638.000    630.494      7.506    613.690    620.085    624.101    613.690    613.690
 24.270    600.449    631.858    -31.409    613.274    620.984    624.152    613.274    613.274
 24.370    653.000    634.088     18.912    612.862    622.716    624.240    612.862    612.862
 24.470    667.848    637.987     29.861    612.454    626.083    624.366    612.454    612.454
 24.570    704.000    644.848     59.152    612.049    632.374    624.535    612.049    612.049
 24.670    609.062    656.141    -47.079    611.648    643.058    624.751    611.648    611.648
 24.770    720.000    672.516     47.484    611.250    658.779    625.019    611.250    611.250
 24.870    738.608    692.028     46.580    610.856    677.587    625.342    610.856    610.856
 24.970    739.000    708.302     30.698    610.465    693.096    625.728    610.465    610.465
 25.070    745.000    712.404     32.596    610.078    696.359    626.183    610.078    610.078
 25.170    746.942    701.592     45.351    609.695    684.624    626.714    609.695    609.695
 25.270    662.000    683.335    -21.335    609.315    665.358    627.331    609.315    609.315
 25.370    694.303    666.149     28.154    608.939    647.070    628.042    608.939    608.939
 25.470    660.316    653.787      6.529    608.566    633.508    628.860    608.566    608.566
 25.570    599.000    646.447    -47.447    608.197    624.854    629.799    608.197    608.197
 25.670    610.146    642.839    -32.693    607.831    619.801    630.874    607.831    607.831
 25.770    665.000    641.522     23.478    607.469    616.890    632.105    607.469    607.469
 25.870    651.000    641.498      9.502    607.110    615.097    633.512    607.110    607.110
 25.970    610.334    642.239    -31.905    606.755    613.871    635.125    606.755    606.755
 26.070    691.505    643.522     47.983    606.403    612.953    636.973    606.403    606.403
 26.170    702.000    645.272     56.728    606.054    612.231    639.096    606.054    606.054
 26.270    636.000    647.485    -11.485    605.709    611.650    641.543    605.709    605.709
 26.370    632.610    650.184    -17.574    605.368    611.181    644.369    605.368    605.368
 26.470    658.000    653.425      4.575    605.030    610.808    647.645    605.030    605.030
 26.570    647.527    657.279     -9.751    604.695    610.511    651.460    604.695    604.695
 26.670    658.000    661.859     -3.859    604.363    610.292    655.928    604.363    604.363
 26.770    643.699    667.313    -23.614    604.035    610.150    661.195    604.035    604.035
 26.870    694.000    673.832     20.168    603.711    610.089    667.450    603.711    603.711
 26.970    688.000    681.675      6.325    603.389    610.119    674.940    603.389    603.389
 27.070    733.087    691.187     41.900    603.071    610.254    683.998    603.071    603.071
 27.170    649.000    702.845    -53.845    602.757    610.517    695.077    602.757    602.757
 27.270    689.000    717.310    -28.310    602.445    610.938    708.809    602.445    602.445
 27.370    694.000    735.532    -41.532    602.137    611.563    726.095    602.137    602.137
 27.470    762.000    758.919      3.081    601.833    612.465    748.273    601.833    601.833
 27.570    755.000    789.778    -34.778    601.531    613.756    777.534    601.531    601.531
 27.670    831.735    832.830     -1.094    601.233    615.671    818.364    601.233    601.233
 27.770    849.000    901.289    -52.289    600.938    618.861    883.320    600.938    600.938
 27.870    995.000   1036.009    -41.009    600.646    625.335   1011.225    600.646    600.646
 27.970   1358.296   1346.128     12.168    600.358    640.452   1305.829    600.358    600.358
 28.070   1923.000   2045.236   -122.236    600.072    674.698   1970.205    600.072    600.072
 28.170   3240.000   3381.727   -141.727    599.790    740.275   3240.579    599.790    599.790
 28.270   5271.833   5364.982    -93.148    599.511    837.685   5125.965    599.511    599.511
 28.370   7185.000   7412.405   -227.405    599.236    938.441   7072.439    599.236    599.236
 28.470   8309.000   8357.683    -48.683    598.963    985.549   7970.683    598.963    598.963
 28.570   7429.545   7494.958    -65.413    598.694    944.903   7148.660    598.694    598.694
 28.670   5851.000   5651.597    199.403    598.427    858.208   5391.867    598.427    598.427
 28.770   4238.000   4091.010    146.990    598.164    789.241   3899.974    598.164    598.164
 28.870   3418.008   3459.399    -41.391    597.904    771.371   3285.909    597.904    597.904
 28.970   3856.000   3708.439    147.561    597.647    801.746   3504.278    597.647    597.647
 29.070   4445.924   4334.849    111.075    597.393    850.642   4081.572    597.393    597.393
 29.170   4504.921   4638.644   -133.723    597.143    873.928   4361.961    597.143    597.143
 29.270   4095.000   4192.389    -97.389    596.895    844.188   3945.360    596.895    596.895
 29.370   3323.000   3254.017     68.983    596.650    780.004   3070.994    596.650    596.650
 29.470   2262.461   2302.959    -40.498    596.409    714.730   2184.922    596.409    596.409
 29.570   1591.000   1601.669    -10.669    596.170    666.588   1531.444    596.170    596.170
 29.670   1203.000   1183.139     19.861    595.935    637.904   1141.279    595.935    595.935
 29.770    992.000    966.240     25.760    595.702    623.108    938.890    595.702    595.702
 29.870    888.000    858.546     29.454    595.473    615.840    838.206    595.473    595.473
 29.970    844.000    800.554     43.446    595.246    612.010    783.804    595.246    595.246
 30.070    866.000    764.234    101.766    595.023    609.704    749.560    595.023    595.023
 30.170    733.000    738.582     -5.582    594.802    608.187    725.201    594.802    594.802
 30.270    743.281    719.393     23.889    594.584    607.209    706.770    594.584    594.584
 30.370    682.000    704.867    -22.867    594.369    606.727    692.510    594.369    594.369
