neutron_powder_diffraction_0247
R_wp: 4.167
Temperature (K): 964.950
Counts: 83803.00
Wavelength (Ã…): 2.52098
COMMENTS
Test file for demonstrating the .xyy file format in Reel1.0
END OF HEADER
   tth       Y_obs     Y_calc      Y_res    Background    Phase_1_Nuc    Phase_1_Mag    Phase_2_Nuc    Phase_2_Mag
  9.970    602.000    560.884     41.116    560.263    560.851    560.263    560.295    560.263
 10.070    595.000    561.186     33.814    560.513    561.153    560.513    560.545    560.513
 10.170    610.000    561.492     48.508    560.756    561.456    560.756    560.790    560.756
 10.270    597.000    561.807     35.193    560.991    561.770    560.991    561.026    560.991
 10.370    587.000    562.124     24.876    561.218    562.087    561.218    561.255    561.218
 10.470    520.643    562.438    -41.795    561.439    562.401    561.439    561.475    561.439
 10.570    578.000    562.762     15.238    561.652    562.724    561.652    561.688    561.652
 10.670    569.000    563.099      5.901    561.857    563.061    561.857    561.894    561.857
 10.770    560.915    563.459     -2.544    562.056    563.418    562.056    562.097    562.056
 10.870    552.777    563.853    -11.076    562.247    563.802    562.247    562.298    562.247
 10.970    578.000    564.277     13.723    562.432    564.224    562.432    562.484    562.432
 11.070    583.000    564.754     18.246    562.609    564.701    562.609    562.661    562.609
 11.170    578.435    565.308     13.127    562.780    565.254    562.780    562.832    562.780
 11.270    578.294    565.972     12.322    562.943    565.918    562.943    562.996    562.943
 11.370    608.000    566.805     41.195    563.100    566.750    563.100    563.153    563.100
 11.470    598.442    567.925     30.517    563.250    567.869    563.250    563.303    563.250
 11.570    588.000    569.650     18.350    563.393    569.593    563.393    563.447    563.393
 11.670    572.000    572.908     -0.908    563.530    572.848    563.530    563.584    563.530
 11.770    570.000    579.995     -9.995    563.660    579.930    563.660    563.716    563.660
 11.870    645.000    595.023     49.977    563.784    594.944    563.784    563.845    563.784
 11.970    611.278    622.045    -10.767    563.901    621.951    563.901    563.963    563.901
 12.070    619.000    659.398    -40.398    564.012    659.282    564.012    564.074    564.012
 12.170    665.840    693.112    -27.272    564.116    692.977    564.116    564.179    564.116
 12.270    716.000    701.012     14.988    564.214    700.872    564.214    564.277    564.214
 12.370    655.381    676.030    -20.650    564.306    675.904    564.306    564.369    564.306
 12.470    585.900    637.434    -51.534    564.392    637.329    564.392    564.455    564.392
 12.570    589.000    605.188    -16.188    564.471    605.102    564.471    564.535    564.471
 12.670    540.618    585.631    -45.013    564.545    585.555    564.545    564.609    564.545
 12.770    587.000    576.092     10.908    564.613    576.021    564.613    564.677    564.613
 12.870    548.000    571.908    -23.908    564.674    571.839    564.674    564.739    564.674
 12.970    521.000    569.958    -48.958    564.730    569.890    564.730    564.795    564.730
 13.070    580.000    568.861     11.139    564.780    568.794    564.780    564.846    564.780
 13.170    523.000    568.135    -45.135    564.824    568.068    564.824    564.890    564.824
 13.270    612.132    567.614     44.518    564.863    567.546    564.863    564.929    564.863
 13.370    564.000    567.223     -3.223    564.896    567.155    564.896    564.962    564.896
 13.470    605.000    566.924     38.076    564.923    566.854    564.923    564.992    564.923
 13.570    608.266    566.689     41.577    564.945    566.617    564.945    565.016    564.945
 13.670    610.000    566.498     43.502    564.961    566.426    564.961    565.033    564.961
 13.770    544.000    566.341    -22.341    564.972    566.267    564.972    565.045    564.972
 13.870    545.826    566.208    -20.382    564.977    566.133    564.977    565.051    564.977
 13.970    551.000    566.092    -15.092    564.977    566.017    564.977    565.051    564.977
 14.070    540.000    565.990    -25.990    564.972    565.915    564.972    565.047    564.972
 14.170    535.000    565.897    -30.897    564.962    565.821    564.962    565.037    564.962
 14.270    565.000    565.811     -0.811    564.946    565.735    564.946    565.022    564.946
 14.370    584.381    565.730     18.651    564.926    565.653    564.926    565.002    564.926
 14.470    592.872    565.652     27.220    564.900    565.575    564.900    564.977    564.900
 14.570    525.286    565.575    -40.290    564.869    565.498    564.869    564.947    564.869
 14.670    570.000    565.500      4.500    564.834    565.422    564.834    564.911    564.834
 14.770    527.000    565.424    -38.424    564.793    565.346    564.793    564.871    564.793
 14.870    551.574    565.348    -13.774    564.748    565.269    564.748    564.826    564.748
 14.970    560.000    565.271     -5.271    564.698    565.192    564.698    564.777    564.698
 15.070    562.000    565.195     -3.195    564.643    565.116    564.643    564.722    564.643
 15.170    598.160    565.114     33.046    564.583    565.034    564.583    564.663    564.583
 15.270    529.000    565.031    -36.031    564.519    564.950    564.519    564.599    564.519
 15.370    602.000    564.945     37.055    564.450    564.864    564.450    564.531    564.450
 15.470    579.847    564.856     14.991    564.377    564.775    564.377    564.458    564.377
 15.570    546.000    564.764    -18.764    564.299    564.682    564.299    564.381    564.299
 15.670    546.070    564.670    -18.599    564.217    564.587    564.217    564.299    564.217
 15.770    559.000    564.572     -5.572    564.130    564.489    564.130    564.213    564.130
 15.870    564.000    564.471     -0.471    564.039    564.388    564.039    564.122    564.039
 15.970    534.666    564.367    -29.701    563.944    564.283    563.944    564.027    563.944
 16.070    607.524    564.260     43.264    563.844    564.175    563.844    563.929    563.844
 16.170    576.069    564.150     11.919    563.740    564.063    563.740    563.827    563.740
 16.270    569.217    564.036      5.181    563.633    563.949    563.633    563.720    563.633
 16.370    535.000    563.921    -28.921    563.521    563.833    563.521    563.608    563.521
 16.470    533.000    563.800    -30.800    563.405    563.712    563.405    563.493    563.405
 16.570    546.000    563.676    -17.676    563.285    563.587    563.285    563.373    563.285
 16.670    589.000    563.548     25.452    563.161    563.459    563.161    563.250    563.161
 16.770    565.242    563.417      1.825    563.033    563.327    563.033    563.123    563.033
 16.870    572.000    563.282      8.718    562.901    563.192    562.901    562.992    562.901
 16.970    566.000    563.144      2.856    562.766    563.053    562.766    562.857    562.766
 17.070    579.752    563.003     16.749    562.626    562.911    562.626    562.718    562.626
 17.170    547.000    562.858    -15.858    562.483    562.766    562.483    562.575    562.483
 17.270    525.000    562.711    -37.711    562.337    562.618    562.337    562.429    562.337
 17.370    557.048    562.559     -5.511    562.186    562.466    562.186    562.280    562.186
 17.470    558.000    562.405     -4.405    562.032    562.311    562.032    562.126    562.032
 17.570    576.000    562.248     13.752    561.875    562.153    561.875    561.970    561.875
 17.670    583.750    562.088     21.663    561.714    561.992    561.714    561.809    561.714
 17.770    586.000    561.926     24.074    561.550    561.830    561.550    561.646    561.550
 17.870    524.000    561.759    -37.759    561.382    561.662    561.382    561.479    561.382
 17.970    594.856    561.589     33.267    561.211    561.492    561.211    561.308    561.211
 18.070    537.000    561.416    -24.416    561.036    561.318    561.036    561.135    561.036
 18.170    486.000    561.240    -75.240    560.859    561.141    560.859    560.958    560.859
 18.270    588.000    561.061     26.939    560.678    560.961    560.678    560.778    560.678
 18.370    591.626    560.884     30.741    560.494    560.779    560.494    560.599    560.494
 18.470    523.000    560.702    -37.702    560.307    560.593    560.307    560.415    560.307
 18.570    528.674    560.514    -31.840    560.116    560.405    560.116    560.226    560.116
 18.670    550.000    560.324    -10.324    559.923    560.214    559.923    560.033    559.923
 18.770    576.000    560.131     15.869    559.726    560.020    559.726    559.838    559.726
 18.870    576.000    559.935     16.065    559.527    559.823    559.527    559.639    559.527
 18.970    542.546    559.737    -17.191    559.325    559.624    559.325    559.438    559.325
 19.070    536.000    559.536    -23.536    559.120    559.422    559.120    559.234    559.120
 19.170    576.000    559.332     16.668    558.912    559.217    558.912    559.026    558.912
 19.270    552.000    559.126     -7.126    558.701    559.010    558.701    558.817    558.701
 19.370    561.000    558.919      2.081    558.487    558.802    558.487    558.604    558.487
 19.470    539.000    558.709    -19.709    558.271    558.591    558.271    558.389    558.271
 19.570    531.000    558.496    -27.496    558.052    558.378    558.052    558.171    558.052
 19.670    552.664    558.281     -5.617    557.831    558.161    557.831    557.950    557.831
 19.770    576.000    558.063     17.937    557.606    557.943    557.606    557.727    557.606
 19.870    575.000    557.843     17.157    557.380    557.722    557.380    557.501    557.380
 19.970    561.000    557.621      3.379    557.150    557.498    557.150    557.273    557.150
 20.070    540.863    557.397    -16.534    556.919    557.273    556.919    557.042    556.919
 20.170    571.000    557.171     13.829    556.685    557.046    556.685    556.809    556.685
 20.270    533.452    556.944    -23.492    556.448    556.818    556.448    556.574    556.448
 20.370    531.697    556.732    -25.035    556.209    556.605    556.209    556.336    556.209
 20.470    548.000    556.505     -8.505    555.968    556.377    555.968    556.096    555.968
 20.570    518.000    556.272    -38.272    555.724    556.143    555.724    555.854    555.724
 20.670    535.678    556.037    -20.360    555.479    555.907    555.479    555.609    555.479
 20.770    602.000    555.801     46.199    555.231    555.669    555.231    555.363    555.231
 20.870    595.623    555.563     40.060    554.981    555.429    554.981    555.114    554.981
 20.970    549.097    555.323     -6.226    554.728    555.188    554.728    554.863    554.728
 21.070    560.903    555.082      5.820    554.474    554.946    554.474    554.610    554.474
 21.170    598.000    554.840     43.160    554.218    554.703    554.218    554.355    554.218
 21.270    541.000    554.597    -13.597    553.959    554.458    553.959    554.098    553.959
 21.370    535.238    554.353    -19.115    553.699    554.213    553.699    553.839    553.699
 21.470    555.000    554.108      0.892    553.437    553.967    553.437    553.578    553.437
 21.570    601.824    553.863     47.961    553.172    553.720    553.172    553.316    553.172
 21.670    563.000    553.617      9.383    552.906    553.472    552.906    553.051    552.906
 21.770    576.000    553.371     22.629    552.638    553.224    552.638    552.785    552.638
 21.870    598.415    553.125     45.291    552.369    552.976    552.369    552.517    552.369
 21.970    538.000    552.878    -14.878    552.097    552.728    552.097    552.247    552.097
 22.070    521.000    552.633    -31.633    551.824    552.481    551.824    551.976    551.824
 22.170    526.000    552.388    -26.388    551.549    552.234    551.549    551.703    551.549
 22.270    589.955    552.146     37.809    551.272    551.990    551.272    551.428    551.272
 22.370    567.368    551.929     15.438    550.994    551.771    550.994    551.152    550.994
 22.470    575.651    551.767     23.883    550.714    551.607    550.714    550.875    550.714
 22.570    541.000    551.544    -10.544    550.433    551.380    550.433    550.598    550.433
 22.670    532.000    551.353    -19.353    550.150    551.185    550.150    550.318    550.150
 22.770    595.000    551.131     43.869    549.866    550.961    549.866    550.036    549.866
 22.870    570.000    550.912     19.088    549.580    550.739    549.580    549.753    549.580
 22.970    570.000    550.711     19.289    549.293    550.535    549.293    549.468    549.293
 23.070    583.000    550.553     32.447    549.004    550.375    549.004    549.182    549.004
 23.170    581.236    550.363     30.873    548.714    550.182    548.714    548.895    548.714
 23.270    566.000    550.182     15.818    548.423    549.998    548.423    548.606    548.423
 23.370    576.000    550.019     25.981    548.130    549.833    548.130    548.317    548.130
 23.470    537.000    549.881    -12.881    547.836    549.692    547.836    548.026    547.836
 23.570    551.000    549.774      1.226    547.541    549.582    547.541    547.734    547.541
 23.670    533.060    549.711    -16.651    547.245    549.515    547.245    547.441    547.245
 23.770    560.000    549.706     10.294    546.947    549.507    546.947    547.147    546.947
 23.870    540.000    549.785     -9.785    546.649    549.583    546.649    546.852    546.649
 23.970    516.453    549.991    -33.538    546.349    549.785    546.349    546.556    546.349
 24.070    580.000    550.410     29.590    546.048    550.200    546.048    546.260    546.048
 24.170    551.000    551.287     -0.287    545.746    551.075    545.746    545.962    545.746
 24.270    510.213    553.302    -43.089    545.444    553.086    545.444    545.664    545.444
 24.370    575.000    558.024     16.976    545.140    557.807    545.140    545.365    545.140
 24.470    539.000    568.058    -29.058    544.835    567.844    544.835    545.065    544.835
 24.570    621.052    585.713     35.339    544.529    585.506    544.529    544.764    544.529
 24.670    573.000    609.535    -36.535    544.223    609.340    544.223    544.463    544.223
 24.770    647.000    630.611     16.389    543.915    630.427    543.915    544.161    543.915
 24.870    658.409    635.316     23.093    543.607    635.129    543.607    543.859    543.607
 24.970    620.810    619.319      1.490    543.298    619.114    543.298    543.557    543.298
 25.070    578.097    594.301    -16.204    542.988    594.072    542.988    543.254    542.988
 25.170    641.000    572.757     68.243    542.678    572.505    542.678    542.950    542.678
 25.270    517.029    559.082    -42.053    542.367    558.813    542.367    542.647    542.367
 25.370    594.000    551.986     42.014    542.055    551.704    542.055    542.343    542.055
 25.470    504.792    548.630    -43.837    541.742    548.336    541.742    542.039    541.742
 25.570    530.000    546.924    -16.924    541.429    546.620    541.429    541.735    541.429
 25.670    589.000    545.891     43.109    541.115    545.577    541.115    541.431    541.115
 25.770    582.721    545.156     37.565    540.801    544.830    540.801    541.127    540.801
 25.870    495.805    544.556    -48.750    540.486    544.218    540.486    540.824    540.486
 25.970    543.000    544.059     -1.059    540.170    543.710    540.170    540.521    540.170
 26.070    485.000    543.642    -58.642    539.854    543.279    539.854    540.218    539.854
 26.170    532.000    543.288    -11.288    539.538    542.911    539.538    539.916    539.538
 26.270    506.447    542.992    -36.545    539.221    542.599    539.221    539.615    539.221
 26.370    536.319    542.743     -6.424    538.904    542.333    538.904    539.314    538.904
 26.470    513.710    542.544    -28.835    538.586    542.115    538.586    539.015    538.586
 26.570    523.000    542.391    -19.391    538.268    541.941    538.268    538.717    538.268
 26.670    562.542    542.288     20.254    537.950    541.816    537.950    538.421    537.950
 26.770    535.000    542.243     -7.243    537.631    541.748    537.631    538.127    537.631
 26.870    512.415    542.272    -29.856    537.312    541.749    537.312    537.835    537.312
 26.970    591.144    542.417     48.727    536.993    541.865    536.993    537.545    536.993
 27.070    509.336    542.649    -33.313    536.674    542.064    536.674    537.258    536.674
 27.170    553.000    543.006      9.994    536.354    542.384    536.354    536.975    536.354
 27.270    575.891    543.547     32.343    536.034    542.884    536.034    536.697    536.034
 27.370    544.000    544.348     -0.348    535.714    543.639    535.714    536.423    535.714
 27.470    560.000    545.542     14.458    535.394    544.780    535.394    536.155    535.394
 27.570    535.065    547.436    -12.371    535.074    546.614    535.074    535.894    535.074
 27.670    583.000    551.097     31.903    534.754    550.206    534.754    535.642    534.754
 27.770    598.000    560.287     37.713    534.434    559.315    534.434    535.400    534.434
 27.870    620.000    585.114     34.886    534.113    584.042    534.113    535.170    534.113
 27.970    641.000    642.973     -1.973    533.793    641.775    533.793    534.955    533.793
 28.070    748.000    745.784      2.216    533.472    744.432    533.472    534.759    533.472
 28.170    873.000    871.941      1.059    533.152    870.414    533.152    534.586    533.152
 28.270    958.000    953.476      4.524    532.832    951.772    532.832    534.443    532.832
 28.370    951.000    929.732     21.268    532.512    927.845    532.512    534.337    532.512
 28.470    834.813    828.073      6.740    532.192    825.956    532.192    534.282    532.192
 28.570    755.186    729.850     25.336    531.872    727.416    531.872    534.296    531.872
 28.670    716.000    692.649     23.351    531.552    689.780    531.552    534.409    531.552
 28.770    708.000    724.474    -16.474    531.232    721.008    531.232    534.678    531.232
 28.870    775.000    792.594    -17.594    530.913    788.281    530.913    535.201    530.913
 28.970    786.000    838.921    -52.921    530.593    833.356    530.593    536.141    530.593
 29.070    760.231    818.612    -58.381    530.274    811.140    530.274    537.748    530.274
 29.170    797.017    746.223     50.793    529.955    735.857    529.955    540.334    529.955
 29.270    670.000    668.340      1.660    529.637    653.781    529.637    544.209    529.637
 29.370    628.945    615.204     13.741    529.319    595.016    529.319    549.514    529.319
 29.470    555.195    590.077    -34.882    529.001    563.141    529.001    555.938    529.001
 29.570    591.000    582.368      8.632    528.683    548.787    528.683    562.264    528.683
 29.670    561.895    580.459    -18.564    528.366    542.618    528.366    566.206    528.366
 29.770    597.687    577.196     20.491    528.049    539.572    528.049    565.672    528.049
 29.870    519.915    570.767    -50.852    527.733    537.707    527.733    560.791    527.733
 29.970    547.451    562.755    -15.304    527.417    536.412    527.417    553.758    527.417
 30.070    586.000    555.169     30.831    527.101    535.495    527.101    546.774    527.101
 30.170    588.531    549.079     39.451    526.786    534.905    526.786    540.958    526.786
 30.270    582.000    544.809     37.191    526.471    534.707    526.471    536.572    526.471
 30.370    580.763    542.514     38.249    526.157    535.219    526.157    533.450    526.157
