neutron_powder_diffraction_0074
R_wp: 4.662
Temperature (K): 764.932
Counts: 83315.00
Wavelength (Ã…): 2.52098
COMMENTS
Test file for demonstrating the .xyy file format in Reel1.0
END OF HEADER
   tth       Y_obs     Y_calc      Y_res    Background    Phase_1_Nuc    Phase_1_Mag    Phase_2_Nuc    Phase_2_Mag
  9.970    541.560    603.478    -61.918    602.290    603.477    602.290    602.290    602.290
 10.070    550.349    604.347    -53.998    603.062    604.346    603.062    603.062    603.062
 10.170    676.000    605.214     70.786    603.820    605.213    603.820    603.820    603.820
 10.270    613.711    606.083      7.628    604.563    606.082    604.563    604.563    604.563
 10.370    665.000    606.957     58.043    605.293    606.956    605.293    605.293    605.293
 10.470    586.464    607.841    -21.377    606.008    607.840    606.008    606.008    606.008
 10.570    670.000    608.741     61.259    606.710    608.740    606.710    606.710    606.710
 10.670    646.000    609.663     36.337    607.398    609.662    607.398    607.398    607.398
 10.770    654.000    610.618     43.382    608.073    610.616    608.073    608.073    608.073
 10.870    660.192    611.617     48.574    608.734    611.616    608.734    608.734    608.734
 10.970    634.000    612.679     21.321    609.382    612.677    609.382    609.382    609.382
 11.070    681.000    613.836     67.164    610.016    613.834    610.016    610.016    610.016
 11.170    675.000    615.193     59.807    610.637    615.190    610.637    610.637    610.637
 11.270    645.000    616.713     28.287    611.245    616.710    611.245    611.245    611.245
 11.370    611.000    618.430     -7.430    611.840    618.427    611.840    611.840    611.840
 11.470    648.000    620.585     27.415    612.422    620.580    612.422    612.422    612.422
 11.570    669.877    623.592     46.284    612.992    623.586    612.992    612.992    612.992
 11.670    672.000    628.376     43.624    613.548    628.368    613.548    613.548    613.548
 11.770    690.000    636.718     53.282    614.092    636.706    614.092    614.092    614.092
 11.870    683.000    651.284     31.716    614.624    651.263    614.624    614.624    614.624
 11.970    716.000    674.536     41.464    615.143    674.502    615.143    615.143    615.143
 12.070    701.000    706.127     -5.127    615.650    706.075    615.650    615.650    615.650
 12.170    767.000    738.882     28.118    616.144    738.813    616.144    616.144    616.144
 12.270    748.676    756.639     -7.963    616.627    756.559    616.627    616.627    616.627
 12.370    758.620    746.808     11.812    617.098    746.735    617.098    617.098    617.098
 12.470    706.098    717.632    -11.534    617.556    717.575    617.556    617.556    617.556
 12.570    741.733    685.788     55.945    618.003    685.749    618.003    618.003    618.003
 12.670    694.000    660.954     33.046    618.438    660.930    618.438    618.438    618.438
 12.770    654.000    645.019      8.981    618.861    645.004    618.861    618.861    618.861
 12.870    637.245    636.077      1.168    619.273    636.068    619.273    619.273    619.273
 12.970    614.000    631.399    -17.399    619.674    631.393    619.674    619.674    619.674
 13.070    625.000    628.930     -3.930    620.063    628.926    620.063    620.063    620.063
 13.170    649.000    627.530     21.470    620.441    627.527    620.441    620.441    620.441
 13.270    602.000    626.671    -24.671    620.808    626.668    620.808    620.808    620.808
 13.370    549.000    626.121    -77.121    621.163    626.118    621.163    621.163    621.163
 13.470    585.000    625.770    -40.770    621.508    625.768    621.508    621.508    621.508
 13.570    665.100    625.560     39.541    621.842    625.558    621.842    621.842    621.842
 13.670    683.116    625.450     57.667    622.165    625.448    622.165    622.165    622.165
 13.770    578.000    625.408    -47.408    622.478    625.407    622.478    622.478    622.478
 13.870    641.000    625.419     15.581    622.779    625.417    622.779    622.779    622.779
 13.970    641.669    625.468     16.200    623.071    625.467    623.071    623.071    623.071
 14.070    608.730    625.546    -16.816    623.351    625.545    623.351    623.351    623.351
 14.170    640.000    625.645     14.355    623.622    625.644    623.622    623.622    623.622
 14.270    659.107    625.761     33.346    623.882    625.760    623.882    623.882    623.882
 14.370    581.398    625.886    -44.488    624.132    625.886    624.132    624.132    624.132
 14.470    607.000    626.018    -19.018    624.373    626.017    624.373    624.373    624.373
 14.570    548.000    626.154    -78.154    624.603    626.153    624.603    624.603    624.603
 14.670    649.996    626.291     23.704    624.823    626.291    624.823    624.823    624.823
 14.770    619.000    626.430     -7.430    625.033    626.429    625.033    625.033    625.033
 14.870    599.000    626.570    -27.570    625.234    626.570    625.234    625.234    625.234
 14.970    555.000    626.744    -71.744    625.425    626.743    625.425    625.425    625.425
 15.070    605.000    626.921    -21.921    625.607    626.921    625.607    625.607    625.607
 15.170    604.000    627.056    -23.056    625.779    627.056    625.779    625.779    625.779
 15.270    622.000    627.185     -5.185    625.942    627.185    625.942    625.942    625.942
 15.370    573.323    627.305    -53.982    626.095    627.305    626.095    626.095    626.095
 15.470    588.400    627.429    -39.029    626.239    627.428    626.239    626.239    626.239
 15.570    622.000    627.541     -5.541    626.375    627.541    626.375    626.375    626.375
 15.670    567.000    627.643    -60.643    626.501    627.642    626.501    626.501    626.501
 15.770    589.000    627.738    -38.738    626.618    627.737    626.618    626.618    626.618
 15.870    579.000    627.826    -48.826    626.726    627.826    626.726    626.726    626.726
 15.970    570.000    627.908    -57.908    626.826    627.908    626.826    626.826    626.826
 16.070    560.000    627.983    -67.983    626.917    627.983    626.917    626.917    626.917
 16.170    621.000    628.052     -7.052    626.999    628.052    626.999    626.999    626.999
 16.270    551.000    628.121    -77.121    627.073    628.121    627.073    627.073    627.073
 16.370    660.668    628.198     32.471    627.138    628.197    627.138    627.138    627.138
 16.470    632.139    628.247      3.892    627.195    628.247    627.195    627.195    627.195
 16.570    598.912    628.287    -29.375    627.244    628.287    627.244    627.244    627.244
 16.670    623.658    628.321     -4.663    627.284    628.320    627.284    627.284    627.284
 16.770    567.000    628.351    -61.351    627.316    628.351    627.316    627.316    627.316
 16.870    617.291    628.422    -11.131    627.341    628.422    627.341    627.341    627.341
 16.970    583.179    628.465    -45.285    627.357    628.464    627.357    627.357    627.357
 17.070    621.000    628.472     -7.472    627.365    628.472    627.365    627.365    627.365
 17.170    603.000    628.471    -25.471    627.366    628.471    627.366    627.366    627.366
 17.270    596.000    628.462    -32.462    627.359    628.462    627.359    627.359    627.359
 17.370    581.000    628.447    -47.447    627.344    628.447    627.344    627.344    627.344
 17.470    613.000    628.424    -15.424    627.322    628.424    627.322    627.322    627.322
 17.570    567.000    628.395    -61.395    627.292    628.395    627.292    627.292    627.292
 17.670    594.000    628.359    -34.359    627.255    628.359    627.255    627.255    627.255
 17.770    695.000    628.318     66.682    627.210    628.318    627.210    627.210    627.210
 17.870    601.000    628.293    -27.293    627.158    628.293    627.158    627.158    627.158
 17.970    596.913    628.277    -31.364    627.099    628.277    627.099    627.099    627.099
 18.070    570.000    628.219    -58.219    627.033    628.219    627.033    627.033    627.033
 18.170    624.000    628.156     -4.156    626.960    628.156    626.960    626.960    626.960
 18.270    607.442    628.141    -20.700    626.879    628.141    626.879    626.879    626.879
 18.370    594.757    628.106    -33.349    626.792    628.106    626.792    626.792    626.792
 18.470    650.748    628.025     22.724    626.698    628.025    626.698    626.698    626.698
 18.570    638.965    627.944     11.021    626.598    627.944    626.598    626.598    626.598
 18.670    606.000    627.855    -21.855    626.490    627.855    626.490    626.490    626.490
 18.770    599.000    627.757    -28.757    626.376    627.757    626.376    626.376    626.376
 18.870    582.504    627.690    -45.186    626.256    627.690    626.256    626.256    626.256
 18.970    670.007    627.582     42.425    626.129    627.582    626.129    626.129    626.129
 19.070    685.550    627.470     58.080    625.996    627.470    625.996    625.996    625.996
 19.170    590.000    627.342    -37.342    625.856    627.342    625.856    625.856    625.856
 19.270    625.000    627.210     -2.210    625.710    627.210    625.710    625.710    625.710
 19.370    622.000    627.075     -5.075    625.558    627.075    625.558    625.558    625.558
 19.470    574.000    626.936    -52.936    625.400    626.935    625.400    625.400    625.400
 19.570    582.000    626.788    -44.788    625.236    626.788    625.236    625.236    625.236
 19.670    624.000    626.634     -2.634    625.065    626.634    625.065    625.065    625.065
 19.770    569.000    626.474    -57.474    624.889    626.473    624.889    624.889    624.889
 19.870    666.300    626.308     39.992    624.707    626.308    624.707    624.707    624.707
 19.970    605.000    626.136    -21.136    624.520    626.136    624.520    624.520    624.520
 20.070    619.000    625.959     -6.959    624.326    625.960    624.326    624.326    624.326
 20.170    604.000    625.778    -21.778    624.127    625.778    624.127    624.127    624.127
 20.270    670.904    625.595     45.309    623.923    625.595    623.923    623.923    623.923
 20.370    683.165    625.411     57.754    623.713    625.411    623.713    623.713    623.713
 20.470    593.000    625.218    -32.218    623.497    625.218    623.497    623.497    623.497
 20.570    567.446    625.020    -57.575    623.277    625.020    623.277    623.277    623.277
 20.670    594.000    624.817    -30.817    623.051    624.817    623.051    623.051    623.051
 20.770    579.224    624.610    -45.386    622.819    624.610    622.819    622.819    622.819
 20.870    563.000    624.398    -61.398    622.583    624.398    622.583    622.583    622.583
 20.970    607.000    624.183    -17.183    622.341    624.183    622.341    622.341    622.341
 21.070    596.000    623.964    -27.964    622.095    623.964    622.095    622.095    622.095
 21.170    600.000    623.741    -23.741    621.843    623.741    621.843    621.843    621.843
 21.270    674.025    623.516     50.509    621.587    623.516    621.587    621.587    621.587
 21.370    596.000    623.288    -27.288    621.325    623.288    621.325    621.325    621.325
 21.470    573.000    623.057    -50.057    621.059    623.057    621.059    621.059    621.059
 21.570    580.000    622.823    -42.823    620.788    622.824    620.788    620.788    620.788
 21.670    658.842    622.588     36.254    620.513    622.588    620.513    620.513    620.513
 21.770    572.000    622.350    -50.350    620.233    622.350    620.233    620.233    620.233
 21.870    602.000    622.111    -20.111    619.948    622.111    619.948    619.948    619.948
 21.970    644.000    621.870     22.130    619.659    621.870    619.659    619.659    619.659
 22.070    576.000    621.629    -45.629    619.366    621.630    619.366    619.366    619.366
 22.170    579.000    621.388    -42.388    619.068    621.389    619.068    619.068    619.068
 22.270    543.000    621.149    -78.149    618.766    621.149    618.766    618.766    618.766
 22.370    606.000    620.911    -14.911    618.460    620.911    618.460    618.460    618.460
 22.470    587.000    620.674    -33.674    618.150    620.674    618.150    618.150    618.150
 22.570    583.000    620.440    -37.440    617.835    620.440    617.835    617.835    617.835
 22.670    677.913    620.210     57.703    617.517    620.211    617.517    617.517    617.517
 22.770    617.000    619.987     -2.987    617.194    619.987    617.194    617.194    617.194
 22.870    586.000    619.770    -33.770    616.868    619.771    616.868    616.868    616.868
 22.970    664.382    619.564     44.818    616.537    619.565    616.537    616.537    616.537
 23.070    600.789    619.371    -18.582    616.203    619.372    616.203    616.203    616.203
 23.170    619.693    619.195      0.498    615.865    619.196    615.865    615.865    615.865
 23.270    600.142    619.039    -18.897    615.524    619.040    615.524    615.524    615.524
 23.370    588.000    618.910    -30.910    615.178    618.911    615.178    615.178    615.178
 23.470    641.000    618.816     22.184    614.830    618.817    614.830    614.830    614.830
 23.570    605.000    618.767    -13.767    614.477    618.768    614.477    614.477    614.477
 23.670    625.000    618.778      6.222    614.121    618.780    614.121    614.121    614.121
 23.770    664.000    618.871     45.129    613.762    618.873    613.762    613.762    613.762
 23.870    567.000    619.076    -52.076    613.400    619.078    613.400    613.400    613.400
 23.970    631.000    619.445     11.555    613.034    619.448    613.034    613.034    613.034
 24.070    671.049    620.077     50.971    612.665    620.081    612.665    612.665    612.665
 24.170    593.000    621.191    -28.191    612.292    621.195    612.292    612.292    612.292
 24.270    591.000    623.257    -32.257    611.917    623.263    611.917    611.917    611.917
 24.370    618.000    627.217     -9.217    611.538    627.226    611.538    611.538    611.538
 24.470    633.232    634.544     -1.311    611.157    634.558    611.157    611.157    611.157
 24.570    672.000    646.840     25.160    610.772    646.863    610.772    610.772    610.772
 24.670    701.000    664.649     36.351    610.385    664.685    610.385    610.385    610.385
 24.770    710.310    685.375     24.935    609.995    685.425    609.995    609.995    609.995
 24.870    689.000    701.396    -12.396    609.601    701.458    609.601    609.601    609.601
 24.970    768.334    703.175     65.159    609.205    703.239    609.205    609.205    609.205
 25.070    726.011    689.106     36.905    608.807    689.160    608.807    608.807    608.807
 25.170    610.101    667.872    -57.771    608.405    667.912    608.405    608.405    608.405
 25.270    749.000    648.339    100.661    608.002    648.365    608.002    608.002    608.002
 25.370    673.000    634.151     38.849    607.595    634.167    607.595    607.595    607.595
 25.470    601.611    625.253    -23.641    607.186    625.262    607.186    607.186    607.186
 25.570    638.000    620.120     17.880    606.775    620.126    606.775    606.775    606.775
 25.670    672.797    617.177     55.619    606.361    617.182    606.361    606.361    606.361
 25.770    636.126    615.363     20.763    605.944    615.366    605.944    605.944    605.944
 25.870    656.000    614.117     41.883    605.526    614.120    605.526    605.526    605.526
 25.970    738.000    613.186    124.814    605.105    613.188    605.105    605.105    605.105
 26.070    643.000    612.458     30.542    604.682    612.460    604.682    604.682    604.682
 26.170    595.062    611.880    -16.819    604.257    611.881    604.257    604.257    604.257
 26.270    671.000    611.422     59.578    603.829    611.423    603.829    603.829    603.829
 26.370    674.000    611.069     62.931    603.400    611.070    603.400    603.400    603.400
 26.470    589.510    610.813    -21.303    602.968    610.814    602.968    602.968    602.968
 26.570    705.000    610.653     94.347    602.535    610.653    602.535    602.535    602.535
 26.670    683.000    610.593     72.407    602.099    610.593    602.099    602.099    602.099
 26.770    630.000    610.643     19.357    601.662    610.643    601.662    601.662    601.662
 26.870    634.000    610.821     23.179    601.223    610.821    601.223    601.223    601.223
 26.970    692.000    611.152     80.848    600.782    611.151    600.782    600.782    600.782
 27.070    636.000    611.672     24.328    600.339    611.671    600.339    600.339    600.339
 27.170    582.768    612.433    -29.665    599.895    612.431    599.895    599.895    599.895
 27.270    694.000    613.510     80.490    599.449    613.508    599.449    599.449    599.449
 27.370    600.930    615.016    -14.086    599.001    615.013    599.001    599.001    599.001
 27.470    735.000    617.143    117.857    598.552    617.140    598.552    598.552    598.552
 27.570    678.000    620.293     57.707    598.101    620.288    598.101    598.101    598.101
 27.670    696.000    625.477     70.523    597.649    625.471    597.649    597.649    597.649
 27.770    700.000    635.289     64.711    597.195    635.279    597.195    597.195    597.195
 27.870    695.000    655.358     39.642    596.740    655.339    596.740    596.740    596.740
 27.970    712.421    694.732     17.689    596.284    694.698    596.284    596.284    596.284
 28.070    828.000    761.929     66.071    595.826    761.876    595.826    595.826    595.826
 28.170    800.414    854.975    -54.561    595.367    854.903    595.367    595.367    595.367
 28.270    992.000    949.033     42.967    594.906    948.954    594.906    594.906    594.906
 28.370    929.471    994.753    -65.282    594.445    994.683    594.445    594.445    594.445
 28.470   1040.000    961.715     78.285    593.982    961.663    593.982    593.982    593.982
 28.570    990.000    886.637    103.363    593.519    886.602    593.519    593.519    593.519
 28.670    922.000    825.010     96.990    593.054    824.984    593.054    593.054    593.054
 28.770    859.000    805.703     53.297    592.588    805.680    592.588    592.588    592.588
 28.870    903.000    827.884     75.116    592.121    827.859    592.121    592.121    592.121
 28.970    949.000    866.971     82.029    591.653    866.947    591.653    591.653    591.653
 29.070    861.379    883.554    -22.174    591.185    883.537    591.185    591.185    591.185
 29.170    966.000    852.624    113.376    590.715    852.620    590.715    590.715    590.715
 29.270    859.526    790.612     68.914    590.245    790.617    590.245    590.245    590.245
 29.370    752.033    727.007     25.026    589.774    727.015    589.774    589.774    589.774
 29.470    706.999    677.823     29.176    589.302    677.829    589.302    589.302    589.302
 29.570    632.813    645.960    -13.148    588.829    645.964    588.829    588.829    588.829
 29.670    692.000    627.613     64.387    588.356    627.614    588.356    588.356    588.356
 29.770    651.743    617.527     34.215    587.882    617.527    587.882    587.882    587.882
 29.870    722.000    611.759    110.241    587.407    611.758    587.407    587.407    587.407
 29.970    546.516    608.135    -61.619    586.932    608.133    586.932    586.932    586.932
 30.070    643.823    605.679     38.144    586.456    605.676    586.456    586.456    586.456
 30.170    710.000    604.018    105.982    585.980    604.014    585.980    585.980    585.980
 30.270    707.000    603.081    103.919    585.504    603.077    585.504    585.504    585.504
 30.370    707.000    603.042    103.958    585.027    603.037    585.027    585.027    585.027
