neutron_powder_diffraction_0116
R_wp: 3.909
Temperature (K): 966.984
Counts: 83604.00
Wavelength (Ã…): 2.52098
COMMENTS
Test file for demonstrating the .xyy file format in Reel1.0
END OF HEADER
   tth       Y_obs     Y_calc      Y_res    Background    Phase_1_Nuc    Phase_1_Mag    Phase_2_Nuc    Phase_2_Mag
  9.970    595.000    550.836     44.164    549.707    550.684    549.707    549.859    549.707
 10.070    587.000    551.345     35.655    550.133    551.193    550.133    550.285    550.133
 10.170    566.000    551.856     14.144    550.549    551.703    550.549    550.701    550.549
 10.270    584.000    552.372     31.628    550.955    552.218    550.955    551.108    550.955
 10.370    556.230    552.895      3.335    551.351    552.740    551.351    551.505    551.351
 10.470    539.000    553.430    -14.430    551.737    553.274    551.737    551.892    551.737
 10.570    624.000    553.983     70.017    552.114    553.827    552.114    552.269    552.114
 10.670    586.000    554.562     31.438    552.482    554.406    552.482    552.637    552.482
 10.770    608.000    555.171     52.829    552.840    555.013    552.840    552.996    552.840
 10.870    560.702    555.824      4.878    553.188    555.666    553.188    553.345    553.188
 10.970    560.000    556.539      3.461    553.528    556.380    553.528    553.685    553.528
 11.070    544.000    557.340    -13.340    553.858    557.179    553.858    554.016    553.858
 11.170    543.000    558.261    -15.261    554.179    558.099    554.179    554.338    554.179
 11.270    552.000    559.357     -7.357    554.491    559.194    554.491    554.651    554.491
 11.370    538.400    560.725    -22.325    554.794    560.562    554.794    554.955    554.794
 11.470    562.625    562.578      0.048    555.088    562.412    555.088    555.250    555.088
 11.570    581.006    565.427     15.579    555.374    565.260    555.374    555.536    555.374
 11.670    526.812    570.459    -43.647    555.650    570.289    555.650    555.813    555.650
 11.770    635.000    579.927     55.073    555.918    579.750    555.918    556.082    555.918
 11.870    658.000    596.909     61.091    556.178    596.723    556.178    556.342    556.178
 11.970    599.000    623.468    -24.468    556.429    623.268    556.429    556.594    556.429
 12.070    617.889    656.849    -38.960    556.672    656.630    556.672    556.837    556.672
 12.170    706.000    685.387     20.613    556.906    685.152    556.906    557.072    556.906
 12.270    647.717    691.895    -44.178    557.132    691.656    557.132    557.299    557.132
 12.370    649.000    671.136    -22.136    557.350    670.908    557.350    557.517    557.350
 12.470    645.000    637.879      7.121    557.559    637.667    557.559    557.728    557.559
 12.570    624.163    607.992     16.171    557.761    607.795    557.761    557.930    557.761
 12.670    553.606    587.564    -33.958    557.954    587.378    557.954    558.125    557.954
 12.770    586.708    575.888     10.820    558.140    575.708    558.140    558.311    558.140
 12.870    559.000    569.895    -10.895    558.318    569.717    558.318    558.490    558.318
 12.970    557.000    566.850     -9.850    558.488    566.673    558.488    558.661    558.488
 13.070    580.681    565.159     15.522    558.651    564.982    558.651    558.824    558.651
 13.170    551.000    564.097    -13.097    558.805    563.920    558.805    558.980    558.805
 13.270    579.000    563.370     15.630    558.953    563.193    558.953    559.128    558.953
 13.370    554.000    562.852     -8.852    559.093    562.674    559.093    559.268    559.093
 13.470    527.000    562.472    -35.472    559.225    562.293    559.225    559.402    559.225
 13.570    536.191    562.191    -26.000    559.350    562.012    559.350    559.528    559.350
 13.670    546.099    561.983    -15.883    559.468    561.803    559.468    559.646    559.468
 13.770    497.000    561.828    -64.828    559.578    561.647    559.578    559.758    559.578
 13.870    540.000    561.712    -21.712    559.682    561.531    559.682    559.862    559.682
 13.970    556.000    561.626     -5.626    559.778    561.444    559.778    559.959    559.778
 14.070    514.000    561.562    -47.562    559.868    561.379    559.868    560.050    559.868
 14.170    490.000    561.514    -71.514    559.950    561.330    559.950    560.133    559.950
 14.270    547.046    561.478    -14.432    560.026    561.293    560.026    560.210    560.026
 14.370    536.000    561.451    -25.451    560.095    561.265    560.095    560.280    560.095
 14.470    591.836    561.430     30.406    560.157    561.244    560.157    560.343    560.157
 14.570    540.690    561.413    -20.723    560.213    561.226    560.213    560.399    560.213
 14.670    574.000    561.399     12.601    560.262    561.211    560.262    560.449    560.262
 14.770    602.889    561.386     41.503    560.304    561.197    560.304    560.493    560.304
 14.870    571.112    561.373      9.740    560.340    561.183    560.340    560.530    560.340
 14.970    524.000    561.359    -37.359    560.369    561.168    560.369    560.560    560.369
 15.070    532.407    561.344    -28.937    560.393    561.152    560.393    560.584    560.393
 15.170    570.196    561.327      8.870    560.410    561.134    560.410    560.602    560.410
 15.270    511.000    561.307    -50.307    560.421    561.113    560.421    560.614    560.421
 15.370    564.000    561.285      2.715    560.425    561.090    560.425    560.620    560.425
 15.470    521.451    561.259    -39.808    560.424    561.063    560.424    560.620    560.424
 15.570    549.000    561.230    -12.230    560.417    561.033    560.417    560.613    560.417
 15.670    561.159    561.197     -0.038    560.403    560.999    560.403    560.601    560.403
 15.770    561.000    561.161     -0.161    560.384    560.961    560.384    560.583    560.384
 15.870    516.831    561.120    -44.289    560.359    560.920    560.359    560.559    560.359
 15.970    558.000    561.078     -3.078    560.328    560.876    560.328    560.530    560.328
 16.070    514.593    561.051    -46.458    560.292    560.849    560.292    560.494    560.292
 16.170    599.546    561.006     38.540    560.250    560.802    560.250    560.454    560.250
 16.270    545.646    560.949    -15.303    560.202    560.744    560.202    560.407    560.202
 16.370    577.000    560.888     16.112    560.149    560.682    560.149    560.355    560.149
 16.470    556.000    560.822     -4.822    560.091    560.614    560.091    560.298    560.091
 16.570    552.364    560.754     -8.390    560.027    560.545    560.027    560.235    560.027
 16.670    534.400    560.714    -26.314    559.957    560.504    559.957    560.167    559.957
 16.770    564.000    560.727      3.273    559.883    560.516    559.883    560.094    559.883
 16.870    528.000    560.653    -32.653    559.803    560.440    559.803    560.016    559.803
 16.970    536.000    560.565    -24.565    559.718    560.351    559.718    559.932    559.718
 17.070    583.000    560.473     22.527    559.629    560.257    559.629    559.844    559.629
 17.170    583.433    560.377     23.056    559.534    560.161    559.534    559.750    559.534
 17.270    556.000    560.280     -4.280    559.434    560.062    559.434    559.652    559.434
 17.370    558.468    560.175     -1.706    559.329    559.955    559.329    559.548    559.329
 17.470    555.000    560.065     -5.065    559.219    559.844    559.219    559.440    559.219
 17.570    520.190    559.951    -39.761    559.105    559.729    559.105    559.327    559.105
 17.670    577.000    559.833     17.167    558.986    559.609    558.986    559.209    558.986
 17.770    572.000    559.711     12.289    558.862    559.486    558.862    559.087    558.862
 17.870    547.000    559.584    -12.584    558.733    559.358    558.733    558.960    558.733
 17.970    532.000    559.454    -27.454    558.600    559.226    558.600    558.829    558.600
 18.070    519.000    559.319    -40.319    558.463    559.089    558.463    558.693    558.463
 18.170    595.188    559.181     36.007    558.321    558.949    558.321    558.552    558.321
 18.270    592.217    559.038     33.179    558.175    558.805    558.175    558.408    558.175
 18.370    588.000    558.892     29.108    558.024    558.657    558.024    558.259    558.024
 18.470    577.446    558.743     18.703    557.869    558.506    557.869    558.105    557.869
 18.570    561.000    558.607      2.393    557.710    558.369    557.710    557.948    557.710
 18.670    579.150    558.512     20.638    557.546    558.272    557.546    557.786    557.546
 18.770    549.000    558.357     -9.357    557.379    558.115    557.379    557.620    557.379
 18.870    569.000    558.192     10.808    557.207    557.949    557.207    557.451    557.207
 18.970    519.296    558.024    -38.728    557.032    557.779    557.032    557.277    557.032
 19.070    523.000    557.855    -34.855    556.852    557.608    556.852    557.099    556.852
 19.170    545.000    557.682    -12.682    556.669    557.433    556.669    556.918    556.669
 19.270    556.000    557.504     -1.504    556.482    557.253    556.482    556.733    556.482
 19.370    559.000    557.322      1.678    556.290    557.069    556.290    556.543    556.290
 19.470    532.000    557.137    -25.137    556.096    556.882    556.096    556.351    556.096
 19.570    580.000    556.949     23.051    555.897    556.692    555.897    556.154    555.897
 19.670    557.000    556.757      0.243    555.695    556.498    555.695    555.954    555.695
 19.770    567.792    556.568     11.224    555.489    556.306    555.489    555.751    555.489
 19.870    561.976    556.418      5.557    555.280    556.155    555.280    555.543    555.280
 19.970    534.603    556.226    -21.623    555.067    555.960    555.067    555.333    555.067
 20.070    524.000    556.024    -32.024    554.851    555.755    554.851    555.119    554.851
 20.170    546.000    555.818     -9.818    554.631    555.548    554.631    554.902    554.631
 20.270    553.000    555.610     -2.610    554.408    555.338    554.408    554.681    554.408
 20.370    566.000    555.400     10.600    554.182    555.125    554.182    554.457    554.182
 20.470    589.491    555.187     34.304    553.952    554.909    553.952    554.230    553.952
 20.570    546.000    554.974     -8.974    553.720    554.694    553.720    554.000    553.720
 20.670    558.000    554.768      3.232    553.484    554.485    553.484    553.767    553.484
 20.770    529.000    554.560    -25.560    553.245    554.274    553.245    553.531    553.245
 20.870    569.000    554.342     14.658    553.003    554.053    553.003    553.292    553.003
 20.970    558.000    554.119      3.881    552.758    553.827    552.758    553.050    552.758
 21.070    557.693    553.894      3.799    552.510    553.599    552.510    552.805    552.510
 21.170    529.191    553.669    -24.478    552.259    553.371    552.259    552.557    552.259
 21.270    592.345    553.457     38.888    552.005    553.156    552.005    552.306    552.005
 21.370    579.000    553.239     25.761    551.749    552.935    551.749    552.053    551.749
 21.470    520.000    553.014    -33.014    551.489    552.707    551.489    551.797    551.489
 21.570    591.012    552.809     38.203    551.227    552.498    551.227    551.538    551.227
 21.670    516.273    552.588    -36.316    550.963    552.274    550.963    551.277    550.963
 21.770    541.000    552.382    -11.382    550.695    552.065    550.695    551.013    550.695
 21.870    551.000    552.155     -1.155    550.425    551.834    550.425    550.747    550.425
 21.970    547.000    551.926     -4.926    550.153    551.600    550.153    550.478    550.153
 22.070    582.437    551.702     30.735    549.878    551.373    549.878    550.207    549.878
 22.170    553.000    551.519      1.481    549.601    551.186    549.601    549.934    549.601
 22.270    579.954    551.312     28.643    549.321    550.974    549.321    549.659    549.321
 22.370    513.298    551.101    -37.803    549.039    550.759    549.039    549.381    549.039
 22.470    527.000    550.884    -23.884    548.754    550.538    548.754    549.101    548.754
 22.570    568.000    550.669     17.331    548.467    550.319    548.467    548.819    548.467
 22.670    523.670    550.462    -26.793    548.178    550.107    548.178    548.534    548.178
 22.770    584.891    550.286     34.605    547.887    549.925    547.887    548.248    547.887
 22.870    550.000    550.135     -0.135    547.594    549.769    547.594    547.960    547.594
 22.970    568.000    549.957     18.043    547.298    549.586    547.298    547.670    547.298
 23.070    580.649    549.790     30.859    547.001    549.414    547.001    547.378    547.001
 23.170    538.000    549.643    -11.643    546.701    549.261    546.701    547.084    546.701
 23.270    512.000    549.517    -37.517    546.400    549.129    546.400    546.789    546.400
 23.370    559.420    549.424      9.996    546.097    549.030    546.097    546.492    546.097
 23.470    574.000    549.370     24.630    545.791    548.969    545.791    546.193    545.791
 23.570    521.605    549.373    -27.768    545.484    548.967    545.484    545.892    545.484
 23.670    582.000    549.429     32.571    545.175    549.015    545.175    545.590    545.175
 23.770    575.000    549.575     25.425    544.864    549.154    544.864    545.287    544.864
 23.870    542.774    549.851     -7.077    544.552    549.423    544.552    544.982    544.552
 23.970    554.000    550.324      3.676    544.238    549.888    544.238    544.676    544.238
 24.070    514.134    551.153    -37.019    543.922    550.710    543.922    544.368    543.922
 24.170    599.000    552.715     46.285    543.604    552.265    543.604    544.060    543.604
 24.270    559.000    555.838      3.162    543.285    555.381    543.285    543.750    543.285
 24.370    614.000    562.030     51.970    542.965    561.569    542.965    543.439    542.965
 24.470    561.397    573.237    -11.840    542.643    572.774    542.643    543.127    542.643
 24.570    547.956    590.607    -42.652    542.319    590.147    542.319    542.814    542.319
 24.670    646.000    612.127     33.873    541.994    611.672    541.994    542.500    541.994
 24.770    608.000    630.204    -22.204    541.668    629.750    541.668    542.185    541.668
 24.870    647.973    633.975     13.998    541.341    633.512    541.341    541.870    541.341
 24.970    645.000    620.190     24.810    541.012    619.705    541.012    541.554    541.012
 25.070    584.512    598.104    -13.592    540.681    597.589    540.681    541.238    540.681
 25.170    549.000    577.872    -28.872    540.350    577.326    540.350    540.921    540.350
 25.270    528.517    563.625    -35.109    540.017    563.054    540.017    540.604    540.017
 25.370    583.744    555.135     28.608    539.683    554.542    539.683    540.286    539.683
 25.470    605.000    550.526     54.474    539.348    549.911    539.348    539.969    539.348
 25.570    569.000    548.011     20.989    539.012    547.376    539.012    539.651    539.012
 25.670    582.000    546.492     35.508    538.675    545.837    538.675    539.334    538.675
 25.770    567.178    545.448     21.731    538.337    544.771    538.337    539.016    538.337
 25.870    540.000    544.661     -4.661    537.998    543.961    537.998    538.700    537.998
 25.970    584.000    544.041     39.959    537.658    543.317    537.658    538.384    537.658
 26.070    548.000    543.544      4.456    537.317    542.793    537.317    538.069    537.317
 26.170    568.275    543.143     25.132    536.975    542.365    536.975    537.754    536.975
 26.270    522.000    542.825    -20.825    536.632    542.017    536.632    537.441    536.632
 26.370    585.000    542.582     42.418    536.289    541.742    536.289    537.130    536.289
 26.470    543.000    542.409      0.591    535.945    541.533    535.945    536.821    535.945
 26.570    572.000    542.307     29.693    535.600    541.394    535.600    536.513    535.600
 26.670    511.560    542.283    -30.724    535.254    541.329    535.254    536.208    535.254
 26.770    587.000    542.347     44.653    534.907    541.348    534.907    535.906    534.907
 26.870    560.000    542.512     17.488    534.560    541.465    534.560    535.608    534.560
 26.970    545.000    542.802      2.198    534.213    541.702    534.213    535.313    534.213
 27.070    525.171    543.249    -18.079    533.864    542.090    533.864    535.023    533.864
 27.170    554.579    543.897     10.682    533.516    542.674    533.516    534.738    533.516
 27.270    529.000    544.815    -15.815    533.166    543.521    533.166    534.459    533.166
 27.370    590.000    546.109     43.891    532.816    544.736    532.816    534.188    532.816
 27.470    586.000    547.979     38.021    532.466    546.519    532.466    533.924    532.466
 27.570    553.000    550.932      2.068    532.115    549.375    532.115    533.670    532.115
 27.670    617.000    556.515     60.485    531.764    554.848    531.764    533.427    531.764
 27.770    563.000    569.055     -6.055    531.413    567.263    531.413    533.196    531.413
 27.870    653.000    597.794     55.206    531.061    595.858    531.061    532.979    531.061
 27.970    644.000    655.358    -11.358    530.709    653.252    530.709    532.779    530.709
 28.070    774.308    746.912     27.396    530.356    744.610    530.356    532.598    530.356
 28.170    840.000    852.286    -12.286    530.004    849.771    530.004    532.437    530.004
 28.270    942.000    919.060     22.940    529.651    916.328    529.651    532.301    529.651
 28.370    885.000    902.223    -17.223    529.298    899.274    529.298    532.191    529.298
 28.470    769.677    823.957    -54.280    528.945    820.763    528.945    532.111    528.945
 28.570    755.580    746.649      8.932    528.591    743.164    528.591    532.063    528.591
 28.670    725.899    714.813     11.087    528.238    710.990    528.238    532.049    528.238
 28.770    738.000    735.587      2.413    527.884    731.387    527.884    532.070    527.884
 28.870    838.776    784.294     54.482    527.531    779.683    527.531    532.125    527.531
 28.970    761.000    816.365    -55.365    527.177    811.324    527.177    532.210    527.177
 29.070    782.782    797.142    -14.361    526.824    791.654    526.824    532.318    526.824
 29.170    688.000    736.155    -48.155    526.470    730.205    526.470    532.434    526.470
 29.270    655.000    667.068    -12.068    526.117    660.660    526.117    532.539    526.117
 29.370    578.000    613.206    -35.206    525.763    606.373    525.763    532.607    525.763
 29.470    535.307    579.996    -44.689    525.410    572.805    525.410    532.607    525.410
 29.570    554.558    562.531     -7.974    525.057    555.081    525.057    532.509    525.057
 29.670    565.979    553.909     12.069    524.704    546.326    524.704    532.288    524.704
 29.770    572.000    549.336     22.664    524.351    541.757    524.351    531.930    524.351
 29.870    556.000    546.462      9.538    523.998    539.024    523.998    531.436    523.998
 29.970    557.000    544.373     12.627    523.646    537.198    523.646    530.821    523.646
 30.070    538.000    542.772     -4.772    523.294    535.955    523.294    530.110    523.294
 30.170    544.521    541.611      2.910    522.942    535.216    522.942    529.336    522.942
 30.270    597.000    541.028     55.972    522.591    535.089    522.591    528.528    522.591
 30.370    560.000    541.460     18.540    522.240    535.986    522.240    527.711    522.240
