neutron_powder_diffraction_0029
R_wp: 3.712
Temperature (K): 538.356
Counts: 83765.00
Wavelength (Ã…): 2.52098
COMMENTS
Test file for demonstrating the .xyy file format in Reel1.0
END OF HEADER
   tth       Y_obs     Y_calc      Y_res    Background    Phase_1_Nuc    Phase_1_Mag    Phase_2_Nuc    Phase_2_Mag
  9.970    707.000    710.541     -3.541    708.883    709.939    709.485    708.883    708.883
 10.070    738.000    709.649     28.351    707.900    709.040    708.508    707.900    707.900
 10.170    732.074    708.772     23.302    706.920    708.157    707.534    706.920    706.920
 10.270    716.000    707.914      8.086    705.945    707.292    706.565    705.945    705.945
 10.370    709.255    707.076      2.179    704.973    706.448    705.601    704.973    704.973
 10.470    672.431    706.263    -33.832    704.005    705.628    704.640    704.005    704.005
 10.570    704.688    705.478     -0.790    703.042    704.836    703.683    703.042    703.042
 10.670    691.000    704.729    -13.729    702.082    704.080    702.730    702.082    702.082
 10.770    746.234    704.023     42.212    701.126    703.366    701.781    701.126    701.126
 10.870    755.435    703.370     52.065    700.174    702.706    700.837    700.174    700.174
 10.970    731.000    702.784     28.216    699.227    702.112    699.896    699.227    699.227
 11.070    668.000    702.285    -34.285    698.283    701.605    698.960    698.283    698.283
 11.170    714.788    701.900     12.888    697.343    701.213    698.028    697.343    697.343
 11.270    660.000    701.671    -41.671    696.407    700.976    697.100    696.407    696.407
 11.370    780.000    701.667     78.333    695.475    700.963    696.176    695.475    695.475
 11.470    716.000    702.008     13.992    694.547    701.296    695.256    694.547    694.547
 11.570    756.793    702.967     53.826    693.623    702.244    694.340    693.623    693.623
 11.670    741.000    705.140     35.860    692.703    704.408    693.429    692.703    692.703
 11.770    658.685    709.724    -51.039    691.787    708.980    692.521    691.787    691.787
 11.870    753.000    718.649     34.351    690.875    717.891    691.617    690.875    690.875
 11.970    844.000    734.123    109.877    689.967    733.348    690.718    689.967    689.967
 12.070    834.000    757.077     76.923    689.062    756.279    689.823    689.062    689.062
 12.170    862.000    784.367     77.633    688.162    783.544    688.932    688.162    688.162
 12.270    835.000    805.978     29.022    687.266    805.133    688.045    687.266    687.266
 12.370    879.000    808.772     70.228    686.374    807.916    687.162    686.374    686.374
 12.470    825.238    789.775     35.463    685.486    788.920    686.284    685.486    685.486
 12.570    778.000    760.808     17.192    684.601    759.959    685.409    684.601    684.601
 12.670    729.000    734.142     -5.142    683.721    733.297    684.539    683.721    683.721
 12.770    757.000    714.716     42.284    682.845    713.871    683.673    682.845    682.845
 12.870    719.000    702.380     16.620    681.972    701.531    682.811    681.972    681.972
 12.970    659.565    695.050    -35.485    681.104    694.194    681.953    681.104    681.104
 13.070    661.000    690.607    -29.607    680.240    689.743    681.099    680.240    680.240
 13.170    686.000    687.639     -1.639    679.379    686.764    680.250    679.379    679.379
 13.270    683.000    685.406     -2.406    678.523    684.521    679.404    678.523    678.523
 13.370    654.000    683.573    -29.573    677.670    682.678    678.563    677.670    677.670
 13.470    614.000    681.988    -67.988    676.822    681.082    677.726    676.822    676.822
 13.570    686.000    680.574      5.426    675.977    679.656    676.893    675.977    675.977
 13.670    697.292    679.284     18.008    675.137    678.355    676.065    675.137    675.137
 13.770    691.000    678.088     12.912    674.300    677.146    675.240    674.300    674.300
 13.870    692.000    676.966     15.034    673.467    676.012    674.420    673.467    673.467
 13.970    712.197    675.924     36.273    672.639    674.956    673.605    672.639    672.639
 14.070    707.000    674.910     32.090    671.814    673.930    672.793    671.814    671.814
 14.170    637.241    673.926    -36.686    670.993    672.933    671.986    670.993    670.993
 14.270    658.000    672.973    -14.973    670.176    671.966    671.183    670.176    670.176
 14.370    635.000    672.045    -37.045    669.364    671.024    670.384    669.364    669.364
 14.470    670.000    671.140     -1.140    668.555    670.105    669.589    668.555    668.555
 14.570    680.055    670.253      9.803    667.750    669.204    668.798    667.750    667.750
 14.670    664.000    669.383     -5.383    666.949    668.319    668.012    666.949    666.949
 14.770    659.000    668.527     -9.527    666.152    667.448    667.230    666.152    666.152
 14.870    694.388    667.685     26.704    665.359    666.590    666.452    665.359    665.359
 14.970    686.000    666.856     19.144    664.570    665.746    665.679    664.570    664.570
 15.070    641.000    666.040    -25.040    663.784    664.914    664.910    663.784    663.784
 15.170    658.000    665.230     -7.230    663.003    664.088    664.145    663.003    663.003
 15.270    623.101    664.429    -41.328    662.226    663.270    663.385    662.226    662.226
 15.370    615.683    663.637    -47.954    661.452    662.461    662.628    661.452    661.452
 15.470    652.899    662.853     -9.954    660.683    661.659    661.876    660.683    660.683
 15.570    657.000    662.076     -5.076    659.917    660.864    661.129    659.917    659.917
 15.670    606.000    661.307    -55.307    659.156    660.077    660.386    659.156    659.156
 15.770    639.000    660.545    -21.545    658.398    659.296    659.647    658.398    658.398
 15.870    692.000    659.789     32.211    657.644    658.521    658.912    657.644    657.644
 15.970    627.000    659.040    -32.040    656.895    657.752    658.182    656.895    656.895
 16.070    678.130    658.297     19.833    656.149    656.989    657.456    656.149    656.149
 16.170    650.000    657.560     -7.560    655.407    656.232    656.735    655.407    655.407
 16.270    670.469    656.829     13.640    654.669    655.480    656.018    654.669    654.669
 16.370    603.000    656.105    -53.105    653.934    654.733    655.305    653.934    653.934
 16.470    703.363    655.391     47.972    653.204    653.998    654.597    653.204    653.204
 16.570    664.000    654.679      9.321    652.478    653.263    653.894    652.478    652.478
 16.670    670.000    653.971     16.029    651.755    652.532    653.194    651.755    651.755
 16.770    632.000    653.269    -21.269    651.037    651.806    652.500    651.037    651.037
 16.870    689.000    652.573     36.427    650.322    651.085    651.810    650.322    650.322
 16.970    589.000    651.897    -62.897    649.611    650.384    651.125    649.611    649.611
 17.070    597.000    651.248    -54.248    648.904    649.708    650.445    648.904    648.904
 17.170    625.000    650.611    -25.611    648.201    649.044    649.769    648.201    648.201
 17.270    610.000    649.940    -39.940    647.502    648.345    649.097    647.502    647.502
 17.370    629.670    649.270    -19.600    646.807    647.647    648.430    646.807    646.807
 17.470    597.000    648.605    -51.605    646.116    646.954    647.767    646.116    646.116
 17.570    654.000    647.952      6.048    645.428    646.272    647.109    645.428    645.428
 17.670    628.000    647.322    -19.322    644.745    645.611    646.455    644.745    644.745
 17.770    627.000    646.675    -19.675    644.065    644.934    645.806    644.065    644.065
 17.870    628.000    646.031    -18.031    643.389    644.258    645.162    643.389    643.389
 17.970    645.000    645.392     -0.392    642.717    643.587    644.522    642.717    642.717
 18.070    627.000    644.759    -17.759    642.049    642.920    643.888    642.049    642.049
 18.170    652.741    644.131      8.610    641.384    642.257    643.258    641.384    641.384
 18.270    654.000    643.508     10.492    640.724    641.598    642.633    640.724    640.724
 18.370    696.000    642.890     53.110    640.067    640.944    642.012    640.067    640.067
 18.470    627.000    642.278    -15.278    639.414    640.295    641.397    639.414    639.414
 18.570    688.946    641.678     47.267    638.765    639.656    640.787    638.765    638.765
 18.670    634.000    641.083     -7.083    638.120    639.021    640.182    638.120    638.120
 18.770    646.000    640.488      5.512    637.478    638.385    639.581    637.478    637.478
 18.870    680.563    639.898     40.665    636.841    637.752    638.986    636.841    636.841
 18.970    612.000    639.313    -27.313    636.207    637.124    638.396    636.207    636.207
 19.070    634.000    638.733     -4.733    635.577    636.500    637.811    635.577    635.577
 19.170    644.000    638.166      5.834    634.951    635.885    637.233    634.951    634.951
 19.270    598.731    637.665    -38.934    634.328    635.316    636.677    634.328    634.328
 19.370    645.000    637.114      7.886    633.710    634.713    636.110    633.710    633.710
 19.470    654.265    636.566     17.699    633.095    634.114    635.547    633.095    633.095
 19.570    599.000    636.036    -37.036    632.484    633.531    634.989    632.484    632.484
 19.670    627.000    635.495     -8.495    631.877    632.935    634.436    631.877    631.877
 19.770    645.796    634.958     10.838    631.273    632.342    633.889    631.273    631.273
 19.870    611.000    634.429    -23.429    630.673    631.755    633.348    630.673    630.673
 19.970    666.608    633.923     32.685    630.077    631.180    632.820    630.077    630.077
 20.070    653.223    633.454     19.769    629.485    630.633    632.305    629.485    629.485
 20.170    582.000    632.973    -50.973    628.897    630.086    631.783    628.897    628.897
 20.270    593.147    632.527    -39.380    628.312    629.572    631.266    628.312    628.312
 20.370    671.256    632.048     39.207    627.731    629.024    630.755    627.731    627.731
 20.470    675.540    631.577     43.963    627.153    628.480    630.250    627.153    627.153
 20.570    646.381    631.111     15.271    626.580    627.939    629.751    626.580    626.580
 20.670    628.000    630.668     -2.668    626.010    627.419    629.259    626.010    626.010
 20.770    621.000    630.204     -9.204    625.444    626.874    628.773    625.444    625.444
 20.870    596.000    629.744    -33.744    624.881    626.331    628.294    624.881    624.881
 20.970    637.000    629.298      7.702    624.323    625.797    627.824    624.323    624.323
 21.070    622.000    628.864     -6.864    623.768    625.269    627.363    623.768    623.768
 21.170    651.029    628.435     22.594    623.216    624.745    626.906    623.216    623.216
 21.270    593.507    628.015    -34.508    622.669    624.229    626.455    622.669    622.669
 21.370    566.000    627.609    -61.609    622.125    623.721    626.012    622.125    622.125
 21.470    590.863    627.202    -36.339    621.584    623.209    625.577    621.584    621.584
 21.570    657.644    626.804     30.840    621.048    622.701    625.150    621.048    621.048
 21.670    618.000    626.416     -8.416    620.514    622.199    624.731    620.514    620.514
 21.770    620.456    626.039     -5.583    619.985    621.703    624.321    619.985    619.985
 21.870    639.449    625.674     13.775    619.459    621.214    623.920    619.459    619.459
 21.970    644.000    625.322     18.678    618.937    620.731    623.528    618.937    618.937
 22.070    641.000    624.980     16.020    618.419    620.254    623.145    618.419    618.419
 22.170    642.826    624.652     18.174    617.904    619.784    622.772    617.904    617.904
 22.270    647.000    624.339     22.661    617.393    619.322    622.410    617.393    617.393
 22.370    672.901    624.041     48.860    616.885    618.869    622.058    616.885    616.885
 22.470    637.000    623.759     13.241    616.381    618.423    621.717    616.381    616.381
 22.570    656.309    623.495     32.814    615.881    617.987    621.389    615.881    615.881
 22.670    657.000    623.254     33.746    615.384    617.565    621.073    615.384    615.384
 22.770    668.538    623.028     45.509    614.891    617.150    620.769    614.891    614.891
 22.870    656.000    622.824     33.176    614.401    616.747    620.478    614.401    614.401
 22.970    652.000    622.644     29.356    613.915    616.358    620.201    613.915    613.915
 23.070    601.000    622.492    -21.492    613.432    615.986    619.939    613.432    613.432
 23.170    595.402    622.371    -26.969    612.953    615.633    619.692    612.953    612.953
 23.270    590.000    622.285    -32.285    612.478    615.301    619.463    612.478    612.478
 23.370    638.000    622.239     15.761    612.006    614.996    619.250    612.006    612.006
 23.470    588.965    622.240    -33.275    611.538    614.723    619.055    611.538    611.538
 23.570    631.000    622.296      8.704    611.073    614.489    618.881    611.073    611.073
 23.670    576.252    622.419    -46.167    610.612    614.305    618.727    610.612    610.612
 23.770    665.000    622.624     42.376    610.154    614.183    618.595    610.154    610.154
 23.870    659.364    622.931     36.433    609.700    614.145    618.487    609.700    609.700
 23.970    580.000    623.374    -43.374    609.249    614.219    618.405    609.249    609.249
 24.070    595.030    624.002    -28.972    608.801    614.455    618.351    608.801    608.801
 24.170    645.000    624.913     20.087    608.358    614.946    618.327    608.358    608.358
 24.270    600.000    626.310    -26.310    607.917    615.896    618.335    607.917    607.917
 24.370    614.343    628.637    -14.295    607.480    617.746    618.377    607.480    607.480
 24.470    626.000    632.740     -6.740    607.047    621.337    618.458    607.047    607.047
 24.570    626.000    639.912    -13.912    606.617    627.963    618.579    606.617    606.617
 24.670    697.000    651.528     45.472    606.190    638.993    618.746    606.190    606.190
 24.770    704.579    668.000     36.579    605.767    654.838    618.962    605.767    605.767
 24.870    697.552    687.004     10.547    605.348    673.165    619.233    605.348    605.348
 24.970    723.000    701.852     21.148    604.931    687.276    619.564    604.931    604.931
 25.070    713.000    704.198      8.802    604.518    688.814    619.961    604.518    604.518
 25.170    692.398    692.611     -0.213    604.109    676.338    620.431    604.109    604.109
 25.270    662.842    674.673    -11.831    603.703    657.428    620.984    603.703    603.703
 25.370    623.043    658.196    -35.153    603.300    639.891    621.629    603.300    603.300
 25.470    639.000    646.459     -7.459    602.901    626.997    622.377    602.901    602.901
 25.570    671.716    639.502     32.214    602.505    618.774    623.241    602.505    602.505
 25.670    632.000    636.060     -4.060    602.112    613.939    624.238    602.112    602.112
 25.770    630.000    634.776     -4.776    601.723    611.117    625.385    601.723    601.723
 25.870    615.972    634.717    -18.745    601.337    609.353    626.703    601.337    601.337
 25.970    637.989    635.394      2.595    600.955    608.129    628.220    600.955    600.955
 26.070    649.000    636.602     12.398    600.575    607.207    629.970    600.575    600.575
 26.170    611.653    638.263    -26.610    600.199    606.478    631.984    600.199    600.199
 26.270    630.453    640.370     -9.917    599.827    605.887    634.308    599.827    599.827
 26.370    681.221    642.948     38.273    599.458    605.403    637.002    599.458    599.458
 26.470    654.337    646.054      8.283    599.091    605.010    640.133    599.091    599.091
 26.570    635.000    649.766    -14.766    598.729    604.701    643.791    598.729    598.729
 26.670    654.000    654.191     -0.191    598.369    604.470    648.087    598.369    598.369
 26.770    698.563    659.472     39.091    598.013    604.319    653.162    598.013    598.013
 26.870    676.000    665.801     10.199    597.660    604.253    659.204    597.660    597.660
 26.970    702.000    673.431     28.569    597.310    604.281    666.455    597.310    597.310
 27.070    675.000    682.708     -7.708    596.964    604.420    675.244    596.964    596.964
 27.170    672.919    694.103    -21.184    596.621    604.694    686.021    596.621    596.621
 27.270    720.775    708.278     12.496    596.281    605.136    699.413    596.281    596.281
 27.370    701.000    726.188    -25.188    595.944    605.799    716.321    595.944    595.944
 27.470    739.217    749.262    -10.044    595.610    606.758    738.099    595.610    595.610
 27.570    787.000    779.919      7.081    595.280    608.143    767.036    595.280    595.280
 27.670    829.000    823.480      5.520    594.953    610.240    808.163    594.953    594.953
 27.770    941.765    895.022     46.742    594.629    613.855    875.747    594.629    594.629
 27.870    986.900   1039.057    -52.157    594.308    621.357   1011.910    594.308    594.308
 27.970   1350.604   1365.904    -15.300    593.990    638.616   1321.072    593.990    593.990
 28.070   1973.000   2073.485   -100.485    593.675    676.158   1990.602    593.675    593.675
 28.170   3176.000   3363.890   -187.890    593.364    744.743   3211.858    593.364    593.364
 28.270   5206.901   5189.238     17.663    593.055    841.875   4939.583    593.055    593.055
 28.370   7038.000   6965.926     72.074    592.750    936.644   6621.260    592.750    592.750
 28.470   7729.000   7671.614     57.386    592.448    974.970   7288.639    592.448    592.448
 28.570   7019.000   6798.846    220.154    592.149    930.459   6460.384    592.149    592.149
 28.670   5239.000   5140.694     98.306    591.853    846.431   4886.090    591.853    591.853
 28.770   3976.000   3792.697    183.303    591.560    782.871   3601.346    591.560    591.560
 28.870   3268.000   3283.758    -15.758    591.270    769.329   3105.608    591.270    591.270
 28.970   3624.000   3535.975     88.025    590.984    800.778   3326.098    590.984    590.984
 29.070   4025.000   4077.944    -52.944    590.700    846.764   3821.918    590.700    590.700
 29.170   4376.000   4288.519     87.481    590.419    864.773   4014.378    590.419    590.419
 29.270   3806.000   3828.347    -22.347    590.142    831.397   3587.392    590.142    590.142
 29.370   3043.267   2960.101     83.166    589.867    767.030   2783.208    589.867    589.867
 29.470   2073.695   2107.747    -34.052    589.595    703.642   1993.887    589.595    589.595
 29.570   1535.004   1488.367     46.636    589.327    657.572   1420.231    589.327    589.327
 29.670   1132.000   1120.635     11.365    589.061    630.262   1079.488    589.061    589.061
 29.770    958.669    929.454     29.216    588.799    616.126    902.152    588.799    588.799
 29.870    885.710    833.386     52.324    588.539    609.093    812.845    588.539    588.539
 29.970    813.000    780.759     32.241    588.282    605.317    763.731    588.282    588.282
 30.070    787.097    747.330     39.766    588.028    603.006    732.356    588.028    588.028
 30.170    711.452    723.548    -12.096    587.778    601.472    709.855    587.778    587.778
 30.270    654.347    705.717    -51.371    587.530    600.483    692.764    587.530    587.530
 30.370    716.108    692.251     23.857    587.285    600.008    679.526    587.285    587.285
