neutron_powder_diffraction_0083
R_wp: 4.317
Temperature (K): 808.568
Counts: 83114.00
Wavelength (Ã…): 2.52098
COMMENTS
Test file for demonstrating the .xyy file format in Reel1.0
END OF HEADER
   tth       Y_obs     Y_calc      Y_res    Background    Phase_1_Nuc    Phase_1_Mag    Phase_2_Nuc    Phase_2_Mag
  9.970    633.000    574.452     58.548    573.319    574.451    573.319    573.319    573.319
 10.070    592.347    575.089     17.258    573.865    575.089    573.865    573.865    573.865
 10.170    586.000    575.729     10.271    574.400    575.728    574.400    574.400    574.400
 10.270    669.000    576.375     92.625    574.923    576.375    574.923    574.923    574.923
 10.370    611.000    577.026     33.974    575.436    577.026    575.436    575.436    575.436
 10.470    576.901    577.689     -0.788    575.937    577.688    575.937    575.937    575.937
 10.570    573.311    578.369     -5.058    576.427    578.368    576.427    576.427    576.427
 10.670    589.346    579.073     10.273    576.906    579.071    576.906    576.906    576.906
 10.770    617.000    579.810     37.190    577.375    579.809    577.375    577.375    577.375
 10.870    602.000    580.593     21.407    577.833    580.592    577.833    577.833    577.833
 10.970    530.706    581.439    -50.733    578.280    581.438    578.280    578.280    578.280
 11.070    547.574    582.372    -34.799    578.716    582.370    578.716    578.716    578.716
 11.170    605.000    583.436     21.564    579.142    583.434    579.142    579.142    579.142
 11.270    632.834    584.764     48.070    579.557    584.761    579.557    579.557    579.557
 11.370    585.516    586.309     -0.793    579.963    586.306    579.963    579.963    579.963
 11.470    620.000    588.236     31.764    580.358    588.232    580.358    580.358    580.358
 11.570    616.166    591.000     25.166    580.742    590.994    580.742    580.742    580.742
 11.670    649.000    595.556     53.444    581.117    595.548    581.117    581.117    581.117
 11.770    613.000    603.811      9.189    581.482    603.799    581.482    581.482    581.482
 11.870    675.000    618.664     56.336    581.836    618.643    581.836    581.836    581.836
 11.970    631.000    642.801    -11.801    582.181    642.768    582.181    582.181    582.181
 12.070    718.000    675.720     42.280    582.516    675.668    582.516    582.516    582.516
 12.170    714.000    709.280      4.720    582.842    709.210    582.842    582.842    582.842
 12.270    717.000    725.624     -8.624    583.158    725.545    583.158    583.158    583.158
 12.370    670.893    712.132    -41.239    583.464    712.061    583.464    583.464    583.464
 12.470    660.000    680.020    -20.020    583.761    679.966    583.761    583.761    583.761
 12.570    615.000    647.315    -32.315    584.048    647.280    584.048    584.048    584.048
 12.670    587.284    622.971    -35.687    584.327    622.949    584.327    584.327    584.327
 12.770    558.000    608.005    -50.005    584.596    607.992    584.596    584.596    584.596
 12.870    615.000    599.895     15.105    584.856    599.887    584.856    584.856    584.856
 12.970    557.000    595.711    -38.711    585.106    595.706    585.106    585.106    585.106
 13.070    593.000    593.467     -0.467    585.348    593.463    585.348    585.348    585.348
 13.170    585.000    592.134     -7.134    585.581    592.131    585.581    585.581    585.581
 13.270    540.702    591.250    -50.548    585.805    591.247    585.805    585.805    585.805
 13.370    599.000    590.638      8.362    586.021    590.635    586.021    586.021    586.021
 13.470    538.000    590.206    -52.206    586.228    590.204    586.228    586.228    586.228
 13.570    599.000    589.902      9.098    586.426    589.900    586.426    586.426    586.426
 13.670    572.000    589.689    -17.689    586.615    589.688    586.615    586.615    586.615
 13.770    601.000    589.544     11.456    586.797    589.543    586.797    586.797    586.797
 13.870    590.858    589.450      1.408    586.970    589.449    586.970    586.970    586.970
 13.970    614.000    589.395     24.605    587.134    589.394    587.134    587.134    587.134
 14.070    572.000    589.364    -17.364    587.290    589.363    587.290    587.290    587.290
 14.170    585.000    589.354     -4.354    587.439    589.353    587.439    587.439    587.439
 14.270    567.797    589.358    -21.561    587.579    589.357    587.579    587.579    587.579
 14.370    550.000    589.374    -39.374    587.711    589.373    587.711    587.711    587.711
 14.470    551.000    589.398    -38.398    587.835    589.397    587.835    587.835    587.835
 14.570    555.000    589.427    -34.427    587.952    589.426    587.952    587.952    587.952
 14.670    574.000    589.459    -15.459    588.060    589.458    588.060    588.060    588.060
 14.770    561.000    589.493    -28.493    588.161    589.492    588.161    588.161    588.161
 14.870    593.000    589.527      3.473    588.254    589.527    588.254    588.254    588.254
 14.970    635.305    589.568     45.738    588.340    589.567    588.340    588.340    588.340
 15.070    557.000    589.667    -32.667    588.418    589.667    588.418    588.418    588.418
 15.170    568.000    589.715    -21.715    588.489    589.715    588.489    588.489    588.489
 15.270    566.000    589.743    -23.743    588.552    589.743    588.552    588.552    588.552
 15.370    582.000    589.767     -7.767    588.608    589.767    588.608    588.608    588.608
 15.470    573.043    589.787    -16.745    588.657    589.787    588.657    588.657    588.657
 15.570    567.000    589.804    -22.804    588.699    589.804    588.699    588.699    588.699
 15.670    559.000    589.822    -30.822    588.734    589.821    588.734    588.734    588.734
 15.770    567.000    589.832    -22.832    588.761    589.832    588.761    588.761    588.761
 15.870    569.473    589.844    -20.371    588.782    589.844    588.782    588.782    588.782
 15.970    574.000    589.847    -15.847    588.796    589.847    588.796    588.796    588.796
 16.070    534.000    589.840    -55.840    588.803    589.840    588.803    588.803    588.803
 16.170    546.000    589.828    -43.828    588.804    589.827    588.804    588.804    588.804
 16.270    604.174    589.810     14.364    588.797    589.810    588.797    588.797    588.797
 16.370    579.783    589.787    -10.005    588.784    589.787    588.784    588.784    588.784
 16.470    593.000    589.765      3.235    588.765    589.764    588.765    588.765    588.765
 16.570    620.000    589.788     30.212    588.739    589.788    588.739    588.739    588.739
 16.670    538.000    589.760    -51.760    588.707    589.760    588.707    588.707    588.707
 16.770    569.935    589.718    -19.782    588.668    589.717    588.668    588.668    588.668
 16.870    589.832    589.677      0.155    588.623    589.677    588.623    588.623    588.623
 16.970    553.314    589.651    -36.337    588.572    589.651    588.572    588.572    588.572
 17.070    638.000    589.601     48.399    588.515    589.601    588.515    588.515    588.515
 17.170    585.657    589.536     -3.879    588.451    589.536    588.451    588.451    588.451
 17.270    589.000    589.466     -0.466    588.382    589.466    588.382    588.382    588.382
 17.370    542.000    589.391    -47.391    588.307    589.390    588.307    588.307    588.307
 17.470    578.092    589.310    -11.218    588.225    589.310    588.225    588.225    588.225
 17.570    562.000    589.224    -27.224    588.138    589.224    588.138    588.138    588.138
 17.670    579.657    589.133     -9.476    588.045    589.132    588.045    588.045    588.045
 17.770    616.715    589.038     27.676    587.947    589.038    587.947    587.947    587.947
 17.870    617.059    588.958     28.101    587.843    588.958    587.843    587.843    587.843
 17.970    629.971    588.865     41.106    587.733    588.865    587.733    587.733    587.733
 18.070    543.000    588.762    -45.762    587.618    588.762    587.618    587.618    587.618
 18.170    564.000    588.687    -24.687    587.497    588.687    587.497    587.497    587.497
 18.270    640.194    588.588     51.606    587.371    588.588    587.371    587.371    587.371
 18.370    557.000    588.478    -31.478    587.240    588.478    587.240    587.240    587.240
 18.470    581.000    588.404     -7.404    587.103    588.404    587.103    587.103    587.103
 18.570    547.872    588.275    -40.403    586.961    588.275    586.961    586.961    586.961
 18.670    593.000    588.136      4.864    586.814    588.136    586.814    586.814    586.814
 18.770    568.000    588.001    -20.001    586.662    588.001    586.662    586.662    586.662
 18.870    587.000    587.877     -0.877    586.505    587.877    586.505    586.505    586.505
 18.970    618.000    587.762     30.238    586.343    587.762    586.343    586.343    586.343
 19.070    550.944    587.630    -36.686    586.176    587.630    586.176    586.176    586.176
 19.170    532.000    587.472    -55.472    586.004    587.472    586.004    586.004    586.004
 19.270    538.886    587.307    -48.421    585.827    587.307    585.827    585.827    585.827
 19.370    545.000    587.137    -42.137    585.646    587.137    585.646    585.646    585.646
 19.470    549.000    586.964    -37.964    585.459    586.964    585.459    585.459    585.459
 19.570    575.000    586.793    -11.793    585.269    586.793    585.269    585.269    585.269
 19.670    566.000    586.615    -20.615    585.073    586.615    585.073    585.073    585.073
 19.770    590.000    586.431      3.569    584.873    586.431    584.873    584.873    584.873
 19.870    637.862    586.245     51.617    584.669    586.245    584.669    584.669    584.669
 19.970    568.257    586.057    -17.800    584.460    586.057    584.460    584.460    584.460
 20.070    562.000    585.865    -23.865    584.247    585.865    584.247    584.247    584.247
 20.170    563.000    585.668    -22.668    584.030    585.668    584.030    584.030    584.030
 20.270    610.450    585.465     24.984    583.808    585.465    583.808    583.808    583.808
 20.370    586.682    585.260      1.422    583.583    585.260    583.583    583.583    583.583
 20.470    576.000    585.051     -9.051    583.353    585.051    583.353    583.353    583.353
 20.570    636.069    584.839     51.231    583.119    584.839    583.119    583.119    583.119
 20.670    596.000    584.623     11.377    582.881    584.623    582.881    582.881    582.881
 20.770    561.000    584.409    -23.409    582.639    584.409    582.639    582.639    582.639
 20.870    598.000    584.188     13.812    582.393    584.188    582.393    582.393    582.393
 20.970    541.000    583.964    -42.964    582.143    583.964    582.143    582.143    582.143
 21.070    606.000    583.738     22.262    581.889    583.738    581.889    581.889    581.889
 21.170    580.000    583.510     -3.510    581.632    583.510    581.632    581.632    581.632
 21.270    614.930    583.279     31.650    581.371    583.280    581.371    581.371    581.371
 21.370    529.716    583.047    -53.331    581.106    583.047    581.106    581.106    581.106
 21.470    542.000    582.813    -40.813    580.838    582.813    580.838    580.838    580.838
 21.570    568.000    582.578    -14.578    580.566    582.578    580.566    580.566    580.566
 21.670    606.000    582.342     23.658    580.291    582.342    580.291    580.291    580.291
 21.770    580.638    582.105     -1.467    580.012    582.105    580.012    580.012    580.012
 21.870    562.000    581.867    -19.867    579.730    581.867    579.730    579.730    579.730
 21.970    578.000    581.630     -3.630    579.444    581.630    579.444    579.444    579.444
 22.070    571.000    581.392    -10.392    579.156    581.392    579.156    579.156    579.156
 22.170    606.000    581.156     24.844    578.863    581.156    578.863    578.863    578.863
 22.270    600.000    580.922     19.078    578.568    580.922    578.568    578.568    578.568
 22.370    560.000    580.691    -20.691    578.270    580.691    578.270    578.270    578.270
 22.470    564.000    580.461    -16.461    577.968    580.462    577.968    577.968    577.968
 22.570    567.000    580.236    -13.236    577.664    580.236    577.664    577.664    577.664
 22.670    580.000    580.016     -0.016    577.356    580.016    577.356    577.356    577.356
 22.770    577.000    579.803     -2.803    577.045    579.803    577.045    577.045    577.045
 22.870    552.629    579.598    -26.969    576.732    579.599    576.732    576.732    576.732
 22.970    583.000    579.404      3.596    576.416    579.405    576.416    576.416    576.416
 23.070    632.884    579.224     53.660    576.097    579.224    576.097    576.097    576.097
 23.170    562.000    579.061    -17.061    575.775    579.062    575.775    575.775    575.775
 23.270    579.735    578.919      0.816    575.450    578.920    575.450    575.450    575.450
 23.370    585.588    578.804      6.784    575.123    578.805    575.123    575.123    575.123
 23.470    585.000    578.726      6.274    574.793    578.727    574.793    574.793    574.793
 23.570    558.000    578.693    -20.693    574.460    578.694    574.460    574.460    574.460
 23.670    545.317    578.722    -33.406    574.125    578.724    574.125    574.125    574.125
 23.770    577.455    578.834     -1.379    573.788    578.836    573.788    573.788    573.788
 23.870    601.000    579.061     21.939    573.448    579.063    573.448    573.448    573.448
 23.970    582.000    579.457      2.543    573.105    579.459    573.105    573.105    573.105
 24.070    538.666    580.128    -41.461    572.760    580.131    572.760    572.760    572.760
 24.170    600.000    581.311     18.689    572.413    581.316    572.413    572.413    572.413
 24.270    561.000    583.546    -22.546    572.064    583.552    572.064    572.064    572.064
 24.370    615.773    587.903     27.870    571.712    587.912    571.712    571.712    571.712
 24.470    604.000    596.042      7.958    571.358    596.057    571.358    571.358    571.358
 24.570    637.000    609.640     27.360    571.003    609.666    571.003    571.003    571.003
 24.670    663.000    628.929     34.071    570.645    628.969    570.645    570.645    570.645
 24.770    661.000    650.269     10.731    570.284    650.324    570.284    570.284    570.284
 24.870    694.000    664.470     29.530    569.922    664.536    569.922    569.922    569.922
 24.970    605.866    662.307    -56.441    569.558    662.372    569.558    569.558    569.558
 25.070    666.000    645.269     20.731    569.192    645.322    569.192    569.192    569.192
 25.170    626.000    623.351      2.649    568.824    623.388    568.824    568.824    568.824
 25.270    612.000    604.588      7.412    568.455    604.611    568.455    568.455    568.455
 25.370    630.492    591.651     38.840    568.083    591.666    568.083    568.083    568.083
 25.470    577.000    583.884     -6.884    567.710    583.893    567.710    567.710    567.710
 25.570    608.000    579.537     28.463    567.335    579.542    567.335    567.335    567.335
 25.670    561.742    577.065    -15.323    566.958    577.069    566.958    566.958    566.958
 25.770    576.973    575.525      1.449    566.579    575.528    566.579    566.579    566.579
 25.870    625.186    574.454     50.732    566.199    574.456    566.199    566.199    566.199
 25.970    618.000    573.652     44.348    565.818    573.654    565.818    565.818    565.818
 26.070    569.408    573.031     -3.622    565.435    573.032    565.435    565.435    565.435
 26.170    639.000    572.546     66.454    565.050    572.547    565.050    565.050    565.050
 26.270    604.000    572.175     31.825    564.664    572.176    564.664    564.664    564.664
 26.370    607.000    571.904     35.096    564.277    571.905    564.277    564.277    564.277
 26.470    609.000    571.728     37.272    563.888    571.728    563.888    563.888    563.888
 26.570    517.002    571.648    -54.645    563.498    571.648    563.498    563.498    563.498
 26.670    605.000    571.669     33.331    563.106    571.669    563.106    563.106    563.106
 26.770    605.807    571.804     34.002    562.713    571.804    562.713    562.713    562.713
 26.870    622.520    572.073     50.447    562.319    572.073    562.319    562.319    562.319
 26.970    643.000    572.503     70.497    561.924    572.502    561.924    561.924    561.924
 27.070    594.000    573.134     20.866    561.528    573.132    561.528    561.528    561.528
 27.170    630.000    574.022     55.978    561.131    574.021    561.131    561.131    561.131
 27.270    630.000    575.252     54.748    560.732    575.250    560.732    560.732    560.732
 27.370    557.491    576.952    -19.460    560.332    576.949    560.332    560.332    560.332
 27.470    601.000    579.356     21.644    559.932    579.352    559.932    559.932    559.932
 27.570    601.000    582.979     18.021    559.530    582.975    559.530    559.530    559.530
 27.670    623.000    589.114     33.886    559.128    589.107    559.128    559.128    559.128
 27.770    648.000    600.828     47.172    558.725    600.817    558.725    558.725    558.725
 27.870    590.669    624.121    -33.451    558.320    624.101    558.320    558.320    558.320
 27.970    701.043    667.463     33.579    557.915    667.428    557.915    557.915    557.915
 28.070    764.000    737.026     26.974    557.509    736.972    557.509    557.509    557.509
 28.170    878.000    826.958     51.042    557.103    826.885    557.103    557.103    557.103
 28.270    914.000    909.449      4.551    556.695    909.371    556.695    556.695    556.695
 28.370    943.000    940.490      2.510    556.287    940.422    556.287    556.287    556.287
 28.470    956.000    902.200     53.800    555.878    902.152    555.878    555.878    555.878
 28.570    871.000    832.886     38.114    555.469    832.852    555.469    555.469    555.469
 28.670    758.000    781.203    -23.203    555.059    781.177    555.059    555.059    555.059
 28.770    788.000    769.834     18.166    554.648    769.809    554.648    554.648    554.648
 28.870    745.703    794.125    -48.422    554.237    794.102    554.237    554.237    554.237
 28.970    839.000    827.973     11.027    553.826    827.958    553.826    553.826    553.826
 29.070    895.725    835.576     60.149    553.414    835.572    553.414    553.414    553.414
 29.170    856.000    799.687     56.313    553.001    799.691    553.001    553.001    553.001
 29.270    755.000    738.712     16.288    552.588    738.719    552.588    552.588    552.588
 29.370    738.000    679.083     58.917    552.175    679.088    552.175    552.175    552.175
 29.470    689.000    634.014     54.986    551.761    634.017    551.761    551.761    551.761
 29.570    590.596    605.131    -14.534    551.347    605.131    551.347    551.347    551.347
 29.670    596.000    588.510      7.490    550.933    588.510    550.933    550.933    550.933
 29.770    552.122    579.298    -27.175    550.519    579.296    550.519    550.519    550.519
 29.870    616.000    573.963     42.037    550.104    573.961    550.104    550.104    550.104
 29.970    656.000    570.585     85.415    549.689    570.583    549.689    549.689    549.689
 30.070    642.000    568.303     73.697    549.274    568.300    549.274    549.274    549.274
 30.170    635.000    566.794     68.206    548.859    566.791    548.859    548.859    548.859
 30.270    642.000    566.019     75.981    548.443    566.015    548.443    548.443    548.443
 30.370    614.071    566.186     47.885    548.028    566.181    548.028    548.028    548.028
