neutron_powder_diffraction_0084
R_wp: 4.516
Temperature (K): 813.003
Counts: 83455.00
Wavelength (Ã…): 2.52098
COMMENTS
Test file for demonstrating the .xyy file format in Reel1.0
END OF HEADER
   tth       Y_obs     Y_calc      Y_res    Background    Phase_1_Nuc    Phase_1_Mag    Phase_2_Nuc    Phase_2_Mag
  9.970    658.000    580.971     77.029    579.951    580.971    579.951    579.951    579.951
 10.070    561.746    581.442    -19.696    580.341    581.441    580.341    580.341    580.341
 10.170    594.618    581.914     12.704    580.720    581.914    580.720    580.720    580.720
 10.270    617.000    582.391     34.609    581.090    582.390    581.090    581.090    581.090
 10.370    547.000    582.874    -35.874    581.450    582.873    581.450    581.450    581.450
 10.470    596.000    583.368     12.632    581.800    583.368    581.800    581.800    581.800
 10.570    592.000    583.878      8.122    582.141    583.877    582.141    582.141    582.141
 10.670    650.000    584.410     65.590    582.473    584.409    582.473    582.473    582.473
 10.770    616.000    584.973     31.027    582.795    584.971    582.795    582.795    582.795
 10.870    634.000    585.576     48.424    583.108    585.575    583.108    583.108    583.108
 10.970    609.096    586.237     22.859    583.412    586.236    583.412    583.412    583.412
 11.070    626.000    586.979     39.021    583.706    586.978    583.706    583.706    583.706
 11.170    587.194    587.839     -0.645    583.992    587.837    583.992    583.992    583.992
 11.270    588.604    588.961     -0.357    584.269    588.958    584.269    584.269    584.269
 11.370    604.000    590.240     13.760    584.537    590.237    584.537    584.537    584.537
 11.470    674.000    591.859     82.141    584.796    591.856    584.796    584.796    584.796
 11.570    636.000    594.212     41.788    585.046    594.207    585.046    585.046    585.046
 11.670    625.000    598.196     26.804    585.288    598.189    585.288    585.288    585.288
 11.770    631.000    605.784     25.216    585.521    605.773    585.521    585.521    585.521
 11.870    678.356    620.268     58.088    585.745    620.249    585.745    585.745    585.745
 11.970    610.837    645.047    -34.210    585.961    645.014    585.961    585.961    585.961
 12.070    724.000    680.059     43.941    586.169    680.007    586.169    586.169    586.169
 12.170    674.000    716.454    -42.454    586.369    716.382    586.369    586.369    586.369
 12.270    659.000    734.113    -75.113    586.560    734.031    586.560    586.560    586.560
 12.370    662.007    718.717    -56.710    586.743    718.644    586.743    586.743    586.743
 12.470    662.752    683.355    -20.602    586.918    683.301    586.918    586.918    586.918
 12.570    649.000    648.320      0.680    587.085    648.286    587.085    587.085    587.085
 12.670    604.090    623.187    -19.097    587.244    623.167    587.244    587.244    587.244
 12.770    614.000    608.463      5.537    587.395    608.452    587.395    587.395    587.395
 12.870    631.000    600.876     30.124    587.539    600.869    587.539    587.539    587.539
 12.970    550.000    597.083    -47.083    587.674    597.078    587.674    587.674    587.674
 13.070    553.952    595.028    -41.075    587.802    595.024    587.802    587.802    587.802
 13.170    596.000    593.755      2.245    587.923    593.752    587.923    587.923    587.923
 13.270    577.000    592.883    -15.883    588.035    592.880    588.035    588.035    588.035
 13.370    594.000    592.251      1.749    588.141    592.249    588.141    588.141    588.141
 13.470    555.000    591.781    -36.781    588.239    591.779    588.239    588.239    588.239
 13.570    583.000    591.425     -8.425    588.330    591.423    588.330    588.330    588.330
 13.670    607.585    591.150     16.435    588.413    591.149    588.413    588.413    588.413
 13.770    619.863    590.936     28.927    588.489    590.935    588.489    588.489    588.489
 13.870    633.520    590.770     42.750    588.558    590.769    588.558    588.558    588.558
 13.970    587.000    590.651     -3.651    588.621    590.650    588.621    588.621    588.621
 14.070    556.000    590.556    -34.556    588.676    590.555    588.676    588.676    588.676
 14.170    586.000    590.465     -4.465    588.724    590.464    588.724    588.724    588.724
 14.270    604.000    590.386     13.614    588.765    590.386    588.765    588.765    588.765
 14.370    590.000    590.318     -0.318    588.800    590.317    588.800    588.800    588.800
 14.470    615.498    590.257     25.241    588.827    590.257    588.827    588.827    588.827
 14.570    595.000    590.203      4.797    588.849    590.203    588.849    588.849    588.849
 14.670    556.000    590.154    -34.154    588.863    590.153    588.863    588.863    588.863
 14.770    579.000    590.103    -11.103    588.871    590.102    588.871    588.871    588.871
 14.870    622.459    590.052     32.406    588.873    590.052    588.873    588.873    588.873
 14.970    545.786    590.002    -44.216    588.868    590.001    588.868    588.868    588.868
 15.070    557.000    589.950    -32.950    588.856    589.950    588.856    588.856    588.856
 15.170    590.000    589.896      0.104    588.839    589.896    588.839    588.839    588.839
 15.270    592.000    589.847      2.153    588.815    589.847    588.815    588.815    588.815
 15.370    534.000    589.857    -55.857    588.785    589.857    588.785    588.785    588.785
 15.470    552.080    589.811    -37.731    588.749    589.811    588.749    588.749    588.749
 15.570    600.569    589.748     10.821    588.707    589.747    588.707    588.707    588.707
 15.670    586.000    589.680     -3.680    588.659    589.680    588.659    588.659    588.659
 15.770    515.000    589.608    -74.608    588.605    589.608    588.605    588.605    588.605
 15.870    547.000    589.533    -42.533    588.546    589.533    588.546    588.546    588.546
 15.970    524.000    589.453    -65.453    588.480    589.453    588.480    588.480    588.480
 16.070    567.000    589.376    -22.376    588.409    589.376    588.409    588.409    588.409
 16.170    604.462    589.349     15.113    588.332    589.348    588.332    588.332    588.332
 16.270    554.000    589.266    -35.266    588.249    589.266    588.249    588.249    588.249
 16.370    617.000    589.170     27.830    588.161    589.170    588.161    588.161    588.161
 16.470    534.000    589.070    -55.070    588.068    589.069    588.068    588.068    588.068
 16.570    576.000    588.965    -12.965    587.969    588.965    587.969    587.969    587.969
 16.670    613.674    588.859     24.814    587.864    588.859    587.864    587.864    587.864
 16.770    558.000    588.762    -30.762    587.754    588.762    587.754    587.754    587.754
 16.870    599.915    588.650     11.265    587.640    588.650    587.640    587.640    587.640
 16.970    581.655    588.528     -6.873    587.519    588.528    587.519    587.519    587.519
 17.070    608.000    588.401     19.599    587.394    588.401    587.394    587.394    587.394
 17.170    566.000    588.269    -22.269    587.264    588.269    587.264    587.264    587.264
 17.270    569.000    588.134    -19.134    587.128    588.134    587.128    587.128    587.128
 17.370    567.000    587.994    -20.994    586.988    587.994    586.988    586.988    586.988
 17.470    627.000    587.850     39.150    586.842    587.850    586.842    586.842    586.842
 17.570    632.169    587.708     44.461    586.692    587.708    586.692    586.692    586.692
 17.670    516.000    587.562    -71.562    586.537    587.562    586.537    586.537    586.537
 17.770    561.797    587.406    -25.609    586.377    587.405    586.377    586.377    586.377
 17.870    641.963    587.246     54.717    586.213    587.246    586.213    586.213    586.213
 17.970    535.000    587.103    -52.103    586.044    587.103    586.044    586.044    586.044
 18.070    642.898    586.948     55.949    585.870    586.948    585.870    585.870    585.870
 18.170    566.000    586.818    -20.818    585.692    586.818    585.692    585.692    585.692
 18.270    579.000    586.668     -7.668    585.509    586.668    585.509    585.509    585.509
 18.370    614.167    586.489     27.677    585.322    586.489    585.322    585.322    585.322
 18.470    551.000    586.305    -35.305    585.131    586.305    585.131    585.131    585.131
 18.570    568.000    586.117    -18.117    584.935    586.117    584.935    584.935    584.935
 18.670    546.749    585.935    -39.186    584.735    585.935    584.735    584.735    584.735
 18.770    598.000    585.763     12.237    584.530    585.763    584.530    584.530    584.530
 18.870    570.000    585.630    -15.630    584.322    585.630    584.322    584.322    584.322
 18.970    594.000    585.445      8.555    584.109    585.445    584.109    584.109    584.109
 19.070    577.000    585.241     -8.241    583.893    585.241    583.893    583.893    583.893
 19.170    565.000    585.039    -20.039    583.672    585.039    583.672    583.672    583.672
 19.270    589.219    584.837      4.381    583.448    584.837    583.448    583.448    583.448
 19.370    561.000    584.624    -23.624    583.219    584.624    583.219    583.219    583.219
 19.470    562.000    584.436    -22.436    582.987    584.435    582.987    582.987    582.987
 19.570    551.000    584.231    -33.231    582.751    584.231    582.751    582.751    582.751
 19.670    613.507    584.010     29.497    582.511    584.010    582.511    582.511    582.511
 19.770    536.000    583.784    -47.784    582.267    583.784    582.267    582.267    582.267
 19.870    520.000    583.552    -63.552    582.020    583.552    582.020    582.020    582.020
 19.970    562.000    583.317    -21.317    581.769    583.317    581.769    581.769    581.769
 20.070    597.705    583.081     14.624    581.515    583.081    581.515    581.515    581.515
 20.170    587.000    582.845      4.155    581.257    582.845    581.257    581.257    581.257
 20.270    564.394    582.610    -18.217    580.995    582.610    580.995    580.995    580.995
 20.370    575.000    582.366     -7.366    580.731    582.366    580.731    580.731    580.731
 20.470    611.000    582.117     28.883    580.463    582.117    580.463    580.463    580.463
 20.570    552.000    581.867    -29.867    580.191    581.867    580.191    580.191    580.191
 20.670    532.509    581.616    -49.107    579.916    581.616    579.916    579.916    579.916
 20.770    560.000    581.366    -21.366    579.638    581.366    579.638    579.638    579.638
 20.870    549.000    581.110    -32.110    579.357    581.110    579.357    579.357    579.357
 20.970    590.014    580.851      9.162    579.073    580.851    579.073    579.073    579.073
 21.070    535.000    580.591    -45.591    578.786    580.591    578.786    578.786    578.786
 21.170    630.841    580.330     50.511    578.496    580.330    578.496    578.496    578.496
 21.270    561.000    580.067    -19.067    578.202    580.067    578.202    578.202    578.202
 21.370    612.255    579.801     32.453    577.906    579.801    577.906    577.906    577.906
 21.470    592.000    579.535     12.465    577.607    579.535    577.607    577.607    577.607
 21.570    566.740    579.268    -12.528    577.305    579.268    577.305    577.305    577.305
 21.670    540.000    579.000    -39.000    577.000    579.000    577.000    577.000    577.000
 21.770    552.000    578.732    -26.732    576.693    578.732    576.693    576.693    576.693
 21.870    535.000    578.464    -43.464    576.382    578.464    576.382    576.382    576.382
 21.970    538.000    578.196    -40.196    576.069    578.197    576.069    576.069    576.069
 22.070    567.000    577.930    -10.930    575.754    577.930    575.754    575.754    575.754
 22.170    564.195    577.664    -13.469    575.436    577.664    575.436    575.436    575.436
 22.270    614.000    577.400     36.600    575.115    577.400    575.115    575.115    575.115
 22.370    571.655    577.139     -5.485    574.792    577.140    574.792    574.792    574.792
 22.470    581.016    576.883      4.133    574.466    576.883    574.466    574.466    574.466
 22.570    610.929    576.630     34.299    574.138    576.631    574.138    574.138    574.138
 22.670    554.000    576.382    -22.382    573.808    576.382    573.808    573.808    573.808
 22.770    531.170    576.139    -44.969    573.475    576.139    573.475    573.475    573.475
 22.870    594.000    575.904     18.096    573.140    575.905    573.140    573.140    573.140
 22.970    587.000    575.680     11.320    572.803    575.680    572.803    572.803    572.803
 23.070    571.437    575.468     -4.031    572.464    575.469    572.464    572.464    572.464
 23.170    535.000    575.273    -40.273    572.122    575.273    572.122    572.122    572.122
 23.270    565.000    575.096    -10.096    571.778    575.097    571.778    571.778    571.778
 23.370    553.963    574.945    -20.981    571.432    574.946    571.432    571.432    571.432
 23.470    521.000    574.826    -53.826    571.085    574.827    571.085    571.085    571.085
 23.570    564.000    574.749    -10.749    570.735    574.750    570.735    570.735    570.735
 23.670    618.317    574.728     43.589    570.383    574.729    570.383    570.383    570.383
 23.770    584.000    574.782      9.218    570.029    574.783    570.029    570.029    570.029
 23.870    581.000    574.939      6.061    569.674    574.941    569.674    569.674    569.674
 23.970    623.000    575.249     47.751    569.316    575.251    569.316    569.316    569.316
 24.070    579.781    575.798      3.983    568.957    575.801    568.957    568.957    568.957
 24.170    600.000    576.800     23.200    568.596    576.804    568.596    568.596    568.596
 24.270    618.662    578.767     39.895    568.233    578.773    568.233    568.233    568.233
 24.370    592.220    582.794      9.426    567.869    582.803    567.869    567.869    567.869
 24.470    633.000    590.748     42.252    567.503    590.763    567.503    567.503    567.503
 24.570    659.528    604.710     54.818    567.135    604.735    567.135    567.135    567.135
 24.670    639.000    625.199     13.801    566.766    625.239    566.766    566.766    566.766
 24.770    609.421    648.285    -38.864    566.396    648.342    566.396    566.396    566.396
 24.870    627.746    663.598    -35.853    566.023    663.667    566.023    566.023    566.023
 24.970    676.000    660.781     15.219    565.650    660.847    565.650    565.650    565.650
 25.070    650.000    641.900      8.100    565.275    641.953    565.275    565.275    565.275
 25.170    617.000    618.329     -1.329    564.898    618.366    564.898    564.898    564.898
 25.270    641.916    598.806     43.111    564.520    598.828    564.520    564.520    564.520
 25.370    632.000    585.913     46.087    564.141    585.926    564.141    564.141    564.141
 25.470    597.000    578.555     18.445    563.761    578.562    563.761    563.761    563.761
 25.570    627.000    574.622     52.378    563.379    574.627    563.379    563.379    563.379
 25.670    588.000    572.440     15.560    562.996    572.444    562.996    562.996    562.996
 25.770    601.000    571.079     29.921    562.612    571.082    562.612    562.612    562.612
 25.870    552.712    570.123    -17.411    562.227    570.125    562.227    562.227    562.227
 25.970    556.000    569.402    -13.402    561.840    569.404    561.840    561.840    561.840
 26.070    524.965    568.844    -43.879    561.453    568.846    561.453    561.453    561.453
 26.170    646.000    568.413     77.587    561.065    568.414    561.065    561.065    561.065
 26.270    621.000    568.088     52.912    560.675    568.089    560.675    560.675    560.675
 26.370    607.000    567.859     39.141    560.285    567.859    560.285    560.285    560.285
 26.470    559.069    567.723     -8.654    559.894    567.723    559.894    559.894    559.894
 26.570    611.000    567.682     43.318    559.501    567.682    559.501    559.501    559.501
 26.670    645.000    567.743     77.257    559.108    567.743    559.108    559.108    559.108
 26.770    636.000    567.922     68.078    558.714    567.921    558.714    558.714    558.714
 26.870    593.000    568.238     24.762    558.320    568.237    558.320    558.320    558.320
 26.970    595.000    568.721     26.279    557.924    568.720    557.924    557.924    557.924
 27.070    533.567    569.414    -35.848    557.528    569.413    557.528    557.528    557.528
 27.170    645.000    570.378     74.622    557.131    570.376    557.131    557.131    557.131
 27.270    624.000    571.700     52.300    556.734    571.698    556.734    556.734    556.734
 27.370    661.000    573.519     87.481    556.335    573.516    556.335    556.335    556.335
 27.470    612.908    576.087     36.821    555.936    576.083    555.936    555.936    555.936
 27.570    609.000    579.962     29.038    555.537    579.957    555.537    555.537    555.537
 27.670    648.000    586.504     61.496    555.137    586.497    555.137    555.137    555.137
 27.770    640.000    598.835     41.165    554.737    598.824    554.737    554.737    554.737
 27.870    686.000    622.812     63.188    554.336    622.791    554.336    554.336    554.336
 27.970    709.000    666.356     42.644    553.934    666.321    553.934    553.934    553.934
 28.070    718.961    734.811    -15.851    553.532    734.758    553.532    553.532    553.532
 28.170    812.000    821.921     -9.921    553.130    821.850    553.130    553.130    553.130
 28.270    918.293    900.710     17.583    552.727    900.634    552.727    552.727    552.727
 28.370   1036.000    929.525    106.475    552.324    929.460    552.324    552.324    552.324
 28.470    882.506    892.446     -9.940    551.921    892.399    551.921    551.921    551.921
 28.570    867.116    826.360     40.756    551.517    826.327    551.517    551.517    551.517
 28.670    714.172    777.311    -63.139    551.113    777.285    551.113    551.113    551.113
 28.770    768.000    766.580      1.420    550.709    766.557    550.709    550.709    550.709
 28.870    749.879    789.605    -39.726    550.305    789.583    550.305    550.305    550.305
 28.970    856.368    821.261     35.107    549.901    821.246    549.901    549.901    549.901
 29.070    867.000    827.209     39.791    549.496    827.205    549.496    549.496    549.496
 29.170    822.000    791.360     30.640    549.091    791.365    549.091    549.091    549.091
 29.270    778.000    731.714     46.286    548.686    731.721    548.686    548.686    548.686
 29.370    717.000    673.635     43.365    548.282    673.641    548.282    548.282    548.282
 29.470    644.000    629.693     14.307    547.877    629.696    547.877    547.877    547.877
 29.570    660.000    601.390     58.610    547.472    601.390    547.472    547.472    547.472
 29.670    652.000    584.969     67.031    547.067    584.969    547.067    547.067    547.067
 29.770    574.516    575.782     -1.266    546.662    575.780    546.662    546.662    546.662
 29.870    648.000    570.422     77.578    546.257    570.420    546.257    546.257    546.257
 29.970    661.000    567.016     93.984    545.852    567.014    545.852    545.852    545.852
 30.070    590.000    564.715     25.285    545.448    564.713    545.448    545.448    545.448
 30.170    690.000    563.199    126.801    545.043    563.196    545.043    545.043    545.043
 30.270    513.490    562.428    -48.939    544.639    562.424    544.639    544.639    544.639
 30.370    559.075    562.619     -3.544    544.235    562.614    544.235    544.235    544.235
