neutron_powder_diffraction_0226
R_wp: 3.916
Temperature (K): 1074.100
Counts: 83799.00
Wavelength (Ã…): 2.52098
COMMENTS
Test file for demonstrating the .xyy file format in Reel1.0
END OF HEADER
   tth       Y_obs     Y_calc      Y_res    Background    Phase_1_Nuc    Phase_1_Mag    Phase_2_Nuc    Phase_2_Mag
  9.970    626.000    571.860     54.140    571.199    571.831    571.199    571.228    571.199
 10.070    574.000    571.979      2.021    571.260    571.950    571.260    571.289    571.260
 10.170    605.000    572.099     32.901    571.316    572.068    571.316    571.347    571.316
 10.270    586.000    572.223     13.777    571.366    572.191    571.366    571.398    571.366
 10.370    646.000    572.353     73.647    571.412    572.320    571.412    571.444    571.412
 10.470    601.272    572.492     28.780    571.452    572.459    571.452    571.484    571.452
 10.570    594.000    572.644     21.356    571.487    572.610    571.487    571.520    571.487
 10.670    607.000    572.814     34.186    571.517    572.779    571.517    571.551    571.517
 10.770    556.000    573.007    -17.007    571.542    572.972    571.542    571.576    571.542
 10.870    581.000    573.233      7.767    571.562    573.197    571.562    571.597    571.562
 10.970    614.000    573.514     40.486    571.578    573.467    571.578    571.624    571.578
 11.070    525.971    573.846    -47.875    571.588    573.797    571.588    571.636    571.588
 11.170    567.000    574.263     -7.263    571.593    574.214    571.593    571.641    571.593
 11.270    592.000    574.805     17.195    571.594    574.755    571.594    571.642    571.594
 11.370    584.964    575.537      9.428    571.590    575.486    571.590    571.638    571.590
 11.470    603.591    576.602     26.989    571.582    576.551    571.582    571.630    571.582
 11.570    580.000    578.402      1.598    571.568    578.350    571.568    571.617    571.568
 11.670    551.723    582.084    -30.361    571.550    582.029    571.550    571.599    571.550
 11.770    593.952    590.343      3.609    571.528    590.282    571.528    571.578    571.528
 11.870    635.188    607.570     27.618    571.501    607.494    571.501    571.556    571.501
 11.970    652.000    637.208     14.792    571.470    637.114    571.470    571.526    571.470
 12.070    723.072    675.480     47.592    571.434    675.364    571.434    571.491    571.434
 12.170    672.000    705.628    -33.628    571.394    705.495    571.394    571.451    571.394
 12.270    717.535    706.565     10.970    571.349    706.431    571.349    571.406    571.349
 12.370    706.596    677.404     29.192    571.300    677.286    571.300    571.358    571.300
 12.470    615.000    638.867    -23.867    571.247    638.770    571.247    571.305    571.247
 12.570    619.000    608.464     10.536    571.190    608.384    571.190    571.248    571.190
 12.670    582.000    590.561     -8.561    571.129    590.492    571.129    571.187    571.129
 12.770    605.000    581.883     23.117    571.064    581.818    571.064    571.122    571.064
 12.870    557.000    577.974    -20.974    570.994    577.911    570.994    571.053    570.994
 12.970    598.764    576.036     22.728    570.921    575.974    570.921    570.980    570.921
 13.070    537.000    574.864    -37.864    570.843    574.803    570.843    570.903    570.843
 13.170    624.000    574.037     49.963    570.762    573.976    570.762    570.822    570.762
 13.270    609.040    573.406     35.634    570.677    573.344    570.677    570.737    570.677
 13.370    543.000    572.902    -29.902    570.588    572.840    570.588    570.648    570.588
 13.470    586.000    572.487     13.513    570.495    572.425    570.495    570.556    570.495
 13.570    543.000    572.135    -29.135    570.398    572.073    570.398    570.459    570.398
 13.670    568.000    571.830     -3.830    570.298    571.768    570.298    570.359    570.298
 13.770    557.000    571.560    -14.560    570.194    571.496    570.194    570.256    570.194
 13.870    583.265    571.317     11.948    570.086    571.251    570.086    570.152    570.086
 13.970    553.000    571.092    -18.092    569.975    571.024    569.975    570.042    569.975
 14.070    587.696    570.880     16.816    569.860    570.812    569.860    569.928    569.860
 14.170    528.598    570.680    -42.082    569.742    570.611    569.742    569.810    569.742
 14.270    600.103    570.488     29.615    569.620    570.419    569.620    569.689    569.620
 14.370    552.701    570.302    -17.601    569.495    570.232    569.495    569.564    569.495
 14.470    572.000    570.121      1.879    569.366    570.051    569.366    569.436    569.366
 14.570    612.907    569.943     42.963    569.234    569.873    569.234    569.305    569.234
 14.670    579.000    569.768      9.232    569.099    569.697    569.099    569.170    569.099
 14.770    533.000    569.597    -36.597    568.961    569.526    568.961    569.032    568.961
 14.870    578.000    569.426      8.574    568.819    569.355    568.819    568.890    568.819
 14.970    525.615    569.254    -43.639    568.674    569.182    568.674    568.746    568.674
 15.070    570.000    569.081      0.919    568.526    569.009    568.526    568.598    568.526
 15.170    549.000    568.908    -19.908    568.375    568.836    568.375    568.447    568.375
 15.270    527.708    568.735    -41.027    568.221    568.662    568.221    568.294    568.221
 15.370    568.474    568.560     -0.086    568.063    568.487    568.063    568.137    568.063
 15.470    569.000    568.384      0.616    567.903    568.310    567.903    567.977    567.903
 15.570    557.000    568.207    -11.207    567.740    568.133    567.740    567.814    567.740
 15.670    547.000    568.029    -21.029    567.574    567.954    567.574    567.648    567.574
 15.770    575.000    567.848      7.152    567.404    567.773    567.404    567.480    567.404
 15.870    575.043    567.666      7.377    567.233    567.591    567.233    567.308    567.233
 15.970    601.331    567.483     33.849    567.058    567.406    567.058    567.134    567.058
 16.070    577.000    567.297      9.703    566.880    567.221    566.880    566.957    566.880
 16.170    607.000    567.110     39.890    566.700    567.033    566.700    566.777    566.700
 16.270    578.852    566.921     11.931    566.517    566.843    566.517    566.595    566.517
 16.370    581.000    566.732     14.268    566.332    566.652    566.332    566.411    566.332
 16.470    560.000    566.541     -6.541    566.143    566.460    566.143    566.224    566.143
 16.570    585.461    566.345     19.115    565.953    566.265    565.953    566.033    565.953
 16.670    535.000    566.148    -31.148    565.759    566.067    565.759    565.841    565.759
 16.770    516.000    565.949    -49.949    565.563    565.867    565.563    565.645    565.563
 16.870    562.000    565.748     -3.748    565.365    565.665    565.365    565.447    565.365
 16.970    548.000    565.545    -17.545    565.164    565.462    565.164    565.247    565.164
 17.070    566.000    565.340      0.660    564.961    565.256    564.961    565.045    564.961
 17.170    611.000    565.132     45.868    564.756    565.048    564.756    564.840    564.756
 17.270    611.807    564.923     46.884    564.548    564.839    564.548    564.632    564.548
 17.370    520.846    564.712    -43.867    564.337    564.627    564.337    564.423    564.337
 17.470    579.000    564.502     14.498    564.125    564.416    564.125    564.211    564.125
 17.570    566.185    564.287      1.897    563.910    564.201    563.910    563.996    563.910
 17.670    523.000    564.071    -41.071    563.693    563.984    563.693    563.780    563.693
 17.770    585.791    563.852     21.939    563.474    563.765    563.474    563.562    563.474
 17.870    520.000    563.632    -43.632    563.253    563.544    563.253    563.341    563.253
 17.970    561.514    563.410     -1.896    563.030    563.321    563.030    563.118    563.030
 18.070    535.000    563.186    -28.186    562.804    563.096    562.804    562.893    562.804
 18.170    552.000    562.960    -10.960    562.577    562.870    562.577    562.667    562.577
 18.270    579.139    562.733     16.406    562.347    562.642    562.347    562.438    562.347
 18.370    602.828    562.504     40.324    562.116    562.412    562.116    562.208    562.116
 18.470    569.025    562.278      6.748    561.882    562.180    561.882    561.979    561.882
 18.570    587.000    562.047     24.953    561.647    561.947    561.647    561.747    561.647
 18.670    531.000    561.813    -30.813    561.410    561.712    561.410    561.511    561.410
 18.770    564.000    561.578      2.422    561.171    561.476    561.171    561.272    561.171
 18.870    551.000    561.340    -10.340    560.930    561.238    560.930    561.032    560.930
 18.970    573.000    561.102     11.898    560.687    560.999    560.687    560.790    560.687
 19.070    603.157    560.862     42.296    560.443    560.758    560.443    560.547    560.443
 19.170    534.000    560.620    -26.620    560.197    560.516    560.197    560.302    560.197
 19.270    571.837    560.378     11.460    559.949    560.272    559.949    560.055    559.949
 19.370    595.000    560.134     34.866    559.700    560.028    559.700    559.806    559.700
 19.470    555.000    559.890     -4.890    559.449    559.783    559.449    559.556    559.449
 19.570    570.000    559.644     10.356    559.196    559.536    559.196    559.304    559.196
 19.670    541.617    559.396    -17.779    558.942    559.287    558.942    559.051    558.942
 19.770    539.000    559.147    -20.147    558.686    559.037    558.686    558.796    558.686
 19.870    512.000    558.897    -46.897    558.429    558.786    558.429    558.540    558.429
 19.970    554.000    558.645     -4.645    558.170    558.533    558.170    558.282    558.170
 20.070    602.276    558.394     43.882    557.910    558.281    557.910    558.023    557.910
 20.170    576.339    558.154     18.185    557.649    558.040    557.649    557.763    557.649
 20.270    529.578    557.910    -28.332    557.386    557.795    557.386    557.501    557.386
 20.370    537.428    557.656    -20.228    557.121    557.540    557.121    557.237    557.121
 20.470    527.000    557.400    -30.400    556.856    557.283    556.856    556.973    556.856
 20.570    552.000    557.144     -5.144    556.589    557.026    556.589    556.707    556.589
 20.670    543.000    556.887    -13.887    556.321    556.768    556.321    556.440    556.321
 20.770    582.012    556.629     25.382    556.051    556.509    556.051    556.172    556.051
 20.870    584.895    556.371     28.524    555.781    556.249    555.781    555.902    555.781
 20.970    558.000    556.113      1.887    555.509    555.990    555.509    555.632    555.509
 21.070    532.069    555.854    -23.785    555.236    555.730    555.236    555.360    555.236
 21.170    533.000    555.595    -22.595    554.962    555.469    554.962    555.087    554.962
 21.270    520.398    555.336    -34.937    554.686    555.209    554.686    554.813    554.686
 21.370    535.000    555.076    -20.076    554.410    554.948    554.410    554.539    554.410
 21.470    564.000    554.817      9.183    554.133    554.688    554.133    554.263    554.133
 21.570    554.000    554.559     -0.559    553.854    554.428    553.854    553.986    553.854
 21.670    547.000    554.301     -7.301    553.575    554.168    553.575    553.708    553.575
 21.770    558.000    554.043      3.957    553.295    553.909    553.295    553.429    553.295
 21.870    585.468    553.786     31.681    553.014    553.651    553.014    553.149    553.014
 21.970    567.000    553.531     13.469    552.731    553.394    552.731    552.869    552.731
 22.070    560.000    553.277      6.723    552.448    553.138    552.448    552.588    552.448
 22.170    578.000    553.025     24.975    552.164    552.884    552.164    552.306    552.164
 22.270    552.000    552.776     -0.776    551.880    552.634    551.880    552.023    551.880
 22.370    556.512    552.558      3.954    551.594    552.413    551.594    551.739    551.594
 22.470    536.000    552.423    -16.423    551.308    552.276    551.308    551.455    551.308
 22.570    564.346    552.209     12.137    551.021    552.058    551.021    551.172    551.021
 22.670    564.000    551.983     12.017    550.733    551.829    550.733    550.887    550.733
 22.770    507.000    551.802    -44.802    550.444    551.645    550.444    550.601    550.444
 22.870    537.858    551.598    -13.740    550.155    551.440    550.155    550.314    550.155
 22.970    580.279    551.386     28.893    549.865    551.225    549.865    550.026    549.865
 23.070    536.000    551.184    -15.184    549.575    551.021    549.575    549.738    549.575
 23.170    544.000    550.995     -6.995    549.284    550.829    549.284    549.450    549.284
 23.270    587.000    550.822     36.178    548.992    550.654    548.992    549.161    548.992
 23.370    526.826    550.672    -23.846    548.700    550.501    548.700    548.871    548.700
 23.470    593.575    550.549     43.026    548.407    550.376    548.407    548.581    548.407
 23.570    569.000    550.464     18.536    548.114    550.287    548.114    548.291    548.114
 23.670    564.416    550.428     13.988    547.820    550.248    547.820    548.000    547.820
 23.770    547.000    550.461     -3.461    547.525    550.279    547.525    547.709    547.525
 23.870    571.000    550.595     20.405    547.231    550.409    547.231    547.418    547.231
 23.970    581.819    550.878     30.941    546.936    550.689    546.936    547.126    546.936
 24.070    580.000    551.439     28.561    546.640    551.247    546.640    546.835    546.640
 24.170    557.000    552.641      4.359    546.344    552.446    546.344    546.543    546.344
 24.270    591.000    555.453     35.547    546.048    555.256    546.048    546.250    546.048
 24.370    571.000    561.920      9.080    545.751    561.724    545.751    545.958    545.751
 24.470    589.874    574.892     14.982    545.454    574.700    545.454    545.666    545.454
 24.570    567.460    595.798    -28.338    545.157    595.617    545.157    545.373    545.157
 24.670    647.000    620.559     26.441    544.860    620.391    544.860    545.081    544.860
 24.770    635.000    636.970     -1.970    544.562    636.808    544.562    544.789    544.562
 24.870    592.933    632.943    -40.009    544.264    632.772    544.264    544.497    544.264
 24.970    581.352    611.771    -30.419    543.966    611.580    543.966    544.204    543.966
 25.070    593.000    587.020      5.980    543.668    586.806    543.668    543.913    543.668
 25.170    547.000    568.181    -21.181    543.370    567.946    543.370    543.621    543.370
 25.270    561.000    557.093      3.907    543.071    556.843    543.071    543.329    543.071
 25.370    604.000    551.570     52.430    542.772    551.308    542.772    543.038    542.772
 25.470    559.000    548.937     10.063    542.474    548.665    542.474    542.748    542.474
 25.570    505.133    547.520    -42.387    542.175    547.239    542.175    542.458    542.175
 25.670    503.094    546.591    -43.497    541.876    546.300    541.876    542.168    541.876
 25.770    576.000    545.901     30.099    541.577    545.599    541.577    541.879    541.577
 25.870    555.000    545.349      9.651    541.278    545.037    541.278    541.591    541.278
 25.970    553.236    544.898      8.338    540.979    544.574    540.979    541.304    540.979
 26.070    542.066    544.523     -2.457    540.680    544.187    540.680    541.017    540.680
 26.170    529.000    544.210    -15.210    540.381    543.860    540.381    540.732    540.381
 26.270    560.960    543.952     17.008    540.083    543.586    540.083    540.448    540.083
 26.370    598.000    543.740     54.260    539.784    543.358    539.784    540.165    539.784
 26.470    573.000    543.576     29.424    539.485    543.177    539.485    539.884    539.485
 26.570    514.339    543.466    -29.127    539.187    543.047    539.187    539.605    539.187
 26.670    573.000    543.436     29.564    538.889    542.997    538.889    539.328    538.889
 26.770    559.953    543.466     16.487    538.590    543.004    538.590    539.052    538.590
 26.870    570.437    543.550     26.886    538.292    543.063    538.292    538.780    538.292
 26.970    526.000    543.726    -17.726    537.995    543.210    537.995    538.510    537.995
 27.070    564.960    544.021     20.939    537.697    543.473    537.697    538.244    537.697
 27.170    538.000    544.473     -6.473    537.400    543.890    537.400    537.982    537.400
 27.270    603.000    545.139     57.861    537.103    544.516    537.103    537.724    537.103
 27.370    564.000    546.098     17.902    536.806    545.431    536.806    537.472    536.806
 27.470    542.000    547.520     -5.520    536.510    546.802    536.510    537.225    536.510
 27.570    536.000    549.774    -13.774    536.213    548.999    536.213    536.986    536.213
 27.670    580.563    554.203     26.359    535.918    553.361    535.918    536.756    535.918
 27.770    574.000    565.457      8.543    535.622    564.536    535.622    536.536    535.622
 27.870    544.453    595.296    -50.844    535.327    594.277    535.327    536.328    535.327
 27.970    682.977    662.075     20.902    535.032    660.931    535.032    536.136    535.032
 28.070    739.000    774.039    -35.039    534.738    772.740    534.738    535.962    534.738
 28.170    958.205    899.595     58.611    534.444    898.122    534.444    535.812    534.444
 28.270    918.483    961.641    -43.158    534.150    959.996    534.150    535.692    534.150
 28.370    916.055    909.046      7.009    533.857    907.227    533.857    535.611    533.857
 28.470    773.000    796.100    -23.100    533.565    794.056    533.565    535.581    533.565
 28.570    717.000    709.058      7.942    533.272    706.695    533.272    535.621    533.272
 28.670    690.000    691.938     -1.938    532.981    689.135    532.981    535.767    532.981
 28.770    710.000    739.550    -29.550    532.690    736.138    532.690    536.079    532.690
 28.870    763.000    810.881    -47.881    532.399    806.597    532.399    536.666    532.399
 28.970    851.000    844.743      6.257    532.109    839.145    532.109    537.706    532.109
 29.070    824.000    804.943     19.057    531.819    797.312    531.819    539.460    531.819
 29.170    686.687    723.546    -36.859    531.530    712.847    531.530    542.239    531.530
 29.270    666.766    649.650     17.116    531.242    634.582    531.242    546.315    531.242
 29.370    558.529    605.093    -46.564    530.954    584.311    530.954    551.738    530.954
 29.470    542.204    586.629    -44.425    530.667    559.288    530.667    558.007    530.667
 29.570    626.000    581.767     44.233    530.381    548.544    530.381    563.601    530.381
 29.670    627.000    579.753     47.247    530.095    543.802    530.095    566.043    530.095
 29.770    598.204    575.223     22.981    529.809    541.247    529.809    563.783    529.809
 29.870    619.000    568.058     50.942    529.525    539.576    529.525    558.005    529.525
 29.970    587.000    560.327     26.673    529.241    538.397    529.241    551.169    529.241
 30.070    599.000    553.608     45.392    528.958    537.582    528.958    544.981    528.958
 30.170    565.000    548.525     16.475    528.675    537.106    528.675    540.092    528.675
 30.270    551.000    545.209      5.791    528.394    537.074    528.394    536.526    528.394
 30.370    536.000    543.842     -7.842    528.113    537.911    528.113    534.039    528.113
