neutron_powder_diffraction_0062
R_wp: 4.236
Temperature (K): 707.373
Counts: 83682.00
Wavelength (Ã…): 2.52098
COMMENTS
Test file for demonstrating the .xyy file format in Reel1.0
END OF HEADER
   tth       Y_obs     Y_calc      Y_res    Background    Phase_1_Nuc    Phase_1_Mag    Phase_2_Nuc    Phase_2_Mag
  9.970    682.866    641.380     41.486    640.141    641.134    640.387    640.141    640.141
 10.070    674.000    641.421     32.579    640.100    641.172    640.349    640.100    640.100
 10.170    700.000    641.467     58.533    640.053    641.215    640.305    640.053    640.053
 10.270    703.000    641.521     61.479    640.001    641.266    640.255    640.001    640.001
 10.370    622.000    641.585    -19.585    639.942    641.327    640.199    639.942    639.942
 10.470    652.000    641.663     10.337    639.878    641.402    640.137    639.878    639.878
 10.570    630.000    641.759    -11.759    639.808    641.495    640.070    639.808    639.808
 10.670    696.728    641.880     54.848    639.732    641.613    639.998    639.732    639.732
 10.770    664.000    642.035     21.965    639.651    641.766    639.920    639.651    639.651
 10.870    642.000    642.231     -0.231    639.565    641.958    639.836    639.565    639.565
 10.970    681.000    642.483     38.517    639.472    642.207    639.747    639.472    639.472
 11.070    641.547    642.812     -1.264    639.375    642.532    639.653    639.375    639.375
 11.170    678.000    643.246     34.754    639.272    642.963    639.553    639.272    639.272
 11.270    633.921    643.828     -9.906    639.164    643.541    639.448    639.164    639.164
 11.370    693.877    644.627     49.250    639.050    644.336    639.338    639.050    639.050
 11.470    641.258    645.777     -4.520    638.932    645.483    639.222    638.932    638.932
 11.570    678.000    647.609     30.391    638.808    647.310    639.102    638.808    638.808
 11.670    689.000    650.985     38.015    638.679    650.681    638.977    638.679    638.679
 11.770    657.312    657.287      0.025    638.545    656.977    638.846    638.545    638.545
 11.870    659.180    669.364    -10.183    638.406    669.043    638.711    638.406    638.406
 11.970    788.000    690.222     97.778    638.263    689.886    638.571    638.263    638.263
 12.070    753.821    720.413     33.409    638.114    720.056    638.426    638.114    638.114
 12.170    749.442    753.681     -4.238    637.961    753.302    638.276    637.961    637.961
 12.270    798.000    774.136     23.864    637.802    773.742    638.122    637.802    637.802
 12.370    788.000    767.289     20.711    637.640    766.895    637.963    637.640    637.640
 12.470    695.306    738.673    -43.367    637.472    738.291    637.799    637.472    637.472
 12.570    741.000    705.374     35.626    637.300    705.005    637.631    637.300    637.300
 12.670    667.000    678.859    -11.859    637.123    678.501    637.458    637.123    637.123
 12.770    683.000    661.854     21.146    636.942    661.501    637.281    636.942    636.942
 12.870    598.000    652.348    -54.348    636.756    651.996    637.100    636.756    636.756
 12.970    623.000    647.310    -24.310    636.566    646.957    636.914    636.566    636.566
 13.070    668.000    644.495     23.505    636.372    644.138    636.724    636.372    636.372
 13.170    706.000    642.708     63.292    636.173    642.347    636.530    636.173    636.173
 13.270    634.000    641.433     -7.433    635.970    641.069    636.332    635.970    635.970
 13.370    634.000    640.449     -6.449    635.763    640.080    636.130    635.763    635.763
 13.470    583.622    639.633    -56.011    635.552    639.260    635.923    635.552    635.552
 13.570    618.000    638.945    -20.945    635.336    638.567    635.713    635.336    635.336
 13.670    675.199    638.350     36.849    635.117    637.967    635.498    635.117    635.117
 13.770    577.000    637.823    -60.823    634.893    637.436    635.280    634.893    634.893
 13.870    637.004    637.349     -0.345    634.666    636.956    635.058    634.666    634.666
 13.970    585.236    636.914    -51.678    634.435    636.516    634.832    634.435    634.435
 14.070    586.000    636.509    -50.509    634.200    636.106    634.602    634.200    634.200
 14.170    621.000    636.128    -15.128    633.961    635.720    634.369    633.961    633.961
 14.270    647.000    635.765     11.235    633.718    635.351    634.132    633.718    633.718
 14.370    605.000    635.417    -30.417    633.472    634.997    633.891    633.472    633.472
 14.470    618.170    635.080    -16.910    633.222    634.654    633.647    633.222    633.222
 14.570    604.000    634.754    -30.754    632.968    634.322    633.399    632.968    632.968
 14.670    587.000    634.432    -47.432    632.711    633.995    633.148    632.711    632.711
 14.770    582.000    634.116    -52.116    632.450    633.672    632.893    632.450    632.450
 14.870    608.000    633.805    -25.805    632.186    633.354    632.636    632.186    632.186
 14.970    669.561    633.500     36.060    631.918    633.043    632.375    631.918    631.918
 15.070    643.578    633.194     10.384    631.647    632.731    632.110    631.647    631.647
 15.170    566.000    632.889    -66.889    631.373    632.419    631.843    631.373    631.373
 15.270    661.000    632.585     28.415    631.095    632.107    631.572    631.095    631.095
 15.370    644.264    632.281     11.983    630.814    631.797    631.298    630.814    630.814
 15.470    651.000    631.978     19.022    630.530    631.486    631.022    630.530    630.530
 15.570    586.000    631.679    -45.679    630.243    631.180    630.742    630.243    630.243
 15.670    613.000    631.378    -18.378    629.952    630.871    630.459    629.952    629.952
 15.770    615.000    631.073    -16.073    629.659    630.559    630.174    629.659    629.659
 15.870    598.000    630.775    -32.775    629.362    630.252    629.885    629.362    629.362
 15.970    620.000    630.536    -10.536    629.063    630.005    629.594    629.063    629.063
 16.070    666.000    630.241     35.759    628.761    629.702    629.300    628.761    628.761
 16.170    647.000    629.934     17.066    628.455    629.386    629.003    628.455    628.455
 16.270    647.000    629.624     17.376    628.147    629.067    628.704    628.147    628.147
 16.370    573.319    629.313    -55.994    627.836    628.747    628.402    627.836    627.836
 16.470    670.558    629.000     41.557    627.523    628.425    628.098    627.523    627.523
 16.570    627.000    628.686     -1.686    627.206    628.102    627.791    627.206    627.206
 16.670    624.000    628.374     -4.374    626.887    627.780    627.481    626.887    626.887
 16.770    593.000    628.088    -35.088    626.566    627.484    627.170    626.566    626.566
 16.870    644.354    627.801     16.553    626.241    627.185    626.857    626.241    626.241
 16.970    619.000    627.538     -8.538    625.914    626.905    626.547    625.914    625.914
 17.070    633.000    627.223      5.777    625.585    626.578    626.229    625.585    625.585
 17.170    579.859    626.900    -47.042    625.253    626.245    625.909    625.253    625.253
 17.270    581.580    626.576    -44.997    624.919    625.910    625.586    624.919    624.919
 17.370    603.750    626.251    -22.501    624.582    625.573    625.261    624.582    624.582
 17.470    607.000    625.924    -18.924    624.243    625.234    624.934    624.243    624.243
 17.570    676.217    625.596     50.621    623.902    624.893    624.604    623.902    623.902
 17.670    641.000    625.267     15.733    623.558    624.551    624.273    623.558    623.558
 17.770    636.000    624.940     11.060    623.212    624.212    623.941    623.212    623.212
 17.870    663.659    624.617     39.042    622.864    623.875    623.606    622.864    622.864
 17.970    632.000    624.284      7.716    622.514    623.528    623.270    622.514    622.514
 18.070    600.148    623.949    -23.801    622.162    623.180    622.931    622.162    622.162
 18.170    601.000    623.613    -22.613    621.808    622.829    622.592    621.808    621.808
 18.270    631.000    623.276      7.724    621.451    622.477    622.250    621.451    621.451
 18.370    590.401    622.938    -32.537    621.093    622.124    621.907    621.093    621.093
 18.470    587.102    622.599    -35.497    620.733    621.769    621.562    620.733    620.733
 18.570    636.945    622.260     14.685    620.370    621.414    621.216    620.370    620.370
 18.670    601.000    621.939    -20.939    620.006    621.076    620.870    620.006    620.006
 18.770    581.000    621.612    -40.612    619.640    620.731    620.522    619.640    619.640
 18.870    657.397    621.301     36.096    619.272    620.401    620.172    619.272    619.272
 18.970    657.859    620.969     36.890    618.903    620.048    619.824    618.903    618.903
 19.070    595.000    620.627    -25.627    618.531    619.687    619.471    618.531    618.531
 19.170    605.000    620.294    -15.294    618.158    619.334    619.118    618.158    618.158
 19.270    600.000    619.975    -19.975    617.784    618.995    618.764    617.784    617.784
 19.370    600.000    619.693    -19.693    617.407    618.691    618.409    617.407    617.407
 19.470    606.000    619.366    -13.366    617.030    618.343    618.052    617.030    617.030
 19.570    610.000    619.025     -9.025    616.650    617.980    617.695    616.650    616.650
 19.670    565.000    618.689    -53.689    616.269    617.621    617.337    616.269    616.269
 19.770    576.000    618.358    -42.358    615.887    617.267    616.978    615.887    615.887
 19.870    565.000    618.031    -53.031    615.503    616.914    616.619    615.503    615.503
 19.970    620.625    617.718      2.907    615.117    616.576    616.259    615.117    615.117
 20.070    674.331    617.376     56.954    614.731    616.208    615.899    614.731    614.731
 20.170    626.000    617.031      8.969    614.343    615.835    615.538    614.343    614.343
 20.270    575.918    616.686    -40.768    613.953    615.463    615.177    613.953    613.953
 20.370    565.964    616.349    -50.385    613.563    615.095    614.816    613.563    613.563
 20.470    590.000    616.016    -26.016    613.171    614.730    614.457    613.171    613.171
 20.570    561.000    615.680    -54.680    612.778    614.362    614.096    612.778    612.778
 20.670    653.046    615.342     37.704    612.383    613.992    613.734    612.383    612.383
 20.770    627.000    615.002     11.998    611.988    613.618    613.373    611.988    611.988
 20.870    565.000    614.663    -49.663    611.592    613.243    613.011    611.592    611.592
 20.970    579.000    614.324    -35.324    611.194    612.868    612.650    611.194    611.194
 21.070    582.000    613.988    -31.988    610.795    612.494    612.289    610.795    610.795
 21.170    613.000    613.654     -0.654    610.396    612.121    611.929    610.396    610.396
 21.270    575.098    613.323    -38.225    609.995    611.748    611.569    609.995    609.995
 21.370    612.000    612.993     -0.993    609.593    611.376    611.210    609.593    609.593
 21.470    602.000    612.665    -10.665    609.191    611.003    610.852    609.191    609.191
 21.570    612.000    612.341     -0.341    608.787    610.633    610.495    608.787    608.787
 21.670    565.000    612.021    -47.021    608.383    610.265    610.140    608.383    608.383
 21.770    592.000    611.703    -19.703    607.978    609.896    609.785    607.978    607.978
 21.870    608.109    611.389     -3.280    607.572    609.529    609.432    607.572    607.572
 21.970    589.600    611.080    -21.479    607.166    609.165    609.081    607.166    607.166
 22.070    629.000    610.775     18.225    606.758    608.803    608.731    606.758    606.758
 22.170    584.000    610.476    -26.476    606.350    608.443    608.383    606.350    606.350
 22.270    597.199    610.183    -12.985    605.941    608.087    608.038    605.941    605.941
 22.370    638.000    609.898     28.102    605.532    607.735    607.695    605.532    605.532
 22.470    612.000    609.620      2.380    605.122    607.388    607.355    605.122    605.122
 22.570    627.000    609.351     17.649    604.711    607.046    607.017    604.711    604.711
 22.670    593.000    609.093    -16.093    604.300    606.710    606.683    604.300    604.300
 22.770    585.000    608.845    -23.845    603.888    606.382    606.352    603.888    603.888
 22.870    592.000    608.611    -16.611    603.476    606.064    606.024    603.476    603.476
 22.970    589.000    608.393    -19.393    603.064    605.756    605.701    603.064    603.064
 23.070    645.478    608.193     37.284    602.650    605.462    605.382    602.650    602.650
 23.170    647.805    608.014     39.790    602.237    605.184    605.068    602.237    602.237
 23.270    612.000    607.860      4.140    601.823    604.924    604.760    601.823    601.823
 23.370    623.000    607.737     15.263    601.409    604.690    604.456    601.409    601.409
 23.470    572.000    607.650    -35.650    600.994    604.485    604.160    600.994    600.994
 23.570    606.426    607.610     -1.184    600.579    604.321    603.869    600.579    600.579
 23.670    634.000    607.628     26.372    600.164    604.206    603.587    600.164    600.164
 23.770    643.000    607.722     35.278    599.749    604.160    603.312    599.749    599.749
 23.870    619.000    607.916     11.084    599.333    604.204    603.046    599.333    599.333
 23.970    554.565    608.246    -53.681    598.917    604.376    602.790    598.917    598.917
 24.070    586.809    608.781    -21.972    598.501    604.741    602.544    598.501    598.501
 24.170    603.801    609.664     -5.863    598.085    605.443    602.309    598.085    598.085
 24.270    632.000    611.229     20.771    597.669    606.816    602.087    597.669    597.669
 24.370    578.247    614.217    -35.970    597.252    609.597    601.879    597.252    597.252
 24.470    651.921    619.986     31.935    596.836    615.147    601.686    596.836    596.836
 24.570    667.906    630.369     37.537    596.419    625.297    601.510    596.419    596.419
 24.670    641.000    646.684     -5.684    596.003    641.363    601.354    596.003    596.003
 24.770    707.000    667.718     39.282    595.586    662.132    601.218    595.586    595.586
 24.870    652.156    687.295    -35.139    595.170    681.422    601.104    595.170    595.170
 24.970    689.000    694.591     -5.591    594.753    688.395    601.015    594.753    594.753
 25.070    686.000    683.887      2.113    594.337    677.327    600.955    594.337    594.337
 25.170    654.000    663.023     -9.023    593.921    656.060    600.927    593.921    593.921
 25.270    705.000    642.615     62.385    593.505    635.214    600.934    593.505    593.505
 25.370    687.000    627.650     59.350    593.089    619.774    600.982    593.089    593.089
 25.470    651.000    618.544     32.456    592.673    610.153    601.075    592.673    592.673
 25.570    649.000    613.708     35.292    592.257    604.751    601.220    592.257    592.257
 25.670    644.000    611.350     32.650    591.842    601.770    601.426    591.842    591.842
 25.770    562.677    610.257    -47.580    591.427    599.988    601.699    591.427    591.427
 25.870    639.000    609.816     29.184    591.012    598.781    602.049    591.012    591.012
 25.970    642.000    609.772     32.228    590.598    597.881    602.490    590.598    590.598
 26.070    587.919    610.025    -22.107    590.183    597.174    603.036    590.183    590.183
 26.170    651.142    610.543     40.598    589.770    596.609    603.705    589.770    589.770
 26.270    641.000    611.319     29.681    589.356    596.156    604.520    589.356    589.356
 26.370    600.000    612.365    -12.365    588.943    595.800    605.508    588.943    588.943
 26.470    609.000    613.707     -4.707    588.530    595.534    606.703    588.530    588.530
 26.570    574.777    615.387    -40.610    588.118    595.355    608.149    588.118    588.118
 26.670    645.000    617.463     27.537    587.706    595.267    609.901    587.706    587.706
 26.770    645.000    620.014     24.986    587.295    595.277    612.030    587.295    587.295
 26.870    588.754    623.150    -34.397    586.884    595.401    614.631    586.884    586.884
 26.970    629.000    627.017      1.983    586.473    595.659    617.829    586.473    586.473
 27.070    659.000    631.815     27.185    586.063    596.083    621.793    586.063    586.063
 27.170    673.000    637.824     35.176    585.654    596.715    626.759    585.654    585.654
 27.270    709.000    645.439     63.561    585.245    597.620    633.061    585.245    585.245
 27.370    687.000    655.255     31.745    584.837    598.892    641.196    584.837    584.837
 27.470    728.000    668.251     59.749    584.430    600.688    651.987    584.430    584.430
 27.570    703.000    686.415     16.585    584.023    603.326    667.103    584.023    584.023
 27.670    764.000    714.661     49.339    583.616    607.589    690.676    583.616    583.616
 27.770    784.000    765.582     18.418    583.211    615.473    733.298    583.211    583.211
 27.870    828.000    867.103    -39.103    582.806    631.406    818.462    582.806    582.806
 27.970   1061.994   1066.169     -4.175    582.402    662.827    985.666    582.402    582.402
 28.070   1297.000   1412.134   -115.134    581.998    717.565   1276.432    581.998    581.998
 28.170   1841.320   1907.955    -66.635    581.596    796.127   1693.223    581.596    581.596
 28.270   2505.278   2442.144     63.134    581.194    880.963   2142.139    581.194    581.194
 28.370   2801.000   2763.091     37.909    580.792    932.464   2411.227    580.792    580.792
 28.470   2725.000   2667.242     57.758    580.392    918.857   2328.698    580.392    580.392
 28.570   2130.000   2270.842   -140.842    579.992    859.341   1991.506    579.992    579.992
 28.670   1771.000   1860.340    -89.340    579.594    800.418   1639.555    579.594    579.594
 28.770   1569.000   1630.847    -61.847    579.196    774.005   1436.066    579.196    579.196
 28.870   1493.000   1619.737   -126.737    578.799    785.773   1412.772    578.799    578.799
 28.970   1685.000   1737.590    -52.590    578.403    818.491   1497.511    578.403    578.403
 29.070   1792.072   1817.564    -25.491    578.008    839.211   1556.400    578.008    578.008
 29.170   1726.000   1727.223     -1.223    577.613    821.554   1483.364    577.613    577.613
 29.270   1574.000   1489.706     84.294    577.220    771.520   1295.506    577.220    577.220
 29.370   1244.000   1217.387     26.613    576.827    713.652   1080.650    576.827    576.827
 29.470   1033.000    992.599     40.401    576.436    665.790    903.307    576.436    576.436
 29.570    880.000    840.310     39.690    576.046    633.370    783.024    576.046    576.046
 29.670    814.000    749.968     64.032    575.656    614.172    711.473    575.656    575.656
 29.770    772.000    699.860     72.140    575.268    603.570    671.568    575.268    575.268
 29.870    783.000    671.602    111.398    574.880    597.644    648.844    574.880    574.880
 29.970    715.000    654.184     60.816    574.494    594.055    634.626    574.494    574.494
 30.070    585.951    642.294    -56.343    574.109    591.691    624.713    574.109    574.109
 30.170    730.000    633.653     96.347    573.725    590.102    617.276    573.725    573.725
 30.270    657.516    627.335     30.181    573.342    589.166    611.510    573.342    573.342
 30.370    721.000    623.086     97.914    572.960    588.986    607.056    572.960    572.960
