neutron_powder_diffraction_0201
R_wp: 4.138
Temperature (K): 1074.000
Counts: 83710.00
Wavelength (Ã…): 2.52098
COMMENTS
Test file for demonstrating the .xyy file format in Reel1.0
END OF HEADER
   tth       Y_obs     Y_calc      Y_res    Background    Phase_1_Nuc    Phase_1_Mag    Phase_2_Nuc    Phase_2_Mag
  9.970    585.127    566.583     18.544    565.907    566.558    565.907    565.932    565.907
 10.070    587.000    566.834     20.166    566.097    566.808    566.097    566.122    566.097
 10.170    601.000    567.082     33.918    566.280    567.056    566.280    566.306    566.280
 10.270    545.754    567.333    -21.579    566.457    567.307    566.457    566.482    566.457
 10.370    616.000    567.589     48.411    566.626    567.563    566.626    566.652    566.626
 10.470    559.000    567.853     -8.853    566.788    567.826    566.788    566.814    566.788
 10.570    589.000    568.129     20.871    566.944    568.102    566.944    566.970    566.944
 10.670    631.000    568.421     62.579    567.093    568.394    567.093    567.119    567.093
 10.770    564.376    568.736     -4.360    567.235    568.709    567.235    567.261    567.235
 10.870    572.000    569.083      2.917    567.370    569.055    567.370    567.397    567.370
 10.970    575.923    569.475      6.448    567.499    569.446    567.499    567.527    567.499
 11.070    562.856    569.928     -7.072    567.621    569.898    567.621    567.649    567.621
 11.170    520.596    570.468    -49.871    567.737    570.437    567.737    567.765    567.737
 11.270    536.000    571.134    -35.134    567.846    571.103    567.846    567.875    567.846
 11.370    578.000    571.995      6.005    567.949    571.964    567.949    567.978    567.949
 11.470    573.000    573.200     -0.200    568.046    573.168    568.046    568.075    568.046
 11.570    540.929    575.163    -34.234    568.136    575.129    568.136    568.166    568.136
 11.670    622.000    579.064     42.936    568.220    579.028    568.220    568.250    568.220
 11.770    609.841    587.653     22.188    568.298    587.610    568.298    568.330    568.298
 11.870    617.473    605.371     12.103    568.370    605.308    568.370    568.412    568.370
 11.970    641.000    635.645      5.355    568.436    635.563    568.436    568.480    568.436
 12.070    683.120    674.592      8.528    568.496    674.488    568.496    568.540    568.496
 12.170    704.000    705.241     -1.241    568.550    705.119    568.550    568.594    568.550
 12.270    660.000    706.288    -46.288    568.599    706.165    568.599    568.643    568.599
 12.370    700.301    676.833     23.468    568.641    676.727    568.641    568.685    568.641
 12.470    636.153    637.808     -1.654    568.678    637.724    568.678    568.722    568.678
 12.570    613.000    606.945      6.055    568.709    606.879    568.709    568.754    568.709
 12.670    569.116    588.731    -19.614    568.734    588.674    568.734    568.780    568.734
 12.770    567.000    579.905    -12.905    568.754    579.848    568.754    568.805    568.754
 12.870    595.000    575.958     19.042    568.769    575.903    568.769    568.820    568.769
 12.970    558.998    574.041    -15.043    568.778    573.986    568.778    568.830    568.778
 13.070    538.000    572.916    -34.916    568.781    572.861    568.781    568.833    568.781
 13.170    564.000    572.145     -8.145    568.780    572.091    568.780    568.832    568.780
 13.270    554.000    571.575    -17.575    568.772    571.521    568.772    568.825    568.772
 13.370    522.582    571.136    -48.554    568.760    571.082    568.760    568.813    568.760
 13.470    506.000    570.787    -64.787    568.743    570.732    568.743    568.796    568.743
 13.570    548.283    570.501    -22.218    568.720    570.447    568.720    568.774    568.720
 13.670    582.000    570.262     11.738    568.693    570.208    568.693    568.746    568.693
 13.770    610.076    570.057     40.018    568.660    570.003    568.660    568.714    568.660
 13.870    575.159    569.878      5.282    568.622    569.823    568.622    568.677    568.622
 13.970    530.000    569.716    -39.716    568.580    569.661    568.580    568.634    568.580
 14.070    551.000    569.569    -18.569    568.532    569.514    568.532    568.587    568.532
 14.170    610.988    569.432     41.556    568.480    569.376    568.480    568.535    568.480
 14.270    584.000    569.302     14.698    568.423    569.246    568.423    568.479    568.423
 14.370    562.000    569.178     -7.178    568.362    569.122    568.362    568.418    568.362
 14.470    544.000    569.058    -25.058    568.295    569.001    568.295    568.352    568.295
 14.570    561.000    568.943     -7.943    568.224    568.886    568.224    568.281    568.224
 14.670    540.000    568.828    -28.828    568.149    568.770    568.149    568.206    568.149
 14.770    591.000    568.711     22.289    568.069    568.654    568.069    568.126    568.069
 14.870    587.754    568.596     19.158    567.985    568.537    567.985    568.043    567.985
 14.970    559.000    568.481     -9.481    567.896    568.420    567.896    567.957    567.896
 15.070    538.000    568.364    -30.364    567.803    568.302    567.803    567.865    567.803
 15.170    553.000    568.247    -15.247    567.705    568.184    567.705    567.768    567.705
 15.270    549.091    568.125    -19.034    567.604    568.062    567.604    567.667    567.604
 15.370    542.000    568.002    -26.002    567.498    567.938    567.498    567.562    567.498
 15.470    536.000    567.876    -31.876    567.388    567.811    567.388    567.453    567.388
 15.570    572.000    567.747      4.253    567.274    567.682    567.274    567.339    567.274
 15.670    568.170    567.616      0.554    567.156    567.551    567.156    567.221    567.156
 15.770    539.000    567.483    -28.483    567.034    567.417    567.034    567.099    567.034
 15.870    532.000    567.346    -35.346    566.908    567.280    566.908    566.974    566.908
 15.970    581.330    567.207     14.123    566.778    567.140    566.778    566.844    566.778
 16.070    526.000    567.065    -41.065    566.644    566.998    566.644    566.711    566.644
 16.170    598.000    566.920     31.080    566.506    566.852    566.506    566.574    566.506
 16.270    535.368    566.772    -31.403    566.365    566.704    566.365    566.433    566.365
 16.370    534.000    566.621    -32.621    566.220    566.552    566.220    566.288    566.220
 16.470    581.000    566.466     14.534    566.071    566.398    566.071    566.139    566.071
 16.570    597.000    566.309     30.691    565.918    566.240    565.918    565.988    565.918
 16.670    583.000    566.149     16.851    565.762    566.080    565.762    565.832    565.762
 16.770    542.730    565.986    -23.257    565.603    565.916    565.603    565.673    565.603
 16.870    595.304    565.820     29.484    565.440    565.750    565.440    565.510    565.440
 16.970    565.000    565.652     -0.652    565.273    565.581    565.273    565.344    565.273
 17.070    520.574    565.480    -44.906    565.104    565.408    565.104    565.175    565.104
 17.170    577.000    565.305     11.695    564.930    565.233    564.930    565.002    564.930
 17.270    549.000    565.130    -16.130    564.754    565.057    564.754    564.827    564.754
 17.370    556.000    564.951     -8.951    564.574    564.877    564.574    564.649    564.574
 17.470    528.000    564.768    -36.768    564.391    564.693    564.391    564.466    564.391
 17.570    514.000    564.581    -50.581    564.205    564.506    564.205    564.281    564.205
 17.670    551.000    564.392    -13.392    564.016    564.316    564.016    564.092    564.016
 17.770    566.000    564.200      1.800    563.823    564.124    563.823    563.900    563.823
 17.870    544.322    564.006    -19.683    563.628    563.929    563.628    563.705    563.628
 17.970    596.028    563.808     32.219    563.430    563.731    563.430    563.507    563.430
 18.070    580.000    563.608     16.392    563.228    563.530    563.228    563.307    563.228
 18.170    522.253    563.406    -41.152    563.024    563.327    563.024    563.103    563.024
 18.270    607.000    563.201     43.799    562.817    563.121    562.817    562.896    562.817
 18.370    543.737    562.993    -19.256    562.607    562.913    562.607    562.687    562.607
 18.470    504.000    562.784    -58.784    562.394    562.703    562.394    562.475    562.394
 18.570    565.895    562.571      3.324    562.179    562.490    562.179    562.260    562.179
 18.670    593.000    562.356     30.644    561.961    562.274    561.961    562.042    561.961
 18.770    608.345    562.140     46.205    561.740    562.057    561.740    561.822    561.740
 18.870    569.000    561.921      7.079    561.516    561.838    561.516    561.599    561.516
 18.970    578.000    561.699     16.301    561.290    561.615    561.290    561.374    561.290
 19.070    564.252    561.475      2.778    561.062    561.390    561.062    561.146    561.062
 19.170    577.570    561.249     16.321    560.831    561.163    560.831    560.916    560.831
 19.270    574.000    561.024     12.976    560.597    560.934    560.597    560.688    560.597
 19.370    596.953    560.795     36.158    560.361    560.702    560.361    560.454    560.361
 19.470    610.000    560.563     49.437    560.123    560.469    560.123    560.217    560.123
 19.570    574.000    560.328     13.672    559.882    560.233    559.882    559.977    559.882
 19.670    576.000    560.092     15.908    559.639    559.997    559.639    559.735    559.639
 19.770    535.022    559.867    -24.846    559.394    559.771    559.394    559.490    559.394
 19.870    555.000    559.637     -4.637    559.146    559.540    559.146    559.244    559.146
 19.970    565.000    559.396      5.604    558.897    559.298    558.897    558.995    558.897
 20.070    575.000    559.153     15.847    558.645    559.054    558.645    558.744    558.645
 20.170    558.000    558.907     -0.907    558.391    558.807    558.391    558.491    558.391
 20.270    544.000    558.660    -14.660    558.135    558.560    558.135    558.236    558.135
 20.370    562.000    558.412      3.588    557.877    558.310    557.877    557.979    557.877
 20.470    522.000    558.162    -36.162    557.617    558.059    557.617    557.720    557.617
 20.570    562.000    557.911      4.089    557.355    557.807    557.355    557.459    557.355
 20.670    528.000    557.658    -29.658    557.091    557.554    557.091    557.196    557.091
 20.770    551.000    557.405     -6.405    556.826    557.299    556.826    556.931    556.826
 20.870    563.000    557.150      5.850    556.558    557.043    556.558    556.665    556.558
 20.970    553.188    556.894     -3.706    556.288    556.786    556.288    556.396    556.288
 21.070    566.000    556.637      9.363    556.017    556.529    556.017    556.126    556.017
 21.170    552.294    556.380     -4.086    555.744    556.270    555.744    555.854    555.744
 21.270    552.951    556.122     -3.171    555.470    556.011    555.470    555.581    555.470
 21.370    550.364    555.871     -5.508    555.193    555.759    555.193    555.306    555.193
 21.470    562.000    555.697      6.303    554.915    555.583    554.915    555.029    554.915
 21.570    570.000    555.459     14.541    554.636    555.345    554.636    554.751    554.636
 21.670    593.613    555.202     38.411    554.355    555.085    554.355    554.471    554.355
 21.770    550.000    554.943     -4.943    554.072    554.825    554.072    554.190    554.072
 21.870    577.634    554.684     22.949    553.788    554.565    553.788    553.907    553.788
 21.970    565.000    554.428     10.572    553.503    554.308    553.503    553.623    553.503
 22.070    536.000    554.193    -18.193    553.216    554.071    553.216    553.338    553.216
 22.170    548.477    553.968     -5.491    552.927    553.845    552.927    553.051    552.927
 22.270    544.000    553.721     -9.721    552.637    553.596    552.637    552.763    552.637
 22.370    524.000    553.470    -29.470    552.346    553.344    552.346    552.473    552.346
 22.470    526.000    553.227    -27.227    552.054    553.098    552.054    552.183    552.054
 22.570    518.000    553.028    -35.028    551.760    552.897    551.760    551.891    551.760
 22.670    563.710    552.806     10.904    551.465    552.674    551.465    551.598    551.465
 22.770    591.591    552.574     39.017    551.169    552.440    551.169    551.304    551.169
 22.870    554.000    552.349      1.651    550.872    552.214    550.872    551.008    550.872
 22.970    596.858    552.131     44.727    550.574    551.993    550.574    550.712    550.574
 23.070    566.682    551.923     14.759    550.274    551.783    550.274    550.415    550.274
 23.170    590.960    551.730     39.230    549.974    551.586    549.974    550.119    549.974
 23.270    598.672    551.553     47.119    549.672    551.406    549.672    549.820    549.672
 23.370    586.000    551.397     34.603    549.370    551.248    549.370    549.520    549.370
 23.470    528.689    551.271    -22.581    549.066    551.118    549.066    549.219    549.066
 23.570    557.000    551.182      5.818    548.762    551.027    548.762    548.917    548.762
 23.670    577.554    551.144     26.410    548.456    550.987    548.456    548.615    548.456
 23.770    523.702    551.177    -27.475    548.150    551.017    548.150    548.311    548.150
 23.870    559.084    551.312      7.772    547.843    551.149    547.843    548.007    547.843
 23.970    555.000    551.605      3.395    547.535    551.440    547.535    547.702    547.535
 24.070    553.000    552.192      0.808    547.226    552.024    547.226    547.397    547.226
 24.170    553.000    553.453     -0.453    546.917    553.282    546.917    547.091    546.917
 24.270    560.000    556.390      3.610    546.606    556.218    546.606    546.784    546.606
 24.370    598.000    563.063     34.937    546.295    562.892    546.295    546.477    546.295
 24.470    535.000    576.260    -41.260    545.984    576.094    545.984    546.169    545.984
 24.570    603.000    597.287      5.713    545.672    597.132    545.672    545.861    545.672
 24.670    616.000    621.993     -5.993    545.359    621.851    545.359    545.553    545.359
 24.770    645.000    638.290      6.710    545.045    638.156    545.045    545.244    545.045
 24.870    629.000    634.293     -5.293    544.731    634.152    544.731    544.935    544.731
 24.970    620.000    613.218      6.782    544.417    613.056    544.417    544.626    544.417
 25.070    592.593    588.455      4.138    544.101    588.270    544.101    544.316    544.101
 25.170    560.000    569.432     -9.432    543.786    569.228    543.786    544.007    543.786
 25.270    559.608    558.091      1.517    543.470    557.873    543.470    543.697    543.470
 25.370    553.000    552.337      0.663    543.153    552.108    543.153    543.387    543.153
 25.470    511.000    549.546    -38.546    542.837    549.308    542.837    543.078    542.837
 25.570    591.000    548.039     42.961    542.519    547.793    542.519    542.768    542.519
 25.670    566.312    547.062     19.250    542.202    546.806    542.202    542.459    542.202
 25.770    572.411    546.333     26.078    541.884    546.069    541.884    542.150    541.884
 25.870    499.112    545.752    -46.640    541.566    545.478    541.566    541.841    541.566
 25.970    591.000    545.274     45.726    541.247    544.989    541.247    541.533    541.247
 26.070    525.105    544.872    -19.767    540.929    544.576    540.929    541.226    540.929
 26.170    546.565    544.533      2.032    540.610    544.225    540.610    540.919    540.610
 26.270    514.000    544.251    -30.251    540.291    543.930    540.291    540.613    540.291
 26.370    546.000    544.046      1.954    539.972    543.711    539.972    540.307    539.972
 26.470    556.572    543.888     12.684    539.652    543.537    539.652    540.004    539.652
 26.570    502.716    543.769    -41.053    539.333    543.401    539.333    539.701    539.333
 26.670    558.000    543.717     14.283    539.013    543.330    539.013    539.400    539.013
 26.770    538.000    543.711     -5.711    538.694    543.304    538.694    539.101    538.694
 26.870    554.000    543.781     10.219    538.374    543.351    538.374    538.803    538.374
 26.970    483.000    543.947    -60.947    538.054    543.492    538.054    538.508    538.054
 27.070    552.000    544.235      7.765    537.735    543.753    537.735    538.216    537.735
 27.170    513.389    544.695    -31.306    537.415    544.181    537.415    537.928    537.415
 27.270    553.661    545.383      8.278    537.095    544.834    537.095    537.643    537.095
 27.370    564.000    546.352     17.648    536.776    545.764    536.776    537.362    536.776
 27.470    534.000    547.779    -13.779    536.456    547.146    536.456    537.087    536.456
 27.570    525.000    550.079    -25.079    536.137    549.395    536.137    536.818    536.137
 27.670    565.000    554.701     10.299    535.818    553.958    535.818    536.557    535.818
 27.770    540.914    566.516    -25.603    535.499    565.702    535.499    536.305    535.499
 27.870    629.907    597.714     32.193    535.180    596.812    535.180    536.064    535.180
 27.970    633.460    667.018    -33.559    534.862    666.002    534.862    535.836    534.862
 28.070    819.325    782.404     36.921    534.543    781.246    534.543    535.624    534.543
 28.170    898.000    911.112    -13.112    534.225    909.797    534.225    535.434    534.225
 28.270    959.000    974.533    -15.533    533.908    973.066    533.908    535.270    533.908
 28.370    919.747    920.853     -1.106    533.590    919.236    533.590    535.140    533.590
 28.470    755.330    805.193    -49.862    533.273    803.382    533.273    535.055    533.273
 28.570    707.000    715.576     -8.576    532.956    713.485    532.956    535.033    532.956
 28.670    701.000    697.358      3.642    532.640    694.878    532.640    535.103    532.640
 28.770    731.000    745.435    -14.435    532.324    742.418    532.324    535.319    532.324
 28.870    814.075    817.768     -3.693    532.008    813.980    532.008    535.780    532.008
 28.970    814.000    851.920    -37.920    531.693    846.959    531.693    536.653    531.693
 29.070    788.000    811.093    -23.093    531.378    804.290    531.378    538.190    531.378
 29.170    713.000    727.618    -14.618    531.064    717.989    531.064    540.704    531.064
 29.270    656.000    651.396      4.604    530.750    637.675    530.750    544.478    530.750
 29.370    583.316    604.944    -21.628    530.436    585.801    530.436    549.582    530.436
 29.470    630.000    585.252     44.748    530.124    559.820    530.124    555.556    530.124
 29.570    621.000    579.733     41.267    529.811    548.611    529.811    560.932    529.811
 29.670    603.990    577.434     26.556    529.500    543.657    529.500    563.275    529.500
 29.770    619.000    572.849     46.151    529.188    540.993    529.188    561.042    529.188
 29.870    547.777    565.788    -18.012    528.878    539.253    528.878    555.411    528.878
 29.970    553.390    558.264     -4.874    528.568    538.021    528.568    548.809    528.568
 30.070    531.000    551.793    -20.793    528.259    537.164    528.259    542.886    528.259
 30.170    571.000    546.960     24.040    527.950    536.656    527.950    538.251    527.950
 30.270    562.000    543.876     18.124    527.642    536.609    527.642    534.906    527.642
 30.370    546.977    542.731      4.246    527.335    537.469    527.335    532.593    527.335
