neutron_powder_diffraction_0049
R_wp: 3.922
Temperature (K): 639.162
Counts: 83205.00
Wavelength (Ã…): 2.52098
COMMENTS
Test file for demonstrating the .xyy file format in Reel1.0
END OF HEADER
   tth       Y_obs     Y_calc      Y_res    Background    Phase_1_Nuc    Phase_1_Mag    Phase_2_Nuc    Phase_2_Mag
  9.970    740.000    677.190     62.810    675.761    676.789    676.161    675.761    675.761
 10.070    734.000    676.578     57.422    675.062    676.174    675.466    675.062    675.062
 10.170    661.000    675.980    -14.980    674.364    675.571    674.773    674.364    674.364
 10.270    701.000    675.396     25.604    673.668    674.983    674.081    673.668    673.668
 10.370    706.098    674.830     31.268    672.972    674.412    673.390    672.972    672.972
 10.470    712.000    674.286     37.714    672.278    673.863    672.700    672.278    672.278
 10.570    685.407    673.768     11.639    671.584    673.340    672.011    671.584    671.584
 10.670    675.000    673.281      1.719    670.892    672.849    671.323    670.892    670.892
 10.770    619.501    672.835    -53.334    670.201    672.398    670.637    670.201    670.201
 10.870    650.120    672.440    -22.320    669.511    671.998    669.952    669.511    669.511
 10.970    656.000    672.110    -16.110    668.823    671.663    669.268    668.823    668.823
 11.070    626.863    671.865    -45.002    668.135    671.413    668.586    668.135    668.135
 11.170    718.000    671.734     46.266    667.449    671.276    667.904    667.449    667.449
 11.270    701.000    671.760     29.240    666.764    671.296    667.224    666.764    666.764
 11.370    715.297    672.012     43.285    666.080    671.543    666.546    666.080    666.080
 11.470    703.000    672.628     30.372    665.397    672.152    665.869    665.397    665.397
 11.570    685.002    673.908     11.094    664.716    673.426    665.193    664.716    664.716
 11.670    715.000    676.545     38.455    664.036    676.056    664.518    664.036    664.036
 11.770    749.000    681.931     67.069    663.357    681.433    663.846    663.357    663.357
 11.870    682.947    692.295     -9.348    662.680    691.785    663.174    662.680    662.680
 11.970    734.364    710.038     24.326    662.004    709.512    662.504    662.004    662.004
 12.070    706.723    735.743    -29.020    661.329    735.196    661.835    661.329    661.329
 12.170    758.641    764.804     -6.164    660.655    764.235    661.168    660.655    660.655
 12.270    845.000    784.770     60.230    659.984    784.183    660.502    659.984    659.984
 12.370    865.000    782.433     82.567    659.313    781.841    659.838    659.313    659.313
 12.470    809.000    759.138     49.862    658.644    758.552    659.175    658.644    658.644
 12.570    719.544    728.753     -9.209    657.976    728.177    658.514    657.976    657.976
 12.670    717.000    702.668     14.332    657.310    702.100    657.854    657.310    657.310
 12.770    686.106    684.635      1.471    656.645    684.069    657.196    656.645    656.645
 12.870    648.000    673.703    -25.703    655.982    673.135    656.539    655.982    655.982
 12.970    654.000    667.433    -13.433    655.320    666.861    655.885    655.320    655.320
 13.070    610.546    663.733    -53.188    654.659    663.157    655.231    654.659    654.659
 13.170    614.000    661.338    -47.338    654.001    660.755    654.580    654.001    654.001
 13.270    652.000    659.463     -7.463    653.343    658.873    653.930    653.343    653.343
 13.370    633.181    657.920    -24.739    652.688    657.323    653.282    652.688    652.688
 13.470    623.000    656.597    -33.597    652.033    655.992    652.635    652.033    652.033
 13.570    618.000    655.423    -37.423    651.381    654.812    651.991    651.381    651.381
 13.670    611.000    654.358    -43.358    650.730    653.738    651.348    650.730    650.730
 13.770    592.000    653.376    -61.376    650.080    652.748    650.706    650.080    650.080
 13.870    616.000    652.457    -36.457    649.432    651.821    650.067    649.432    649.432
 13.970    696.000    651.588     44.412    648.786    650.944    649.429    648.786    648.786
 14.070    690.554    650.758     39.795    648.141    650.106    648.793    648.141    648.141
 14.170    649.481    649.964     -0.483    647.499    649.302    648.159    647.499    647.499
 14.270    644.000    649.214     -5.214    646.857    648.543    647.528    646.857    646.857
 14.370    687.000    648.474     38.526    646.218    647.794    646.897    646.218    646.218
 14.470    639.000    647.744     -8.744    645.580    647.054    646.269    645.580    645.580
 14.570    629.000    647.028    -18.028    644.943    646.329    645.642    644.943    644.943
 14.670    677.000    646.325     30.675    644.309    645.616    645.018    644.309    644.309
 14.770    640.000    645.635     -5.635    643.676    644.915    644.395    643.676    643.676
 14.870    596.568    644.954    -48.386    643.045    644.224    643.774    643.045    643.045
 14.970    592.834    644.282    -51.447    642.416    643.542    643.155    642.416    642.416
 15.070    668.070    643.618     24.452    641.788    642.867    642.539    641.788    641.788
 15.170    580.000    642.961    -62.961    641.163    642.199    641.924    641.163    641.163
 15.270    593.983    642.311    -48.328    640.539    641.538    641.311    640.539    640.539
 15.370    602.974    641.667    -38.693    639.916    640.882    640.700    639.916    639.916
 15.470    642.350    641.028      1.322    639.296    640.232    640.092    639.296    639.296
 15.570    586.000    640.395    -54.395    638.677    639.586    639.485    638.677    638.677
 15.670    627.180    639.766    -12.586    638.061    638.946    638.881    638.061    638.061
 15.770    620.000    639.145    -19.145    637.446    638.312    638.278    637.446    637.446
 15.870    532.000    638.528   -106.528    636.833    637.682    637.678    636.833    636.833
 15.970    633.000    637.912     -4.912    636.221    637.053    637.080    636.221    636.221
 16.070    624.000    637.301    -13.301    635.612    636.428    636.484    635.612    635.612
 16.170    642.000    636.693      5.307    635.005    635.807    635.891    635.005    635.005
 16.270    665.000    636.089     28.911    634.399    635.188    635.299    634.399    634.399
 16.370    612.155    635.488    -23.333    633.795    634.573    634.710    633.795    633.795
 16.470    612.313    634.891    -22.578    633.194    633.961    634.123    633.194    633.194
 16.570    647.458    634.298     13.160    632.594    633.353    633.539    632.594    632.594
 16.670    631.000    633.713     -2.713    631.996    632.753    632.956    631.996    631.996
 16.770    650.764    633.128     17.636    631.400    632.151    632.376    631.400    631.400
 16.870    631.888    632.544     -0.656    630.806    631.551    631.799    630.806    630.806
 16.970    658.000    631.963     26.037    630.214    630.953    631.224    630.214    630.214
 17.070    639.000    631.388      7.612    629.624    630.361    630.651    629.624    629.624
 17.170    615.000    630.839    -15.839    629.036    629.794    630.081    629.036    629.036
 17.270    619.000    630.321    -11.321    628.449    629.256    629.513    628.449    628.449
 17.370    611.972    629.758    -17.786    627.865    628.675    628.948    627.865    627.865
 17.470    659.190    629.193     29.997    627.283    628.091    628.385    627.283    627.283
 17.570    623.983    628.632     -4.649    626.703    627.510    627.824    626.703    626.703
 17.670    623.000    628.074     -5.074    626.125    626.933    627.267    626.125    626.125
 17.770    572.000    627.532    -55.532    625.549    626.369    626.711    625.549    625.549
 17.870    608.000    626.981    -18.981    624.975    625.798    626.159    624.975    624.975
 17.970    590.896    626.433    -35.537    624.403    625.227    625.609    624.403    624.403
 18.070    623.000    625.888     -2.888    623.833    624.659    625.061    623.833    623.833
 18.170    590.000    625.354    -35.354    623.265    624.103    624.517    623.265    623.265
 18.270    590.000    624.836    -34.836    622.699    623.561    623.975    622.699    622.699
 18.370    611.000    624.302    -13.302    622.136    623.002    623.435    622.136    622.136
 18.470    571.000    623.769    -52.769    621.574    622.444    622.899    621.574    621.574
 18.570    574.000    623.239    -49.239    621.015    621.888    622.365    621.015    621.015
 18.670    643.213    622.713     20.500    620.457    621.335    621.835    620.457    620.457
 18.770    609.761    622.190    -12.429    619.902    620.785    621.307    619.902    619.902
 18.870    634.000    621.682     12.318    619.349    620.247    620.783    619.349    619.349
 18.970    610.637    621.217    -10.580    618.798    619.743    620.271    618.798    618.798
 19.070    655.000    620.731     34.269    618.249    619.222    619.758    618.249    618.249
 19.170    595.000    620.225    -25.225    617.702    618.684    619.243    617.702    617.702
 19.270    635.463    619.720     15.744    617.157    618.147    618.730    617.157    617.157
 19.370    570.000    619.219    -49.219    616.615    617.612    618.221    616.615    616.615
 19.470    662.000    618.721     43.279    616.075    617.081    617.715    616.075    616.075
 19.570    614.000    618.227     -4.227    615.536    616.551    617.212    615.536    615.536
 19.670    587.000    617.739    -30.739    615.000    616.027    616.713    615.000    615.000
 19.770    597.000    617.254    -20.254    614.467    615.503    616.217    614.467    614.467
 19.870    603.000    616.772    -13.772    613.935    614.982    615.725    613.935    613.935
 19.970    566.000    616.294    -50.294    613.406    614.464    615.236    613.406    613.406
 20.070    618.127    615.828      2.299    612.878    613.955    614.751    612.878    612.878
 20.170    590.000    615.419    -25.419    612.353    613.495    614.278    612.353    612.353
 20.270    590.000    614.968    -24.968    611.831    612.994    613.804    611.831    611.831
 20.370    574.000    614.521    -40.521    611.310    612.500    613.331    611.310    611.310
 20.470    582.000    614.103    -32.103    610.792    612.034    612.861    610.792    610.792
 20.570    643.044    613.708     29.336    610.276    611.588    612.396    610.276    610.276
 20.670    641.531    613.271     28.261    609.762    611.098    611.934    609.762    609.762
 20.770    613.000    612.849      0.151    609.250    610.623    611.477    609.250    609.250
 20.870    587.766    612.421    -24.655    608.741    610.138    611.024    608.741    608.741
 20.970    578.150    612.014    -33.864    608.233    609.672    610.575    608.233    608.233
 21.070    623.000    611.617     11.383    607.728    609.214    610.131    607.728    607.728
 21.170    659.368    611.205     48.163    607.226    608.739    609.692    607.226    607.226
 21.270    637.710    610.806     26.904    606.725    608.275    609.257    606.725    606.725
 21.370    637.000    610.409     26.591    606.227    607.807    608.829    606.227    606.227
 21.470    612.059    610.018      2.041    605.732    607.343    608.406    605.732    605.732
 21.570    558.925    609.631    -50.706    605.238    606.882    607.987    605.238    605.238
 21.670    587.000    609.253    -22.253    604.747    606.427    607.573    604.747    604.747
 21.770    593.000    608.882    -15.882    604.258    605.975    607.165    604.258    604.258
 21.870    578.000    608.515    -30.515    603.771    605.524    606.762    603.771    603.771
 21.970    640.000    608.158     31.842    603.287    605.079    606.366    603.287    603.287
 22.070    610.115    607.810      2.306    602.804    604.639    605.975    602.804    602.804
 22.170    580.633    607.471    -26.838    602.325    604.204    605.592    602.325    602.325
 22.270    567.000    607.144    -40.144    601.847    603.776    605.215    601.847    601.847
 22.370    594.000    606.830    -12.830    601.372    603.356    604.846    601.372    601.372
 22.470    570.232    606.535    -36.304    600.899    602.949    604.486    600.899    600.899
 22.570    612.000    606.247      5.753    600.429    602.544    604.131    600.429    600.429
 22.670    598.000    605.973     -7.973    599.960    602.148    603.785    599.960    599.960
 22.770    587.555    605.717    -18.162    599.495    601.764    603.448    599.495    599.495
 22.870    556.434    605.477    -49.043    599.031    601.389    603.119    599.031    599.031
 22.970    650.769    605.258     45.511    598.570    601.028    602.800    598.570    598.570
 23.070    581.000    605.062    -24.062    598.111    600.683    602.491    598.111    598.111
 23.170    622.000    604.892     17.108    597.654    600.355    602.192    597.654    597.654
 23.270    626.692    604.753     21.938    597.200    600.050    601.904    597.200    597.200
 23.370    575.037    604.651    -29.614    596.748    599.771    601.629    596.748    596.748
 23.470    570.754    604.591    -33.837    596.299    599.524    601.366    596.299    596.299
 23.570    634.237    604.583     29.654    595.852    599.318    601.117    595.852    595.852
 23.670    629.475    604.638     24.837    595.407    599.164    600.882    595.407    595.407
 23.770    622.370    604.773     17.596    594.964    599.076    600.662    594.964    594.964
 23.870    577.000    605.011    -28.011    594.524    599.078    600.459    594.524    594.524
 23.970    631.000    605.386     25.614    594.087    599.202    600.273    594.087    594.087
 24.070    593.000    605.959    -12.959    593.651    599.506    600.107    593.651    593.651
 24.170    606.913    606.849      0.064    593.218    600.110    599.960    593.218    593.218
 24.270    635.000    608.324     26.676    592.787    601.280    599.836    592.787    592.787
 24.370    639.583    610.971     28.612    592.359    603.600    599.737    592.359    592.359
 24.470    618.000    615.872      2.128    591.933    608.152    599.663    591.933    591.933
 24.570    671.000    624.571     46.429    591.510    616.479    599.619    591.510    591.510
 24.670    649.586    638.418     11.169    591.089    629.928    599.605    591.089    591.089
 24.770    711.000    657.101     53.899    590.670    648.185    599.626    590.670    590.670
 24.870    697.000    676.453     20.547    590.253    667.076    599.684    590.253    590.253
 24.970    712.000    687.343     24.657    589.839    677.459    599.785    589.839    589.839
 25.070    736.283    682.426     53.857    589.428    671.980    599.932    589.428    589.428
 25.170    678.310    665.669     12.641    589.019    654.603    600.130    589.019    589.019
 25.270    664.000    646.537     17.463    588.612    634.794    600.386    588.612    588.612
 25.370    605.322    631.112    -25.791    588.207    618.633    600.706    588.207    588.207
 25.470    643.000    620.993     22.007    587.805    607.711    601.099    587.805    587.805
 25.570    592.351    615.317    -22.965    587.405    601.155    601.574    587.405    587.405
 25.670    600.000    612.537    -12.537    587.008    597.407    602.143    587.008    587.008
 25.770    659.000    611.390     47.610    586.613    595.190    602.817    586.613    586.613
 25.870    578.694    611.130    -32.436    586.221    593.740    603.613    586.221    586.221
 25.970    677.000    611.407     65.593    585.830    592.689    604.550    585.830    585.830
 26.070    636.000    612.078     23.922    585.443    591.872    605.650    585.443    585.443
 26.170    639.000    613.098     25.902    585.057    591.215    606.941    585.057    585.057
 26.270    646.000    614.464     31.536    584.674    590.681    608.457    584.674    584.674
 26.370    578.519    616.189    -37.669    584.294    590.245    610.237    584.294    584.294
 26.470    662.583    618.319     44.264    583.915    589.901    612.333    583.915    583.915
 26.570    650.000    620.901     29.099    583.540    589.631    614.810    583.540    583.540
 26.670    616.272    624.024     -7.752    583.166    589.439    617.750    583.166    583.166
 26.770    673.000    627.796     45.204    582.795    589.329    621.260    582.795    582.795
 26.870    610.638    632.366    -21.728    582.426    589.309    625.480    582.426    582.426
 26.970    666.000    637.931     28.069    582.060    589.393    630.595    582.060    582.060
 27.070    666.000    644.762     21.238    581.696    589.600    636.854    581.696    581.696
 27.170    690.576    653.234     37.341    581.335    589.961    644.604    581.335    581.335
 27.270    669.950    663.879      6.071    580.976    590.517    654.332    580.976    580.976
 27.370    711.605    677.474     34.131    580.619    591.333    666.752    580.619    580.619
 27.470    694.718    695.230     -0.512    580.265    592.509    682.977    580.265    580.265
 27.570    730.000    719.426     10.574    579.913    594.230    705.097    579.913    579.913
 27.670    790.681    755.717     34.965    579.563    596.960    738.302    579.563    579.563
 27.770    794.000    820.527    -26.527    579.216    602.036    797.677    579.216    579.216
 27.870    924.000    958.040    -34.040    578.871    613.049    923.799    578.871    578.871
 27.970   1253.000   1261.039     -8.039    578.529    637.536   1201.898    578.529    578.529
 28.070   1922.483   1860.187     62.296    578.189    686.112   1752.008    578.189    578.189
 28.170   2903.672   2828.481     75.191    577.851    764.730   2641.198    577.851    577.851
 28.270   3996.000   4006.838    -10.838    577.516    860.548   3723.312    577.516    577.516
 28.370   4821.000   4896.407    -75.407    577.183    933.243   4539.938    577.183    577.183
 28.470   5131.000   4945.587    185.413    576.852    938.418   4583.853    576.852    576.852
 28.570   4067.899   4174.475   -106.576    576.524    878.483   3872.543    576.524    576.524
 28.670   3265.821   3185.969     79.852    576.198    803.737   2958.512    576.198    576.198
 28.770   2452.684   2536.661    -83.977    575.875    760.970   2351.611    575.875    575.875
 28.870   2360.000   2407.844    -47.844    575.554    765.459   2217.935    575.554    575.554
 28.970   2629.887   2649.904    -20.017    575.235    802.504   2422.631    575.235    575.235
 29.070   3032.000   2917.279    114.721    574.919    837.056   2655.210    574.919    574.919
 29.170   2909.872   2874.550     35.322    574.605    833.998   2615.328    574.605    574.605
 29.270   2446.687   2462.999    -16.312    574.294    788.088   2249.419    574.294    574.294
 29.370   1889.982   1900.517    -10.535    573.984    724.642   1750.046    573.984    573.984
 29.470   1357.169   1407.640    -50.470    573.677    668.929   1312.516    573.677    573.677
 29.570   1037.000   1071.291    -34.291    573.373    630.913   1013.825    573.373    573.373
 29.670    956.000    878.083     77.917    573.071    609.116    842.076    573.071    573.071
 29.770    867.000    777.729     89.271    572.771    597.846    752.673    572.771    572.771
 29.870    669.137    725.550    -56.413    572.474    592.046    705.988    572.474    572.474
 29.970    716.000    695.409     20.591    572.178    588.763    678.830    572.178    572.178
 30.070    678.340    675.464      2.876    571.886    586.674    660.679    571.886    571.886
 30.170    677.000    661.026     15.974    571.595    585.278    647.345    571.595    571.595
 30.270    673.319    650.232     23.087    571.307    584.418    637.121    571.307    571.307
 30.370    659.000    642.337     16.663    571.021    584.133    629.224    571.021    571.021
