neutron_powder_diffraction_0206
R_wp: 3.889
Temperature (K): 1074.000
Counts: 83444.00
Wavelength (Ã…): 2.52098
COMMENTS
Test file for demonstrating the .xyy file format in Reel1.0
END OF HEADER
   tth       Y_obs     Y_calc      Y_res    Background    Phase_1_Nuc    Phase_1_Mag    Phase_2_Nuc    Phase_2_Mag
  9.970    601.000    565.213     35.787    564.604    565.158    564.604    564.658    564.604
 10.070    613.000    565.459     47.541    564.784    565.404    564.784    564.839    564.784
 10.170    606.749    565.692     41.058    564.958    565.637    564.958    565.012    564.958
 10.270    633.000    565.923     67.077    565.124    565.868    565.124    565.179    565.124
 10.370    587.000    566.158     20.842    565.284    566.103    565.284    565.339    565.284
 10.470    594.000    566.400     27.600    565.437    566.344    565.437    565.492    565.437
 10.570    602.000    566.651     35.349    565.583    566.594    565.583    565.639    565.583
 10.670    577.000    566.917     10.083    565.723    566.858    565.723    565.782    565.723
 10.770    607.000    567.201     39.799    565.855    567.141    565.855    565.915    565.855
 10.870    588.327    567.512     20.815    565.982    567.450    565.982    566.043    565.982
 10.970    581.000    567.860     13.140    566.102    567.798    566.102    566.163    566.102
 11.070    529.000    568.261    -39.261    566.215    568.198    566.215    566.277    566.215
 11.170    567.678    568.738     -1.060    566.322    568.674    566.322    566.385    566.322
 11.270    541.000    569.323    -28.323    566.423    569.259    566.423    566.486    566.423
 11.370    608.000    570.077     37.923    566.518    570.012    566.518    566.581    566.518
 11.470    542.820    571.122    -28.302    566.606    571.056    566.606    566.670    566.606
 11.570    601.000    572.816     28.184    566.688    572.749    566.688    566.752    566.688
 11.670    581.000    576.251      4.749    566.765    576.182    566.765    566.829    566.765
 11.770    614.000    584.194     29.806    566.835    584.120    566.835    566.899    566.835
 11.870    605.000    601.499      3.501    566.899    601.415    566.899    566.964    566.899
 11.970    668.710    632.403     36.307    566.958    632.302    566.958    567.023    566.958
 12.070    668.000    673.276     -5.276    567.010    673.151    567.010    567.075    567.010
 12.170    709.000    705.886      3.114    567.057    705.744    567.057    567.123    567.057
 12.270    644.000    706.997    -62.997    567.098    706.853    567.098    567.164    567.098
 12.370    632.371    675.624    -43.253    567.133    675.497    567.133    567.200    567.133
 12.470    633.000    634.606     -1.606    567.163    634.502    567.163    567.230    567.163
 12.570    560.702    603.022    -42.320    567.187    602.935    567.187    567.254    567.187
 12.670    555.000    585.162    -30.162    567.206    585.085    567.206    567.273    567.206
 12.770    580.000    576.966      3.034    567.219    576.894    567.219    567.287    567.219
 12.870    607.573    573.483     34.090    567.227    573.412    567.227    567.295    567.227
 12.970    535.675    571.828    -36.153    567.230    571.757    567.230    567.298    567.230
 13.070    586.898    570.850     16.048    567.227    570.780    567.227    567.296    567.227
 13.170    562.851    570.175     -7.325    567.219    570.105    567.219    567.288    567.219
 13.270    560.075    569.672     -9.597    567.206    569.602    567.206    567.275    567.206
 13.370    566.207    569.283     -3.076    567.188    569.212    567.188    567.258    567.188
 13.470    522.000    568.972    -46.972    567.165    568.901    567.165    567.235    567.165
 13.570    556.872    568.717    -11.845    567.136    568.644    567.136    567.208    567.136
 13.670    543.000    568.501    -25.501    567.103    568.428    567.103    567.176    567.103
 13.770    608.881    568.314     40.567    567.065    568.240    567.065    567.138    567.065
 13.870    530.000    568.148    -38.148    567.022    568.074    567.022    567.095    567.022
 13.970    539.000    567.997    -28.997    566.974    567.923    566.974    567.048    566.974
 14.070    607.465    567.858     39.607    566.922    567.784    566.922    566.996    566.922
 14.170    557.000    567.728    -10.728    566.865    567.653    566.865    566.939    566.865
 14.270    540.000    567.603    -27.603    566.803    567.528    566.803    566.877    566.803
 14.370    527.000    567.483    -40.483    566.736    567.408    566.736    566.811    566.736
 14.470    538.000    567.365    -29.365    566.665    567.290    566.665    566.741    566.665
 14.570    587.000    567.249     19.751    566.590    567.173    566.590    566.666    566.590
 14.670    574.750    567.134      7.616    566.510    567.057    566.510    566.586    566.510
 14.770    602.354    567.018     35.336    566.426    566.941    566.426    566.502    566.426
 14.870    584.000    566.903     17.097    566.337    566.825    566.337    566.414    566.337
 14.970    526.000    566.788    -40.788    566.244    566.711    566.244    566.322    566.244
 15.070    556.000    566.671    -10.671    566.147    566.593    566.147    566.225    566.147
 15.170    603.790    566.551     37.239    566.046    566.472    566.046    566.124    566.046
 15.270    595.000    566.428     28.572    565.940    566.349    565.940    566.019    565.940
 15.370    574.441    566.303      8.137    565.831    566.224    565.831    565.910    565.831
 15.470    547.000    566.176    -19.176    565.717    566.096    565.717    565.797    565.717
 15.570    567.441    566.047      1.395    565.599    565.966    565.599    565.680    565.599
 15.670    523.308    565.914    -42.606    565.478    565.833    565.478    565.559    565.478
 15.770    579.000    565.780     13.220    565.352    565.699    565.352    565.434    565.352
 15.870    535.553    565.644    -30.091    565.223    565.562    565.223    565.305    565.223
 15.970    578.578    565.503     13.075    565.090    565.421    565.090    565.172    565.090
 16.070    629.000    565.360     63.640    564.953    565.277    564.953    565.036    564.953
 16.170    553.702    565.213    -11.510    564.813    565.130    564.813    564.896    564.813
 16.270    586.756    565.064     21.692    564.668    564.980    564.668    564.752    564.668
 16.370    599.000    564.916     34.084    564.520    564.827    564.520    564.609    564.520
 16.470    562.871    564.762     -1.891    564.369    564.670    564.369    564.460    564.369
 16.570    566.000    564.604      1.396    564.214    564.511    564.214    564.306    564.214
 16.670    578.000    564.442     13.558    564.056    564.349    564.056    564.148    564.056
 16.770    609.000    564.278     44.722    563.894    564.184    563.894    563.987    563.894
 16.870    534.078    564.110    -30.032    563.729    564.016    563.729    563.822    563.729
 16.970    540.000    563.940    -23.940    563.560    563.846    563.560    563.654    563.560
 17.070    570.000    563.767      6.233    563.388    563.672    563.388    563.483    563.388
 17.170    574.000    563.591     10.409    563.213    563.495    563.213    563.309    563.213
 17.270    531.070    563.412    -32.342    563.035    563.315    563.035    563.131    563.035
 17.370    525.756    563.230    -37.474    562.853    563.133    562.853    562.950    562.853
 17.470    539.000    563.045    -24.045    562.668    562.948    562.668    562.766    562.668
 17.570    520.000    562.858    -42.858    562.481    562.760    562.481    562.579    562.481
 17.670    558.911    562.670     -3.760    562.290    562.572    562.290    562.389    562.290
 17.770    546.384    562.478    -16.094    562.096    562.379    562.096    562.196    562.096
 17.870    552.000    562.283    -10.283    561.899    562.183    561.899    562.000    561.899
 17.970    578.000    562.085     15.915    561.700    561.984    561.700    561.801    561.700
 18.070    538.000    561.884    -23.884    561.497    561.783    561.497    561.599    561.497
 18.170    557.680    561.681     -4.001    561.292    561.579    561.292    561.394    561.292
 18.270    528.000    561.475    -33.475    561.084    561.372    561.084    561.187    561.084
 18.370    575.000    561.267     13.733    560.873    561.163    560.873    560.977    560.873
 18.470    555.637    561.057     -5.419    560.660    560.952    560.660    560.764    560.660
 18.570    552.000    560.843     -8.843    560.444    560.738    560.444    560.549    560.444
 18.670    572.031    560.628     11.403    560.225    560.522    560.225    560.331    560.225
 18.770    523.508    560.410    -36.902    560.003    560.304    560.003    560.110    560.003
 18.870    574.000    560.190     13.810    559.779    560.083    559.779    559.887    559.779
 18.970    604.000    559.969     44.031    559.553    559.860    559.553    559.662    559.553
 19.070    527.626    559.745    -32.119    559.324    559.635    559.324    559.434    559.324
 19.170    565.538    559.518      6.020    559.093    559.408    559.093    559.203    559.093
 19.270    594.000    559.290     34.710    558.859    559.179    558.859    558.970    558.859
 19.370    540.000    559.059    -19.059    558.623    558.947    558.623    558.735    558.623
 19.470    568.000    558.827      9.173    558.385    558.714    558.385    558.498    558.385
 19.570    559.000    558.592      0.408    558.145    558.479    558.145    558.258    558.145
 19.670    585.778    558.357     27.421    557.902    558.242    557.902    558.017    557.902
 19.770    597.689    558.120     39.569    557.657    558.004    557.657    557.773    557.657
 19.870    564.000    557.880      6.120    557.410    557.763    557.410    557.527    557.410
 19.970    550.000    557.638     -7.638    557.161    557.520    557.161    557.279    557.161
 20.070    519.000    557.395    -38.395    556.910    557.276    556.910    557.028    556.910
 20.170    583.606    557.151     26.455    556.656    557.031    556.656    556.776    556.656
 20.270    600.818    556.918     43.900    556.401    556.797    556.401    556.522    556.401
 20.370    534.035    556.680    -22.645    556.144    556.558    556.144    556.266    556.144
 20.470    544.000    556.431    -12.431    555.885    556.308    555.885    556.008    555.885
 20.570    568.000    556.181     11.819    555.624    556.057    555.624    555.748    555.624
 20.670    514.000    555.929    -41.929    555.361    555.804    555.361    555.487    555.361
 20.770    548.000    555.677     -7.677    555.096    555.549    555.096    555.223    555.096
 20.870    552.000    555.425     -3.425    554.830    555.294    554.830    554.960    554.830
 20.970    574.000    555.171     18.829    554.562    555.038    554.562    554.694    554.562
 21.070    537.551    554.915    -17.364    554.292    554.781    554.292    554.426    554.292
 21.170    569.000    554.658     14.342    554.020    554.523    554.020    554.156    554.020
 21.270    593.513    554.401     39.112    553.747    554.264    553.747    553.884    553.747
 21.370    533.000    554.143    -21.143    553.472    554.005    553.472    553.611    553.472
 21.470    555.042    553.885      1.157    553.196    553.745    553.196    553.336    553.196
 21.570    588.924    553.635     35.290    552.918    553.493    552.918    553.060    552.918
 21.670    514.836    553.464    -38.628    552.639    553.320    552.639    552.782    552.639
 21.770    549.000    553.249     -4.249    552.358    553.105    552.358    552.503    552.358
 21.870    530.171    553.022    -22.850    552.076    552.875    552.076    552.222    552.076
 21.970    566.000    552.767     13.233    551.792    552.619    551.792    551.941    551.792
 22.070    535.000    552.511    -17.511    551.507    552.361    551.507    551.657    551.507
 22.170    547.414    552.256     -4.842    551.221    552.104    551.221    551.373    551.221
 22.270    524.000    552.002    -28.002    550.933    551.848    550.933    551.087    550.933
 22.370    566.740    551.751     14.989    550.645    551.595    550.645    550.801    550.645
 22.470    561.000    551.502      9.498    550.355    551.344    550.355    550.513    550.355
 22.570    562.556    551.256     11.300    550.063    551.096    550.063    550.224    550.063
 22.670    572.000    551.020     20.980    549.771    550.858    549.771    549.933    549.771
 22.770    546.000    550.831     -4.831    549.477    550.667    549.477    549.642    549.477
 22.870    545.000    550.619     -5.619    549.183    550.452    549.183    549.350    549.183
 22.970    553.000    550.397      2.603    548.887    550.228    548.887    549.057    548.887
 23.070    544.513    550.184     -5.670    548.590    550.012    548.590    548.763    548.590
 23.170    557.427    549.982      7.445    548.293    549.807    548.293    548.468    548.293
 23.270    570.000    549.795     20.205    547.994    549.618    547.994    548.172    547.994
 23.370    517.906    549.629    -31.723    547.694    549.449    547.694    547.875    547.694
 23.470    613.000    549.490     63.510    547.394    549.307    547.394    547.577    547.394
 23.570    578.000    549.382     28.618    547.093    549.196    547.093    547.279    547.093
 23.670    579.507    549.319     30.188    546.790    549.130    546.790    546.980    546.790
 23.770    523.910    549.318    -25.408    546.487    549.126    546.487    546.681    546.487
 23.870    564.000    549.408     14.592    546.183    549.212    546.183    546.380    546.183
 23.970    565.114    549.635     15.479    545.879    549.436    545.879    546.079    545.879
 24.070    544.000    550.115     -6.115    545.573    549.913    545.573    545.778    545.573
 24.170    511.884    551.188    -39.304    545.267    550.982    545.267    545.476    545.267
 24.270    539.434    553.813    -14.379    544.961    553.605    544.961    545.174    544.961
 24.370    577.000    560.122     16.878    544.653    559.914    544.653    544.871    544.653
 24.470    543.598    573.237    -29.639    544.345    573.034    544.345    544.568    544.345
 24.570    593.000    594.890     -1.890    544.037    594.698    544.037    544.264    544.037
 24.670    636.604    620.863     15.741    543.727    620.684    543.727    543.960    543.727
 24.770    630.000    638.167     -8.167    543.418    637.996    543.418    543.656    543.418
 24.870    667.797    633.928     33.869    543.108    633.748    543.108    543.352    543.108
 24.970    582.417    611.645    -29.228    542.797    611.443    542.797    543.048    542.797
 25.070    630.000    585.795     44.205    542.486    585.567    542.486    542.743    542.486
 25.170    564.000    566.414     -2.414    542.174    566.166    542.174    542.439    542.174
 25.270    568.411    555.314     13.096    541.862    555.050    541.862    542.134    541.862
 25.370    513.000    549.944    -36.944    541.550    549.669    541.550    541.830    541.550
 25.470    527.000    547.438    -20.438    541.237    547.152    541.237    541.526    541.237
 25.570    517.000    546.104    -29.104    540.925    545.808    540.925    541.222    540.925
 25.670    557.000    545.234     11.766    540.611    544.928    540.611    540.919    540.611
 25.770    559.000    544.581     14.419    540.298    544.264    540.298    540.616    540.298
 25.870    567.000    544.057     22.943    539.984    543.728    539.984    540.314    539.984
 25.970    573.000    543.625     29.375    539.670    543.284    539.670    540.012    539.670
 26.070    585.000    543.263     41.737    539.356    542.909    539.356    539.711    539.356
 26.170    544.000    542.961      1.039    539.042    542.592    539.042    539.411    539.042
 26.270    534.647    542.711     -8.064    538.727    542.326    538.727    539.112    538.727
 26.370    528.000    542.510    -14.510    538.413    542.109    538.413    538.814    538.413
 26.470    544.000    542.358      1.642    538.098    541.939    538.098    538.518    538.098
 26.570    563.000    542.262     20.738    537.784    541.822    537.784    538.223    537.784
 26.670    515.217    542.249    -27.031    537.469    541.787    537.469    537.931    537.469
 26.770    567.000    542.300     24.700    537.154    541.813    537.154    537.640    537.154
 26.870    592.000    542.411     49.589    536.839    541.897    536.839    537.352    536.839
 26.970    576.016    542.621     33.396    536.525    542.078    536.525    537.067    536.525
 27.070    541.877    542.966     -1.089    536.210    542.390    536.210    536.785    536.210
 27.170    600.000    543.488     56.512    535.896    542.875    535.896    536.507    535.896
 27.270    509.126    544.229    -35.103    535.581    543.575    535.581    536.234    535.581
 27.370    541.266    545.295     -4.028    535.267    544.594    535.267    535.966    535.267
 27.470    508.437    546.847    -38.409    534.953    546.093    534.953    535.704    534.953
 27.570    569.000    549.338     19.662    534.639    548.524    534.639    535.450    534.639
 27.670    518.122    554.259    -36.137    534.325    553.375    534.325    535.205    534.325
 27.770    547.000    566.365    -19.365    534.011    565.398    534.011    534.970    534.011
 27.870    627.000    597.203     29.797    533.698    596.134    533.698    534.748    533.698
 27.970    684.000    663.834     20.166    533.385    662.637    533.385    534.542    533.385
 28.070    775.946    772.874      3.072    533.072    771.519    533.072    534.355    533.072
 28.170    860.445    893.656    -33.210    532.760    892.124    532.760    534.193    532.760
 28.270    928.784    953.251    -24.467    532.447    951.541    532.447    534.061    532.447
 28.370    849.464    903.312    -53.848    532.136    901.416    532.136    533.969    532.136
 28.470    782.000    795.531    -13.531    531.824    793.397    531.824    533.931    531.824
 28.570    723.000    711.841     11.159    531.513    709.373    531.513    533.967    531.513
 28.670    739.000    694.814     44.186    531.202    691.885    531.202    534.116    531.202
 28.770    770.222    740.437     29.785    530.892    736.871    530.892    534.438    530.892
 28.870    853.825    809.411     44.414    530.582    804.943    530.582    535.037    530.582
 28.970    827.000    842.047    -15.047    530.273    836.251    530.273    536.070    530.273
 29.070    767.000    802.734    -35.734    529.964    794.962    529.964    537.747    529.964
 29.170    727.000    722.478      4.522    529.656    711.845    529.656    540.300    529.656
 29.270    630.000    648.989    -18.989    529.348    634.434    529.348    543.910    529.348
 29.370    620.000    603.681     16.319    529.041    584.158    529.041    548.565    529.041
 29.470    616.000    583.781     32.219    528.734    558.708    528.734    553.805    528.734
 29.570    606.000    577.494     28.506    528.428    547.560    528.428    558.359    528.428
 29.670    620.467    574.710     45.757    528.123    542.554    528.123    560.275    528.123
 29.770    602.149    570.390     31.759    527.818    539.835    527.818    558.369    527.818
 29.870    550.000    564.080    -14.080    527.514    538.050    527.514    553.540    527.514
 29.970    538.000    557.293    -19.293    527.210    536.784    527.210    547.716    527.210
 30.070    571.000    551.300     19.700    526.907    535.898    526.907    542.307    526.907
 30.170    584.433    546.655     37.777    526.605    535.362    526.605    537.896    526.605
 30.270    536.589    543.534     -6.945    526.304    535.281    526.304    534.554    526.304
 30.370    562.000    542.206     19.794    526.003    536.078    526.003    532.126    526.003
