neutron_powder_diffraction_0181
R_wp: 3.814
Temperature (K): 1074.000
Counts: 83964.00
Wavelength (Ã…): 2.52098
COMMENTS
Test file for demonstrating the .xyy file format in Reel1.0
END OF HEADER
   tth       Y_obs     Y_calc      Y_res    Background    Phase_1_Nuc    Phase_1_Mag    Phase_2_Nuc    Phase_2_Mag
  9.970    574.000    572.835      1.165    572.193    572.806    572.193    572.221    572.193
 10.070    561.000    572.971    -11.971    572.277    572.942    572.277    572.305    572.277
 10.170    627.000    573.109     53.891    572.355    573.080    572.355    572.384    572.355
 10.270    591.000    573.252     17.748    572.428    573.222    572.428    572.457    572.428
 10.370    557.994    573.409    -15.414    572.495    573.369    572.495    572.534    572.495
 10.470    575.786    573.565      2.220    572.556    573.524    572.556    572.596    572.556
 10.570    612.000    573.732     38.268    572.612    573.691    572.612    572.652    572.612
 10.670    615.000    573.915     41.085    572.662    573.874    572.662    572.703    572.662
 10.770    594.000    574.121     19.879    572.707    574.079    572.707    572.748    572.707
 10.870    581.000    574.356      6.644    572.746    574.314    572.746    572.787    572.746
 10.970    602.000    574.633     27.367    572.780    574.591    572.780    572.822    572.780
 11.070    598.000    574.969     23.031    572.809    574.926    572.809    572.851    572.809
 11.170    620.000    575.386     44.614    572.833    575.343    572.833    572.875    572.833
 11.270    589.000    575.922     13.078    572.851    575.877    572.851    572.894    572.851
 11.370    579.000    576.642      2.358    572.865    576.593    572.865    572.912    572.865
 11.470    608.693    577.674     31.019    572.873    577.623    572.873    572.921    572.873
 11.570    565.000    579.401    -14.401    572.876    579.349    572.876    572.924    572.876
 11.670    565.320    582.950    -17.630    572.874    582.896    572.874    572.923    572.874
 11.770    553.619    591.076    -37.457    572.867    591.017    572.867    572.916    572.867
 11.870    605.997    608.440     -2.443    572.856    608.371    572.856    572.905    572.856
 11.970    683.000    638.921     44.079    572.839    638.835    572.839    572.889    572.839
 12.070    682.000    678.790      3.210    572.818    678.682    572.818    572.868    572.818
 12.170    703.000    710.411     -7.411    572.792    710.285    572.792    572.842    572.792
 12.270    671.000    711.418    -40.418    572.762    711.290    572.762    572.812    572.762
 12.370    683.874    680.863      3.011    572.726    680.753    572.726    572.777    572.726
 12.470    685.508    640.727     44.781    572.686    640.639    572.686    572.737    572.686
 12.570    569.846    609.458    -39.612    572.642    609.386    572.642    572.693    572.642
 12.670    561.000    591.413    -30.413    572.593    591.351    572.593    572.644    572.593
 12.770    598.788    582.889     15.899    572.540    582.832    572.540    572.591    572.540
 12.870    561.000    579.141    -18.141    572.482    579.086    572.482    572.533    572.482
 12.970    550.000    577.307    -27.307    572.420    577.252    572.420    572.471    572.420
 13.070    583.000    576.199      6.801    572.353    576.144    572.353    572.406    572.353
 13.170    563.000    575.418    -12.418    572.282    575.361    572.282    572.338    572.282
 13.270    546.382    574.821    -28.439    572.207    574.764    572.207    572.263    572.207
 13.370    541.000    574.347    -33.347    572.128    574.289    572.128    572.185    572.128
 13.470    544.721    573.956    -29.235    572.045    573.898    572.045    572.102    572.045
 13.570    585.000    573.625     11.375    571.957    573.567    571.957    572.015    571.957
 13.670    599.799    573.339     26.461    571.866    573.280    571.866    571.925    571.866
 13.770    567.000    573.084     -6.084    571.771    573.025    571.771    571.829    571.771
 13.870    576.766    572.853      3.913    571.671    572.793    571.671    571.730    571.671
 13.970    578.685    572.640      6.045    571.568    572.580    571.568    571.627    571.568
 14.070    579.685    572.441      7.244    571.461    572.380    571.461    571.520    571.461
 14.170    583.689    572.251     11.438    571.350    572.191    571.350    571.410    571.350
 14.270    604.201    572.069     32.132    571.235    572.009    571.235    571.295    571.235
 14.370    607.152    571.893     35.259    571.116    571.832    571.116    571.177    571.116
 14.470    557.000    571.721    -14.721    570.994    571.660    570.994    571.055    570.994
 14.570    556.000    571.552    -15.552    570.868    571.490    570.868    570.930    570.868
 14.670    570.000    571.387     -1.387    570.739    571.325    570.739    570.801    570.739
 14.770    568.558    571.222     -2.664    570.606    571.160    570.606    570.668    570.606
 14.870    552.774    571.056    -18.283    570.469    570.994    570.469    570.532    570.469
 14.970    585.000    570.890     14.110    570.329    570.827    570.329    570.392    570.329
 15.070    552.438    570.724    -18.285    570.186    570.660    570.186    570.249    570.186
 15.170    556.000    570.556    -14.556    570.039    570.492    570.039    570.102    570.039
 15.270    563.000    570.388     -7.388    569.888    570.323    569.888    569.952    569.888
 15.370    599.000    570.218     28.782    569.735    570.153    569.735    569.799    569.735
 15.470    543.000    570.046    -27.046    569.578    569.981    569.578    569.643    569.578
 15.570    510.000    569.873    -59.873    569.418    569.808    569.418    569.483    569.418
 15.670    557.047    569.698    -12.652    569.255    569.632    569.255    569.320    569.255
 15.770    551.000    569.523    -18.523    569.088    569.455    569.088    569.155    569.088
 15.870    580.000    569.344     10.656    568.919    569.276    568.919    568.986    568.919
 15.970    592.907    569.163     23.744    568.746    569.094    568.746    568.814    568.746
 16.070    570.000    568.980      1.020    568.570    568.911    568.570    568.639    568.570
 16.170    590.000    568.794     21.206    568.392    568.725    568.392    568.461    568.392
 16.270    527.757    568.607    -40.849    568.210    568.537    568.210    568.279    568.210
 16.370    553.000    568.417    -15.417    568.025    568.347    568.025    568.095    568.025
 16.470    567.000    568.226     -1.226    567.838    568.156    567.838    567.908    567.838
 16.570    562.000    568.034     -6.034    567.648    567.963    567.648    567.719    567.648
 16.670    550.000    567.837    -17.837    567.455    567.766    567.455    567.526    567.455
 16.770    562.000    567.638     -5.638    567.259    567.567    567.259    567.331    567.259
 16.870    580.488    567.437     13.050    567.060    567.365    567.060    567.133    567.060
 16.970    567.000    567.234     -0.234    566.859    567.162    566.859    566.932    566.859
 17.070    552.000    567.029    -15.029    566.655    566.956    566.655    566.728    566.655
 17.170    553.740    566.821    -13.082    566.449    566.748    566.449    566.522    566.449
 17.270    532.000    566.611    -34.611    566.240    566.537    566.240    566.314    566.240
 17.370    548.000    566.400    -18.400    566.028    566.325    566.028    566.103    566.028
 17.470    588.044    566.188     21.857    565.814    566.112    565.814    565.889    565.814
 17.570    547.000    565.972    -18.972    565.598    565.896    565.598    565.673    565.598
 17.670    548.385    565.753    -17.368    565.379    565.677    565.379    565.455    565.379
 17.770    571.000    565.533      5.467    565.157    565.456    565.157    565.234    565.157
 17.870    580.854    565.310     15.544    564.934    565.233    564.934    565.011    564.934
 17.970    529.000    565.086    -36.086    564.708    565.008    564.708    564.786    564.708
 18.070    507.000    564.863    -57.863    564.479    564.781    564.479    564.562    564.479
 18.170    554.000    564.636    -10.636    564.249    564.551    564.249    564.334    564.249
 18.270    555.697    564.406     -8.709    564.016    564.320    564.016    564.101    564.016
 18.370    605.141    564.173     40.968    563.781    564.087    563.781    563.867    563.781
 18.470    568.842    563.939      4.903    563.544    563.852    563.544    563.631    563.544
 18.570    593.000    563.704     29.296    563.305    563.616    563.305    563.392    563.305
 18.670    560.725    563.466     -2.741    563.063    563.378    563.063    563.151    563.063
 18.770    504.000    563.226    -59.226    562.820    563.137    562.820    562.909    562.820
 18.870    543.000    562.985    -19.985    562.575    562.895    562.575    562.664    562.575
 18.970    566.000    562.742      3.258    562.327    562.652    562.327    562.418    562.327
 19.070    577.505    562.497     15.007    562.078    562.407    562.078    562.169    562.078
 19.170    587.000    562.251     24.749    561.827    562.159    561.827    561.919    561.827
 19.270    491.000    562.003    -71.003    561.574    561.911    561.574    561.666    561.574
 19.370    593.463    561.754     31.709    561.319    561.661    561.319    561.412    561.319
 19.470    558.000    561.503     -3.503    561.063    561.409    561.063    561.157    561.063
 19.570    586.095    561.251     24.844    560.804    561.156    560.804    560.899    560.804
 19.670    605.002    560.997     44.005    560.544    560.901    560.544    560.640    560.544
 19.770    558.329    560.742     -2.413    560.282    560.646    560.282    560.379    560.282
 19.870    563.000    560.486      2.514    560.019    560.389    560.019    560.116    560.019
 19.970    594.496    560.229     34.267    559.754    560.131    559.754    559.852    559.754
 20.070    564.000    559.973      4.027    559.487    559.874    559.487    559.586    559.487
 20.170    549.000    559.726    -10.726    559.218    559.627    559.218    559.318    559.218
 20.270    531.000    559.476    -28.476    558.949    559.375    558.949    559.049    558.949
 20.370    556.142    559.215     -3.072    558.677    559.113    558.677    558.779    558.677
 20.470    543.000    558.952    -15.952    558.404    558.849    558.404    558.507    558.404
 20.570    535.474    558.688    -23.215    558.130    558.585    558.130    558.234    558.130
 20.670    549.000    558.424     -9.424    557.854    558.319    557.854    557.959    557.854
 20.770    542.000    558.159    -16.159    557.577    558.053    557.577    557.683    557.577
 20.870    551.000    557.893     -6.893    557.299    557.787    557.299    557.405    557.299
 20.970    518.000    557.627    -39.627    557.019    557.519    557.019    557.127    557.019
 21.070    582.000    557.360     24.640    556.738    557.251    556.738    556.847    556.738
 21.170    518.433    557.093    -38.660    556.455    556.983    556.455    556.565    556.455
 21.270    539.532    556.834    -17.302    556.172    556.723    556.172    556.283    556.172
 21.370    591.000    556.654     34.346    555.887    556.542    555.887    555.999    555.887
 21.470    572.000    556.411     15.589    555.601    556.298    555.601    555.714    555.601
 21.570    578.000    556.168     21.832    555.314    556.053    555.314    555.429    555.314
 21.670    561.000    555.932      5.068    555.025    555.815    555.025    555.142    555.025
 21.770    563.000    555.669      7.331    554.736    555.551    554.736    554.854    554.736
 21.870    577.000    555.403     21.597    554.445    555.284    554.445    554.564    554.445
 21.970    532.704    555.139    -22.435    554.154    555.019    554.154    554.274    554.154
 22.070    513.000    554.876    -41.876    553.861    554.754    553.861    553.983    553.861
 22.170    582.216    554.620     27.596    553.568    554.496    553.568    553.692    553.568
 22.270    552.000    554.409     -2.409    553.273    554.281    553.273    553.401    553.273
 22.370    539.129    554.171    -15.043    552.978    554.042    552.978    553.108    552.978
 22.470    568.000    553.919     14.081    552.682    553.788    552.682    552.813    552.682
 22.570    543.404    553.670    -10.266    552.385    553.536    552.385    552.518    552.385
 22.670    574.000    553.424     20.576    552.087    553.289    552.087    552.222    552.087
 22.770    578.496    553.186     25.310    551.788    553.049    551.788    551.925    551.788
 22.870    562.000    552.957      9.043    551.488    552.818    551.488    551.627    551.488
 22.970    585.550    552.732     32.818    551.188    552.591    551.188    551.329    551.188
 23.070    541.000    552.517    -11.517    550.887    552.374    550.887    551.030    550.887
 23.170    584.000    552.315     31.685    550.585    552.170    550.585    550.731    550.585
 23.270    551.000    552.129     -1.129    550.282    551.981    550.282    550.430    550.282
 23.370    568.877    551.963     16.914    549.979    551.813    549.979    550.130    549.979
 23.470    556.000    551.824      4.176    549.675    551.672    549.675    549.828    549.675
 23.570    548.000    551.721     -3.721    549.371    551.566    549.371    549.527    549.371
 23.670    518.000    551.665    -33.665    549.066    551.507    549.066    549.224    549.066
 23.770    580.000    551.675     28.325    548.761    551.515    548.761    548.922    548.761
 23.870    579.706    551.781     27.925    548.455    551.618    548.455    548.619    548.455
 23.970    558.115    552.028      6.086    548.148    551.863    548.148    548.315    548.148
 24.070    577.730    552.538     25.193    547.841    552.369    547.841    548.011    547.841
 24.170    570.000    553.654     16.346    547.533    553.483    547.533    547.707    547.533
 24.270    535.315    556.338    -21.023    547.225    556.165    547.225    547.403    547.225
 24.370    566.000    562.701      3.299    546.917    562.530    546.917    547.099    546.917
 24.470    622.000    575.812     46.188    546.608    575.646    546.608    546.794    546.608
 24.570    601.000    597.361      3.639    546.299    597.207    546.299    546.489    546.299
 24.670    583.225    623.205    -39.980    545.990    623.065    545.990    546.184    545.990
 24.770    615.000    640.432    -25.432    545.680    640.300    545.680    545.879    545.680
 24.870    633.000    636.241     -3.241    545.370    636.102    545.370    545.574    545.370
 24.970    612.000    614.094     -2.094    545.060    613.933    545.060    545.269    545.060
 25.070    555.000    588.371    -33.371    544.749    588.186    544.749    544.964    544.749
 25.170    596.000    569.052     26.948    544.438    568.848    544.438    544.659    544.438
 25.270    541.891    557.909    -16.018    544.127    557.691    544.127    544.354    544.127
 25.370    571.000    552.475     18.525    543.816    552.246    543.816    544.050    543.816
 25.470    577.000    549.923     27.077    543.505    549.685    543.505    543.746    543.505
 25.570    546.000    548.555     -2.555    543.194    548.309    543.194    543.442    543.194
 25.670    560.000    547.660     12.340    542.882    547.405    542.882    543.139    542.882
 25.770    522.608    546.989    -24.381    542.570    546.725    542.570    542.836    542.570
 25.870    537.012    546.455     -9.443    542.259    546.181    542.259    542.534    542.259
 25.970    531.000    546.019    -15.019    541.947    545.734    541.947    542.232    541.947
 26.070    525.000    545.656    -20.656    541.635    545.360    541.635    541.932    541.635
 26.170    590.000    545.358     44.642    541.324    545.050    541.324    541.632    541.324
 26.270    566.688    545.140     21.549    541.012    544.819    541.012    541.333    541.012
 26.370    534.675    544.970    -10.295    540.700    544.634    540.700    541.035    540.700
 26.470    590.000    544.829     45.171    540.388    544.478    540.388    540.739    540.388
 26.570    513.767    544.741    -30.974    540.077    544.373    540.077    540.444    540.077
 26.670    538.000    544.714     -6.714    539.765    544.328    539.765    540.151    539.765
 26.770    545.000    544.761      0.239    539.454    544.355    539.454    539.860    539.454
 26.870    545.000    544.896      0.104    539.143    544.467    539.143    539.571    539.143
 26.970    604.000    545.132     58.868    538.832    544.678    538.832    539.285    538.832
 27.070    525.024    545.513    -20.490    538.521    545.032    538.521    539.002    538.521
 27.170    562.000    546.084     15.916    538.210    545.572    538.210    538.722    538.210
 27.270    598.000    546.878     51.122    537.900    546.331    537.900    538.446    537.900
 27.370    589.000    548.015     40.985    537.590    547.428    537.590    538.175    537.590
 27.470    571.000    549.655     21.345    537.280    549.023    537.280    537.909    537.280
 27.570    563.000    552.271     10.729    536.970    551.589    536.970    537.650    536.970
 27.670    583.992    557.416     26.576    536.661    556.675    536.661    537.398    536.661
 27.770    535.868    569.988    -34.120    536.352    569.177    536.352    537.155    536.352
 27.870    596.000    601.555     -5.555    536.043    600.656    536.043    536.923    536.043
 27.970    648.669    668.909    -20.240    535.735    667.899    535.735    536.705    535.735
 28.070    815.792    778.189     37.603    535.427    777.043    535.427    536.504    535.427
 28.170    927.355    898.719     28.636    535.119    897.421    535.119    536.323    535.119
 28.270    928.000    958.192    -30.192    534.812    956.744    534.812    536.168    534.812
 28.370    899.000    908.700     -9.700    534.506    907.100    534.506    536.047    534.506
 28.470    815.087    801.602     13.486    534.199    799.805    534.199    535.971    534.199
 28.570    710.000    718.073     -8.073    533.893    715.997    533.893    535.958    533.893
 28.670    737.407    700.159     37.248    533.588    697.696    533.588    536.037    533.588
 28.770    728.000    743.851    -15.851    533.283    740.853    533.283    536.263    533.283
 28.870    795.000    810.544    -15.544    532.979    806.783    532.979    536.729    532.979
 28.970    811.101    841.912    -30.810    532.675    837.003    532.675    537.588    532.675
 29.070    854.192    803.145     51.046    532.372    796.477    532.372    539.054    532.372
 29.170    710.000    724.282    -14.282    532.069    714.980    532.069    541.384    532.069
 29.270    597.000    651.646    -54.646    531.767    638.626    531.767    544.795    531.767
 29.370    566.000    606.279    -40.279    531.465    588.431    531.465    549.316    531.465
 29.470    618.000    585.932     32.068    531.164    562.576    531.164    554.519    531.164
 29.570    557.068    579.304    -22.235    530.864    551.035    530.864    559.130    530.864
 29.670    639.000    576.332     62.668    530.564    545.791    530.564    561.101    530.564
 29.770    603.817    571.845     31.972    530.265    542.946    530.265    559.161    530.265
 29.870    573.000    565.406      7.594    529.967    541.091    529.967    554.279    529.967
 29.970    564.000    558.605      5.395    529.670    539.786    529.670    548.486    529.670
 30.070    522.155    552.721    -30.566    529.373    538.883    529.373    543.207    529.373
 30.170    578.000    548.279     29.721    529.076    538.355    529.076    538.997    529.076
 30.270    611.000    545.424     65.576    528.781    538.314    528.781    535.888    528.781
 30.370    589.000    544.414     44.586    528.486    539.209    528.486    533.686    528.486
