neutron_powder_diffraction_0248
R_wp: 4.070
Temperature (K): 962.092
Counts: 83846.00
Wavelength (Ã…): 2.52098
COMMENTS
Test file for demonstrating the .xyy file format in Reel1.0
END OF HEADER
   tth       Y_obs     Y_calc      Y_res    Background    Phase_1_Nuc    Phase_1_Mag    Phase_2_Nuc    Phase_2_Mag
  9.970    619.000    559.104     59.896    558.422    559.075    558.422    558.451    558.422
 10.070    581.049    559.531     21.519    558.782    559.501    558.782    558.811    558.782
 10.170    654.000    559.947     94.053    559.133    559.918    559.133    559.162    559.133
 10.270    544.000    560.364    -16.364    559.475    560.335    559.475    559.504    559.475
 10.370    583.000    560.785     22.215    559.808    560.755    559.808    559.837    559.808
 10.470    526.208    561.211    -35.003    560.132    561.181    560.132    560.161    560.132
 10.570    632.000    561.646     70.354    560.447    561.616    560.447    560.476    560.447
 10.670    582.000    562.096     19.904    560.754    562.066    560.754    560.783    560.754
 10.770    552.000    562.567    -10.567    561.052    562.536    561.052    561.081    561.052
 10.870    575.000    563.067     11.933    561.341    563.036    561.341    561.371    561.341
 10.970    541.799    563.608    -21.809    561.622    563.577    561.622    561.652    561.622
 11.070    556.000    564.207     -8.207    561.895    564.176    561.895    561.925    561.895
 11.170    577.000    564.889     12.111    562.159    564.857    562.159    562.189    562.159
 11.270    603.519    565.691     37.828    562.415    565.657    562.415    562.447    562.415
 11.370    521.139    566.675    -45.537    562.663    566.641    562.663    562.695    562.663
 11.470    573.592    567.974      5.618    562.902    567.939    562.902    562.935    562.902
 11.570    606.168    569.938     36.231    563.134    569.901    563.134    563.167    563.134
 11.670    608.000    573.542     34.458    563.358    573.504    563.358    563.391    563.358
 11.770    618.000    581.092     36.908    563.573    581.049    563.573    563.607    563.573
 11.870    640.191    596.515     43.675    563.781    596.464    563.781    563.815    563.781
 11.970    610.000    623.475    -13.475    563.981    623.409    563.981    564.015    563.981
 12.070    684.000    660.090     23.910    564.174    660.003    564.174    564.208    564.174
 12.170    704.000    692.931     11.069    564.358    692.823    564.358    564.396    564.358
 12.270    628.000    700.836    -72.836    564.536    700.714    564.536    564.584    564.536
 12.370    635.560    676.898    -41.338    564.705    676.788    564.705    564.755    564.705
 12.470    615.000    639.410    -24.410    564.868    639.320    564.868    564.917    564.868
 12.570    586.000    607.570    -21.570    565.022    607.497    565.022    565.072    565.022
 12.670    591.000    587.776      3.224    565.170    587.714    565.170    565.220    565.170
 12.770    577.000    577.825     -0.825    565.311    577.768    565.311    565.361    565.311
 12.870    537.374    573.353    -35.979    565.444    573.298    565.444    565.495    565.444
 12.970    553.000    571.268    -18.268    565.570    571.214    565.570    565.621    565.570
 13.070    558.000    570.128    -12.128    565.689    570.073    565.689    565.742    565.689
 13.170    607.851    569.403     38.448    565.801    569.343    565.801    565.859    565.801
 13.270    558.334    568.896    -10.562    565.907    568.836    565.907    565.965    565.907
 13.370    553.042    568.532    -15.490    566.005    568.472    566.005    566.064    566.005
 13.470    524.000    568.266    -44.266    566.097    568.205    566.097    566.156    566.097
 13.570    570.000    568.068      1.932    566.182    568.007    566.182    566.241    566.182
 13.670    525.631    567.919    -42.288    566.260    567.858    566.260    566.320    566.260
 13.770    499.000    567.806    -68.806    566.332    567.745    566.332    566.392    566.332
 13.870    537.000    567.719    -30.719    566.397    567.658    566.397    566.458    566.397
 13.970    595.984    567.651     28.333    566.456    567.590    566.456    566.517    566.456
 14.070    604.000    567.597     36.403    566.509    567.535    566.509    566.570    566.509
 14.170    547.000    567.553    -20.553    566.555    567.491    566.555    566.617    566.555
 14.270    614.434    567.515     46.919    566.595    567.453    566.595    566.657    566.595
 14.370    541.000    567.482    -26.482    566.629    567.420    566.629    566.691    566.629
 14.470    565.656    567.453     -1.798    566.656    567.390    566.656    566.719    566.656
 14.570    525.000    567.428    -42.428    566.678    567.365    566.678    566.741    566.678
 14.670    531.000    567.400    -36.400    566.694    567.337    566.694    566.757    566.694
 14.770    541.000    567.372    -26.372    566.703    567.308    566.703    566.767    566.703
 14.870    576.000    567.343      8.657    566.707    567.279    566.707    566.771    566.707
 14.970    555.000    567.312    -12.312    566.705    567.247    566.705    566.770    566.705
 15.070    530.107    567.277    -37.171    566.697    567.212    566.697    566.762    566.697
 15.170    522.202    567.240    -45.038    566.684    567.175    566.684    566.749    566.684
 15.270    574.000    567.201      6.799    566.665    567.134    566.665    566.732    566.665
 15.370    535.000    567.160    -32.160    566.640    567.090    566.640    566.710    566.640
 15.470    530.678    567.113    -36.435    566.610    567.042    566.610    566.681    566.610
 15.570    599.658    567.063     32.595    566.574    566.991    566.574    566.646    566.574
 15.670    601.695    567.008     34.687    566.533    566.935    566.533    566.605    566.533
 15.770    541.000    566.949    -25.949    566.487    566.876    566.487    566.559    566.487
 15.870    539.000    566.887    -27.887    566.435    566.813    566.435    566.509    566.435
 15.970    567.000    566.820      0.180    566.378    566.746    566.378    566.452    566.378
 16.070    552.000    566.749    -14.749    566.316    566.674    566.316    566.391    566.316
 16.170    574.354    566.674      7.680    566.249    566.599    566.249    566.324    566.249
 16.270    569.727    566.594      3.133    566.177    566.519    566.177    566.252    566.177
 16.370    546.000    566.511    -20.511    566.099    566.435    566.099    566.175    566.099
 16.470    583.000    566.423     16.577    566.017    566.346    566.017    566.094    566.017
 16.570    609.000    566.331     42.669    565.930    566.254    565.930    566.007    565.930
 16.670    526.000    566.235    -40.235    565.838    566.157    565.838    565.916    565.838
 16.770    604.165    566.134     38.031    565.742    566.056    565.742    565.820    565.742
 16.870    599.121    566.029     33.092    565.640    565.951    565.640    565.719    565.640
 16.970    592.000    565.921     26.079    565.534    565.842    565.534    565.613    565.534
 17.070    549.000    565.808    -16.808    565.424    565.729    565.424    565.503    565.424
 17.170    587.000    565.694     21.306    565.309    565.613    565.309    565.389    565.309
 17.270    573.000    565.573      7.427    565.189    565.492    565.189    565.270    565.189
 17.370    554.000    565.447    -11.447    565.065    565.366    565.065    565.146    565.065
 17.470    530.000    565.318    -35.318    564.936    565.236    564.936    565.018    564.936
 17.570    570.000    565.186      4.814    564.804    565.102    564.804    564.887    564.804
 17.670    569.000    565.049      3.951    564.666    564.965    564.666    564.751    564.666
 17.770    544.765    564.908    -20.144    564.525    564.823    564.525    564.610    564.525
 17.870    578.000    564.763     13.237    564.380    564.677    564.380    564.465    564.380
 17.970    532.000    564.615    -32.615    564.230    564.528    564.230    564.316    564.230
 18.070    538.680    564.462    -25.782    564.076    564.375    564.076    564.163    564.076
 18.170    518.609    564.306    -45.696    563.918    564.218    563.918    564.006    563.918
 18.270    608.962    564.146     44.817    563.757    564.057    563.757    563.845    563.757
 18.370    543.000    563.982    -20.982    563.591    563.893    563.591    563.680    563.591
 18.470    563.403    563.817     -0.413    563.422    563.727    563.422    563.511    563.422
 18.570    560.000    563.647     -3.647    563.248    563.556    563.248    563.339    563.248
 18.670    582.000    563.473     18.527    563.071    563.382    563.071    563.162    563.071
 18.770    588.867    563.295     25.572    562.891    563.203    562.891    562.982    562.891
 18.870    557.169    563.114     -5.945    562.706    563.022    562.706    562.799    562.706
 18.970    597.000    562.930     34.070    562.518    562.837    562.518    562.611    562.518
 19.070    529.914    562.742    -32.828    562.326    562.648    562.326    562.420    562.326
 19.170    543.000    562.552    -19.552    562.131    562.457    562.131    562.226    562.131
 19.270    517.850    562.358    -44.508    561.933    562.263    561.933    562.028    561.933
 19.370    525.705    562.162    -36.457    561.731    562.065    561.731    561.827    561.731
 19.470    563.000    561.961      1.039    561.525    561.864    561.525    561.622    561.525
 19.570    555.000    561.761     -6.761    561.316    561.662    561.316    561.415    561.316
 19.670    552.294    561.577     -9.283    561.104    561.474    561.104    561.208    561.104
 19.770    557.000    561.376     -4.376    560.889    561.270    560.889    560.996    560.889
 19.870    581.880    561.166     20.714    560.671    561.058    560.671    560.779    560.671
 19.970    515.000    560.952    -45.952    560.449    560.843    560.449    560.558    560.449
 20.070    562.297    560.735      1.563    560.225    560.625    560.225    560.334    560.225
 20.170    566.000    560.515      5.485    559.997    560.405    559.997    560.108    559.997
 20.270    567.000    560.294      6.706    559.766    560.182    559.766    559.878    559.766
 20.370    521.551    560.069    -38.518    559.533    559.957    559.533    559.645    559.533
 20.470    519.057    559.843    -40.785    559.296    559.729    559.296    559.410    559.296
 20.570    593.000    559.614     33.386    559.057    559.499    559.057    559.171    559.057
 20.670    558.000    559.383     -1.383    558.814    559.267    558.814    558.930    558.814
 20.770    540.896    559.150    -18.254    558.569    559.032    558.569    558.687    558.569
 20.870    505.000    558.914    -53.914    558.322    558.796    558.322    558.440    558.322
 20.970    580.000    558.677     21.323    558.071    558.558    558.071    558.191    558.071
 21.070    527.000    558.438    -31.438    557.818    558.318    557.818    557.939    557.818
 21.170    590.587    558.198     32.389    557.563    558.076    557.563    557.685    557.563
 21.270    543.000    557.956    -14.956    557.305    557.833    557.305    557.428    557.305
 21.370    524.625    557.712    -33.087    557.044    557.588    557.044    557.168    557.044
 21.470    555.000    557.468     -2.468    556.781    557.342    556.781    556.907    556.781
 21.570    594.000    557.222     36.778    556.515    557.095    556.515    556.643    556.515
 21.670    573.000    556.975     16.025    556.247    556.847    556.247    556.376    556.247
 21.770    553.000    556.728     -3.728    555.977    556.598    555.977    556.107    555.977
 21.870    561.000    556.480      4.520    555.704    556.348    555.704    555.836    555.704
 21.970    583.576    556.232     27.344    555.430    556.099    555.430    555.563    555.430
 22.070    528.368    555.987    -27.619    555.153    555.852    555.153    555.288    555.153
 22.170    575.000    555.744     19.256    554.873    555.608    554.873    555.010    554.873
 22.270    522.548    555.520    -32.971    554.592    555.381    554.592    554.731    554.592
 22.370    567.000    555.358     11.642    554.309    555.218    554.309    554.449    554.309
 22.470    574.000    555.123     18.877    554.023    554.982    554.023    554.165    554.023
 22.570    555.000    554.888      0.112    553.736    554.744    553.736    553.880    553.736
 22.670    572.000    554.704     17.296    553.446    554.558    553.446    553.592    553.446
 22.770    510.000    554.534    -44.534    553.155    554.386    553.155    553.303    553.155
 22.870    534.000    554.314    -20.314    552.862    554.164    552.862    553.012    552.862
 22.970    554.000    554.096     -0.096    552.567    553.944    552.567    552.719    552.567
 23.070    564.000    553.887     10.113    552.270    553.733    552.270    552.425    552.270
 23.170    508.837    553.690    -44.853    551.971    553.534    551.971    552.128    551.971
 23.270    566.000    553.509     12.491    551.671    553.350    551.671    551.831    551.671
 23.370    566.000    553.348     12.652    551.369    553.186    551.369    551.531    551.369
 23.470    589.000    553.215     35.785    551.065    553.048    551.065    551.232    551.065
 23.570    581.000    553.115     27.885    550.760    552.944    550.760    550.931    550.760
 23.670    584.382    553.060     31.322    550.453    552.887    550.453    550.627    550.453
 23.770    585.512    553.069     32.442    550.144    552.893    550.144    550.322    550.144
 23.870    591.000    553.169     37.831    549.834    552.990    549.834    550.015    549.834
 23.970    557.066    553.405      3.661    549.523    553.223    549.523    549.707    549.523
 24.070    541.000    553.879    -12.879    549.210    553.694    549.210    549.398    549.210
 24.170    566.538    554.859     11.679    548.896    554.671    548.896    549.087    548.896
 24.270    541.000    557.052    -16.052    548.580    556.862    548.580    548.775    548.580
 24.370    608.000    562.016     45.984    548.263    561.826    548.263    548.462    548.263
 24.470    569.000    572.202     -3.202    547.945    572.015    547.945    548.149    547.945
 24.570    612.787    589.643     23.144    547.625    589.465    547.625    547.834    547.625
 24.670    626.000    612.789     13.211    547.305    612.623    547.305    547.518    547.305
 24.770    642.000    633.178      8.822    546.983    633.023    546.983    547.201    546.983
 24.870    642.000    637.904      4.096    546.660    637.747    546.660    546.883    546.660
 24.970    581.523    622.691    -41.168    546.336    622.518    546.336    546.565    546.336
 25.070    585.773    598.465    -12.692    546.010    598.267    546.010    546.245    546.010
 25.170    599.326    577.180     22.145    545.684    576.961    545.684    545.926    545.684
 25.270    605.647    563.275     42.372    545.357    563.039    545.357    545.605    545.357
 25.370    507.668    555.799    -48.131    545.029    555.550    545.029    545.284    545.029
 25.470    553.000    552.153      0.847    544.699    551.894    544.699    544.962    544.699
 25.570    581.000    550.281     30.719    544.369    550.013    544.369    544.641    544.369
 25.670    627.000    549.127     77.873    544.038    548.849    544.038    544.318    544.038
 25.770    547.000    548.288     -1.288    543.706    548.000    543.706    543.996    543.706
 25.870    590.621    547.625     42.996    543.374    547.326    543.374    543.673    543.374
 25.970    534.384    547.081    -12.697    543.040    546.771    543.040    543.351    543.040
 26.070    568.000    546.622     21.378    542.706    546.301    542.706    543.028    542.706
 26.170    571.000    546.231     24.769    542.371    545.897    542.371    542.706    542.371
 26.270    518.275    545.898    -27.622    542.036    545.549    542.036    542.384    542.036
 26.370    540.000    545.619     -5.619    541.699    545.255    541.699    542.063    541.699
 26.470    548.000    545.392      2.608    541.363    545.012    541.363    541.743    541.363
 26.570    562.000    545.254     16.746    541.025    544.856    541.025    541.423    541.025
 26.670    530.255    545.149    -14.894    540.687    544.732    540.687    541.105    540.687
 26.770    553.000    545.081      7.919    540.349    544.642    540.349    540.787    540.349
 26.870    550.404    545.085      5.319    540.010    544.623    540.010    540.472    540.010
 26.970    543.000    545.171     -2.171    539.670    544.682    539.670    540.159    539.670
 27.070    573.824    545.360     28.463    539.330    544.842    539.330    539.848    539.330
 27.170    565.000    545.688     19.312    538.990    545.137    538.990    539.540    538.990
 27.270    517.739    546.202    -28.463    538.649    545.615    538.649    539.236    538.649
 27.370    601.000    546.987     54.013    538.308    546.358    538.308    538.935    538.308
 27.470    547.840    548.162     -0.322    537.966    547.486    537.966    538.640    537.966
 27.570    589.737    550.008     39.729    537.625    549.279    537.625    538.351    537.625
 27.670    584.000    553.609     30.391    537.283    552.819    537.283    538.069    537.283
 27.770    597.000    562.704     34.296    536.940    561.842    536.940    537.796    536.940
 27.870    626.000    587.363     38.637    536.598    586.412    536.598    537.534    536.598
 27.970    603.642    644.990    -41.348    536.255    643.926    536.255    537.285    536.255
 28.070    738.000    747.599     -9.599    535.912    746.395    535.912    537.053    535.912
 28.170    872.000    873.870     -1.870    535.570    872.507    535.570    536.841    535.570
 28.270    945.000    956.110    -11.110    535.227    954.591    535.227    536.655    535.227
 28.370    967.000    933.384     33.616    534.883    931.705    534.883    536.503    534.883
 28.470    833.000    832.179      0.821    534.540    830.299    534.540    536.395    534.540
 28.570    705.000    733.712    -28.712    534.197    731.552    534.197    536.348    534.197
 28.670    703.287    695.951      7.336    533.854    693.406    533.854    536.388    533.854
 28.770    692.000    727.185    -35.185    533.511    724.112    533.511    536.565    533.511
 28.870    807.444    794.881     12.562    533.168    791.060    533.168    536.966    533.168
 28.970    846.000    841.277      4.723    532.825    836.339    532.825    537.749    532.825
 29.070    813.000    821.524     -8.524    532.482    814.847    532.482    539.162    532.482
 29.170    719.257    749.460    -30.203    532.139    740.077    532.139    541.536    532.139
 29.270    622.377    671.297    -48.919    531.796    657.892    531.796    545.214    531.796
 29.370    621.000    617.509      3.491    531.454    598.584    531.454    550.387    531.454
 29.470    618.000    591.810     26.190    531.112    566.142    531.112    556.782    531.112
 29.570    565.000    583.830    -18.830    530.770    551.406    530.770    563.192    530.770
 29.670    650.000    581.870     68.130    530.428    545.035    530.428    567.260    530.428
 29.770    636.000    578.563     57.437    530.086    541.887    530.086    566.758    530.086
 29.870    585.000    572.005     12.995    529.745    539.961    529.745    561.786    529.745
 29.970    568.000    563.865      4.135    529.404    538.621    529.404    554.646    529.404
 30.070    585.000    556.237     28.763    529.064    537.671    529.064    547.627    529.064
 30.170    522.000    550.203    -28.203    528.724    537.059    528.724    541.866    528.724
 30.270    569.000    546.059     22.941    528.384    536.846    528.384    537.594    528.384
 30.370    581.331    543.927     37.405    528.045    537.360    528.045    534.608    528.045
