neutron_powder_diffraction_0153
R_wp: 3.862
Temperature (K): 1074.000
Counts: 83550.00
Wavelength (Ã…): 2.52098
COMMENTS
Test file for demonstrating the .xyy file format in Reel1.0
END OF HEADER
   tth       Y_obs     Y_calc      Y_res    Background    Phase_1_Nuc    Phase_1_Mag    Phase_2_Nuc    Phase_2_Mag
  9.970    578.000    570.153      7.847    569.520    570.099    569.520    569.574    569.520
 10.070    563.757    570.326     -6.569    569.639    570.270    569.639    569.695    569.639
 10.170    566.000    570.498     -4.498    569.753    570.442    569.753    569.808    569.753
 10.270    609.000    570.675     38.325    569.860    570.619    569.860    569.915    569.860
 10.370    617.000    570.872     46.128    569.961    570.815    569.961    570.017    569.961
 10.470    568.000    571.063     -3.063    570.055    571.006    570.055    570.112    570.055
 10.570    577.352    571.262      6.090    570.144    571.205    570.144    570.201    570.144
 10.670    593.000    571.476     21.524    570.227    571.419    570.227    570.284    570.227
 10.770    587.000    571.712     15.288    570.304    571.654    570.304    570.361    570.304
 10.870    570.000    571.977     -1.977    570.376    571.919    570.376    570.433    570.376
 10.970    639.000    572.283     66.717    570.441    572.224    570.441    570.498    570.441
 11.070    575.243    572.645      2.598    570.501    572.586    570.501    570.558    570.501
 11.170    604.000    573.088     30.912    570.555    573.029    570.555    570.613    570.555
 11.270    590.319    573.648     16.672    570.603    573.588    570.603    570.661    570.603
 11.370    612.962    574.385     38.576    570.646    574.325    570.646    570.705    570.646
 11.470    598.000    575.435     22.565    570.683    575.373    570.683    570.742    570.683
 11.570    563.442    577.175    -13.734    570.715    577.113    570.715    570.774    570.715
 11.670    586.000    580.735      5.265    570.742    580.671    570.742    570.801    570.742
 11.770    577.426    588.872    -11.446    570.763    588.802    570.763    570.823    570.763
 11.870    597.105    606.250     -9.144    570.779    606.170    570.779    570.839    570.779
 11.970    611.421    636.745    -25.324    570.790    636.649    570.790    570.850    570.790
 12.070    662.000    676.607    -14.607    570.795    676.488    570.795    570.856    570.795
 12.170    702.030    708.203     -6.174    570.795    708.067    570.795    570.856    570.795
 12.270    667.000    709.233    -42.233    570.791    709.096    570.791    570.852    570.791
 12.370    690.000    678.754     11.246    570.781    678.633    570.781    570.842    570.781
 12.470    657.605    638.679     18.926    570.766    638.580    570.766    570.828    570.766
 12.570    603.000    607.447     -4.447    570.747    607.364    570.747    570.808    570.747
 12.670    632.477    589.438     43.039    570.722    589.366    570.722    570.784    570.722
 12.770    574.000    580.957     -6.957    570.693    580.889    570.693    570.755    570.693
 12.870    573.000    577.251     -4.251    570.658    577.185    570.658    570.721    570.658
 12.970    534.000    575.455    -41.455    570.620    575.389    570.620    570.683    570.620
 13.070    550.000    574.380    -24.380    570.576    574.315    570.576    570.639    570.576
 13.170    546.000    573.628    -27.628    570.528    573.563    570.528    570.591    570.528
 13.270    564.000    573.059     -9.059    570.475    572.994    570.475    570.539    570.475
 13.370    581.000    572.610      8.390    570.418    572.545    570.418    570.482    570.418
 13.470    530.000    572.244    -42.244    570.356    572.179    570.356    570.421    570.356
 13.570    574.000    571.938      2.062    570.290    571.872    570.290    570.355    570.290
 13.670    541.000    571.678    -30.678    570.219    571.607    570.219    570.289    570.219
 13.770    561.000    571.446    -10.446    570.144    571.375    570.144    570.216    570.144
 13.870    543.000    571.237    -28.237    570.065    571.165    570.065    570.137    570.065
 13.970    574.000    571.045      2.955    569.982    570.973    569.982    570.054    569.982
 14.070    561.000    570.867     -9.867    569.894    570.794    569.894    569.967    569.894
 14.170    594.471    570.697     23.774    569.802    570.624    569.802    569.875    569.802
 14.270    578.000    570.535      7.465    569.707    570.462    569.707    569.780    569.707
 14.370    576.000    570.378      5.622    569.607    570.304    569.607    569.680    569.607
 14.470    558.000    570.225    -12.225    569.503    570.151    569.503    569.577    569.503
 14.570    542.000    570.074    -28.074    569.395    569.999    569.395    569.469    569.395
 14.670    552.000    569.924    -17.924    569.283    569.849    569.283    569.358    569.283
 14.770    561.000    569.776     -8.776    569.168    569.700    569.168    569.243    569.168
 14.870    577.645    569.627      8.018    569.048    569.551    569.048    569.124    569.048
 14.970    539.000    569.478    -30.478    568.925    569.402    568.925    569.001    568.925
 15.070    550.000    569.332    -19.332    568.798    569.256    568.798    568.875    568.798
 15.170    524.031    569.184    -45.153    568.668    569.108    568.668    568.744    568.668
 15.270    586.000    569.032     16.968    568.534    568.955    568.534    568.611    568.534
 15.370    582.000    568.878     13.122    568.396    568.801    568.396    568.473    568.396
 15.470    591.000    568.722     22.278    568.254    568.644    568.254    568.332    568.254
 15.570    546.000    568.565    -22.565    568.110    568.486    568.110    568.188    568.110
 15.670    598.000    568.405     29.595    567.961    568.326    567.961    568.040    567.961
 15.770    598.711    568.242     30.468    567.810    568.163    567.810    567.889    567.810
 15.870    545.123    568.078    -22.955    567.655    567.998    567.655    567.734    567.655
 15.970    536.000    567.911    -31.911    567.496    567.831    567.496    567.576    567.496
 16.070    520.000    567.742    -47.742    567.335    567.661    567.335    567.415    567.335
 16.170    603.000    567.571     35.429    567.170    567.489    567.170    567.251    567.170
 16.270    560.000    567.397     -7.397    567.002    567.315    567.002    567.083    567.002
 16.370    583.000    567.220     15.780    566.830    567.138    566.830    566.912    566.830
 16.470    530.319    567.041    -36.722    566.656    566.958    566.656    566.738    566.656
 16.570    538.479    566.859    -28.381    566.479    566.776    566.479    566.562    566.479
 16.670    553.000    566.675    -13.675    566.298    566.592    566.298    566.382    566.298
 16.770    558.000    566.489     -8.489    566.115    566.405    566.115    566.199    566.115
 16.870    582.943    566.300     16.643    565.928    566.215    565.928    566.013    565.928
 16.970    608.207    566.109     42.099    565.739    566.023    565.739    565.824    565.739
 17.070    592.026    565.915     26.112    565.547    565.829    565.547    565.632    565.547
 17.170    566.000    565.718      0.282    565.352    565.632    565.352    565.438    565.352
 17.270    586.000    565.520     20.480    565.154    565.433    565.154    565.241    565.154
 17.370    526.000    565.319    -39.319    564.954    565.231    564.954    565.041    564.954
 17.470    572.000    565.115      6.885    564.750    565.027    564.750    564.838    564.750
 17.570    565.000    564.910      0.090    564.545    564.821    564.545    564.633    564.545
 17.670    518.000    564.704    -46.704    564.336    564.615    564.336    564.425    564.336
 17.770    589.000    564.494     24.506    564.125    564.404    564.125    564.215    564.125
 17.870    584.665    564.281     20.384    563.911    564.191    563.911    564.002    563.911
 17.970    544.000    564.066    -20.066    563.695    563.975    563.695    563.786    563.695
 18.070    595.361    563.849     31.512    563.477    563.757    563.477    563.568    563.477
 18.170    555.000    563.630     -8.630    563.256    563.538    563.256    563.348    563.256
 18.270    534.000    563.408    -29.408    563.032    563.316    563.032    563.125    563.032
 18.370    584.000    563.185     20.815    562.807    563.092    562.807    562.900    562.807
 18.470    593.000    562.960     30.040    562.579    562.866    562.579    562.673    562.579
 18.570    560.000    562.733     -2.733    562.348    562.638    562.348    562.443    562.348
 18.670    539.000    562.503    -23.503    562.116    562.408    562.116    562.211    562.116
 18.770    529.232    562.272    -33.040    561.881    562.176    561.881    561.978    561.881
 18.870    549.569    562.042    -12.473    561.644    561.943    561.644    561.743    561.644
 18.970    545.000    561.808    -16.808    561.405    561.708    561.405    561.506    561.405
 19.070    532.996    561.571    -28.575    561.164    561.470    561.164    561.265    561.164
 19.170    604.722    561.333     43.389    560.921    561.231    560.921    561.023    560.921
 19.270    549.394    561.092    -11.698    560.676    560.989    560.676    560.779    560.676
 19.370    550.000    560.850    -10.850    560.428    560.746    560.428    560.532    560.428
 19.470    605.866    560.606     45.260    560.179    560.502    560.179    560.284    560.179
 19.570    533.451    560.361    -26.910    559.928    560.256    559.928    560.034    559.928
 19.670    560.199    560.114      0.085    559.675    560.008    559.675    559.782    559.675
 19.770    535.062    559.866    -24.804    559.421    559.759    559.421    559.528    559.421
 19.870    521.440    559.616    -38.176    559.164    559.508    559.164    559.272    559.164
 19.970    584.536    559.366     25.170    558.906    559.257    558.906    559.015    558.906
 20.070    545.228    559.127    -13.899    558.646    559.017    558.646    558.756    558.646
 20.170    563.513    558.883      4.630    558.384    558.772    558.384    558.495    558.384
 20.270    570.000    558.629     11.371    558.120    558.517    558.120    558.232    558.120
 20.370    556.000    558.373     -2.373    557.855    558.260    557.855    557.968    557.855
 20.470    547.000    558.116    -11.116    557.589    558.002    557.589    557.703    557.589
 20.570    560.402    557.858      2.544    557.321    557.743    557.321    557.436    557.321
 20.670    571.000    557.599     13.401    557.051    557.483    557.051    557.167    557.051
 20.770    527.000    557.339    -30.339    556.780    557.222    556.780    556.897    556.780
 20.870    600.442    557.079     43.363    556.507    556.960    556.507    556.625    556.507
 20.970    559.000    556.817      2.183    556.233    556.698    556.233    556.352    556.233
 21.070    551.692    556.564     -4.872    555.957    556.443    555.957    556.078    555.957
 21.170    593.294    556.386     36.908    555.680    556.264    555.680    555.802    555.680
 21.270    608.000    556.145     51.855    555.402    556.022    555.402    555.525    555.402
 21.370    580.000    555.884     24.116    555.122    555.759    555.122    555.247    555.122
 21.470    601.362    555.621     45.741    554.841    555.495    554.841    554.968    554.841
 21.570    565.000    555.358      9.642    554.559    555.231    554.559    554.687    554.559
 21.670    565.276    555.096     10.180    554.276    554.967    554.276    554.405    554.276
 21.770    588.000    554.834     33.166    553.992    554.703    553.992    554.122    553.992
 21.870    547.000    554.572     -7.572    553.706    554.440    553.706    553.838    553.706
 21.970    527.000    554.313    -27.313    553.419    554.180    553.419    553.553    553.419
 22.070    521.000    554.074    -33.074    553.131    553.939    553.131    553.267    553.131
 22.170    513.000    553.844    -40.844    552.843    553.707    552.843    552.980    552.843
 22.270    559.000    553.591      5.409    552.553    553.452    552.553    552.691    552.553
 22.370    539.223    553.339    -14.116    552.262    553.199    552.262    552.402    552.262
 22.470    570.000    553.093     16.907    551.970    552.950    551.970    552.112    551.970
 22.570    533.000    552.846    -19.846    551.677    552.702    551.677    551.821    551.677
 22.670    542.000    552.603    -10.603    551.383    552.457    551.383    551.530    551.383
 22.770    574.000    552.371     21.629    551.089    552.222    551.089    551.237    551.089
 22.870    522.490    552.185    -29.694    550.793    552.034    550.793    550.944    550.793
 22.970    559.000    551.983      7.017    550.497    551.831    550.497    550.650    550.497
 23.070    561.000    551.773      9.227    550.200    551.618    550.200    550.355    550.200
 23.170    568.000    551.574     16.426    549.902    551.417    549.902    550.060    549.902
 23.270    516.000    551.391    -35.391    549.604    551.232    549.604    549.764    549.604
 23.370    529.000    551.229    -22.229    549.304    551.067    549.304    549.467    549.304
 23.470    583.000    551.094     31.906    549.004    550.930    549.004    549.170    549.004
 23.570    593.692    550.995     42.697    548.704    550.828    548.704    548.872    548.704
 23.670    534.000    550.944    -16.944    548.402    550.773    548.402    548.574    548.402
 23.770    572.000    550.959     21.041    548.101    550.786    548.101    548.275    548.101
 23.870    566.000    551.068     14.932    547.798    550.892    547.798    547.976    547.798
 23.970    557.031    551.326      5.705    547.495    551.147    547.495    547.676    547.495
 24.070    552.000    551.857      0.143    547.192    551.675    547.192    547.376    547.192
 24.170    533.262    553.024    -19.762    546.888    552.840    546.888    547.076    546.888
 24.270    576.584    555.816     20.768    546.583    555.630    546.583    546.775    546.583
 24.370    558.000    562.320     -4.320    546.278    562.135    546.278    546.475    546.278
 24.470    564.000    575.448    -11.448    545.973    575.268    545.973    546.174    545.973
 24.570    569.000    596.644    -27.644    545.667    596.475    545.667    545.872    545.667
 24.670    641.000    621.710     19.290    545.361    621.555    545.361    545.571    545.361
 24.770    657.000    638.285     18.715    545.055    638.136    545.055    545.270    545.055
 24.870    622.797    634.221    -11.425    544.748    634.065    544.748    544.969    544.748
 24.970    581.571    612.811    -31.240    544.441    612.634    544.441    544.667    544.441
 25.070    589.201    587.721      1.481    544.134    587.520    544.134    544.366    544.134
 25.170    589.000    568.619     20.381    543.827    568.397    543.827    544.065    543.827
 25.270    558.000    557.409      0.591    543.519    557.172    543.519    543.764    543.519
 25.370    549.372    551.843     -2.470    543.211    551.595    543.211    543.463    543.211
 25.470    546.000    549.206     -3.206    542.903    548.949    542.903    543.163    542.903
 25.570    534.000    547.795    -13.795    542.595    547.529    542.595    542.863    542.595
 25.670    542.000    546.873     -4.873    542.286    546.598    542.286    542.564    542.286
 25.770    535.000    546.185    -11.185    541.978    545.899    541.978    542.265    541.978
 25.870    611.000    545.635     65.365    541.670    545.339    541.670    541.966    541.670
 25.970    538.000    545.180     -7.180    541.361    544.873    541.361    541.669    541.361
 26.070    552.000    544.798      7.202    541.053    544.479    541.053    541.372    541.053
 26.170    541.000    544.474     -3.474    540.744    544.142    540.744    541.076    540.744
 26.270    503.077    544.202    -41.125    540.435    543.856    540.435    540.782    540.435
 26.370    529.000    543.979    -14.979    540.127    543.618    540.127    540.488    540.127
 26.470    541.000    543.802     -2.802    539.819    543.425    539.819    540.196    539.819
 26.570    552.837    543.675      9.162    539.510    543.279    539.510    539.906    539.510
 26.670    548.000    543.604      4.396    539.202    543.189    539.202    539.617    539.202
 26.770    508.242    543.626    -35.384    538.894    543.189    538.894    539.331    538.894
 26.870    530.000    543.727    -13.727    538.586    543.265    538.586    539.047    538.586
 26.970    507.000    543.887    -36.887    538.278    543.399    538.278    538.766    538.278
 27.070    550.000    544.163      5.837    537.971    543.646    537.971    538.488    537.971
 27.170    554.000    544.585      9.415    537.663    544.034    537.663    538.213    537.663
 27.270    550.202    545.210      4.991    537.356    544.623    537.356    537.943    537.356
 27.370    546.080    546.123     -0.043    537.049    545.493    537.049    537.678    537.049
 27.470    568.000    547.473     20.527    536.743    546.796    536.743    537.418    536.743
 27.570    560.000    549.663     10.337    536.436    548.932    536.436    537.165    536.436
 27.670    582.000    554.088     27.912    536.130    553.295    536.130    536.920    536.130
 27.770    591.000    565.418     25.582    535.825    564.551    535.825    536.685    535.825
 27.870    612.000    595.504     16.496    535.519    594.544    535.519    536.461    535.519
 27.970    676.000    662.583     13.417    535.215    661.507    535.215    536.251    535.215
 28.070    767.691    774.477     -6.786    534.910    773.256    534.910    536.059    534.910
 28.170    858.000    899.311    -41.311    534.606    897.929    534.606    535.888    534.606
 28.270    973.071    960.732     12.339    534.302    959.192    534.302    535.745    534.302
 28.370    869.168    908.557    -39.388    533.999    906.858    533.999    535.637    533.999
 28.470    808.000    796.164     11.836    533.696    794.258    533.696    535.577    533.696
 28.570    765.000    709.166     55.834    533.394    706.963    533.394    535.586    533.394
 28.670    689.000    692.069     -3.069    533.092    689.452    533.092    535.694    533.092
 28.770    738.975    740.130     -1.155    532.791    736.946    532.791    535.956    532.791
 28.870    781.000    811.995    -30.995    532.491    808.025    532.491    536.448    532.491
 28.970    855.813    845.907      9.907    532.191    840.817    532.191    537.283    532.191
 29.070    779.000    805.414    -26.414    531.891    798.725    531.891    538.593    531.891
 29.170    696.000    722.421    -26.421    531.592    713.509    531.592    540.517    531.592
 29.270    634.000    646.300    -12.300    531.294    634.456    531.294    543.146    531.294
 29.370    641.154    599.219     41.936    530.996    583.783    530.996    546.435    530.996
 29.470    566.000    578.030    -12.030    530.699    558.702    530.699    550.028    530.699
 29.570    524.311    570.682    -46.371    530.403    548.034    530.403    553.050    530.403
 29.670    593.000    567.514     25.486    530.107    543.376    530.107    554.245    530.107
 29.770    579.000    563.946     15.054    529.812    540.877    529.812    552.880    529.812
 29.870    520.913    559.231    -38.318    529.518    539.241    529.518    549.508    529.518
 29.970    626.000    554.219     71.781    529.225    538.081    529.225    545.361    529.225
 30.070    509.497    549.741    -40.244    528.932    537.272    528.932    541.399    528.932
 30.170    568.000    546.205     21.795    528.640    536.788    528.640    538.056    528.640
 30.270    539.331    543.804     -4.473    528.349    536.730    528.349    535.421    528.349
 30.370    520.240    542.890    -22.650    528.059    537.525    528.059    533.420    528.059
