neutron_powder_diffraction_0177
R_wp: 3.909
Temperature (K): 1074.000
Counts: 83699.00
Wavelength (Ã…): 2.52098
COMMENTS
Test file for demonstrating the .xyy file format in Reel1.0
END OF HEADER
   tth       Y_obs     Y_calc      Y_res    Background    Phase_1_Nuc    Phase_1_Mag    Phase_2_Nuc    Phase_2_Mag
  9.970    597.822    573.856     23.966    573.147    573.832    573.147    573.171    573.147
 10.070    637.000    573.883     63.117    573.115    573.859    573.115    573.139    573.115
 10.170    590.000    573.915     16.085    573.078    573.890    573.078    573.102    573.078
 10.270    607.000    573.953     33.047    573.037    573.928    573.037    573.063    573.037
 10.370    602.597    574.000     28.597    572.992    573.973    572.992    573.018    572.992
 10.470    627.000    574.057     52.943    572.943    574.030    572.943    572.969    572.943
 10.570    543.916    574.130    -30.214    572.889    574.102    572.889    572.916    572.889
 10.670    568.000    574.223     -6.223    572.831    574.195    572.831    572.859    572.831
 10.770    591.000    574.343     16.657    572.769    574.314    572.769    572.797    572.769
 10.870    617.000    574.498     42.502    572.703    574.470    572.703    572.731    572.703
 10.970    568.000    574.704     -6.704    572.633    574.674    572.633    572.662    572.633
 11.070    620.816    574.985     45.832    572.559    574.946    572.559    572.597    572.559
 11.170    599.000    575.352     23.648    572.481    575.311    572.481    572.520    572.481
 11.270    541.000    575.853    -34.853    572.398    575.812    572.398    572.438    572.398
 11.370    546.210    576.562    -30.352    572.312    576.520    572.312    572.352    572.312
 11.470    566.000    577.636    -11.636    572.222    577.594    572.222    572.262    572.222
 11.570    653.000    579.516     73.484    572.129    579.472    572.129    572.169    572.129
 11.670    579.000    583.401     -4.401    572.031    583.355    572.031    572.071    572.031
 11.770    618.000    591.994     26.006    571.930    591.942    571.930    571.970    571.930
 11.870    570.956    609.492    -38.536    571.825    609.430    571.825    571.866    571.825
 11.970    740.000    638.979    101.021    571.716    638.895    571.716    571.762    571.716
 12.070    696.000    676.501     19.499    571.604    676.395    571.604    571.651    571.604
 12.170    751.988    705.805     46.182    571.489    705.682    571.489    571.535    571.489
 12.270    665.000    706.643    -41.643    571.369    706.519    571.369    571.416    571.369
 12.370    636.000    678.162    -42.162    571.247    678.054    571.247    571.294    571.247
 12.470    591.000    640.252    -49.252    571.120    640.165    571.120    571.168    571.120
 12.570    592.000    609.885    -17.885    570.991    609.815    570.991    571.038    570.991
 12.670    584.000    591.565     -7.565    570.858    591.505    570.858    570.906    570.858
 12.770    609.000    582.395     26.605    570.721    582.341    570.721    570.770    570.721
 12.870    601.000    578.124     22.876    570.582    578.071    570.582    570.630    570.582
 12.970    561.000    575.952    -14.952    570.439    575.900    570.439    570.488    570.439
 13.070    595.000    574.619     20.381    570.293    574.567    570.293    570.342    570.293
 13.170    571.919    573.664     -1.745    570.144    573.613    570.144    570.193    570.144
 13.270    559.000    572.922    -13.922    569.991    572.871    569.991    570.041    569.991
 13.370    569.441    572.319     -2.878    569.836    572.268    569.836    569.886    569.836
 13.470    571.000    571.813     -0.813    569.678    571.762    569.678    569.728    569.678
 13.570    532.000    571.376    -39.376    569.516    571.325    569.516    569.566    569.516
 13.670    568.012    570.990     -2.978    569.352    570.938    569.352    569.402    569.352
 13.770    572.000    570.642      1.358    569.184    570.590    569.184    569.235    569.184
 13.870    523.000    570.324    -47.324    569.014    570.271    569.014    569.066    569.014
 13.970    580.000    570.030      9.970    568.841    569.975    568.841    568.895    568.841
 14.070    548.000    569.750    -21.750    568.665    569.695    568.665    568.720    568.665
 14.170    573.000    569.486      3.514    568.486    569.430    568.486    568.542    568.486
 14.270    591.000    569.230     21.770    568.304    569.173    568.304    568.361    568.304
 14.370    541.000    568.980    -27.980    568.120    568.923    568.120    568.177    568.120
 14.470    611.531    568.737     42.794    567.933    568.679    567.933    567.991    567.933
 14.570    582.000    568.498     13.502    567.744    568.439    567.744    567.802    567.744
 14.670    528.497    568.262    -39.765    567.552    568.204    567.552    567.610    567.552
 14.770    550.000    568.029    -18.029    567.357    567.970    567.357    567.415    567.357
 14.870    590.517    567.798     22.719    567.160    567.739    567.160    567.218    567.160
 14.970    566.707    567.568     -0.861    566.960    567.509    566.960    567.019    566.960
 15.070    599.000    567.339     31.661    566.757    567.280    566.757    566.817    566.757
 15.170    551.000    567.111    -16.111    566.553    567.051    566.553    566.613    566.553
 15.270    576.612    566.883      9.730    566.346    566.823    566.346    566.406    566.346
 15.370    540.000    566.655    -26.655    566.136    566.594    566.136    566.197    566.136
 15.470    573.863    566.426      7.437    565.925    566.365    565.925    565.985    565.925
 15.570    559.000    566.197     -7.197    565.711    566.135    565.711    565.772    565.711
 15.670    585.487    565.967     19.520    565.494    565.905    565.494    565.556    565.494
 15.770    533.749    565.736    -31.987    565.276    565.674    565.276    565.338    565.276
 15.870    590.874    565.504     25.370    565.055    565.442    565.055    565.117    565.055
 15.970    600.089    565.271     34.818    564.832    565.209    564.832    564.895    564.832
 16.070    527.000    565.037    -38.037    564.607    564.974    564.607    564.670    564.607
 16.170    528.000    564.802    -36.802    564.380    564.739    564.380    564.443    564.380
 16.270    563.000    564.566     -1.566    564.151    564.502    564.151    564.215    564.151
 16.370    532.000    564.329    -32.329    563.920    564.264    563.920    563.984    563.920
 16.470    553.000    564.092    -11.092    563.687    564.026    563.687    563.753    563.687
 16.570    571.166    563.852      7.314    563.452    563.785    563.452    563.518    563.452
 16.670    528.000    563.613    -35.613    563.214    563.546    563.214    563.281    563.214
 16.770    568.087    563.371      4.716    562.976    563.303    562.976    563.043    562.976
 16.870    596.174    563.127     33.047    562.735    563.059    562.735    562.803    562.735
 16.970    522.414    562.881    -40.467    562.492    562.813    562.492    562.560    562.492
 17.070    552.000    562.635    -10.635    562.248    562.566    562.248    562.316    562.248
 17.170    575.000    562.386     12.614    562.002    562.317    562.002    562.071    562.002
 17.270    526.936    562.137    -35.201    561.754    562.068    561.754    561.823    561.754
 17.370    542.000    561.886    -19.886    561.504    561.816    561.504    561.574    561.504
 17.470    572.000    561.634     10.366    561.253    561.564    561.253    561.323    561.253
 17.570    595.877    561.381     34.496    561.000    561.310    561.000    561.071    561.000
 17.670    555.000    561.127     -6.127    560.745    561.055    560.745    560.817    560.745
 17.770    559.000    560.871     -1.871    560.489    560.799    560.489    560.561    560.489
 17.870    597.129    560.614     36.515    560.232    560.542    560.232    560.304    560.232
 17.970    614.000    560.357     53.643    559.972    560.284    559.972    560.045    559.972
 18.070    531.000    560.099    -29.099    559.712    560.025    559.712    559.785    559.712
 18.170    593.608    559.838     33.770    559.450    559.764    559.450    559.524    559.450
 18.270    573.000    559.576     13.424    559.186    559.502    559.186    559.261    559.186
 18.370    536.000    559.314    -23.314    558.921    559.239    558.921    558.996    558.921
 18.470    551.000    559.051     -8.051    558.655    558.975    558.655    558.731    558.655
 18.570    591.000    558.790     32.210    558.387    558.710    558.387    558.468    558.387
 18.670    541.743    558.526    -16.783    558.118    558.443    558.118    558.201    558.118
 18.770    574.743    558.259     16.485    557.848    558.176    557.848    557.931    557.848
 18.870    585.325    557.991     27.334    557.576    557.907    557.576    557.660    557.576
 18.970    549.000    557.722     -8.722    557.304    557.638    557.304    557.388    557.304
 19.070    513.777    557.454    -43.677    557.030    557.369    557.030    557.115    557.030
 19.170    560.495    557.197      3.298    556.755    557.111    556.755    556.841    556.755
 19.270    513.000    556.936    -43.936    556.478    556.850    556.478    556.565    556.478
 19.370    535.233    556.665    -21.433    556.201    556.578    556.201    556.288    556.201
 19.470    583.305    556.393     26.912    555.923    556.305    555.923    556.011    555.923
 19.570    540.000    556.119    -16.119    555.643    556.031    555.643    555.732    555.643
 19.670    515.170    555.845    -40.676    555.362    555.756    555.362    555.452    555.362
 19.770    560.026    555.571      4.456    555.081    555.480    555.081    555.171    555.081
 19.870    526.000    555.295    -29.295    554.798    555.204    554.798    554.889    554.798
 19.970    589.253    555.020     34.233    554.515    554.928    554.515    554.607    554.515
 20.070    579.000    554.744     24.256    554.230    554.651    554.230    554.323    554.230
 20.170    560.000    554.467      5.533    553.945    554.373    553.945    554.039    553.945
 20.270    546.506    554.190     -7.684    553.659    554.095    553.659    553.753    553.659
 20.370    544.842    553.913     -9.070    553.372    553.817    553.372    553.467    553.372
 20.470    575.000    553.635     21.365    553.084    553.539    553.084    553.180    553.084
 20.570    522.488    553.357    -30.869    552.795    553.260    552.795    552.892    552.795
 20.670    550.289    553.079     -2.791    552.506    552.981    552.506    552.604    552.506
 20.770    552.000    552.802     -0.802    552.215    552.703    552.215    552.314    552.215
 20.870    591.135    552.524     38.612    551.925    552.424    551.925    552.025    551.925
 20.970    540.000    552.246    -12.246    551.633    552.145    551.633    551.734    551.633
 21.070    537.000    551.969    -14.969    551.341    551.867    551.341    551.443    551.341
 21.170    566.667    551.691     14.976    551.048    551.588    551.048    551.151    551.048
 21.270    562.958    551.415     11.544    550.754    551.311    550.754    550.858    550.754
 21.370    533.000    551.147    -18.147    550.460    551.042    550.460    550.565    550.460
 21.470    590.858    550.958     39.900    550.165    550.851    550.165    550.272    550.165
 21.570    518.693    550.710    -32.016    549.870    550.602    549.870    549.978    549.870
 21.670    568.659    550.438     18.221    549.574    550.329    549.574    549.683    549.574
 21.770    520.000    550.167    -30.167    549.278    550.057    549.278    549.388    549.278
 21.870    541.000    549.900     -8.900    548.981    549.788    548.981    549.093    548.981
 21.970    552.000    549.633      2.367    548.684    549.520    548.684    548.797    548.684
 22.070    569.000    549.388     19.612    548.386    549.274    548.386    548.500    548.386
 22.170    536.157    549.156    -12.999    548.088    549.041    548.088    548.204    548.088
 22.270    552.000    548.944      3.056    547.789    548.827    547.789    547.907    547.789
 22.370    535.000    548.705    -13.705    547.491    548.586    547.491    547.610    547.491
 22.470    579.000    548.454     30.546    547.191    548.333    547.191    547.312    547.191
 22.570    520.000    548.205    -28.205    546.892    548.083    546.892    547.014    546.892
 22.670    572.000    547.965     24.035    546.592    547.839    546.592    546.718    546.592
 22.770    568.719    547.730     20.989    546.292    547.601    546.292    546.420    546.292
 22.870    537.000    547.502    -10.502    545.992    547.372    545.992    546.122    545.992
 22.970    510.732    547.284    -36.552    545.691    547.152    545.691    545.823    545.691
 23.070    571.155    547.078     24.077    545.390    546.945    545.390    545.525    545.390
 23.170    575.000    546.888     28.112    545.089    546.752    545.089    545.226    545.089
 23.270    510.000    546.716    -36.716    544.788    546.578    544.788    544.927    544.788
 23.370    565.000    546.569     18.431    544.487    546.429    544.487    544.628    544.487
 23.470    576.006    546.453     29.553    544.186    546.310    544.186    544.329    544.186
 23.570    537.538    546.378     -8.840    543.884    546.233    543.884    544.030    543.884
 23.670    563.000    546.357     16.643    543.583    546.210    543.583    543.731    543.583
 23.770    559.000    546.411     12.589    543.281    546.262    543.281    543.432    543.281
 23.870    504.902    546.574    -41.671    542.979    546.422    542.979    543.133    542.979
 23.970    557.123    546.905     10.218    542.678    546.750    542.678    542.834    542.678
 24.070    519.134    547.551    -28.418    542.376    547.394    542.376    542.535    542.376
 24.170    537.000    548.915    -11.915    542.074    548.756    542.074    542.237    542.074
 24.270    582.000    552.011     29.989    541.772    551.851    541.772    541.939    541.772
 24.370    537.170    558.833    -21.664    541.471    558.675    541.471    541.641    541.471
 24.470    567.696    571.963     -4.267    541.169    571.810    541.169    541.343    541.169
 24.570    580.000    592.462    -12.462    540.868    592.320    540.868    541.045    540.868
 24.670    649.000    616.232     32.768    540.567    616.103    540.567    540.748    540.567
 24.770    657.000    631.808     25.192    540.265    631.686    540.265    540.451    540.265
 24.870    645.000    628.015     16.985    539.964    627.886    539.964    540.155    539.964
 24.970    570.000    607.848    -37.848    539.664    607.700    539.664    539.859    539.664
 25.070    548.000    583.938    -35.938    539.363    583.768    539.363    539.564    539.363
 25.170    578.789    565.289     13.500    539.062    565.100    539.062    539.269    539.062
 25.270    530.000    553.935    -23.935    538.762    553.733    538.762    538.974    538.762
 25.370    523.000    548.041    -25.041    538.462    547.828    538.462    538.681    538.462
 25.470    583.000    545.136     37.864    538.163    544.915    538.163    538.388    538.163
 25.570    519.000    543.569    -24.569    537.863    543.340    537.863    538.095    537.863
 25.670    545.000    542.569      2.431    537.564    542.331    537.564    537.804    537.564
 25.770    551.000    541.845      9.155    537.265    541.598    537.265    537.513    537.265
 25.870    523.275    541.264    -17.989    536.967    541.008    536.967    537.224    536.967
 25.970    578.975    540.789     38.186    536.669    540.524    536.669    536.935    536.669
 26.070    548.515    540.421      8.093    536.371    540.145    536.371    536.648    536.371
 26.170    532.006    540.120     -8.114    536.074    539.833    536.074    536.361    536.074
 26.270    566.000    539.857     26.143    535.777    539.558    535.777    536.076    535.777
 26.370    553.000    539.639     13.361    535.480    539.326    535.480    535.793    535.480
 26.470    581.883    539.471     42.412    535.184    539.144    535.184    535.511    535.184
 26.570    563.000    539.357     23.643    534.888    539.014    534.888    535.231    534.888
 26.670    551.000    539.300     11.700    534.593    538.940    534.593    534.953    534.593
 26.770    556.000    539.310     16.690    534.298    538.931    534.298    534.677    534.298
 26.870    502.417    539.409    -36.992    534.004    539.009    534.004    534.404    534.004
 26.970    505.084    539.616    -34.531    533.711    539.193    533.711    534.133    533.711
 27.070    525.596    539.922    -14.326    533.417    539.473    533.417    533.866    533.417
 27.170    579.000    540.384     38.616    533.125    539.907    533.125    533.602    533.125
 27.270    565.843    541.060     24.783    532.833    540.550    532.833    533.342    532.833
 27.370    555.204    542.035     13.169    532.541    541.488    532.541    533.087    532.541
 27.470    606.000    543.465     62.535    532.250    542.877    532.250    532.837    532.250
 27.570    597.000    545.761     51.239    531.960    545.126    531.960    532.593    531.960
 27.670    547.000    550.333     -3.333    531.671    549.643    531.671    532.357    531.671
 27.770    551.000    561.919    -10.919    531.382    561.163    531.382    532.130    531.382
 27.870    605.000    592.325     12.675    531.093    591.488    531.093    531.913    531.093
 27.970    679.000    659.603     19.397    530.806    658.660    530.806    531.710    530.806
 28.070    810.000    771.353     38.647    530.519    770.280    530.519    531.522    530.519
 28.170    914.000    895.902     18.098    530.232    894.683    530.232    531.354    530.232
 28.270    978.419    957.328     21.091    529.947    955.970    529.947    531.210    529.947
 28.370    880.000    905.574    -25.574    529.662    904.078    529.662    531.099    529.662
 28.470    730.000    794.012    -64.012    529.378    792.336    529.378    531.029    529.378
 28.570    743.157    707.680     35.477    529.094    705.745    529.094    531.019    529.094
 28.670    689.000    690.342     -1.342    528.812    688.046    528.812    531.094    528.812
 28.770    739.000    736.987      2.013    528.530    734.192    528.530    531.306    528.530
 28.870    803.000    806.974     -3.974    528.249    803.467    528.249    531.744    528.249
 28.970    861.012    839.954     21.059    527.969    835.371    527.969    532.554    527.969
 29.070    780.000    800.289    -20.289    527.689    794.038    527.689    533.953    527.689
 29.170    692.000    719.177    -27.177    527.411    710.401    527.411    536.201    527.411
 29.270    648.553    644.769      3.784    527.133    632.387    527.133    539.523    527.133
 29.370    593.000    598.863     -5.863    526.856    581.759    526.856    543.963    526.856
 29.470    532.363    578.760    -46.397    526.580    556.230    526.580    549.110    526.580
 29.570    550.000    572.540    -22.540    526.305    545.139    526.305    553.705    526.305
 29.670    535.000    569.889    -34.889    526.031    540.227    526.031    555.691    526.031
 29.770    546.821    565.626    -18.805    525.757    537.599    525.757    553.783    525.757
 29.870    547.000    559.375    -12.375    525.485    535.897    525.485    548.961    525.485
 29.970    589.000    552.763     36.237    525.214    534.706    525.214    543.269    525.214
 30.070    505.048    547.070    -42.022    524.943    533.892    524.943    538.119    524.943
 30.170    580.000    542.806     37.194    524.673    533.429    524.673    534.048    524.673
 30.270    571.000    540.103     30.897    524.405    533.430    524.405    531.075    524.405
 30.370    561.000    539.198     21.802    524.137    534.337    524.137    528.994    524.137
