neutron_powder_diffraction_0178
R_wp: 3.888
Temperature (K): 1074.000
Counts: 83680.00
Wavelength (Ã…): 2.52098
COMMENTS
Test file for demonstrating the .xyy file format in Reel1.0
END OF HEADER
   tth       Y_obs     Y_calc      Y_res    Background    Phase_1_Nuc    Phase_1_Mag    Phase_2_Nuc    Phase_2_Mag
  9.970    582.000    571.986     10.014    571.377    571.963    571.377    571.400    571.377
 10.070    638.000    572.140     65.860    571.481    572.116    571.481    571.504    571.481
 10.170    593.384    572.294     21.090    571.579    572.271    571.579    571.602    571.579
 10.270    564.000    572.452     -8.452    571.670    572.428    571.670    571.694    571.670
 10.370    601.590    572.613     28.977    571.756    572.589    571.756    571.779    571.756
 10.470    661.000    572.782     88.218    571.835    572.758    571.835    571.859    571.835
 10.570    589.318    572.961     16.357    571.909    572.936    571.909    571.932    571.909
 10.670    558.915    573.154    -14.239    571.976    573.130    571.976    572.000    571.976
 10.770    552.000    573.368    -21.368    572.038    573.343    572.038    572.062    572.038
 10.870    597.000    573.609     23.391    572.094    573.584    572.094    572.118    572.094
 10.970    525.094    573.891    -48.797    572.144    573.864    572.144    572.170    572.144
 11.070    582.583    574.226      8.357    572.189    574.199    572.189    572.215    572.189
 11.170    606.000    574.637     31.363    572.228    574.610    572.228    572.254    572.228
 11.270    584.137    575.161      8.976    572.261    575.133    572.261    572.287    572.261
 11.370    569.000    575.854     -6.854    572.289    575.826    572.289    572.315    572.289
 11.470    558.211    576.842    -18.632    572.311    576.813    572.311    572.337    572.311
 11.570    571.000    578.482     -7.482    572.328    578.452    572.328    572.354    572.328
 11.670    563.000    581.881    -18.881    572.339    581.849    572.339    572.366    572.339
 11.770    560.888    589.882    -28.993    572.345    589.844    572.345    572.373    572.345
 11.870    644.952    607.548     37.404    572.346    607.491    572.346    572.384    572.346
 11.970    663.966    639.364     24.602    572.341    639.287    572.341    572.381    572.341
 12.070    699.000    681.674     17.326    572.332    681.573    572.332    572.372    572.332
 12.170    696.827    715.515    -18.688    572.317    715.395    572.317    572.357    572.317
 12.270    681.000    716.610    -35.610    572.297    716.489    572.297    572.338    572.297
 12.370    654.000    683.927    -29.927    572.273    683.825    572.273    572.313    572.273
 12.470    612.000    641.330    -29.330    572.243    641.251    572.243    572.283    572.243
 12.570    625.000    608.678     16.322    572.208    608.617    572.208    572.249    572.208
 12.670    645.000    590.324     54.676    572.169    590.272    572.169    572.210    572.169
 12.770    541.755    581.945    -40.190    572.124    581.894    572.124    572.170    572.124
 12.870    627.636    578.375     49.261    572.075    578.325    572.075    572.122    572.075
 12.970    600.000    576.652     23.348    572.021    576.602    572.021    572.069    572.021
 13.070    604.400    575.610     28.790    571.963    575.561    571.963    572.010    571.963
 13.170    568.429    574.873     -6.444    571.900    574.824    571.900    571.947    571.900
 13.270    535.000    574.311    -39.311    571.832    574.261    571.832    571.880    571.832
 13.370    549.000    573.863    -24.863    571.760    573.814    571.760    571.808    571.760
 13.470    578.000    573.495      4.505    571.683    573.446    571.683    571.732    571.683
 13.570    588.000    573.184     14.816    571.602    573.135    571.602    571.651    571.602
 13.670    595.000    572.914     22.086    571.517    572.864    571.517    571.566    571.517
 13.770    557.000    572.673    -15.673    571.427    572.623    571.427    571.476    571.427
 13.870    567.000    572.455     -5.455    571.333    572.405    571.333    571.382    571.333
 13.970    557.000    572.253    -15.253    571.235    572.203    571.235    571.284    571.235
 14.070    548.000    572.063    -24.063    571.132    572.013    571.132    571.182    571.132
 14.170    574.838    571.883      2.956    571.025    571.832    571.025    571.076    571.025
 14.270    566.433    571.709     -5.276    570.915    571.658    570.915    570.965    570.915
 14.370    581.518    571.540      9.979    570.800    571.488    570.800    570.851    570.800
 14.470    593.000    571.374     21.626    570.681    571.322    570.681    570.732    570.681
 14.570    586.572    571.210     15.362    570.559    571.158    570.559    570.610    570.559
 14.670    617.729    571.051     46.678    570.432    570.999    570.432    570.484    570.432
 14.770    540.000    570.890    -30.890    570.301    570.838    570.301    570.354    570.301
 14.870    551.000    570.729    -19.729    570.167    570.676    570.167    570.220    570.167
 14.970    569.840    570.569     -0.729    570.029    570.513    570.029    570.085    570.029
 15.070    614.698    570.406     44.292    569.887    570.349    569.887    569.944    569.887
 15.170    522.875    570.242    -47.367    569.742    570.184    569.742    569.799    569.742
 15.270    551.000    570.076    -19.076    569.593    570.018    569.593    569.651    569.593
 15.370    569.000    569.908     -0.908    569.440    569.850    569.440    569.498    569.440
 15.470    600.732    569.738     30.994    569.284    569.679    569.284    569.343    569.284
 15.570    586.254    569.566     16.687    569.124    569.507    569.124    569.184    569.124
 15.670    573.000    569.392      3.608    568.961    569.333    568.961    569.021    568.961
 15.770    533.774    569.216    -35.442    568.795    569.156    568.795    568.854    568.795
 15.870    550.000    569.038    -19.038    568.625    568.977    568.625    568.685    568.625
 15.970    553.000    568.857    -15.857    568.451    568.796    568.451    568.512    568.451
 16.070    604.756    568.673     36.083    568.275    568.612    568.275    568.336    568.275
 16.170    558.522    568.487     -9.965    568.095    568.426    568.095    568.156    568.095
 16.270    562.000    568.299     -6.299    567.912    568.237    567.912    567.974    567.912
 16.370    604.000    568.108     35.892    567.726    568.046    567.726    567.788    567.726
 16.470    577.000    567.915      9.085    567.536    567.852    567.536    567.599    567.536
 16.570    537.000    567.720    -30.720    567.344    567.656    567.344    567.407    567.344
 16.670    568.000    567.523      0.477    567.149    567.459    567.149    567.212    567.149
 16.770    552.826    567.322    -14.496    566.950    567.258    566.950    567.014    566.950
 16.870    573.281    567.119      6.162    566.749    567.054    566.749    566.813    566.749
 16.970    535.122    566.913    -31.791    566.545    566.848    566.545    566.609    566.545
 17.070    600.712    566.704     34.007    566.337    566.639    566.337    566.402    566.337
 17.170    543.943    566.493    -22.550    566.127    566.428    566.127    566.193    566.127
 17.270    594.000    566.280     27.720    565.915    566.214    565.915    565.981    565.915
 17.370    527.000    566.066    -39.066    565.699    565.998    565.699    565.767    565.699
 17.470    548.000    565.850    -17.850    565.481    565.782    565.481    565.549    565.481
 17.570    558.000    565.631     -7.631    565.260    565.562    565.260    565.329    565.260
 17.670    531.950    565.408    -33.458    565.036    565.339    565.036    565.106    565.036
 17.770    576.045    565.183     10.862    564.810    565.113    564.810    564.880    564.810
 17.870    578.000    564.956     13.044    564.582    564.885    564.582    564.652    564.582
 17.970    542.873    564.726    -21.854    564.350    564.655    564.350    564.421    564.350
 18.070    584.655    564.494     20.160    564.117    564.423    564.117    564.188    564.117
 18.170    557.000    564.260     -7.260    563.881    564.189    563.881    563.952    563.881
 18.270    520.000    564.024    -44.024    563.642    563.952    563.642    563.715    563.642
 18.370    527.000    563.786    -36.786    563.401    563.713    563.401    563.474    563.401
 18.470    605.826    563.546     42.280    563.158    563.473    563.158    563.232    563.158
 18.570    536.000    563.304    -27.304    562.913    563.230    562.913    562.987    562.913
 18.670    578.000    563.060     14.940    562.665    562.985    562.665    562.739    562.665
 18.770    564.000    562.814      1.186    562.415    562.739    562.415    562.490    562.415
 18.870    563.000    562.566      0.434    562.163    562.491    562.163    562.238    562.163
 18.970    565.000    562.317      2.683    561.908    562.240    561.908    561.985    561.908
 19.070    608.000    562.065     45.935    561.652    561.988    561.652    561.729    561.652
 19.170    591.431    561.811     29.619    561.394    561.734    561.394    561.471    561.394
 19.270    608.000    561.557     46.443    561.133    561.478    561.133    561.212    561.133
 19.370    541.078    561.304    -20.226    560.871    561.221    560.871    560.954    560.871
 19.470    553.000    561.047     -8.047    560.606    560.961    560.606    560.692    560.606
 19.570    529.129    560.787    -31.657    560.340    560.701    560.340    560.426    560.340
 19.670    547.000    560.525    -13.525    560.072    560.438    560.072    560.158    560.072
 19.770    602.950    560.262     42.688    559.801    560.174    559.801    559.889    559.801
 19.870    546.000    559.998    -13.998    559.529    559.909    559.529    559.618    559.529
 19.970    555.000    559.732     -4.732    559.256    559.642    559.256    559.345    559.256
 20.070    531.494    559.464    -27.970    558.980    559.374    558.980    559.070    558.980
 20.170    581.000    559.197     21.803    558.703    559.106    558.703    558.794    558.703
 20.270    554.000    558.941     -4.941    558.424    558.849    558.424    558.516    558.424
 20.370    539.569    558.680    -19.111    558.144    558.588    558.144    558.236    558.144
 20.470    598.062    558.410     39.651    557.861    558.317    557.861    557.955    557.861
 20.570    530.000    558.138    -28.138    557.578    558.044    557.578    557.672    557.578
 20.670    554.000    557.865     -3.865    557.292    557.770    557.292    557.388    557.292
 20.770    559.128    557.590      1.538    557.006    557.494    557.006    557.102    557.006
 20.870    587.130    557.315     29.815    556.717    557.218    556.717    556.815    556.717
 20.970    559.812    557.039      2.773    556.428    556.941    556.428    556.526    556.428
 21.070    588.000    556.764     31.236    556.136    556.665    556.136    556.236    556.136
 21.170    546.000    556.511    -10.511    555.844    556.411    555.844    555.944    555.844
 21.270    545.000    556.265    -11.265    555.550    556.163    555.550    555.651    555.550
 21.370    534.540    555.999    -21.459    555.255    555.896    555.255    555.357    555.255
 21.470    520.000    555.811    -35.811    554.958    555.707    554.958    555.062    554.958
 21.570    536.000    555.557    -19.557    554.660    555.452    554.660    554.765    554.660
 21.670    561.000    555.281      5.719    554.361    555.175    554.361    554.467    554.361
 21.770    561.000    555.005      5.995    554.061    554.897    554.061    554.168    554.061
 21.870    579.000    554.728     24.272    553.760    554.620    553.760    553.868    553.760
 21.970    568.000    554.453     13.547    553.457    554.343    553.457    553.567    553.457
 22.070    550.000    554.179     -4.179    553.154    554.068    553.154    553.265    553.154
 22.170    618.000    553.911     64.089    552.849    553.798    552.849    552.961    552.849
 22.270    537.627    553.687    -16.060    552.543    553.573    552.543    552.657    552.543
 22.370    586.000    553.438     32.562    552.236    553.323    552.236    552.352    552.236
 22.470    509.000    553.174    -44.174    551.929    553.057    551.929    552.046    551.929
 22.570    532.000    552.912    -20.912    551.620    552.793    551.620    551.739    551.620
 22.670    588.000    552.654     35.346    551.310    552.534    551.310    551.431    551.310
 22.770    550.000    552.401     -2.401    551.000    552.279    551.000    551.122    551.000
 22.870    502.000    552.157    -50.157    550.688    552.033    550.688    550.812    550.688
 22.970    544.000    551.922     -7.922    550.376    551.796    550.376    550.502    550.376
 23.070    562.000    551.693     10.307    550.063    551.566    550.063    550.191    550.063
 23.170    503.000    551.476    -48.476    549.749    551.347    549.749    549.879    549.749
 23.270    526.447    551.276    -24.829    549.434    551.143    549.434    549.568    549.434
 23.370    536.000    551.095    -15.095    549.119    550.959    549.119    549.256    549.119
 23.470    538.281    550.939    -12.658    548.803    550.800    548.803    548.942    548.803
 23.570    521.540    550.816    -29.276    548.486    550.675    548.486    548.628    548.486
 23.670    558.000    550.738      7.262    548.169    550.595    548.169    548.313    548.169
 23.770    574.994    550.724     24.270    547.851    550.578    547.851    547.997    547.851
 23.870    551.087    550.798      0.289    547.532    550.650    547.532    547.682    547.532
 23.970    578.000    551.010     26.990    547.213    550.859    547.213    547.365    547.213
 24.070    588.000    551.471     36.529    546.893    551.317    546.893    547.048    546.893
 24.170    548.000    552.505     -4.505    546.573    552.349    546.573    546.731    546.573
 24.270    580.000    555.075     24.925    546.252    554.918    546.252    546.414    546.252
 24.370    586.533    561.395     25.138    545.931    561.240    545.931    546.096    545.931
 24.470    579.000    574.850      4.150    545.609    574.701    545.609    545.778    545.609
 24.570    573.685    597.447    -23.763    545.287    597.311    545.287    545.460    545.287
 24.670    597.000    624.882    -27.882    544.965    624.761    544.965    545.142    544.965
 24.770    607.000    643.300    -36.300    544.642    643.188    544.642    544.823    544.642
 24.870    623.000    638.806    -15.806    544.319    638.687    544.319    544.505    544.319
 24.970    652.000    615.174     36.826    543.996    615.034    543.996    544.186    543.996
 25.070    616.000    587.966     28.034    543.672    587.802    543.672    543.867    543.672
 25.170    600.000    567.852     32.148    543.348    567.667    543.348    543.549    543.348
 25.270    558.000    556.524      1.476    543.024    556.325    543.024    543.230    543.024
 25.370    544.000    551.155     -7.155    542.699    550.947    542.699    542.912    542.699
 25.470    543.000    548.690     -5.690    542.375    548.474    542.375    542.594    542.375
 25.570    539.894    547.375     -7.481    542.050    547.150    542.050    542.276    542.050
 25.670    569.929    546.509     23.421    541.725    546.276    541.725    541.959    541.725
 25.770    549.000    545.856      3.144    541.400    545.616    541.400    541.642    541.400
 25.870    525.000    545.335    -20.335    541.075    545.085    541.075    541.325    541.075
 25.970    570.020    544.908     25.112    540.750    544.649    540.750    541.010    540.750
 26.070    499.928    544.555    -44.627    540.424    544.285    540.424    540.694    540.424
 26.170    546.000    544.265      1.735    540.099    543.985    540.099    540.380    540.099
 26.270    571.000    544.057     26.943    539.774    543.765    539.774    540.067    539.774
 26.370    570.000    543.899     26.101    539.449    543.594    539.449    539.754    539.449
 26.470    499.756    543.773    -44.017    539.124    543.454    539.124    539.443    539.124
 26.570    558.081    543.702     14.380    538.798    543.367    538.798    539.133    538.798
 26.670    587.000    543.695     43.305    538.473    543.343    538.473    538.825    538.473
 26.770    502.964    543.764    -40.800    538.149    543.394    538.149    538.518    538.149
 26.870    556.000    543.926     12.074    537.824    543.535    537.824    538.214    537.824
 26.970    522.000    544.203    -22.203    537.499    543.789    537.499    537.912    537.499
 27.070    570.000    544.631     25.369    537.175    544.192    537.175    537.613    537.175
 27.170    573.000    545.266     27.734    536.850    544.799    536.850    537.317    536.850
 27.270    504.784    546.171    -41.388    536.526    545.672    536.526    537.024    536.526
 27.370    589.000    547.424     41.576    536.202    546.889    536.202    536.736    536.202
 27.470    576.095    549.251     26.844    535.879    548.675    535.879    536.452    535.879
 27.570    575.000    552.169     22.831    535.556    551.546    535.556    536.175    535.556
 27.670    590.069    557.816     32.253    535.233    557.140    535.233    535.904    535.233
 27.770    592.000    571.192     20.808    534.910    570.450    534.910    535.642    534.910
 27.870    628.000    603.526     24.474    534.588    602.703    534.588    535.391    534.588
 27.970    647.295    670.364    -23.069    534.266    669.437    534.266    535.151    534.266
 28.070    789.000    776.586     12.414    533.944    775.532    533.944    534.927    533.944
 28.170    849.506    892.685    -43.180    533.623    891.489    533.623    534.721    533.623
 28.270    926.000    950.025    -24.025    533.302    948.690    533.302    534.540    533.302
 28.370    894.000    902.987     -8.987    532.982    901.516    532.982    534.390    532.982
 28.470    764.752    800.829    -36.077    532.662    799.180    532.662    534.282    532.662
 28.570    711.000    720.890     -9.890    532.343    718.987    532.343    534.230    532.343
 28.670    709.000    703.448      5.552    532.024    701.193    532.024    534.262    532.024
 28.770    760.000    745.263     14.737    531.705    742.521    531.705    534.427    531.705
 28.870    774.000    809.531    -35.531    531.387    806.089    531.387    534.815    531.387
 28.970    794.000    839.567    -45.567    531.070    835.060    531.070    535.578    531.070
 29.070    766.000    801.206    -35.206    530.753    795.024    530.753    536.945    530.753
 29.170    739.000    723.659     15.341    530.437    714.904    530.437    539.203    530.437
 29.270    677.000    651.969     25.031    530.122    639.489    530.122    542.609    530.122
 29.370    589.000    606.705    -17.705    529.807    589.285    529.807    547.229    529.807
 29.470    620.000    586.052     33.948    529.492    562.900    529.492    552.644    529.492
 29.570    623.000    579.163     43.837    529.179    550.824    529.179    557.516    529.179
 29.670    575.956    575.980     -0.024    528.866    545.220    528.866    559.624    528.866
 29.770    595.000    571.158     23.842    528.553    542.151    528.553    557.559    528.553
 29.870    604.000    564.306     39.694    528.242    540.148    528.242    552.398    528.242
 29.970    526.485    557.158    -30.673    527.931    538.735    527.931    546.352    527.931
 30.070    569.000    551.061     17.939    527.621    537.753    527.621    540.927    527.621
 30.170    529.163    546.538    -17.375    527.311    537.169    527.311    536.678    527.311
 30.270    532.000    543.703    -11.703    527.003    537.097    527.003    533.606    527.003
 30.370    559.000    542.771     16.229    526.695    537.989    526.695    531.474    526.695
