neutron_powder_diffraction_0171
R_wp: 3.713
Temperature (K): 1074.000
Counts: 84290.00
Wavelength (Ã…): 2.52098
COMMENTS
Test file for demonstrating the .xyy file format in Reel1.0
END OF HEADER
   tth       Y_obs     Y_calc      Y_res    Background    Phase_1_Nuc    Phase_1_Mag    Phase_2_Nuc    Phase_2_Mag
  9.970    605.417    573.983     31.434    573.322    573.924    573.322    573.380    573.322
 10.070    604.000    574.051     29.949    573.335    573.991    573.335    573.394    573.335
 10.170    607.000    574.122     32.878    573.344    574.063    573.344    573.403    573.344
 10.270    578.000    574.214      3.786    573.347    574.154    573.347    573.407    573.347
 10.370    634.000    574.299     59.701    573.346    574.239    573.346    573.406    573.346
 10.470    568.139    574.390     -6.251    573.340    574.329    573.340    573.400    573.340
 10.570    600.000    574.494     25.506    573.329    574.433    573.329    573.389    573.329
 10.670    545.035    574.615    -29.580    573.313    574.554    573.313    573.373    573.313
 10.770    628.000    574.760     53.240    573.292    574.698    573.292    573.353    573.292
 10.870    580.000    574.937      5.063    573.267    574.875    573.267    573.328    573.267
 10.970    610.000    575.157     34.843    573.237    575.095    573.237    573.298    573.237
 11.070    578.200    575.439      2.762    573.203    575.376    573.203    573.264    573.203
 11.170    585.000    575.805      9.195    573.164    575.742    573.164    573.225    573.164
 11.270    533.080    576.294    -43.215    573.120    576.231    573.120    573.182    573.120
 11.370    555.000    576.971    -21.971    573.072    576.907    573.072    573.134    573.072
 11.470    543.688    577.977    -34.289    573.020    577.912    573.020    573.082    573.020
 11.570    615.608    579.703     35.905    572.963    579.636    572.963    573.026    572.963
 11.670    625.000    583.291     41.709    572.902    583.222    572.902    572.965    572.902
 11.770    596.728    591.462      5.266    572.836    591.388    572.836    572.900    572.836
 11.870    643.000    608.709     34.291    572.767    608.625    572.767    572.830    572.767
 11.970    682.000    638.646     43.354    572.693    638.544    572.693    572.757    572.693
 12.070    663.616    677.505    -13.889    572.615    677.382    572.615    572.679    572.615
 12.170    697.000    708.188    -11.188    572.533    708.046    572.533    572.597    572.533
 12.270    685.000    709.108    -24.108    572.447    708.966    572.447    572.512    572.447
 12.370    653.898    679.353    -25.456    572.357    679.227    572.357    572.422    572.357
 12.470    614.000    640.134    -26.134    572.263    640.030    572.263    572.328    572.263
 12.570    636.510    609.326     27.184    572.165    609.239    572.165    572.230    572.165
 12.670    581.000    591.301    -10.301    572.063    591.224    572.063    572.129    572.063
 12.770    625.513    582.623     42.890    571.957    582.551    571.957    572.024    571.957
 12.870    607.000    578.724     28.276    571.848    578.653    571.848    571.914    571.848
 12.970    555.000    576.777    -21.777    571.734    576.707    571.734    571.802    571.734
 13.070    592.000    575.584     16.416    571.618    575.514    571.618    571.685    571.618
 13.170    558.937    574.729    -15.791    571.497    574.659    571.497    571.565    571.497
 13.270    583.962    574.067      9.895    571.373    573.997    571.373    571.441    571.373
 13.370    537.000    573.534    -36.534    571.245    573.460    571.245    571.318    571.245
 13.470    549.000    573.087    -24.087    571.114    573.012    571.114    571.189    571.114
 13.570    533.000    572.702    -39.702    570.979    572.626    570.979    571.054    570.979
 13.670    566.000    572.362     -6.362    570.841    572.286    570.841    570.917    570.841
 13.770    554.000    572.056    -18.056    570.700    571.979    570.700    570.775    570.700
 13.870    533.346    571.775    -38.429    570.555    571.698    570.555    570.631    570.555
 13.970    557.000    571.513    -14.513    570.407    571.436    570.407    570.483    570.407
 14.070    598.641    571.267     27.374    570.255    571.189    570.255    570.332    570.255
 14.170    579.000    571.031      7.969    570.100    570.953    570.100    570.178    570.100
 14.270    546.000    570.804    -24.804    569.942    570.725    569.942    570.020    569.942
 14.370    579.000    570.583      8.417    569.781    570.504    569.781    569.859    569.781
 14.470    560.000    570.367    -10.367    569.617    570.288    569.617    569.696    569.617
 14.570    548.000    570.154    -22.154    569.450    570.075    569.450    569.529    569.450
 14.670    569.000    569.945     -0.945    569.280    569.865    569.280    569.359    569.280
 14.770    593.508    569.737     23.772    569.106    569.657    569.106    569.186    569.106
 14.870    534.183    569.530    -35.347    568.930    569.449    568.930    569.010    568.930
 14.970    550.972    569.324    -18.352    568.751    569.243    568.751    568.832    568.751
 15.070    525.000    569.118    -44.118    568.569    569.036    568.569    568.650    568.569
 15.170    604.415    568.914     35.501    568.384    568.833    568.384    568.466    568.384
 15.270    542.000    568.709    -26.709    568.196    568.627    568.196    568.278    568.196
 15.370    543.000    568.502    -25.502    568.006    568.419    568.006    568.088    568.006
 15.470    589.000    568.293     20.707    567.813    568.210    567.813    567.896    567.813
 15.570    595.000    568.084     26.916    567.617    568.000    567.617    567.700    567.617
 15.670    559.000    567.873     -8.873    567.418    567.789    567.418    567.502    567.418
 15.770    534.879    567.661    -32.781    567.217    567.576    567.217    567.302    567.217
 15.870    563.000    567.447     -4.447    567.014    567.362    567.014    567.098    567.014
 15.970    598.000    567.232     30.768    566.807    567.147    566.807    566.893    566.807
 16.070    558.127    567.016     -8.889    566.599    566.930    566.599    566.685    566.599
 16.170    584.740    566.797     17.942    566.388    566.711    566.388    566.474    566.388
 16.270    560.973    566.577     -5.605    566.174    566.491    566.174    566.261    566.174
 16.370    582.750    566.356     16.394    565.958    566.268    565.958    566.045    565.958
 16.470    525.000    566.132    -41.132    565.740    566.045    565.740    565.828    565.740
 16.570    536.000    565.907    -29.907    565.519    565.819    565.519    565.607    565.519
 16.670    566.000    565.681      0.319    565.296    565.592    565.296    565.385    565.296
 16.770    588.000    565.452     22.548    565.071    565.363    565.071    565.160    565.071
 16.870    587.276    565.223     22.053    564.844    565.133    564.844    564.934    564.844
 16.970    534.892    564.993    -30.100    564.614    564.902    564.614    564.705    564.614
 17.070    538.000    564.759    -26.759    564.382    564.668    564.382    564.474    564.382
 17.170    547.000    564.524    -17.524    564.149    564.433    564.149    564.240    564.149
 17.270    546.937    564.287    -17.350    563.913    564.195    563.913    564.005    563.913
 17.370    580.295    564.049     16.246    563.675    563.956    563.675    563.768    563.675
 17.470    566.000    563.808      2.192    563.435    563.715    563.435    563.529    563.435
 17.570    595.744    563.566     32.178    563.193    563.472    563.193    563.287    563.193
 17.670    569.000    563.323      5.677    562.949    563.228    562.949    563.044    562.949
 17.770    574.000    563.078     10.922    562.704    562.982    562.704    562.799    562.704
 17.870    574.000    562.833     11.167    562.456    562.737    562.456    562.552    562.456
 17.970    563.643    562.585      1.058    562.207    562.488    562.207    562.303    562.207
 18.070    529.368    562.335    -32.967    561.956    562.238    561.956    562.053    561.956
 18.170    534.949    562.084    -27.135    561.703    561.986    561.703    561.801    561.703
 18.270    548.998    561.832    -12.834    561.448    561.733    561.448    561.547    561.448
 18.370    520.030    561.578    -41.547    561.192    561.478    561.192    561.291    561.192
 18.470    553.000    561.322     -8.322    560.933    561.222    560.933    561.034    560.933
 18.570    543.000    561.067    -18.067    560.674    560.964    560.674    560.777    560.674
 18.670    566.000    560.810      5.190    560.412    560.705    560.412    560.517    560.412
 18.770    551.000    560.550     -9.550    560.150    560.445    560.150    560.255    560.150
 18.870    521.000    560.289    -39.289    559.885    560.183    559.885    559.991    559.885
 18.970    562.751    560.027      2.724    559.619    559.920    559.619    559.726    559.619
 19.070    589.000    559.764     29.236    559.352    559.656    559.352    559.460    559.352
 19.170    556.507    559.500     -2.993    559.083    559.391    559.083    559.192    559.083
 19.270    601.000    559.234     41.766    558.813    559.125    558.813    558.922    558.813
 19.370    554.000    558.968     -4.968    558.541    558.857    558.541    558.651    558.541
 19.470    539.000    558.700    -19.700    558.268    558.588    558.268    558.379    558.268
 19.570    550.000    558.431     -8.431    557.994    558.319    557.994    558.106    557.994
 19.670    551.000    558.162     -7.162    557.718    558.049    557.718    557.831    557.718
 19.770    544.000    557.893    -13.893    557.441    557.779    557.441    557.555    557.441
 19.870    585.000    557.622     27.378    557.163    557.507    557.163    557.278    557.163
 19.970    552.000    557.349     -5.349    556.884    557.233    556.884    557.000    556.884
 20.070    573.000    557.076     15.924    556.603    556.959    556.603    556.720    556.603
 20.170    553.000    556.803     -3.803    556.321    556.685    556.321    556.440    556.321
 20.270    571.000    556.528     14.472    556.039    556.409    556.039    556.158    556.039
 20.370    533.801    556.253    -22.453    555.755    556.133    555.755    555.875    555.755
 20.470    543.000    555.979    -12.979    555.470    555.858    555.470    555.591    555.470
 20.570    590.000    555.717     34.283    555.184    555.594    555.184    555.306    555.184
 20.670    520.000    555.450    -35.450    554.897    555.326    554.897    555.021    554.897
 20.770    555.000    555.174     -0.174    554.609    555.050    554.609    554.734    554.609
 20.870    570.000    554.898     15.102    554.320    554.772    554.320    554.446    554.320
 20.970    588.112    554.621     33.491    554.030    554.493    554.030    554.158    554.030
 21.070    537.000    554.352    -17.352    553.739    554.223    553.739    553.868    553.739
 21.170    538.000    554.158    -16.158    553.448    554.028    553.448    553.578    553.448
 21.270    555.000    553.903      1.097    553.155    553.771    553.155    553.287    553.155
 21.370    504.000    553.628    -49.628    552.862    553.495    552.862    552.995    552.862
 21.470    560.813    553.352      7.462    552.568    553.218    552.568    552.702    552.568
 21.570    523.000    553.076    -30.076    552.273    552.941    552.273    552.409    552.273
 21.670    542.000    552.802    -10.802    551.978    552.664    551.978    552.115    551.978
 21.770    545.000    552.528     -7.528    551.682    552.389    551.682    551.821    551.682
 21.870    553.000    552.255      0.745    551.385    552.115    551.385    551.525    551.385
 21.970    545.929    551.984     -6.055    551.087    551.842    551.087    551.229    551.087
 22.070    529.348    551.714    -22.366    550.789    551.570    550.789    550.933    550.789
 22.170    584.265    551.448     32.817    550.490    551.302    550.490    550.636    550.490
 22.270    513.000    551.203    -38.203    550.191    551.056    550.191    550.338    550.191
 22.370    564.000    550.967     13.033    549.891    550.818    549.891    550.040    549.891
 22.470    529.785    550.711    -20.926    549.590    550.560    549.590    549.742    549.590
 22.570    561.314    550.456     10.858    549.289    550.303    549.289    549.443    549.289
 22.670    564.000    550.211     13.789    548.988    550.055    548.988    549.144    548.988
 22.770    568.967    550.010     18.957    548.686    549.853    548.686    548.844    548.686
 22.870    552.744    549.791      2.952    548.384    549.631    548.384    548.544    548.384
 22.970    563.422    549.565     13.857    548.081    549.403    548.081    548.244    548.081
 23.070    537.000    549.350    -12.350    547.778    549.185    547.778    547.943    547.778
 23.170    538.786    549.150    -10.364    547.474    548.983    547.474    547.642    547.474
 23.270    535.000    548.963    -13.963    547.170    548.793    547.170    547.341    547.170
 23.370    535.511    548.798    -13.287    546.866    548.625    546.866    547.040    546.866
 23.470    553.000    548.660      4.340    546.562    548.485    546.562    546.738    546.562
 23.570    507.629    548.559    -40.930    546.257    548.381    546.257    546.436    546.257
 23.670    590.095    548.507     41.588    545.952    548.325    545.952    546.135    545.952
 23.770    570.587    548.522     22.065    545.647    548.338    545.647    545.833    545.647
 23.870    547.000    548.634     -1.634    545.342    548.447    545.342    545.531    545.342
 23.970    545.815    548.895     -3.081    545.036    548.704    545.036    545.229    545.036
 24.070    542.873    549.429     -6.556    544.731    549.235    544.731    544.927    544.731
 24.170    536.000    550.590    -14.590    544.425    550.393    544.425    544.625    544.425
 24.270    564.000    553.347     10.653    544.119    553.149    544.119    544.324    544.119
 24.370    557.000    559.773     -2.773    543.813    559.574    543.813    544.022    543.813
 24.470    563.000    572.813     -9.813    543.507    572.619    543.507    543.721    543.507
 24.570    628.914    594.011     34.903    543.201    593.828    543.201    543.419    543.201
 24.670    661.329    619.250     42.078    542.895    619.080    542.895    543.118    542.895
 24.770    653.000    636.023     16.977    542.589    635.860    542.589    542.818    542.589
 24.870    647.024    631.904     15.120    542.283    631.732    542.283    542.517    542.283
 24.970    587.435    610.275    -22.840    541.977    610.082    541.977    542.217    541.977
 25.070    626.000    585.072     40.928    541.671    584.855    541.671    541.918    541.671
 25.170    545.045    566.011    -20.966    541.365    565.773    541.365    541.619    541.365
 25.270    557.000    554.887      2.113    541.059    554.634    541.059    541.320    541.059
 25.370    511.628    549.394    -37.766    540.754    549.130    540.754    541.022    540.754
 25.470    566.000    546.778     19.222    540.448    546.504    540.448    540.725    540.448
 25.570    543.000    545.363     -2.363    540.143    545.079    540.143    540.429    540.143
 25.670    506.323    544.437    -38.114    539.838    544.143    539.838    540.133    539.838
 25.770    557.631    543.741     13.891    539.533    543.437    539.533    539.838    539.533
 25.870    519.635    543.186    -23.551    539.228    542.870    539.228    539.544    539.228
 25.970    563.000    542.730     20.270    538.923    542.403    538.923    539.251    538.923
 26.070    540.000    542.347     -2.347    538.619    542.007    538.619    538.960    538.619
 26.170    532.000    542.022    -10.022    538.315    541.668    538.315    538.669    538.315
 26.270    565.000    541.748     23.252    538.012    541.380    538.012    538.381    538.012
 26.370    519.000    541.522    -22.522    537.708    541.138    537.708    538.093    537.708
 26.470    545.000    541.344      3.656    537.405    540.941    537.405    537.808    537.405
 26.570    563.986    541.216     22.770    537.103    540.794    537.103    537.524    537.103
 26.670    545.000    541.166      3.834    536.800    540.723    536.800    537.243    536.800
 26.770    543.000    541.173      1.827    536.499    540.707    536.499    536.964    536.499
 26.870    594.000    541.234     52.766    536.197    540.742    536.197    536.689    536.197
 26.970    589.000    541.384     47.616    535.896    540.864    535.896    536.416    535.896
 27.070    576.000    541.640     34.360    535.596    541.089    535.596    536.147    535.596
 27.170    516.000    542.042    -26.042    535.295    541.456    535.295    535.882    535.295
 27.270    563.000    542.641     20.359    534.996    542.015    534.996    535.621    534.996
 27.370    534.910    543.517     -8.606    534.697    542.846    534.697    535.366    534.697
 27.470    548.000    544.823      3.177    534.398    544.102    534.398    535.118    534.398
 27.570    553.000    546.943      6.057    534.100    546.164    534.100    534.876    534.100
 27.670    557.000    551.203      5.797    533.802    550.358    533.802    534.644    533.802
 27.770    552.000    562.291    -10.291    533.505    561.367    533.505    534.422    533.505
 27.870    637.499    592.234     45.266    533.209    591.213    533.209    534.212    533.209
 27.970    679.000    659.893     19.107    532.913    658.750    532.913    534.018    532.913
 28.070    798.000    773.719     24.281    532.618    772.423    532.618    533.842    532.618
 28.170    909.000    901.173      7.827    532.324    899.707    532.324    533.689    532.324
 28.270    879.000    963.871    -84.871    532.030    962.237    532.030    533.566    532.030
 28.370    876.000    910.450    -34.450    531.736    908.645    531.736    533.481    531.736
 28.470    810.000    795.441     14.559    531.444    793.414    531.444    533.447    531.444
 28.570    704.000    706.542     -2.542    531.152    704.197    531.152    533.486    531.152
 28.670    729.000    689.074     39.926    530.861    686.288    530.861    533.632    530.861
 28.770    748.165    737.773     10.392    530.570    734.384    530.570    533.940    530.570
 28.870    830.000    810.468     19.532    530.280    806.243    530.280    534.492    530.280
 28.970    825.000    844.838    -19.838    529.992    839.429    529.992    535.403    529.992
 29.070    761.000    804.309    -43.309    529.703    797.216    529.703    536.810    529.703
 29.170    719.349    720.971     -1.622    529.416    711.548    529.416    538.853    529.416
 29.270    663.000    644.566     18.434    529.129    632.081    529.129    541.622    529.129
 29.370    566.203    597.469    -31.266    528.843    581.248    528.843    545.067    528.843
 29.470    573.835    576.451     -2.616    528.558    556.194    528.558    548.815    528.558
 29.570    597.000    569.296     27.704    528.274    545.607    528.274    551.962    528.274
 29.670    608.000    566.247     41.753    527.991    541.021    527.991    553.216    527.991
 29.770    565.000    562.703      2.297    527.708    538.579    527.708    551.830    527.708
 29.870    548.182    557.933     -9.750    527.427    536.990    527.427    548.368    527.427
 29.970    568.291    552.819     15.471    527.146    535.870    527.146    544.094    527.146
 30.070    563.000    548.229     14.771    526.866    535.094    526.866    540.000    526.866
 30.170    591.000    544.593     46.407    526.587    534.641    526.587    536.538    526.587
 30.270    584.000    542.113     41.887    526.309    534.616    526.309    533.805    526.309
 30.370    543.000    541.148      1.852    526.032    535.449    526.032    531.728    526.032
