neutron_powder_diffraction_0185
R_wp: 3.717
Temperature (K): 1074.000
Counts: 84042.00
Wavelength (Ã…): 2.52098
COMMENTS
Test file for demonstrating the .xyy file format in Reel1.0
END OF HEADER
   tth       Y_obs     Y_calc      Y_res    Background    Phase_1_Nuc    Phase_1_Mag    Phase_2_Nuc    Phase_2_Mag
  9.970    614.000    581.241     32.759    580.615    581.224    580.615    580.631    580.615
 10.070    573.000    581.219     -8.219    580.541    581.203    580.541    580.557    580.541
 10.170    563.863    581.201    -17.339    580.463    581.184    580.463    580.479    580.463
 10.270    624.102    581.188     42.914    580.381    581.171    580.381    580.397    580.381
 10.370    583.000    581.182      1.818    580.295    581.165    580.295    580.311    580.295
 10.470    571.167    581.185    -10.019    580.204    581.168    580.204    580.221    580.204
 10.570    599.344    581.202     18.143    580.110    581.184    580.110    580.127    580.110
 10.670    566.000    581.235    -15.235    580.011    581.218    580.011    580.028    580.011
 10.770    575.000    581.293     -6.293    579.909    581.275    579.909    579.926    579.909
 10.870    592.000    581.382     10.618    579.803    581.364    579.803    579.820    579.803
 10.970    599.187    581.514     17.674    579.693    581.496    579.693    579.710    579.693
 11.070    605.000    581.705     23.295    579.579    581.687    579.579    579.596    579.579
 11.170    561.996    581.979    -19.983    579.461    581.961    579.461    579.478    579.461
 11.270    574.000    582.373     -8.373    579.339    582.354    579.339    579.357    579.339
 11.370    605.000    582.948     22.052    579.214    582.929    579.214    579.232    579.214
 11.470    565.993    583.838    -17.845    579.085    583.818    579.085    579.103    579.085
 11.570    635.000    585.422     49.578    578.952    585.401    578.952    578.970    578.952
 11.670    608.000    588.826     19.174    578.816    588.803    578.816    578.834    578.816
 11.770    617.000    596.835     20.165    578.676    596.807    578.676    578.695    578.676
 11.870    626.000    614.201     11.799    578.533    614.164    578.533    578.551    578.533
 11.970    686.000    644.933     41.067    578.387    644.879    578.387    578.405    578.387
 12.070    651.000    685.298    -34.298    578.236    685.222    578.236    578.255    578.236
 12.170    695.000    717.339    -22.339    578.083    717.246    578.083    578.101    578.083
 12.270    680.783    718.238    -37.455    577.926    718.144    577.926    577.945    577.926
 12.370    696.000    687.028      8.972    577.766    686.951    577.766    577.785    577.766
 12.470    636.000    646.135    -10.135    577.603    646.079    577.603    577.621    577.603
 12.570    638.518    614.345     24.173    577.436    614.306    577.436    577.455    577.436
 12.670    563.969    596.034    -32.065    577.266    596.005    577.266    577.285    577.266
 12.770    579.000    587.372     -8.372    577.093    587.348    577.093    577.112    577.093
 12.870    565.000    583.517    -18.517    576.917    583.495    576.917    576.936    576.917
 12.970    552.000    581.574    -29.574    576.738    581.552    576.738    576.758    576.738
 13.070    572.000    580.355     -8.355    576.556    580.332    576.556    576.576    576.556
 13.170    545.000    579.462    -34.462    576.371    579.438    576.371    576.394    576.371
 13.270    563.000    578.754    -15.754    576.183    578.729    576.183    576.206    576.183
 13.370    529.000    578.168    -49.168    575.992    578.143    575.992    576.016    575.992
 13.470    620.000    577.668     42.332    575.798    577.642    575.798    575.823    575.798
 13.570    590.000    577.229     12.771    575.601    577.203    575.601    575.626    575.601
 13.670    582.000    576.834      5.166    575.402    576.808    575.402    575.427    575.402
 13.770    535.982    576.473    -40.491    575.199    576.447    575.199    575.225    575.199
 13.870    547.153    576.137    -28.984    574.994    576.111    574.994    575.020    574.994
 13.970    587.760    575.820     11.940    574.787    575.793    574.787    574.812    574.787
 14.070    541.029    575.517    -34.488    574.576    575.491    574.576    574.602    574.576
 14.170    614.365    575.226     39.139    574.363    575.199    574.363    574.390    574.363
 14.270    561.000    574.944    -13.944    574.148    574.917    574.148    574.174    574.148
 14.370    593.749    574.668     19.081    573.930    574.641    573.930    573.956    573.930
 14.470    511.000    574.397    -63.397    573.709    574.370    573.709    573.736    573.709
 14.570    538.000    574.131    -36.131    573.486    574.103    573.486    573.513    573.486
 14.670    577.000    573.867      3.133    573.261    573.840    573.261    573.288    573.261
 14.770    595.000    573.607     21.393    573.033    573.578    573.033    573.061    573.033
 14.870    539.000    573.359    -34.359    572.802    573.321    572.802    572.840    572.802
 14.970    605.000    573.103     31.897    572.570    573.064    572.570    572.608    572.570
 15.070    559.000    572.845    -13.845    572.335    572.806    572.335    572.374    572.335
 15.170    562.000    572.587    -10.587    572.098    572.548    572.098    572.137    572.098
 15.270    538.051    572.329    -34.278    571.858    572.290    571.858    571.898    571.858
 15.370    612.728    572.071     40.656    571.617    572.031    571.617    571.657    571.617
 15.470    586.000    571.813     14.187    571.373    571.773    571.373    571.413    571.373
 15.570    530.000    571.554    -41.554    571.127    571.514    571.127    571.168    571.127
 15.670    573.786    571.299      2.487    570.879    571.254    570.879    570.925    570.879
 15.770    619.000    571.039     47.961    570.629    570.993    570.629    570.675    570.629
 15.870    584.563    570.777     13.786    570.377    570.731    570.377    570.424    570.377
 15.970    587.421    570.515     16.906    570.123    570.468    570.123    570.170    570.123
 16.070    561.000    570.251     -9.251    569.868    570.204    569.868    569.915    569.868
 16.170    551.714    569.987    -18.273    569.610    569.939    569.610    569.658    569.610
 16.270    560.000    569.722     -9.722    569.350    569.673    569.350    569.398    569.350
 16.370    562.201    569.455     -7.253    569.088    569.406    569.088    569.137    569.088
 16.470    597.000    569.186     27.814    568.825    569.137    568.825    568.874    568.825
 16.570    536.000    568.917    -32.917    568.560    568.868    568.560    568.609    568.560
 16.670    542.000    568.646    -26.646    568.293    568.597    568.293    568.342    568.293
 16.770    564.490    568.375     -3.884    568.024    568.325    568.024    568.074    568.024
 16.870    586.915    568.102     18.813    567.753    568.051    567.753    567.804    567.753
 16.970    526.227    567.827    -41.601    567.481    567.777    567.481    567.532    567.481
 17.070    574.000    567.552      6.448    567.208    567.501    567.208    567.258    567.208
 17.170    542.000    567.276    -25.276    566.932    567.225    566.932    566.984    566.932
 17.270    604.316    567.000     37.316    566.655    566.948    566.655    566.707    566.655
 17.370    548.000    566.721    -18.721    566.377    566.669    566.377    566.429    566.377
 17.470    533.000    566.441    -33.441    566.097    566.388    566.097    566.149    566.097
 17.570    602.971    566.159     36.811    565.815    566.107    565.815    565.868    565.815
 17.670    582.000    565.877     16.123    565.532    565.824    565.532    565.586    565.532
 17.770    555.000    565.595    -10.595    565.248    565.542    565.248    565.302    565.248
 17.870    533.523    565.311    -31.788    564.962    565.257    564.962    565.016    564.962
 17.970    580.000    565.025     14.975    564.675    564.971    564.675    564.730    564.675
 18.070    560.722    564.738     -4.017    564.387    564.683    564.387    564.442    564.387
 18.170    562.000    564.450     -2.450    564.097    564.395    564.097    564.152    564.097
 18.270    572.000    564.162      7.838    563.806    564.106    563.806    563.862    563.806
 18.370    593.000    563.872     29.128    563.514    563.816    563.514    563.570    563.514
 18.470    566.000    563.581      2.419    563.220    563.525    563.220    563.277    563.220
 18.570    574.000    563.290     10.710    562.926    563.232    562.926    562.983    562.926
 18.670    529.000    562.997    -33.997    562.630    562.939    562.630    562.688    562.630
 18.770    524.040    562.706    -38.666    562.333    562.645    562.333    562.394    562.333
 18.870    542.000    562.412    -20.412    562.035    562.350    562.035    562.096    562.035
 18.970    600.593    562.117     38.476    561.736    562.055    561.736    561.798    561.736
 19.070    580.000    561.822     18.178    561.436    561.758    561.436    561.499    561.436
 19.170    586.000    561.525     24.475    561.135    561.461    561.135    561.198    561.135
 19.270    578.332    561.228     17.104    560.832    561.163    560.832    560.897    560.832
 19.370    529.000    560.930    -31.930    560.529    560.865    560.529    560.595    560.529
 19.470    570.320    560.631      9.689    560.225    560.565    560.225    560.291    560.225
 19.570    562.000    560.332      1.668    559.920    560.266    559.920    559.987    559.920
 19.670    538.000    560.032    -22.032    559.614    559.965    559.614    559.681    559.614
 19.770    545.000    559.732    -14.732    559.307    559.664    559.307    559.375    559.307
 19.870    528.039    559.431    -31.392    559.000    559.363    559.000    559.068    559.000
 19.970    517.000    559.130    -42.130    558.691    559.061    558.691    558.760    558.691
 20.070    555.402    558.829     -3.426    558.382    558.759    558.382    558.452    558.382
 20.170    576.000    558.527     17.473    558.072    558.457    558.072    558.143    558.072
 20.270    581.000    558.225     22.775    557.762    558.154    557.762    557.833    557.762
 20.370    571.000    557.924     13.076    557.450    557.852    557.450    557.522    557.450
 20.470    591.672    557.623     34.049    557.138    557.551    557.138    557.211    557.138
 20.570    598.805    557.334     41.470    556.826    557.261    556.826    556.899    556.826
 20.670    596.517    557.042     39.475    556.512    556.968    556.512    556.586    556.512
 20.770    522.000    556.742    -34.742    556.198    556.666    556.198    556.274    556.198
 20.870    542.000    556.439    -14.439    555.884    556.363    555.884    555.961    555.884
 20.970    590.000    556.146     33.854    555.569    556.068    555.569    555.646    555.569
 21.070    531.000    555.932    -24.932    555.253    555.853    555.253    555.332    555.253
 21.170    562.000    555.653      6.347    554.937    555.574    554.937    555.017    554.937
 21.270    542.570    555.354    -12.784    554.621    555.274    554.621    554.701    554.621
 21.370    537.812    555.054    -17.242    554.304    554.973    554.304    554.385    554.304
 21.470    549.000    554.755     -5.755    553.986    554.673    553.986    554.068    553.986
 21.570    556.000    554.458      1.542    553.668    554.375    553.668    553.751    553.668
 21.670    553.000    554.183     -1.183    553.350    554.099    553.350    553.434    553.350
 21.770    551.000    553.917     -2.917    553.031    553.832    553.031    553.116    553.031
 21.870    587.000    553.625     33.375    552.712    553.539    552.712    552.799    552.712
 21.970    524.000    553.336    -29.336    552.393    553.245    552.393    552.484    552.393
 22.070    506.000    553.047    -47.047    552.074    552.953    552.074    552.167    552.074
 22.170    505.000    552.759    -47.759    551.754    552.664    551.754    551.849    551.754
 22.270    547.674    552.473     -4.799    551.434    552.377    551.434    551.530    551.434
 22.370    581.242    552.194     29.048    551.113    552.097    551.113    551.211    551.113
 22.470    554.000    551.961      2.039    550.793    551.863    550.793    550.892    550.793
 22.570    587.403    551.705     35.698    550.472    551.605    550.472    550.572    550.472
 22.670    542.000    551.437     -9.437    550.151    551.336    550.151    550.253    550.151
 22.770    582.616    551.174     31.442    549.830    551.071    549.830    549.933    549.830
 22.870    574.000    550.918     23.082    549.509    550.813    549.509    549.614    549.509
 22.970    536.000    550.670    -14.670    549.188    550.564    549.188    549.294    549.188
 23.070    594.657    550.433     44.224    548.867    550.326    548.867    548.975    548.867
 23.170    514.000    550.212    -36.212    548.545    550.103    548.545    548.655    548.545
 23.270    560.000    550.008      9.992    548.224    549.898    548.224    548.335    548.224
 23.370    585.473    549.823     35.651    547.902    549.710    547.902    548.016    547.902
 23.470    545.968    549.664     -3.696    547.581    549.549    547.581    547.696    547.581
 23.570    593.067    549.540     43.527    547.260    549.424    547.260    547.377    547.260
 23.670    559.000    549.465      9.535    546.938    549.346    546.938    547.058    546.938
 23.770    550.443    549.454      0.989    546.617    549.334    546.617    546.739    546.617
 23.870    537.000    549.537    -12.537    546.296    549.415    546.296    546.420    546.296
 23.970    543.784    549.763     -5.979    545.975    549.639    545.975    546.101    545.975
 24.070    507.638    550.248    -42.609    545.654    550.121    545.654    545.783    545.654
 24.170    535.871    551.330    -15.460    545.333    551.202    545.333    545.465    545.333
 24.270    565.000    553.974     11.026    545.013    553.845    545.013    545.147    545.013
 24.370    587.000    560.326     26.674    544.692    560.199    544.692    544.829    544.692
 24.470    570.321    573.556     -3.235    544.372    573.437    544.372    544.512    544.372
 24.570    569.714    595.481    -25.767    544.052    595.374    544.052    544.196    544.052
 24.670    592.000    621.894    -29.894    543.732    621.804    543.732    543.879    543.732
 24.770    634.823    639.567     -4.744    543.413    639.487    543.413    543.563    543.413
 24.870    634.000    635.242     -1.242    543.094    635.155    543.094    543.248    543.094
 24.970    640.000    612.550     27.450    542.775    612.443    542.775    542.933    542.775
 25.070    584.000    586.281     -2.281    542.456    586.150    542.456    542.619    542.456
 25.170    624.000    566.654     57.346    542.138    566.503    542.138    542.305    542.138
 25.270    564.256    555.425      8.831    541.820    555.259    541.820    541.994    541.820
 25.370    582.000    549.994     32.006    541.503    549.819    541.503    541.682    541.503
 25.470    590.000    547.455     42.545    541.185    547.273    541.185    541.371    541.185
 25.570    600.000    546.097     53.903    540.869    545.907    540.869    541.060    540.869
 25.670    547.731    545.200      2.531    540.552    545.004    540.552    540.750    540.552
 25.770    510.499    544.525    -34.026    540.237    544.322    540.237    540.441    540.237
 25.870    525.000    543.985    -18.985    539.921    543.774    539.921    540.133    539.921
 25.970    529.800    543.540    -13.740    539.606    543.321    539.606    539.826    539.606
 26.070    609.000    543.170     65.830    539.292    542.942    539.292    539.520    539.292
 26.170    535.000    542.864     -7.864    538.978    542.627    538.978    539.215    538.978
 26.270    571.000    542.637     28.363    538.664    542.390    538.664    538.912    538.664
 26.370    536.000    542.458     -6.458    538.352    542.200    538.352    538.610    538.352
 26.470    569.000    542.308     26.692    538.039    542.038    538.039    538.309    538.039
 26.570    566.000    542.209     23.791    537.727    541.926    537.727    538.010    537.727
 26.670    552.000    542.169      9.831    537.416    541.872    537.416    537.714    537.416
 26.770    551.297    542.202      9.095    537.106    541.889    537.106    537.419    537.106
 26.870    561.000    542.320     18.680    536.796    541.990    536.796    537.126    536.796
 26.970    579.697    542.535     37.162    536.487    542.185    536.487    536.836    536.487
 27.070    568.000    542.881     25.119    536.178    542.510    536.178    536.549    536.178
 27.170    551.000    543.410      7.590    535.870    543.015    535.870    536.264    535.870
 27.270    564.000    544.183     19.817    535.563    543.761    535.563    535.984    535.563
 27.370    604.000    545.261     58.739    535.256    544.809    535.256    535.707    535.256
 27.470    533.995    546.837    -12.842    534.950    546.349    534.950    535.436    534.950
 27.570    556.429    549.363      7.066    534.645    548.836    534.645    535.170    534.645
 27.670    550.786    554.379     -3.594    534.341    553.806    534.341    534.910    534.341
 27.770    538.629    566.808    -28.180    534.037    566.180    534.037    534.658    534.037
 27.870    599.000    598.409      0.591    533.734    597.710    533.734    534.415    533.734
 27.970    691.000    666.506     24.494    533.432    665.715    533.432    534.183    533.432
 28.070    767.000    777.630    -10.630    533.131    776.726    533.131    533.965    533.131
 28.170    881.000    900.428    -19.428    532.830    899.399    532.830    533.763    532.830
 28.270    959.000    960.930     -1.930    532.530    959.784    532.530    533.583    532.530
 28.370    881.000    910.297    -29.297    532.232    909.040    532.232    533.431    532.232
 28.470    827.000    800.798     26.202    531.934    799.393    531.934    533.314    531.934
 28.570    748.332    715.459     32.873    531.636    713.839    531.636    533.246    531.636
 28.670    707.000    697.412      9.588    531.340    695.492    531.340    533.248    531.340
 28.770    736.282    742.428     -6.146    531.045    740.095    531.045    533.360    531.045
 28.870    809.000    810.809     -1.809    530.750    807.886    530.750    533.664    530.750
 28.970    889.136    842.859     46.277    530.457    839.010    530.457    534.311    530.457
 29.070    756.509    803.135    -46.626    530.164    797.752    530.164    535.562    530.164
 29.170    742.995    722.479     20.516    529.872    714.583    529.872    537.783    529.872
 29.270    628.000    648.543    -20.543    529.582    636.778    529.582    541.355    529.582
 29.370    595.000    603.052     -8.052    529.292    585.895    529.292    546.452    529.292
 29.470    597.000    583.577     13.423    529.003    559.916    529.003    552.664    529.003
 29.570    585.000    578.186      6.814    528.715    548.454    528.715    558.445    528.715
 29.670    622.000    575.928     46.072    528.428    543.306    528.428    561.048    528.428
 29.770    530.899    571.052    -40.152    528.143    540.531    528.143    558.661    528.143
 29.870    586.000    563.550     22.450    527.858    538.728    527.858    552.677    527.858
 29.970    549.000    555.739     -6.739    527.574    537.462    527.574    545.849    527.574
 30.070    525.097    549.242    -24.144    527.292    536.589    527.292    539.942    527.292
 30.170    582.000    544.607     37.393    527.010    536.084    527.010    535.531    527.010
 30.270    577.910    541.848     36.063    526.729    536.055    526.729    532.519    526.729
 30.370    533.753    541.055     -7.302    526.450    536.953    526.450    530.547    526.450
