neutron_powder_diffraction_0101
R_wp: 3.969
Temperature (K): 894.096
Counts: 83173.00
Wavelength (Ã…): 2.52098
COMMENTS
Test file for demonstrating the .xyy file format in Reel1.0
END OF HEADER
   tth       Y_obs     Y_calc      Y_res    Background    Phase_1_Nuc    Phase_1_Mag    Phase_2_Nuc    Phase_2_Mag
  9.970    613.000    550.353     62.647    549.105    550.188    549.105    549.269    549.105
 10.070    623.000    550.843     72.157    549.499    550.678    549.499    549.663    549.499
 10.170    617.000    551.335     65.665    549.883    551.169    549.883    550.048    549.883
 10.270    566.002    551.832     14.170    550.258    551.665    550.258    550.424    550.258
 10.370    523.629    552.339    -28.711    550.624    552.172    550.624    550.791    550.624
 10.470    565.261    552.861     12.400    550.981    552.693    550.981    551.149    550.981
 10.570    528.504    553.403    -24.899    551.329    553.234    551.329    551.497    551.329
 10.670    574.000    553.972     20.028    551.669    553.803    551.669    551.837    551.669
 10.770    594.000    554.579     39.421    551.999    554.408    551.999    552.169    551.999
 10.870    629.000    555.235     73.765    552.321    555.064    552.321    552.491    552.321
 10.970    515.857    555.960    -40.102    552.635    555.787    552.635    552.805    552.635
 11.070    592.253    556.777     35.476    552.939    556.603    552.939    553.111    552.939
 11.170    554.000    557.724     -3.724    553.236    557.550    553.236    553.408    553.236
 11.270    565.000    558.859      6.141    553.523    558.683    553.523    553.696    553.523
 11.370    573.000    560.285     12.715    553.803    560.108    553.803    553.977    553.803
 11.470    588.000    562.221     25.779    554.074    562.042    554.074    554.249    554.074
 11.570    595.000    565.154     29.846    554.337    564.972    554.337    554.513    554.337
 11.670    575.523    570.095      5.428    554.593    569.910    554.593    554.769    554.593
 11.770    611.313    578.801     32.512    554.839    578.611    554.839    555.016    554.839
 11.870    648.000    593.514     54.486    555.079    593.314    555.079    555.256    555.079
 11.970    632.203    615.709     16.494    555.310    615.496    555.310    555.488    555.310
 12.070    676.000    643.608     32.392    555.533    643.378    555.533    555.712    555.533
 12.170    647.000    669.007    -22.007    555.748    668.762    555.748    555.928    555.748
 12.270    725.850    677.928     47.922    555.956    677.677    555.956    556.137    555.956
 12.370    641.445    663.517    -22.072    556.156    663.274    556.156    556.338    556.156
 12.470    609.421    636.258    -26.837    556.349    636.030    556.349    556.531    556.349
 12.570    579.000    609.730    -30.730    556.534    609.516    556.534    556.717    556.534
 12.670    548.000    590.081    -42.081    556.712    589.878    556.712    556.896    556.712
 12.770    563.000    577.762    -14.762    556.882    577.566    556.882    557.067    556.882
 12.870    568.000    570.830     -2.830    557.045    570.637    557.045    557.231    557.045
 12.970    529.000    567.076    -38.076    557.201    566.884    557.201    557.388    557.201
 13.070    563.000    564.952     -1.952    557.350    564.760    557.350    557.537    557.350
 13.170    522.022    563.630    -41.608    557.491    563.438    557.491    557.679    557.491
 13.270    600.504    562.730     37.774    557.626    562.538    557.626    557.815    557.626
 13.370    560.134    562.082     -1.949    557.753    561.890    557.753    557.943    557.753
 13.470    529.000    561.603    -32.603    557.874    561.410    557.874    558.065    557.874
 13.570    507.000    561.242    -54.242    557.988    561.049    557.988    558.180    557.988
 13.670    537.000    560.968    -23.968    558.095    560.774    558.095    558.288    558.095
 13.770    523.000    560.758    -37.758    558.195    560.563    558.195    558.389    558.195
 13.870    551.028    560.597     -9.569    558.289    560.401    558.289    558.484    558.289
 13.970    478.000    560.470    -82.470    558.376    560.274    558.376    558.572    558.376
 14.070    580.309    560.371     19.938    558.457    560.174    558.457    558.653    558.457
 14.170    521.321    560.293    -38.971    558.531    560.094    558.531    558.728    558.531
 14.270    558.646    560.230     -1.584    558.598    560.031    558.598    558.797    558.598
 14.370    571.584    560.179     11.405    558.660    559.979    558.660    558.860    558.660
 14.470    555.000    560.137     -5.137    558.715    559.936    558.715    558.916    558.715
 14.570    518.000    560.101    -42.101    558.764    559.899    558.764    558.966    558.764
 14.670    530.498    560.070    -29.572    558.807    559.867    558.807    559.010    558.807
 14.770    595.563    560.042     35.521    558.844    559.838    558.844    559.047    558.844
 14.870    543.000    560.023    -17.023    558.874    559.818    558.874    559.079    558.874
 14.970    547.000    560.016    -13.016    558.899    559.810    558.899    559.105    558.899
 15.070    545.000    559.992    -14.992    558.918    559.784    558.918    559.125    558.918
 15.170    496.000    559.965    -63.965    558.931    559.756    558.931    559.139    558.931
 15.270    540.215    559.939    -19.723    558.938    559.729    558.938    559.147    558.938
 15.370    558.000    559.910     -1.910    558.939    559.700    558.939    559.150    558.939
 15.470    551.000    559.878     -8.878    558.935    559.666    558.935    559.147    558.935
 15.570    537.000    559.842    -22.842    558.925    559.629    558.925    559.138    558.925
 15.670    544.000    559.804    -15.804    558.910    559.590    558.910    559.124    558.910
 15.770    552.000    559.762     -7.762    558.889    559.547    558.889    559.104    558.889
 15.870    528.356    559.717    -31.361    558.863    559.501    558.863    559.079    558.863
 15.970    539.000    559.669    -20.669    558.831    559.451    558.831    559.049    558.831
 16.070    546.149    559.617    -13.468    558.794    559.398    558.794    559.013    558.794
 16.170    515.000    559.561    -44.561    558.752    559.341    558.752    558.972    558.752
 16.270    573.245    559.502     13.743    558.705    559.280    558.705    558.926    558.705
 16.370    571.133    559.446     11.687    558.652    559.223    558.652    558.875    558.652
 16.470    525.000    559.459    -34.459    558.595    559.235    558.595    558.818    558.595
 16.570    578.000    559.426     18.574    558.532    559.200    558.532    558.757    558.532
 16.670    551.440    559.354     -7.913    558.464    559.127    558.464    558.691    558.464
 16.770    587.000    559.275     27.725    558.392    559.047    558.392    558.619    558.392
 16.870    556.000    559.192     -3.192    558.314    558.963    558.314    558.543    558.314
 16.970    553.000    559.105     -6.105    558.232    558.874    558.232    558.463    558.232
 17.070    562.000    559.014      2.986    558.145    558.782    558.145    558.377    558.145
 17.170    585.000    558.919     26.081    558.053    558.686    558.053    558.287    558.053
 17.270    543.000    558.821    -15.821    557.957    558.586    557.957    558.192    557.957
 17.370    543.000    558.723    -15.723    557.856    558.486    557.856    558.092    557.856
 17.470    595.000    558.618     36.382    557.750    558.380    557.750    557.988    557.750
 17.570    546.000    558.508    -12.508    557.640    558.268    557.640    557.880    557.640
 17.670    509.000    558.393    -49.393    557.526    558.152    557.526    557.767    557.526
 17.770    542.000    558.275    -16.275    557.407    558.032    557.407    557.650    557.407
 17.870    543.000    558.153    -15.153    557.284    557.908    557.284    557.528    557.284
 17.970    547.000    558.027    -11.027    557.156    557.781    557.156    557.402    557.156
 18.070    554.718    557.898     -3.180    557.024    557.650    557.024    557.272    557.024
 18.170    542.000    557.768    -15.768    556.888    557.519    556.888    557.138    556.888
 18.270    575.422    557.632     17.790    556.748    557.380    556.748    557.000    556.748
 18.370    585.592    557.491     28.101    556.604    557.238    556.604    556.857    556.604
 18.470    511.000    557.347    -46.347    556.456    557.092    556.456    556.711    556.456
 18.570    548.859    557.199     -8.340    556.304    556.942    556.304    556.561    556.304
 18.670    551.000    557.052     -6.052    556.148    556.793    556.148    556.407    556.148
 18.770    518.206    556.938    -38.732    555.988    556.678    555.988    556.249    555.988
 18.870    535.000    556.810    -21.810    555.824    556.548    555.824    556.087    555.824
 18.970    537.000    556.652    -19.652    555.657    556.388    555.657    555.921    555.657
 19.070    527.000    556.488    -29.488    555.486    556.222    555.486    555.752    555.486
 19.170    536.000    556.320    -20.320    555.311    556.052    555.311    555.579    555.311
 19.270    592.697    556.150     36.547    555.132    555.880    555.132    555.403    555.132
 19.370    535.000    555.977    -20.977    554.950    555.704    554.950    555.223    554.950
 19.470    554.000    555.801     -1.801    554.765    555.526    554.765    555.039    554.765
 19.570    559.000    555.624      3.376    554.575    555.347    554.575    554.852    554.575
 19.670    533.000    555.453    -22.453    554.383    555.174    554.383    554.662    554.383
 19.770    489.000    555.296    -66.296    554.187    555.014    554.187    554.469    554.187
 19.870    531.000    555.110    -24.110    553.988    554.827    553.988    554.272    553.988
 19.970    574.000    554.920     19.080    553.785    554.634    553.785    554.071    553.785
 20.070    526.000    554.727    -28.727    553.579    554.439    553.579    553.868    553.579
 20.170    533.000    554.537    -21.537    553.370    554.245    553.370    553.662    553.370
 20.270    542.000    554.346    -12.346    553.158    554.052    553.158    553.452    553.158
 20.370    553.276    554.146     -0.870    552.943    553.850    552.943    553.239    552.943
 20.470    526.873    553.944    -27.071    552.724    553.645    552.724    553.024    552.724
 20.570    521.000    553.740    -32.740    552.503    553.437    552.503    552.805    552.503
 20.670    527.000    553.533    -26.533    552.278    553.228    552.278    552.584    552.278
 20.770    547.505    553.325     -5.819    552.051    553.017    552.051    552.359    552.051
 20.870    527.000    553.115    -26.115    551.821    552.804    551.821    552.132    551.821
 20.970    554.287    552.905      1.382    551.588    552.591    551.588    551.902    551.588
 21.070    515.425    552.716    -37.291    551.352    552.399    551.352    551.669    551.352
 21.170    580.000    552.525     27.475    551.113    552.205    551.113    551.434    551.113
 21.270    539.660    552.312    -12.651    550.872    551.988    550.872    551.196    550.872
 21.370    515.965    552.095    -36.130    550.628    551.768    550.628    550.955    550.628
 21.470    537.000    551.878    -14.878    550.382    551.548    550.382    550.712    550.382
 21.570    559.000    551.661      7.339    550.132    551.327    550.132    550.467    550.132
 21.670    543.685    551.444     -7.759    549.881    551.106    549.881    550.219    549.881
 21.770    595.000    551.228     43.772    549.626    550.887    549.626    549.968    549.626
 21.870    586.000    551.033     34.967    549.370    550.687    549.370    549.716    549.370
 21.970    545.000    550.861     -5.861    549.111    550.512    549.111    549.460    549.111
 22.070    565.809    550.702     15.108    548.849    550.348    548.849    549.203    548.849
 22.170    534.000    550.493    -16.493    548.585    550.135    548.585    548.944    548.585
 22.270    546.000    550.287     -4.287    548.319    549.924    548.319    548.682    548.319
 22.370    571.079    550.122     20.957    548.051    549.755    548.051    548.418    548.051
 22.470    583.212    549.945     33.267    547.780    549.573    547.780    548.153    547.780
 22.570    512.682    549.749    -37.067    547.507    549.372    547.507    547.885    547.507
 22.670    561.000    549.557     11.443    547.233    549.176    547.233    547.615    547.233
 22.770    559.057    549.380      9.677    546.956    548.993    546.956    547.343    546.956
 22.870    532.000    549.206    -17.206    546.677    548.813    546.677    547.070    546.677
 22.970    529.000    549.045    -20.045    546.396    548.647    546.396    546.794    546.396
 23.070    544.000    548.911     -4.911    546.113    548.507    546.113    546.517    546.113
 23.170    545.000    548.788     -3.788    545.828    548.378    545.828    546.238    545.828
 23.270    559.917    548.688     11.229    545.541    548.272    545.541    545.958    545.541
 23.370    572.000    548.611     23.389    545.252    548.189    545.252    545.676    545.252
 23.470    578.000    548.573     29.427    544.962    548.144    544.962    545.392    544.962
 23.570    543.769    548.587     -4.817    544.669    548.151    544.669    545.107    544.669
 23.670    539.000    548.664     -9.664    544.375    548.221    544.375    544.820    544.375
 23.770    509.000    548.832    -39.832    544.080    548.381    544.080    544.532    544.080
 23.870    515.648    549.127    -33.479    543.782    548.668    543.782    544.243    543.782
 23.970    539.000    549.613    -10.613    543.483    549.147    543.483    543.952    543.483
 24.070    567.000    550.425     16.575    543.183    549.951    543.183    543.661    543.183
 24.170    608.000    551.863     56.137    542.880    551.381    542.880    543.368    542.880
 24.270    572.000    554.556     17.444    542.577    554.066    542.577    543.074    542.577
 24.370    570.044    559.617     10.427    542.272    559.121    542.272    542.779    542.272
 24.470    580.000    568.520     11.480    541.965    568.020    541.965    542.482    541.965
 24.570    595.000    582.375     12.625    541.657    581.873    541.657    542.186    541.657
 24.670    628.000    600.457     27.543    541.347    599.957    541.347    541.888    541.347
 24.770    582.029    618.088    -36.059    541.037    617.587    541.037    541.589    541.037
 24.870    661.000    625.899     35.101    540.724    625.391    540.724    541.290    540.724
 24.970    600.575    617.767    -17.193    540.411    617.241    540.411    540.991    540.411
 25.070    641.000    599.710     41.290    540.096    599.156    540.096    540.690    540.096
 25.170    598.000    581.107     16.893    539.781    580.525    539.781    540.390    539.781
 25.270    615.000    566.697     48.303    539.464    566.089    539.464    540.089    539.464
 25.370    608.000    557.242     50.758    539.145    556.610    539.145    539.788    539.145
 25.470    582.895    551.651     31.244    538.826    550.997    538.826    539.487    538.826
 25.570    568.000    548.452     19.548    538.506    547.776    538.506    539.186    538.506
 25.670    507.258    546.527    -39.269    538.185    545.830    538.185    538.886    538.185
 25.770    568.000    545.243     22.757    537.862    544.523    537.862    538.585    537.862
 25.870    554.000    544.298      9.702    537.539    543.554    537.539    538.285    537.539
 25.970    538.179    543.559     -5.379    537.214    542.789    537.214    537.986    537.214
 26.070    507.994    542.962    -34.967    536.889    542.164    536.889    537.688    536.889
 26.170    581.000    542.472     38.528    536.563    541.646    536.563    537.391    536.563
 26.270    610.000    542.071     67.929    536.236    541.213    536.236    537.095    536.236
 26.370    522.610    541.744    -19.134    535.908    540.852    535.908    536.801    535.908
 26.470    492.000    541.484    -49.484    535.580    540.556    535.580    536.509    535.580
 26.570    571.000    541.289     29.711    535.251    540.321    535.251    536.219    535.251
 26.670    532.000    541.160     -9.160    534.921    540.150    534.921    535.931    534.921
 26.770    559.000    541.102     17.898    534.590    540.046    534.590    535.647    534.590
 26.870    560.870    541.125     19.745    534.258    540.018    534.258    535.366    534.258
 26.970    582.694    541.243     41.452    533.926    540.080    533.926    535.089    533.926
 27.070    594.000    541.476     52.524    533.594    540.253    533.594    534.817    533.594
 27.170    569.000    541.858     27.142    533.261    540.568    533.261    534.550    533.261
 27.270    566.000    542.432     23.568    532.927    541.069    532.927    534.290    532.927
 27.370    595.000    543.270     51.730    532.593    541.825    532.593    534.037    532.593
 27.470    539.000    544.498     -5.498    532.258    542.963    532.258    533.792    532.258
 27.570    548.964    546.428      2.536    531.923    544.793    531.923    533.556    531.923
 27.670    581.000    550.097     30.903    531.587    548.349    531.587    533.332    531.587
 27.770    622.000    558.872     63.128    531.251    556.996    531.251    533.121    531.251
 27.870    557.000    581.305    -24.305    530.915    579.280    530.915    532.924    530.915
 27.970    657.000    631.861     25.139    530.578    629.661    530.578    532.744    530.578
 28.070    726.000    721.623      4.377    530.241    719.219    530.241    532.584    530.241
 28.170    816.724    837.023    -20.299    529.903    834.394    529.903    532.445    529.903
 28.270    933.000    926.194      6.806    529.566    923.338    529.566    532.331    529.566
 28.370    960.000    930.932     29.068    529.228    927.849    529.228    532.244    529.228
 28.470    834.576    853.684    -19.108    528.890    850.349    528.890    532.188    528.890
 28.570    746.000    759.401    -13.401    528.551    755.767    528.551    532.166    528.551
 28.670    715.000    708.569      6.431    528.213    704.586    528.213    532.180    528.213
 28.770    766.000    718.982     47.018    527.874    714.605    527.874    532.231    527.874
 28.870    794.898    769.053     25.844    527.536    764.247    527.536    532.320    527.536
 28.970    847.000    813.409     33.591    527.197    808.147    527.197    532.444    527.197
 29.070    824.233    809.860     14.373    526.858    804.123    526.858    532.595    526.858
 29.170    779.253    755.209     24.044    526.519    748.977    526.519    532.761    526.519
 29.270    730.000    682.112     47.888    526.181    675.380    526.181    532.924    526.181
 29.370    655.000    620.990     34.010    525.842    613.784    525.842    533.058    525.842
 29.470    540.998    582.262    -41.264    525.503    574.641    525.503    533.130    525.503
 29.570    594.000    562.116     31.884    525.164    554.176    525.164    533.107    525.164
 29.670    617.000    552.695     64.305    524.826    544.563    524.826    532.959    524.826
 29.770    573.000    548.107     24.893    524.487    539.929    524.487    532.666    524.487
 29.870    550.000    545.410      4.590    524.149    537.337    524.149    532.223    524.149
 29.970    539.288    543.488     -4.200    523.811    535.657    523.811    531.642    523.811
 30.070    582.000    541.991     40.009    523.473    534.516    523.473    530.948    523.473
 30.170    556.000    540.851     15.149    523.135    533.814    523.135    530.173    523.135
 30.270    588.000    540.168     47.832    522.798    533.614    522.798    529.351    522.798
 30.370    559.000    540.289     18.711    522.460    534.236    522.460    528.511    522.460
