neutron_powder_diffraction_0100
R_wp: 4.061
Temperature (K): 889.497
Counts: 82949.00
Wavelength (Ã…): 2.52098
COMMENTS
Test file for demonstrating the .xyy file format in Reel1.0
END OF HEADER
   tth       Y_obs     Y_calc      Y_res    Background    Phase_1_Nuc    Phase_1_Mag    Phase_2_Nuc    Phase_2_Mag
  9.970    583.000    546.030     36.970    544.928    545.954    544.928    545.004    544.928
 10.070    524.740    546.616    -21.876    545.428    546.539    545.428    545.505    545.428
 10.170    624.000    547.203     76.797    545.918    547.126    545.918    545.995    545.918
 10.270    597.000    547.794     49.206    546.398    547.717    546.398    546.475    546.398
 10.370    590.000    548.393     41.607    546.867    548.315    546.867    546.944    546.867
 10.470    652.000    549.002    102.998    547.325    548.924    547.325    547.403    547.325
 10.570    562.000    549.628     12.372    547.773    549.549    547.773    547.851    547.773
 10.670    602.000    550.277     51.723    548.211    550.197    548.211    548.289    548.211
 10.770    550.000    550.957     -0.957    548.638    550.878    548.638    548.717    548.638
 10.870    584.000    551.682     32.318    549.056    551.602    549.056    549.134    549.056
 10.970    555.000    552.468      2.532    549.463    552.387    549.463    549.542    549.463
 11.070    565.000    553.338     11.662    549.860    553.257    549.860    549.940    549.860
 11.170    529.000    554.327    -25.327    550.248    554.245    550.248    550.327    550.248
 11.270    552.000    555.485     -3.485    550.625    555.402    550.625    550.705    550.625
 11.370    596.000    556.903     39.097    550.993    556.820    550.993    551.074    550.993
 11.470    588.481    558.772     29.709    551.352    558.687    551.352    551.432    551.352
 11.570    570.000    561.545      8.455    551.700    561.458    551.700    551.782    551.700
 11.670    565.000    566.278     -1.278    552.040    566.189    552.040    552.121    552.040
 11.770    596.000    575.052     20.948    552.370    574.957    552.370    552.451    552.370
 11.870    630.000    590.892     39.108    552.690    590.788    552.690    552.772    552.690
 11.970    568.565    616.256    -47.690    553.001    616.138    553.001    553.084    553.001
 12.070    645.000    649.577     -4.577    553.304    649.441    553.304    553.387    553.304
 12.170    690.000    680.899      9.101    553.597    680.745    553.597    553.680    553.597
 12.270    706.909    692.339     14.571    553.881    692.177    553.881    553.965    553.881
 12.370    638.811    674.693    -35.882    554.156    674.542    554.156    554.240    554.156
 12.470    647.270    641.513      5.757    554.422    641.380    554.422    554.507    554.422
 12.570    547.000    610.104    -63.104    554.680    609.989    554.680    554.765    554.680
 12.670    603.000    587.899     15.101    554.929    587.795    554.929    555.014    554.929
 12.770    551.000    574.873    -23.873    555.169    574.777    555.169    555.255    555.169
 12.870    597.857    568.090     29.767    555.401    567.997    555.401    555.487    555.401
 12.970    533.896    564.661    -30.765    555.624    564.569    555.624    555.711    555.624
 13.070    541.000    562.800    -21.800    555.839    562.710    555.839    555.926    555.839
 13.170    577.098    561.665     15.433    556.046    561.575    556.046    556.133    556.046
 13.270    537.856    560.908    -23.052    556.244    560.818    556.244    556.332    556.244
 13.370    537.000    560.380    -23.380    556.435    560.290    556.435    556.523    556.435
 13.470    515.000    560.006    -45.006    556.617    559.916    556.617    556.705    556.617
 13.570    528.000    559.741    -31.741    556.791    559.651    556.791    556.880    556.791
 13.670    597.131    559.555     37.576    556.957    559.464    556.957    557.047    556.957
 13.770    571.000    559.427     11.573    557.116    559.336    557.116    557.205    557.116
 13.870    607.000    559.341     47.659    557.266    559.250    557.266    557.356    557.266
 13.970    544.000    559.287    -15.287    557.409    559.196    557.409    557.500    557.409
 14.070    526.000    559.257    -33.257    557.544    559.165    557.544    557.635    557.544
 14.170    576.000    559.247     16.753    557.672    559.154    557.672    557.764    557.672
 14.270    584.985    559.251     25.735    557.792    559.158    557.792    557.884    557.792
 14.370    562.000    559.268      2.732    557.905    559.175    557.905    557.997    557.905
 14.470    517.000    559.306    -42.306    558.010    559.212    558.010    558.103    558.010
 14.570    544.000    559.330    -15.330    558.109    559.236    558.109    558.202    558.109
 14.670    519.369    559.354    -39.985    558.199    559.259    558.199    558.293    558.199
 14.770    527.000    559.378    -32.378    558.283    559.283    558.283    558.378    558.283
 14.870    586.000    559.402     26.598    558.360    559.307    558.360    558.455    558.360
 14.970    512.000    559.433    -47.433    558.430    559.338    558.430    558.525    558.430
 15.070    582.076    559.537     22.538    558.493    559.441    558.493    558.588    558.493
 15.170    557.000    559.614     -2.614    558.548    559.517    558.548    558.645    558.548
 15.270    520.000    559.635    -39.635    558.598    559.538    558.598    558.694    558.598
 15.370    548.000    559.649    -11.649    558.640    559.551    558.640    558.737    558.640
 15.470    540.000    559.659    -19.659    558.676    559.561    558.676    558.774    558.676
 15.570    552.438    559.665     -7.227    558.705    559.566    558.705    558.803    558.705
 15.670    573.000    559.667     13.333    558.727    559.568    558.727    558.827    558.727
 15.770    529.343    559.665    -30.321    558.744    559.565    558.744    558.843    558.744
 15.870    549.000    559.658    -10.658    558.753    559.558    558.753    558.854    558.753
 15.970    571.000    559.647     11.353    558.757    559.546    558.757    558.858    558.757
 16.070    556.584    559.631     -3.047    558.754    559.530    558.754    558.855    558.754
 16.170    517.565    559.610    -42.045    558.745    559.508    558.745    558.847    558.745
 16.270    559.000    559.585     -0.585    558.730    559.482    558.730    558.833    558.730
 16.370    534.000    559.555    -25.555    558.709    559.451    558.709    558.812    558.709
 16.470    592.781    559.519     33.261    558.682    559.416    558.682    558.785    558.682
 16.570    568.734    559.480      9.255    558.649    559.375    558.649    558.753    558.649
 16.670    593.844    559.439     34.405    558.610    559.334    558.610    558.715    558.610
 16.770    516.000    559.392    -43.392    558.565    559.286    558.565    558.670    558.565
 16.870    596.000    559.337     36.663    558.514    559.231    558.514    558.621    558.514
 16.970    560.038    559.277      0.761    558.458    559.170    558.458    558.565    558.458
 17.070    506.000    559.213    -53.213    558.396    559.105    558.396    558.504    558.396
 17.170    568.000    559.143      8.857    558.329    559.035    558.329    558.437    558.329
 17.270    577.496    559.068     18.427    558.256    558.959    558.256    558.365    558.256
 17.370    571.000    558.989     12.011    558.178    558.880    558.178    558.288    558.178
 17.470    593.424    558.909     34.515    558.094    558.799    558.094    558.205    558.094
 17.570    543.000    558.863    -15.863    558.005    558.752    558.005    558.116    558.005
 17.670    525.300    558.809    -33.510    557.911    558.698    557.911    558.023    557.911
 17.770    596.918    558.715     38.202    557.812    558.603    557.812    557.924    557.812
 17.870    529.000    558.613    -29.613    557.707    558.500    557.707    557.821    557.707
 17.970    559.000    558.506      0.494    557.598    558.392    557.598    557.712    557.598
 18.070    540.444    558.394    -17.950    557.483    558.280    557.483    557.598    557.483
 18.170    532.000    558.278    -26.278    557.364    558.163    557.364    557.479    557.364
 18.270    602.571    558.158     44.413    557.239    558.042    557.239    557.356    557.239
 18.370    572.000    558.033     13.967    557.110    557.916    557.110    557.227    557.110
 18.470    512.000    557.904    -45.904    556.976    557.786    556.976    557.094    556.976
 18.570    588.908    557.771     31.137    556.837    557.652    556.837    556.956    556.837
 18.670    566.000    557.636      8.364    556.694    557.516    556.694    556.814    556.694
 18.770    580.793    557.527     23.266    556.546    557.407    556.546    556.667    556.546
 18.870    511.000    557.437    -46.437    556.394    557.315    556.394    556.515    556.394
 18.970    534.068    557.293    -23.226    556.237    557.171    556.237    556.359    556.237
 19.070    554.000    557.146     -3.146    556.075    557.022    556.075    556.199    556.075
 19.170    571.271    556.997     14.274    555.910    556.872    555.910    556.034    555.910
 19.270    569.000    556.837     12.163    555.740    556.712    555.740    555.865    555.740
 19.370    546.618    556.677    -10.059    555.565    556.551    555.565    555.692    555.565
 19.470    524.042    556.517    -32.475    555.387    556.390    555.387    555.514    555.387
 19.570    526.811    556.346    -29.535    555.204    556.218    555.204    555.332    555.204
 19.670    522.000    556.171    -34.171    555.017    556.041    555.017    555.147    555.017
 19.770    555.830    555.992     -0.162    554.827    555.861    554.827    554.957    554.827
 19.870    544.730    555.810    -11.080    554.632    555.679    554.632    554.763    554.632
 19.970    545.000    555.627    -10.627    554.433    555.494    554.433    554.566    554.433
 20.070    546.249    555.438     -9.190    554.231    555.304    554.231    554.364    554.231
 20.170    586.000    555.247     30.753    554.024    555.112    554.024    554.159    554.024
 20.270    582.532    555.053     27.479    553.814    554.917    553.814    553.950    553.814
 20.370    579.000    554.868     24.132    553.600    554.731    553.600    553.738    553.600
 20.470    563.000    554.685      8.315    553.383    554.546    553.383    553.521    553.383
 20.570    560.656    554.486      6.169    553.161    554.346    553.161    553.302    553.161
 20.670    582.800    554.304     28.495    552.937    554.163    552.937    553.078    552.937
 20.770    547.000    554.110     -7.110    552.709    553.968    552.709    552.851    552.709
 20.870    521.630    553.901    -32.271    552.477    553.757    552.477    552.621    552.477
 20.970    595.124    553.696     41.428    552.242    553.550    552.242    552.387    552.242
 21.070    561.000    553.540      7.460    552.003    553.393    552.003    552.150    552.003
 21.170    581.000    553.334     27.666    551.762    553.185    551.762    551.910    551.762
 21.270    530.000    553.125    -23.125    551.517    552.975    551.517    551.667    551.517
 21.370    557.000    552.937      4.063    551.269    552.786    551.269    551.420    551.269
 21.470    564.000    552.724     11.276    551.017    552.571    551.017    551.171    551.017
 21.570    545.000    552.529     -7.529    550.763    552.374    550.763    550.918    550.763
 21.670    551.672    552.327     -0.655    550.505    552.170    550.505    550.662    550.505
 21.770    540.000    552.106    -12.106    550.245    551.948    550.245    550.403    550.245
 21.870    519.000    551.884    -32.884    549.981    551.724    549.981    550.142    549.981
 21.970    537.000    551.662    -14.662    549.715    551.500    549.715    549.877    549.715
 22.070    516.682    551.448    -34.766    549.446    551.284    549.446    549.610    549.446
 22.170    507.739    551.245    -43.505    549.174    551.079    549.174    549.340    549.174
 22.270    549.359    551.035     -1.676    548.899    550.867    548.899    549.067    548.899
 22.370    544.000    550.825     -6.825    548.621    550.655    548.621    548.792    548.621
 22.470    506.000    550.613    -44.613    548.341    550.440    548.341    548.514    548.341
 22.570    506.809    550.404    -43.595    548.058    550.229    548.058    548.233    548.058
 22.670    541.000    550.201     -9.201    547.773    550.024    547.773    547.950    547.773
 22.770    522.000    550.008    -28.008    547.485    549.828    547.485    547.665    547.485
 22.870    563.052    549.820     13.232    547.195    549.638    547.195    547.377    547.195
 22.970    509.000    549.643    -40.643    546.902    549.459    546.902    547.087    546.902
 23.070    595.000    549.480     45.520    546.606    549.292    546.606    546.794    546.606
 23.170    535.000    549.333    -14.333    546.309    549.143    546.309    546.500    546.309
 23.270    544.444    549.209     -4.765    546.009    549.016    546.009    546.203    546.009
 23.370    566.000    549.112     16.888    545.707    548.916    545.707    545.903    545.707
 23.470    538.000    549.051    -11.051    545.402    548.853    545.402    545.602    545.402
 23.570    532.000    549.038    -17.038    545.096    548.836    545.096    545.299    545.096
 23.670    545.437    549.090     -3.653    544.787    548.885    544.787    544.994    544.787
 23.770    560.000    549.227     10.773    544.476    549.018    544.476    544.687    544.476
 23.870    557.686    549.481      8.205    544.163    549.269    544.163    544.378    544.163
 23.970    521.000    549.913    -28.913    543.848    549.697    543.848    544.067    543.848
 24.070    570.000    550.645     19.355    543.532    550.426    543.532    543.754    543.532
 24.170    586.642    551.963     34.679    543.213    551.741    543.213    543.440    543.213
 24.270    605.000    554.527     50.473    542.892    554.302    542.892    543.123    542.892
 24.370    580.000    559.613     20.387    542.570    559.387    542.570    542.806    542.570
 24.470    590.000    569.085     20.915    542.245    568.861    542.245    542.487    542.245
 24.570    596.111    584.536     11.575    541.919    584.318    541.919    542.166    541.919
 24.670    610.267    605.387      4.880    541.592    605.178    541.592    541.844    541.592
 24.770    618.000    626.216     -8.216    541.262    626.017    541.262    541.520    541.262
 24.870    639.000    635.805      3.195    540.931    635.607    540.931    541.195    540.931
 24.970    599.000    626.549    -27.549    540.598    626.338    540.598    540.869    540.598
 25.070    603.000    605.537     -2.537    540.264    605.304    540.264    540.542    540.264
 25.170    598.000    584.042     13.958    539.929    583.786    539.929    540.214    539.929
 25.270    608.104    567.779     40.326    539.591    567.504    539.591    539.884    539.591
 25.370    613.000    557.526     55.474    539.253    557.236    539.253    539.554    539.253
 25.470    561.000    551.761      9.239    538.913    551.457    538.913    539.223    538.913
 25.570    570.000    548.614     21.386    538.571    548.299    538.571    538.891    538.571
 25.670    600.000    546.775     53.225    538.229    546.449    538.229    538.558    538.229
 25.770    585.000    545.563     39.437    537.885    545.225    537.885    538.225    537.885
 25.870    559.000    544.676     14.324    537.539    544.326    537.539    537.891    537.539
 25.970    518.602    543.991    -25.389    537.193    543.628    537.193    537.557    537.193
 26.070    546.305    543.447      2.858    536.845    543.071    536.845    537.223    536.845
 26.170    531.257    543.015    -11.758    536.496    542.624    536.496    536.888    536.496
 26.270    505.487    542.676    -37.189    536.147    542.270    536.147    536.554    536.147
 26.370    565.000    542.421     22.579    535.796    541.997    535.796    536.219    535.796
 26.470    515.516    542.245    -26.729    535.444    541.803    535.444    535.886    535.444
 26.570    572.615    542.149     30.466    535.091    541.687    535.091    535.552    535.091
 26.670    521.268    542.139    -20.870    534.737    541.656    534.737    535.220    534.737
 26.770    546.000    542.226      3.774    534.382    541.719    534.382    534.889    534.382
 26.870    527.677    542.426    -14.749    534.026    541.893    534.026    534.559    534.026
 26.970    524.370    542.760    -18.390    533.670    542.199    533.670    534.230    533.670
 27.070    607.000    543.266     63.734    533.312    542.674    533.312    533.904    533.312
 27.170    529.000    543.995    -14.995    532.954    543.368    532.954    533.581    532.954
 27.270    586.000    545.018     40.982    532.595    544.353    532.595    533.260    532.595
 27.370    598.000    546.445     51.555    532.236    545.736    532.236    532.943    532.236
 27.470    522.742    548.491    -25.748    531.876    547.733    531.876    532.630    531.876
 27.570    569.000    551.659     17.341    531.515    550.847    531.515    532.323    531.515
 27.670    547.686    557.362     -9.676    531.153    556.487    531.153    532.022    531.153
 27.770    521.219    569.274    -48.055    530.791    568.326    530.791    531.729    530.791
 27.870    576.001    594.947    -18.946    530.428    593.911    530.428    531.446    530.428
 27.970    669.505    644.902     24.603    530.065    643.758    530.065    531.174    530.065
 28.070    706.848    725.099    -18.251    529.701    723.826    529.701    530.916    529.701
 28.170    893.000    823.061     69.939    529.337    821.644    529.337    530.675    529.337
 28.270    880.288    898.499    -18.211    528.973    896.933    528.973    530.457    528.973
 28.370    912.620    905.740      6.881    528.608    904.020    528.608    530.264    528.608
 28.470    811.000    846.121    -35.121    528.242    844.221    528.242    530.104    528.242
 28.570    790.000    770.893     19.107    527.877    768.763    527.877    529.984    527.877
 28.670    733.000    728.022      4.978    527.511    725.603    527.511    529.910    527.511
 28.770    761.636    733.291     28.345    527.145    730.523    527.145    529.893    527.145
 28.870    743.000    771.764    -28.764    526.778    768.582    526.778    529.940    526.778
 28.970    832.000    806.958     25.042    526.412    803.296    526.412    530.060    526.412
 29.070    788.511    802.393    -13.882    526.045    798.179    526.045    530.258    526.045
 29.170    717.217    753.697    -36.480    525.678    748.851    525.678    530.533    525.678
 29.270    709.000    687.871     21.129    525.311    682.321    525.311    530.871    525.311
 29.370    666.000    630.816     35.184    524.944    624.527    524.944    531.241    524.944
 29.470    604.089    592.253     11.836    524.577    585.252    524.577    531.583    524.577
 29.570    565.356    570.267     -4.911    524.209    562.668    524.209    531.810    524.209
 29.670    586.653    558.842     27.811    523.842    550.857    523.842    531.828    523.842
 29.770    626.000    552.736     73.264    523.475    544.652    523.475    531.559    523.475
 29.870    557.830    548.930      8.900    523.108    541.055    523.108    530.982    523.108
 29.970    504.122    546.121    -41.999    522.741    538.718    522.741    530.142    522.741
 30.070    597.000    543.882     53.118    522.374    537.127    522.374    529.127    522.374
 30.170    530.000    542.151    -12.151    522.007    536.124    522.007    528.033    522.007
 30.270    504.458    541.059    -36.600    521.640    535.760    521.640    526.937    521.640
 30.370    565.122    540.969     24.154    521.274    536.351    521.274    525.887    521.274
