neutron_powder_diffraction_0154
R_wp: 3.888
Temperature (K): 1074.000
Counts: 83248.00
Wavelength (Ã…): 2.52098
COMMENTS
Test file for demonstrating the .xyy file format in Reel1.0
END OF HEADER
   tth       Y_obs     Y_calc      Y_res    Background    Phase_1_Nuc    Phase_1_Mag    Phase_2_Nuc    Phase_2_Mag
  9.970    560.000    573.648    -13.648    572.938    573.591    572.938    572.995    572.938
 10.070    573.000    573.706     -0.706    572.940    573.648    572.940    572.997    572.940
 10.170    646.000    573.767     72.233    572.937    573.709    572.937    572.994    572.937
 10.270    635.000    573.833     61.167    572.929    573.775    572.929    572.987    572.929
 10.370    616.222    573.907     42.314    572.917    573.849    572.917    572.975    572.917
 10.470    545.000    573.991    -28.991    572.900    573.933    572.900    572.958    572.900
 10.570    566.559    574.089     -7.530    572.879    574.030    572.879    572.937    572.879
 10.670    598.000    574.205     23.795    572.853    574.146    572.853    572.911    572.853
 10.770    629.000    574.347     54.653    572.823    574.287    572.823    572.881    572.823
 10.870    606.000    574.522     31.478    572.788    574.462    572.788    572.847    572.788
 10.970    578.000    574.743      3.257    572.749    574.683    572.749    572.808    572.749
 11.070    622.310    575.028     47.283    572.706    574.967    572.706    572.765    572.706
 11.170    584.000    575.402      8.598    572.658    575.341    572.658    572.718    572.658
 11.270    568.134    575.904     -7.770    572.607    575.842    572.607    572.667    572.607
 11.370    559.000    576.600    -17.600    572.551    576.537    572.551    572.611    572.551
 11.470    614.000    577.636     36.364    572.491    577.573    572.491    572.551    572.491
 11.570    624.000    579.424     44.576    572.427    579.359    572.427    572.488    572.427
 11.670    549.000    583.138    -34.138    572.359    583.071    572.359    572.420    572.359
 11.770    641.583    591.549     50.034    572.287    591.477    572.287    572.348    572.287
 11.870    605.000    609.185     -4.185    572.210    609.103    572.210    572.272    572.210
 11.970    693.000    639.628     53.372    572.131    639.529    572.131    572.193    572.131
 12.070    702.000    679.004     22.996    572.047    678.880    572.047    572.113    572.047
 12.170    698.000    710.031    -12.031    571.959    709.888    571.959    572.027    571.959
 12.270    691.000    710.957    -19.957    571.868    710.813    571.868    571.936    571.868
 12.370    694.000    680.862     13.138    571.772    680.734    571.772    571.841    571.772
 12.470    624.000    641.123    -17.123    571.674    641.016    571.674    571.743    571.674
 12.570    620.000    609.795     10.205    571.571    609.705    571.571    571.641    571.571
 12.670    575.208    591.363    -16.155    571.465    591.283    571.465    571.535    571.465
 12.770    571.000    582.427    -11.427    571.355    582.351    571.355    571.425    571.355
 12.870    572.000    578.387     -6.387    571.242    578.313    571.242    571.312    571.242
 12.970    620.721    576.366     44.356    571.125    576.292    571.125    571.196    571.125
 13.070    554.446    575.128    -20.682    571.005    575.054    571.005    571.076    571.005
 13.170    593.661    574.242     19.419    570.881    574.169    570.881    570.953    570.881
 13.270    586.000    573.557     12.443    570.754    573.484    570.754    570.826    570.754
 13.370    533.720    573.003    -39.284    570.624    572.930    570.624    570.696    570.624
 13.470    581.000    572.541      8.459    570.490    572.467    570.490    570.563    570.490
 13.570    525.000    572.144    -47.144    570.353    572.070    570.353    570.426    570.353
 13.670    549.000    571.794    -22.794    570.213    571.720    570.213    570.286    570.213
 13.770    531.359    571.480    -40.121    570.070    571.406    570.070    570.143    570.070
 13.870    578.548    571.193      7.356    569.923    571.118    569.923    569.997    569.923
 13.970    596.000    570.926     25.074    569.774    570.851    569.774    569.848    569.774
 14.070    571.890    570.674      1.216    569.621    570.599    569.621    569.696    569.621
 14.170    538.000    570.434    -32.434    569.465    570.359    569.465    569.540    569.465
 14.270    549.142    570.204    -21.062    569.307    570.128    569.307    569.382    569.307
 14.370    535.000    569.984    -34.984    569.145    569.907    569.145    569.221    569.145
 14.470    535.000    569.767    -34.767    568.980    569.691    568.980    569.057    568.980
 14.570    580.101    569.553     10.548    568.813    569.476    568.813    568.890    568.813
 14.670    591.000    569.342     21.658    568.643    569.265    568.643    568.720    568.643
 14.770    562.671    569.133     -6.462    568.469    569.055    568.469    568.547    568.469
 14.870    576.000    568.926      7.074    568.294    568.847    568.294    568.371    568.294
 14.970    539.000    568.719    -29.719    568.115    568.640    568.115    568.193    568.115
 15.070    589.000    568.513     20.487    567.934    568.434    567.934    568.012    567.934
 15.170    547.000    568.307    -21.307    567.750    568.227    567.750    567.829    567.750
 15.270    588.000    568.100     19.900    567.563    568.021    567.563    567.643    567.563
 15.370    524.244    567.893    -43.650    567.374    567.813    567.374    567.454    567.374
 15.470    585.000    567.686     17.314    567.182    567.605    567.182    567.262    567.182
 15.570    587.332    567.479     19.853    566.988    567.397    566.988    567.069    566.988
 15.670    559.000    567.271     -8.271    566.791    567.189    566.791    566.872    566.791
 15.770    612.897    567.061     45.836    566.592    566.979    566.592    566.673    566.592
 15.870    555.000    566.849    -11.849    566.390    566.766    566.390    566.472    566.390
 15.970    560.000    566.636     -6.636    566.186    566.553    566.186    566.269    566.186
 16.070    606.645    566.421     40.224    565.979    566.338    565.979    566.063    565.979
 16.170    557.719    566.205     -8.486    565.771    566.121    565.771    565.854    565.771
 16.270    599.245    565.988     33.257    565.560    565.903    565.560    565.644    565.560
 16.370    606.000    565.769     40.231    565.346    565.684    565.346    565.431    565.346
 16.470    572.000    565.548      6.452    565.131    565.463    565.131    565.216    565.131
 16.570    604.573    565.327     39.246    564.913    565.241    564.913    564.999    564.913
 16.670    591.950    565.103     26.847    564.694    565.017    564.694    564.780    564.694
 16.770    549.989    564.878    -14.889    564.472    564.791    564.472    564.558    564.472
 16.870    533.687    564.651    -30.964    564.248    564.564    564.248    564.335    564.248
 16.970    572.000    564.423      7.577    564.022    564.335    564.022    564.109    564.022
 17.070    557.000    564.193     -7.193    563.794    564.104    563.794    563.882    563.794
 17.170    519.897    563.964    -44.067    563.563    563.875    563.563    563.652    563.563
 17.270    568.000    563.731      4.269    563.331    563.642    563.331    563.421    563.331
 17.370    565.000    563.497      1.503    563.097    563.406    563.097    563.188    563.097
 17.470    539.833    563.261    -23.427    562.862    563.170    562.862    562.953    562.862
 17.570    564.000    563.025      0.975    562.624    562.932    562.624    562.717    562.624
 17.670    604.889    562.787     42.103    562.384    562.692    562.384    562.479    562.384
 17.770    570.000    562.546      7.454    562.143    562.451    562.143    562.239    562.143
 17.870    607.856    562.304     45.552    561.900    562.208    561.900    561.996    561.900
 17.970    551.000    562.061    -11.061    561.655    561.964    561.655    561.752    561.655
 18.070    536.000    561.817    -25.817    561.409    561.719    561.409    561.506    561.409
 18.170    584.000    561.570     22.430    561.161    561.472    561.161    561.259    561.161
 18.270    527.000    561.323    -34.323    560.911    561.224    560.911    561.009    560.911
 18.370    544.000    561.074    -17.074    560.659    560.975    560.659    560.759    560.659
 18.470    595.000    560.824     34.176    560.406    560.724    560.406    560.506    560.406
 18.570    570.348    560.572      9.776    560.152    560.471    560.152    560.253    560.152
 18.670    524.000    560.320    -36.320    559.896    560.218    559.896    559.997    559.896
 18.770    582.542    560.066     22.476    559.638    559.963    559.638    559.740    559.638
 18.870    593.762    559.811     33.951    559.379    559.707    559.379    559.482    559.379
 18.970    575.000    559.554     15.446    559.118    559.450    559.118    559.222    559.118
 19.070    545.000    559.297    -14.297    558.857    559.192    558.857    558.961    558.857
 19.170    577.000    559.039     17.961    558.593    558.933    558.593    558.699    558.593
 19.270    580.000    558.779     21.221    558.329    558.673    558.329    558.435    558.329
 19.370    589.801    558.520     31.282    558.063    558.413    558.063    558.170    558.063
 19.470    573.000    558.259     14.741    557.795    558.151    557.795    557.904    557.795
 19.570    566.000    557.997      8.003    557.527    557.888    557.527    557.636    557.527
 19.670    545.000    557.734    -12.734    557.257    557.624    557.257    557.367    557.257
 19.770    535.291    557.472    -22.181    556.986    557.361    556.986    557.097    556.986
 19.870    548.000    557.221     -9.221    556.714    557.109    556.714    556.826    556.714
 19.970    582.000    556.965     25.035    556.441    556.853    556.441    556.554    556.441
 20.070    524.256    556.700    -32.444    556.166    556.587    556.166    556.280    556.166
 20.170    566.000    556.434      9.566    555.891    556.319    555.891    556.006    555.891
 20.270    549.000    556.167     -7.167    555.614    556.051    555.614    555.730    555.614
 20.370    538.990    555.899    -16.909    555.337    555.782    555.337    555.454    555.337
 20.470    551.000    555.631     -4.631    555.058    555.513    555.058    555.176    555.058
 20.570    511.000    555.362    -44.362    554.778    555.243    554.778    554.898    554.778
 20.670    554.000    555.093     -1.093    554.498    554.973    554.498    554.618    554.498
 20.770    534.000    554.824    -20.824    554.216    554.703    554.216    554.338    554.216
 20.870    569.572    554.564     15.008    553.934    554.441    553.934    554.056    553.934
 20.970    510.375    554.382    -44.007    553.651    554.258    553.651    553.774    553.651
 21.070    587.809    554.135     33.674    553.366    554.010    553.366    553.491    553.366
 21.170    510.000    553.868    -43.868    553.081    553.741    553.081    553.208    553.081
 21.270    511.678    553.599    -41.921    552.795    553.471    552.795    552.923    552.795
 21.370    564.224    553.331     10.894    552.509    553.202    552.509    552.638    552.509
 21.470    587.000    553.063     33.937    552.221    552.932    552.221    552.352    552.221
 21.570    553.000    552.798      0.202    551.933    552.666    551.933    552.065    551.933
 21.670    567.038    552.553     14.485    551.644    552.420    551.644    551.778    551.644
 21.770    553.791    552.317      1.474    551.355    552.182    551.355    551.490    551.355
 21.870    531.000    552.056    -21.056    551.065    551.919    551.065    551.201    551.065
 21.970    510.458    551.794    -41.336    550.774    551.655    550.774    550.912    550.774
 22.070    561.000    551.537      9.463    550.482    551.398    550.482    550.622    550.482
 22.170    529.000    551.325    -22.325    550.190    551.184    550.190    550.332    550.190
 22.270    541.528    551.089     -9.561    549.898    550.945    549.898    550.041    549.898
 22.370    544.000    550.840     -6.840    549.604    550.695    549.604    549.750    549.604
 22.470    513.565    550.595    -37.030    549.311    550.448    549.311    549.458    549.311
 22.570    518.860    550.351    -31.491    549.017    550.202    549.017    549.166    549.017
 22.670    554.000    550.112      3.888    548.722    549.960    548.722    548.873    548.722
 22.770    578.000    549.878     28.122    548.427    549.725    548.427    548.580    548.427
 22.870    577.000    549.653     27.347    548.131    549.497    548.131    548.287    548.131
 22.970    525.767    549.436    -23.669    547.835    549.279    547.835    547.993    547.835
 23.070    585.744    549.232     36.512    547.539    549.072    547.539    547.699    547.539
 23.170    593.532    549.044     44.488    547.242    548.881    547.242    547.405    547.242
 23.270    512.000    548.871    -36.871    546.945    548.705    546.945    547.111    546.945
 23.370    523.000    548.719    -25.719    546.648    548.552    546.648    546.816    546.648
 23.470    562.852    548.597     14.255    546.350    548.427    546.350    546.521    546.350
 23.570    556.000    548.513      7.487    546.052    548.340    546.052    546.226    546.052
 23.670    583.633    548.480     35.152    545.754    548.304    545.754    545.931    545.754
 23.770    583.000    548.518     34.482    545.456    548.339    545.456    545.636    545.456
 23.870    547.535    548.657     -1.122    545.157    548.474    545.157    545.341    545.157
 23.970    561.000    548.951     12.049    544.858    548.765    544.858    545.046    544.858
 24.070    500.000    549.531    -49.531    544.559    549.342    544.559    544.750    544.559
 24.170    576.000    550.767     25.233    544.260    550.575    544.260    544.455    544.260
 24.270    522.278    553.655    -31.378    543.961    553.462    543.961    544.160    543.961
 24.370    599.191    560.298     38.893    543.662    560.106    543.662    543.865    543.662
 24.470    589.000    573.630     15.370    543.362    573.443    543.362    543.570    543.362
 24.570    587.000    595.146     -8.146    543.063    594.971    543.063    543.275    543.063
 24.670    574.197    620.615    -46.418    542.763    620.454    542.763    542.980    542.763
 24.770    585.000    637.515    -52.515    542.463    637.362    542.463    542.686    542.463
 24.870    655.572    633.408     22.164    542.164    633.246    542.164    542.392    542.164
 24.970    609.000    611.665     -2.665    541.864    611.482    541.864    542.098    541.864
 25.070    592.000    586.240      5.760    541.565    586.031    541.565    541.805    541.565
 25.170    538.000    566.886    -28.886    541.265    566.657    541.265    541.512    541.265
 25.270    539.000    555.506    -16.506    540.966    555.261    540.966    541.220    540.966
 25.370    549.000    549.834     -0.834    540.666    549.577    540.666    540.928    540.666
 25.470    558.000    547.124     10.876    540.367    546.857    540.367    540.637    540.367
 25.570    567.038    545.671     21.366    540.068    545.396    540.068    540.346    540.068
 25.670    521.000    544.732    -23.732    539.769    544.447    539.769    540.056    539.769
 25.770    547.000    544.037      2.963    539.470    543.741    539.470    539.767    539.470
 25.870    566.037    543.490     22.547    539.172    543.183    539.172    539.479    539.172
 25.970    587.929    543.071     44.858    538.873    542.753    538.873    539.192    538.873
 26.070    551.000    542.728      8.272    538.575    542.397    538.575    538.906    538.575
 26.170    532.000    542.427    -10.427    538.277    542.083    538.277    538.622    538.277
 26.270    555.448    542.184     13.264    537.979    541.825    537.979    538.338    537.979
 26.370    579.000    541.997     37.003    537.682    541.622    537.682    538.057    537.682
 26.470    547.000    541.856      5.144    537.385    541.464    537.385    537.777    537.385
 26.570    582.067    541.770     40.298    537.088    541.359    537.088    537.498    537.088
 26.670    501.000    541.751    -40.751    536.791    541.320    536.791    537.222    536.791
 26.770    514.000    541.821    -27.821    536.495    541.367    536.495    536.949    536.495
 26.870    549.293    541.973      7.319    536.199    541.495    536.199    536.678    536.199
 26.970    589.000    542.205     46.795    535.904    541.699    535.904    536.410    535.904
 27.070    559.000    542.566     16.434    535.609    542.029    535.609    536.145    535.609
 27.170    580.822    543.097     37.725    535.314    542.526    535.314    535.884    535.314
 27.270    578.000    543.860     34.140    535.020    543.251    535.020    535.628    535.020
 27.370    520.000    544.947    -24.947    534.726    544.294    534.726    535.378    534.726
 27.470    554.000    546.531      7.469    534.433    545.829    534.433    535.133    534.433
 27.570    557.000    549.058      7.942    534.140    548.300    534.140    534.895    534.140
 27.670    551.903    554.046     -2.142    533.848    553.223    533.848    534.666    533.848
 27.770    615.000    566.340     48.660    533.556    565.441    533.556    534.447    533.556
 27.870    612.000    597.477     14.523    533.264    596.483    533.264    534.240    533.264
 27.970    683.000    664.315     18.685    532.974    663.203    532.974    534.047    532.974
 28.070    781.000    773.111      7.889    532.683    771.852    532.683    533.872    532.683
 28.170    854.094    893.192    -39.098    532.393    891.771    532.393    533.720    532.393
 28.270    934.000    952.403    -18.403    532.104    950.819    532.104    533.596    532.104
 28.370    895.000    903.162     -8.162    531.816    901.410    531.816    533.509    531.816
 28.470    806.000    796.532      9.468    531.528    794.563    531.528    533.472    531.528
 28.570    738.000    713.564     24.436    531.240    711.286    531.240    533.506    531.240
 28.670    738.000    696.348     41.652    530.954    693.644    530.954    533.644    530.954
 28.770    737.000    740.698     -3.698    530.668    737.412    530.668    533.935    530.668
 28.870    799.033    807.795     -8.762    530.382    803.711    530.382    534.455    530.382
 28.970    782.000    839.304    -57.304    530.098    834.105    530.098    535.300    530.098
 29.070    774.217    800.485    -26.268    529.814    793.725    529.814    536.587    529.814
 29.170    687.000    721.148    -34.148    529.530    712.265    529.530    538.427    529.530
 29.270    647.294    647.475     -0.182    529.248    635.845    529.248    540.886    529.248
 29.370    579.000    600.546    -21.546    528.966    585.609    528.966    543.906    528.966
 29.470    570.457    578.242     -7.785    528.685    559.778    528.685    547.148    528.685
 29.570    609.404    569.725     39.679    528.404    548.297    528.404    549.831    528.404
 29.670    553.203    565.867    -12.665    528.125    543.121    528.125    550.869    528.125
 29.770    555.972    562.138     -6.167    527.846    540.336    527.846    549.646    527.846
 29.870    575.000    557.594     17.406    527.568    538.534    527.568    546.626    527.568
 29.970    558.000    552.853      5.147    527.291    537.274    527.291    542.867    527.291
 30.070    513.717    548.621    -34.904    527.014    536.410    527.014    539.223    527.014
 30.170    576.000    545.278     30.722    526.739    535.915    526.739    536.099    526.739
 30.270    607.000    543.037     63.963    526.464    535.905    526.464    533.594    526.464
 30.370    577.000    542.302     34.698    526.190    536.830    526.190    531.658    526.190
