neutron_powder_diffraction_0230
R_wp: 3.874
Temperature (K): 1065.300
Counts: 83811.00
Wavelength (Ã…): 2.52098
COMMENTS
Test file for demonstrating the .xyy file format in Reel1.0
END OF HEADER
   tth       Y_obs     Y_calc      Y_res    Background    Phase_1_Nuc    Phase_1_Mag    Phase_2_Nuc    Phase_2_Mag
  9.970    616.240    576.966     39.274    576.338    576.937    576.338    576.367    576.338
 10.070    603.000    577.037     25.963    576.338    577.007    576.338    576.368    576.338
 10.170    563.951    577.097    -13.147    576.334    577.067    576.334    576.364    576.334
 10.270    587.000    577.159      9.841    576.324    577.128    576.324    576.354    576.324
 10.370    576.000    577.226     -1.226    576.310    577.196    576.310    576.340    576.310
 10.470    614.917    577.304     37.613    576.291    577.272    576.291    576.323    576.291
 10.570    590.000    577.394     12.606    576.267    577.361    576.267    576.300    576.267
 10.670    609.000    577.501     31.499    576.238    577.468    576.238    576.271    576.238
 10.770    585.000    577.631      7.369    576.205    577.597    576.205    576.238    576.205
 10.870    571.000    577.793     -6.793    576.167    577.759    576.167    576.200    576.167
 10.970    587.000    577.998      9.002    576.124    577.963    576.124    576.159    576.124
 11.070    614.140    578.263     35.878    576.077    578.227    576.077    576.112    576.077
 11.170    569.044    578.612     -9.568    576.025    578.575    576.025    576.061    576.025
 11.270    569.000    579.092    -10.092    575.969    579.044    575.969    576.016    575.969
 11.370    600.000    579.748     20.252    575.908    579.697    575.908    575.957    575.908
 11.470    579.000    580.723     -1.723    575.843    580.671    575.843    575.892    575.843
 11.570    572.643    582.405     -9.762    575.773    582.352    575.773    575.823    575.773
 11.670    563.666    585.912    -22.246    575.700    585.857    575.700    575.749    575.700
 11.770    559.300    593.929    -34.629    575.622    593.868    575.622    575.672    575.622
 11.870    664.000    610.924     53.076    575.539    610.854    575.539    575.590    575.539
 11.970    691.000    640.566     50.434    575.453    640.478    575.453    575.503    575.453
 12.070    702.000    679.253     22.747    575.362    679.142    575.362    575.414    575.362
 12.170    673.480    710.104    -36.624    575.268    709.969    575.268    575.325    575.268
 12.270    669.568    711.472    -41.904    575.169    711.335    575.169    575.227    575.169
 12.370    631.164    682.029    -50.865    575.066    681.909    575.066    575.125    575.066
 12.470    598.970    642.869    -43.899    574.960    642.771    574.960    575.019    574.960
 12.570    548.000    612.009    -64.009    574.849    611.929    574.849    574.908    574.849
 12.670    635.000    593.933     41.067    574.735    593.863    574.735    574.794    574.735
 12.770    558.000    585.231    -27.231    574.617    585.165    574.617    574.677    574.617
 12.870    626.000    581.324     44.676    574.495    581.260    574.495    574.555    574.495
 12.970    576.000    579.373     -3.373    574.369    579.310    574.369    574.430    574.369
 13.070    561.000    578.173    -17.173    574.240    578.111    574.240    574.301    574.240
 13.170    578.344    577.311      1.034    574.107    577.248    574.107    574.168    574.107
 13.270    596.037    576.640     19.397    573.971    576.577    573.971    574.032    573.971
 13.370    540.000    576.094    -36.094    573.830    576.031    573.830    573.892    573.830
 13.470    561.000    575.636    -14.636    573.687    575.573    573.687    573.749    573.687
 13.570    573.406    575.239     -1.834    573.540    575.176    573.540    573.602    573.540
 13.670    587.698    574.889     12.809    573.389    574.825    573.389    573.452    573.389
 13.770    575.000    574.572      0.428    573.235    574.508    573.235    573.298    573.235
 13.870    577.000    574.280      2.720    573.078    574.216    573.078    573.141    573.078
 13.970    606.208    574.007     32.201    572.917    573.943    572.917    572.981    572.917
 14.070    558.936    573.749    -14.813    572.754    573.684    572.754    572.818    572.754
 14.170    616.557    573.504     43.052    572.586    573.436    572.586    572.654    572.586
 14.270    577.000    573.266      3.734    572.416    573.197    572.416    572.485    572.416
 14.370    547.000    573.034    -26.034    572.243    572.964    572.243    572.313    572.243
 14.470    550.000    572.807    -22.807    572.066    572.736    572.066    572.137    572.066
 14.570    551.000    572.583    -21.583    571.887    572.511    571.887    571.958    571.887
 14.670    583.000    572.361     10.639    571.704    572.289    571.704    571.776    571.704
 14.770    601.654    572.142     29.512    571.519    572.069    571.519    571.591    571.519
 14.870    550.000    571.926    -21.926    571.330    571.853    571.330    571.403    571.330
 14.970    543.000    571.709    -28.709    571.139    571.636    571.139    571.212    571.139
 15.070    553.797    571.491    -17.694    570.944    571.418    570.944    571.018    570.944
 15.170    571.000    571.273     -0.273    570.747    571.199    570.747    570.821    570.747
 15.270    559.000    571.054    -12.054    570.547    570.980    570.547    570.621    570.547
 15.370    539.371    570.835    -31.464    570.344    570.760    570.344    570.419    570.344
 15.470    544.000    570.614    -26.614    570.139    570.539    570.139    570.214    570.139
 15.570    545.000    570.393    -25.393    569.931    570.317    569.931    570.006    569.931
 15.670    547.000    570.170    -23.170    569.720    570.094    569.720    569.796    569.720
 15.770    584.476    569.946     14.531    569.507    569.869    569.507    569.583    569.507
 15.870    596.000    569.720     26.280    569.291    569.643    569.291    569.368    569.291
 15.970    563.000    569.493     -6.493    569.073    569.415    569.073    569.150    569.073
 16.070    559.000    569.264    -10.264    568.852    569.186    568.852    568.929    568.852
 16.170    555.000    569.034    -14.034    568.628    568.955    568.628    568.707    568.628
 16.270    602.585    568.802     33.783    568.402    568.723    568.402    568.481    568.402
 16.370    598.000    568.568     29.432    568.174    568.489    568.174    568.253    568.174
 16.470    609.697    568.333     41.365    567.944    568.253    567.944    568.023    567.944
 16.570    550.000    568.096    -18.096    567.711    568.015    567.711    567.791    567.711
 16.670    530.000    567.859    -37.859    567.476    567.776    567.476    567.558    567.476
 16.770    564.000    567.621     -3.621    567.238    567.537    567.238    567.321    567.238
 16.870    576.000    567.379      8.621    566.999    567.295    566.999    567.082    566.999
 16.970    549.000    567.135    -18.135    566.757    567.050    566.757    566.841    566.757
 17.070    560.000    566.889     -6.889    566.513    566.804    566.513    566.598    566.513
 17.170    588.000    566.641     21.359    566.267    566.556    566.267    566.352    566.267
 17.270    534.921    566.392    -31.471    566.019    566.306    566.019    566.105    566.019
 17.370    559.000    566.141     -7.141    565.769    566.055    565.769    565.855    565.769
 17.470    547.934    565.889    -17.954    565.517    565.802    565.517    565.604    565.517
 17.570    610.675    565.635     45.040    565.263    565.547    565.263    565.350    565.263
 17.670    530.929    565.381    -34.453    565.007    565.293    565.007    565.095    565.007
 17.770    528.000    565.125    -37.125    564.749    565.036    564.749    564.838    564.749
 17.870    597.994    564.866     33.128    564.489    564.777    564.489    564.579    564.489
 17.970    553.803    564.606    -10.803    564.227    564.516    564.227    564.318    564.227
 18.070    528.000    564.344    -36.344    563.964    564.253    563.964    564.055    563.964
 18.170    543.900    564.080    -20.181    563.699    563.989    563.699    563.790    563.699
 18.270    535.000    563.816    -28.816    563.432    563.723    563.432    563.524    563.432
 18.370    533.000    563.549    -30.549    563.163    563.456    563.163    563.256    563.163
 18.470    536.066    563.282    -27.216    562.893    563.188    562.893    562.987    562.893
 18.570    603.000    563.012     39.988    562.621    562.918    562.621    562.715    562.621
 18.670    576.000    562.742     13.258    562.348    562.647    562.348    562.443    562.348
 18.770    549.260    562.475    -13.216    562.072    562.375    562.072    562.173    562.072
 18.870    554.000    562.205     -8.205    561.796    562.101    561.796    561.899    561.796
 18.970    554.000    561.931     -7.931    561.518    561.826    561.518    561.622    561.518
 19.070    541.000    561.655    -20.655    561.238    561.550    561.238    561.343    561.238
 19.170    579.000    561.379     17.621    560.957    561.272    560.957    561.063    560.957
 19.270    552.000    561.101     -9.101    560.674    560.994    560.674    560.782    560.674
 19.370    570.000    560.822      9.178    560.390    560.714    560.390    560.498    560.390
 19.470    574.000    560.543     13.457    560.105    560.434    560.105    560.214    560.105
 19.570    590.000    560.263     29.737    559.819    560.153    559.819    559.928    559.819
 19.670    549.000    559.982    -10.982    559.531    559.871    559.531    559.641    559.531
 19.770    595.000    559.700     35.300    559.241    559.589    559.241    559.353    559.241
 19.870    583.550    559.417     24.133    558.951    559.304    558.951    559.064    558.951
 19.970    536.000    559.133    -23.133    558.659    559.019    558.659    558.773    558.659
 20.070    515.000    558.848    -43.848    558.367    558.733    558.367    558.481    558.367
 20.170    564.084    558.562      5.521    558.073    558.446    558.073    558.188    558.073
 20.270    542.692    558.277    -15.585    557.778    558.160    557.778    557.894    557.778
 20.370    560.000    558.002      1.998    557.481    557.884    557.481    557.599    557.481
 20.470    588.000    557.726     30.274    557.184    557.607    557.184    557.303    557.184
 20.570    529.000    557.439    -28.439    556.886    557.319    556.886    557.006    556.886
 20.670    528.000    557.150    -29.150    556.587    557.029    556.587    556.708    556.587
 20.770    536.000    556.862    -20.862    556.286    556.739    556.286    556.409    556.286
 20.870    553.000    556.573     -3.573    555.985    556.449    555.985    556.109    555.985
 20.970    519.000    556.284    -37.284    555.683    556.159    555.683    555.808    555.683
 21.070    561.000    555.995      5.005    555.380    555.869    555.380    555.506    555.380
 21.170    576.378    555.706     20.672    555.076    555.578    555.076    555.204    555.076
 21.270    509.000    555.417    -46.417    554.771    555.288    554.771    554.900    554.771
 21.370    493.000    555.128    -62.128    554.466    554.998    554.466    554.596    554.466
 21.470    551.000    554.840     -3.840    554.159    554.708    554.159    554.291    554.159
 21.570    547.640    554.552     -6.912    553.852    554.419    553.852    553.985    553.852
 21.670    575.197    554.265     20.932    553.544    554.131    553.544    553.679    553.544
 21.770    574.310    553.979     20.331    553.236    553.843    553.236    553.372    553.236
 21.870    528.000    553.694    -25.694    552.926    553.556    552.926    553.064    552.926
 21.970    507.000    553.410    -46.410    552.616    553.271    552.616    552.756    552.616
 22.070    537.000    553.128    -16.128    552.306    552.987    552.306    552.447    552.306
 22.170    506.000    552.850    -46.850    551.994    552.707    551.994    552.138    551.994
 22.270    544.000    552.592     -8.592    551.683    552.447    551.683    551.828    551.683
 22.370    584.035    552.353     31.682    551.370    552.206    551.370    551.517    551.370
 22.470    578.000    552.158     25.842    551.057    552.009    551.057    551.207    551.057
 22.570    570.000    551.920     18.080    550.744    551.769    550.744    550.895    550.744
 22.670    570.371    551.665     18.706    550.430    551.511    550.430    550.584    550.430
 22.770    576.282    551.453     24.829    550.116    551.296    550.116    550.274    550.116
 22.870    532.000    551.227    -19.227    549.801    551.066    549.801    549.962    549.801
 22.970    567.000    550.992     16.008    549.486    550.829    549.486    549.650    549.486
 23.070    568.000    550.763     17.237    549.170    550.597    549.170    549.336    549.170
 23.170    533.000    550.547    -17.547    548.854    550.378    548.854    549.023    548.854
 23.270    588.864    550.347     38.517    548.538    550.176    548.538    548.710    548.538
 23.370    553.000    550.168      2.832    548.222    549.995    548.222    548.396    548.222
 23.470    542.680    550.017     -7.337    547.905    549.841    547.905    548.082    547.905
 23.570    518.849    549.902    -31.052    547.587    549.722    547.587    547.768    547.587
 23.670    572.322    549.835     22.487    547.270    549.653    547.270    547.453    547.270
 23.770    507.613    549.835    -42.222    546.952    549.649    546.952    547.139    546.952
 23.870    559.000    549.929      9.071    546.635    549.741    546.635    546.825    546.635
 23.970    566.000    550.170     15.830    546.317    549.978    546.317    546.510    546.317
 24.070    601.000    550.677     50.323    545.998    550.482    545.998    546.196    545.998
 24.170    585.654    551.797     33.856    545.680    551.599    545.680    545.882    545.680
 24.270    591.000    554.468     36.532    545.362    554.267    545.362    545.567    545.362
 24.370    528.117    560.726    -32.609    545.043    560.526    545.043    545.253    545.043
 24.470    556.000    573.497    -17.497    544.725    573.301    544.725    544.939    544.725
 24.570    550.828    594.384    -43.555    544.406    594.198    544.406    544.626    544.406
 24.670    661.498    619.466     42.033    544.087    619.293    544.087    544.312    544.087
 24.770    594.000    636.494    -42.494    543.769    636.328    543.769    543.999    543.769
 24.870    629.985    632.970     -2.985    543.450    632.796    543.450    543.686    543.450
 24.970    615.396    611.747      3.649    543.131    611.552    543.131    543.373    543.131
 25.070    577.000    586.595     -9.595    542.813    586.376    542.813    543.061    542.813
 25.170    583.000    567.394     15.606    542.494    567.155    542.494    542.750    542.494
 25.270    517.480    556.135    -38.655    542.176    555.881    542.176    542.439    542.176
 25.370    527.000    550.564    -23.564    541.858    550.298    541.858    542.128    541.858
 25.470    563.876    547.925     15.951    541.540    547.649    541.540    541.818    541.540
 25.570    501.708    546.509    -44.801    541.222    546.224    541.222    541.509    541.222
 25.670    560.000    545.576     14.424    540.904    545.281    540.904    541.201    540.904
 25.770    581.664    544.875     36.789    540.586    544.569    540.586    540.893    540.586
 25.870    551.000    544.316      6.684    540.269    543.999    540.269    540.587    540.269
 25.970    568.000    543.855     24.145    539.952    543.525    539.952    540.282    539.952
 26.070    604.000    543.470     60.530    539.635    543.128    539.635    539.977    539.635
 26.170    542.000    543.146     -1.146    539.318    542.790    539.318    539.675    539.318
 26.270    581.000    542.872     38.128    539.002    542.501    539.002    539.373    539.002
 26.370    585.000    542.647     42.353    538.686    542.260    538.686    539.073    538.686
 26.470    564.000    542.471     21.529    538.370    542.066    538.370    538.775    538.370
 26.570    552.415    542.348     10.067    538.055    541.923    538.055    538.480    538.055
 26.670    503.517    542.304    -38.787    537.740    541.858    537.740    538.186    537.740
 26.770    549.000    542.325      6.675    537.425    541.855    537.425    537.895    537.425
 26.870    521.294    542.399    -21.105    537.111    541.904    537.111    537.606    537.111
 26.970    525.000    542.565    -17.565    536.797    542.041    536.797    537.321    536.797
 27.070    559.000    542.851     16.149    536.484    542.295    536.484    537.040    536.484
 27.170    550.000    543.294      6.706    536.171    542.702    536.171    536.762    536.171
 27.270    563.224    543.948     19.275    535.859    543.317    535.859    536.490    535.859
 27.370    524.219    544.901    -20.682    535.547    544.225    535.547    536.223    535.547
 27.470    580.000    546.309     33.691    535.236    545.581    535.236    535.962    535.236
 27.570    528.000    548.564    -20.564    534.925    547.777    534.925    535.709    534.925
 27.670    527.433    553.046    -25.613    534.615    552.192    534.615    535.465    534.615
 27.770    598.000    564.281     33.719    534.305    563.346    534.305    535.232    534.305
 27.870    579.000    593.873    -14.873    533.996    592.839    533.996    535.011    533.996
 27.970    657.512    659.825     -2.313    533.687    658.665    533.687    534.807    533.687
 28.070    767.000    770.281     -3.281    533.379    768.967    533.379    534.622    533.379
 28.170    917.000    894.538     22.462    533.072    893.049    533.072    534.460    533.072
 28.270    905.000    957.041    -52.041    532.765    955.377    532.765    534.330    532.765
 28.370    917.000    906.713     10.287    532.459    904.871    532.459    534.238    532.459
 28.470    747.941    795.624    -47.684    532.153    793.553    532.153    534.198    532.153
 28.570    763.000    708.650     54.350    531.849    706.255    531.849    534.231    531.849
 28.670    715.000    690.285     24.715    531.545    687.445    531.545    534.369    531.545
 28.770    746.000    736.591      9.409    531.241    733.136    531.241    534.675    531.241
 28.870    781.689    807.623    -25.935    530.939    803.289    530.939    535.258    530.939
 28.970    870.000    842.324     27.676    530.637    836.657    530.637    536.304    530.637
 29.070    796.000    803.534     -7.534    530.336    795.798    530.336    538.083    530.336
 29.170    733.000    722.713     10.287    530.036    711.837    530.036    540.924    530.036
 29.270    622.000    649.008    -27.008    529.736    633.631    529.736    545.120    529.736
 29.370    649.000    604.500     44.500    529.437    583.203    529.437    550.739    529.437
 29.470    633.394    586.145     47.249    529.139    558.011    529.139    557.276    529.139
 29.570    558.000    581.479    -23.479    528.842    547.158    528.842    563.164    528.842
 29.670    627.000    579.620     47.380    528.546    542.354    528.546    565.812    528.546
 29.770    565.000    575.066    -10.066    528.251    539.762    528.251    563.555    528.251
 29.870    560.000    567.687     -7.687    527.956    538.066    527.956    557.577    527.956
 29.970    568.000    559.652      8.348    527.663    536.865    527.663    550.448    527.663
 30.070    573.467    552.644     20.824    527.370    536.032    527.370    543.981    527.370
 30.170    553.000    547.335      5.665    527.078    535.537    527.078    538.875    527.078
 30.270    566.000    543.861     22.139    526.787    535.485    526.787    535.162    526.787
 30.370    560.818    542.385     18.433    526.497    536.297    526.497    532.582    526.497
