neutron_powder_diffraction_0131
R_wp: 4.139
Temperature (K): 1042.819
Counts: 83375.00
Wavelength (Ã…): 2.52098
COMMENTS
Test file for demonstrating the .xyy file format in Reel1.0
END OF HEADER
   tth       Y_obs     Y_calc      Y_res    Background    Phase_1_Nuc    Phase_1_Mag    Phase_2_Nuc    Phase_2_Mag
  9.970    542.290    566.336    -24.046    565.441    566.240    565.441    565.537    565.441
 10.070    558.000    566.562     -8.562    565.597    566.465    565.597    565.693    565.597
 10.170    585.021    566.790     18.231    565.746    566.693    565.746    565.843    565.746
 10.270    639.000    567.025     71.975    565.889    566.927    565.889    565.986    565.889
 10.370    530.377    567.267    -36.890    566.025    567.169    566.025    566.123    566.025
 10.470    523.087    567.521    -44.434    566.155    567.422    566.155    566.253    566.155
 10.570    611.000    567.791     43.209    566.278    567.692    566.278    566.376    566.278
 10.670    570.000    568.083      1.917    566.395    567.983    566.395    566.494    566.395
 10.770    611.571    568.404     43.167    566.505    568.304    566.505    566.604    566.505
 10.870    524.152    568.765    -44.614    566.610    568.665    566.610    566.709    566.610
 10.970    605.000    569.182     35.818    566.708    569.081    566.708    566.808    566.708
 11.070    611.000    569.674     41.326    566.800    569.572    566.800    566.900    566.800
 11.170    629.000    570.275     58.725    566.886    570.172    566.886    566.986    566.886
 11.270    539.000    571.028    -32.028    566.965    570.924    566.965    567.067    566.965
 11.370    600.000    572.018     27.982    567.039    571.914    567.039    567.141    567.039
 11.470    562.949    573.435    -10.486    567.107    573.330    567.107    567.209    567.107
 11.570    598.000    575.771     22.229    567.169    575.664    567.169    567.272    567.169
 11.670    593.000    580.255     12.745    567.226    580.144    567.226    567.328    567.226
 11.770    652.000    589.390     62.610    567.276    589.274    567.276    567.379    567.276
 11.870    651.000    606.740     44.260    567.321    606.614    567.321    567.425    567.321
 11.970    619.016    634.635    -15.618    567.360    634.492    567.360    567.464    567.360
 12.070    666.000    669.415     -3.415    567.394    669.253    567.394    567.498    567.394
 12.170    671.752    697.026    -25.274    567.422    696.847    567.422    567.527    567.422
 12.270    670.000    699.404    -29.404    567.444    699.223    567.444    567.550    567.444
 12.370    635.000    674.517    -39.517    567.461    674.351    567.461    567.568    567.461
 12.470    636.000    639.537     -3.537    567.473    639.389    567.473    567.580    567.473
 12.570    639.890    610.178     29.712    567.480    610.047    567.480    567.587    567.480
 12.670    535.000    591.414    -56.414    567.481    591.293    567.481    567.589    567.481
 12.770    551.000    581.403    -30.403    567.477    581.287    567.477    567.585    567.477
 12.870    528.801    576.518    -47.717    567.468    576.405    567.468    567.576    567.468
 12.970    611.668    574.045     37.623    567.454    573.933    567.454    567.563    567.454
 13.070    600.000    572.598     27.402    567.434    572.486    567.434    567.544    567.434
 13.170    574.000    571.617      2.383    567.410    571.505    567.410    567.520    567.410
 13.270    560.482    570.892    -10.410    567.381    570.779    567.381    567.492    567.381
 13.370    563.000    570.329     -7.329    567.347    570.217    567.347    567.458    567.347
 13.470    561.872    569.880     -8.009    567.308    569.767    567.308    567.420    567.308
 13.570    545.000    569.512    -24.512    567.264    569.398    567.264    567.377    567.264
 13.670    600.000    569.202     30.798    567.216    569.088    567.216    567.329    567.216
 13.770    603.343    568.935     34.408    567.163    568.821    567.163    567.276    567.163
 13.870    567.000    568.702     -1.702    567.105    568.587    567.105    567.219    567.105
 13.970    576.000    568.492      7.508    567.043    568.377    567.043    567.157    567.043
 14.070    584.714    568.302     16.413    566.976    568.186    566.976    567.091    566.976
 14.170    600.703    568.125     32.578    566.905    568.009    566.905    567.020    566.905
 14.270    541.000    567.959    -26.959    566.829    567.843    566.829    566.945    566.829
 14.370    542.000    567.802    -25.802    566.749    567.684    566.749    566.865    566.749
 14.470    547.000    567.650    -20.650    566.664    567.532    566.664    566.782    566.664
 14.570    546.037    567.503    -21.466    566.575    567.384    566.575    566.693    566.575
 14.670    525.583    567.358    -41.776    566.482    567.240    566.482    566.601    566.482
 14.770    559.000    567.216     -8.216    566.385    567.097    566.385    566.504    566.385
 14.870    551.000    567.075    -16.075    566.284    566.955    566.284    566.404    566.284
 14.970    557.000    566.934     -9.934    566.179    566.814    566.179    566.299    566.179
 15.070    591.053    566.794     24.259    566.069    566.672    566.069    566.190    566.069
 15.170    547.000    566.652    -19.652    565.956    566.530    565.956    566.077    565.956
 15.270    605.788    566.510     39.277    565.838    566.388    565.838    565.961    565.838
 15.370    536.235    566.367    -30.132    565.717    566.244    565.717    565.840    565.717
 15.470    566.762    566.224      0.538    565.592    566.100    565.592    565.716    565.592
 15.570    559.000    566.078     -7.078    565.463    565.953    565.463    565.587    565.463
 15.670    559.754    565.930     -6.175    565.330    565.804    565.330    565.455    565.330
 15.770    578.043    565.779     12.263    565.194    565.653    565.194    565.319    565.194
 15.870    540.844    565.626    -24.783    565.054    565.500    565.054    565.180    565.054
 15.970    560.714    565.471     -4.758    564.910    565.344    564.910    565.037    564.910
 16.070    572.000    565.313      6.687    564.763    565.185    564.763    564.891    564.763
 16.170    512.000    565.153    -53.153    564.612    565.025    564.612    564.740    564.612
 16.270    593.730    564.991     28.739    564.457    564.862    564.457    564.587    564.457
 16.370    539.886    564.828    -24.942    564.300    564.697    564.300    564.430    564.300
 16.470    596.000    564.660     31.340    564.138    564.529    564.138    564.269    564.138
 16.570    537.000    564.490    -27.490    563.974    564.358    563.974    564.106    563.974
 16.670    559.000    564.317     -5.317    563.806    564.184    563.806    563.939    563.806
 16.770    553.000    564.141    -11.141    563.635    564.008    563.635    563.768    563.635
 16.870    529.000    563.963    -34.963    563.461    563.829    563.461    563.595    563.461
 16.970    562.000    563.782     -1.782    563.283    563.647    563.283    563.418    563.283
 17.070    600.312    563.599     36.713    563.103    563.463    563.103    563.238    563.103
 17.170    548.000    563.413    -15.413    562.919    563.276    562.919    563.056    562.919
 17.270    557.000    563.225     -6.225    562.732    563.087    562.732    562.870    562.732
 17.370    599.701    563.034     36.667    562.542    562.895    562.542    562.681    562.542
 17.470    594.133    562.840     31.293    562.350    562.701    562.350    562.489    562.350
 17.570    540.000    562.644    -22.644    562.154    562.504    562.154    562.294    562.154
 17.670    543.000    562.446    -19.446    561.955    562.304    561.955    562.097    561.955
 17.770    516.623    562.246    -45.622    561.754    562.103    561.754    561.896    561.754
 17.870    589.574    562.053     27.521    561.550    561.910    561.550    561.693    561.550
 17.970    541.000    561.862    -20.862    561.343    561.718    561.343    561.487    561.343
 18.070    608.000    561.655     46.345    561.133    561.510    561.133    561.278    561.133
 18.170    527.000    561.445    -34.445    560.921    561.299    560.921    561.067    560.921
 18.270    556.425    561.232     -4.807    560.706    561.085    560.706    560.853    560.706
 18.370    527.000    561.017    -34.017    560.488    560.869    560.488    560.636    560.488
 18.470    608.498    560.800     47.697    560.268    560.651    560.268    560.417    560.268
 18.570    610.000    560.581     49.419    560.045    560.431    560.045    560.196    560.045
 18.670    575.000    560.360     14.640    559.820    560.208    559.820    559.972    559.820
 18.770    543.000    560.136    -17.136    559.593    559.984    559.593    559.745    559.593
 18.870    542.000    559.915    -17.915    559.363    559.762    559.363    559.516    559.363
 18.970    573.286    559.741     13.545    559.130    559.586    559.130    559.285    559.130
 19.070    558.000    559.570     -1.570    558.896    559.414    558.896    559.052    558.896
 19.170    607.228    559.344     47.884    558.659    559.187    558.659    558.816    558.659
 19.270    522.000    559.111    -37.111    558.419    558.953    558.419    558.578    558.419
 19.370    557.000    558.876     -1.876    558.178    558.717    558.178    558.338    558.178
 19.470    545.000    558.643    -13.643    557.935    558.482    557.935    558.095    557.935
 19.570    520.175    558.406    -38.231    557.689    558.244    557.689    557.851    557.689
 19.670    560.666    558.166      2.500    557.441    558.002    557.441    557.605    557.441
 19.770    567.000    557.924      9.076    557.191    557.759    557.191    557.356    557.191
 19.870    565.000    557.681      7.319    556.939    557.515    556.939    557.106    556.939
 19.970    533.000    557.437    -24.437    556.685    557.269    556.685    556.853    556.685
 20.070    532.000    557.192    -25.192    556.430    557.023    556.430    556.599    556.430
 20.170    516.000    556.950    -40.950    556.172    556.779    556.172    556.343    556.172
 20.270    562.000    556.702      5.298    555.912    556.529    555.912    556.085    555.912
 20.370    563.801    556.452      7.350    555.651    556.278    555.651    555.825    555.651
 20.470    524.000    556.201    -32.201    555.387    556.025    555.387    555.563    555.387
 20.570    573.000    555.949     17.051    555.122    555.772    555.122    555.300    555.122
 20.670    517.587    555.696    -38.108    554.856    555.517    554.856    555.035    554.856
 20.770    556.000    555.442      0.558    554.587    555.261    554.587    554.768    554.587
 20.870    543.447    555.187    -11.740    554.317    555.005    554.317    554.500    554.317
 20.970    551.598    554.932     -3.334    554.045    554.747    554.045    554.230    554.045
 21.070    541.525    554.679    -13.154    553.772    554.493    553.772    553.958    553.772
 21.170    557.808    554.462      3.346    553.497    554.274    553.497    553.685    553.497
 21.270    546.000    554.233     -8.233    553.221    554.043    553.221    553.411    553.221
 21.370    506.079    553.980    -47.901    552.943    553.788    552.943    553.135    552.943
 21.470    516.000    553.740    -37.740    552.663    553.546    552.663    552.857    552.663
 21.570    588.621    553.515     35.106    552.382    553.319    552.382    552.579    552.382
 21.670    518.990    553.264    -34.274    552.100    553.066    552.100    552.299    552.100
 21.770    507.391    553.010    -45.619    551.817    552.809    551.817    552.017    551.817
 21.870    564.000    552.756     11.244    551.532    552.553    551.532    551.735    551.532
 21.970    545.000    552.504     -7.504    551.245    552.298    551.245    551.451    551.245
 22.070    577.000    552.253     24.747    550.958    552.045    550.958    551.166    550.958
 22.170    500.000    552.004    -52.004    550.669    551.794    550.669    550.880    550.669
 22.270    544.000    551.758     -7.758    550.379    551.545    550.379    550.593    550.379
 22.370    560.674    551.518      9.156    550.088    551.302    550.088    550.304    550.088
 22.470    536.000    551.280    -15.280    549.796    551.061    549.796    550.015    549.796
 22.570    556.000    551.045      4.955    549.502    550.824    549.502    549.724    549.502
 22.670    561.000    550.817     10.183    549.208    550.592    549.208    549.433    549.208
 22.770    566.000    550.595     15.405    548.913    550.367    548.913    549.141    548.913
 22.870    550.000    550.382     -0.382    548.616    550.151    548.616    548.848    548.616
 22.970    576.669    550.180     26.489    548.319    549.946    548.319    548.553    548.319
 23.070    582.414    549.992     32.422    548.020    549.754    548.020    548.259    548.020
 23.170    525.000    549.826    -24.826    547.721    549.585    547.721    547.963    547.721
 23.270    526.000    549.678    -23.678    547.420    549.433    547.420    547.666    547.420
 23.370    531.000    549.553    -18.553    547.119    549.304    547.119    547.369    547.119
 23.470    553.000    549.463      3.537    546.817    549.210    546.817    547.071    546.817
 23.570    588.000    549.420     38.580    546.515    549.163    546.515    546.773    546.515
 23.670    529.590    549.455    -19.865    546.211    549.193    546.211    546.474    546.211
 23.770    552.000    549.564      2.436    545.907    549.298    545.907    546.174    545.907
 23.870    588.619    549.816     38.803    545.602    549.545    545.602    545.874    545.602
 23.970    506.875    550.254    -43.379    545.296    549.978    545.296    545.574    545.296
 24.070    526.928    551.042    -24.114    544.990    550.762    544.990    545.273    544.990
 24.170    568.000    552.610     15.390    544.683    552.326    544.683    544.971    544.683
 24.270    588.000    555.945     32.055    544.375    555.657    544.375    544.670    544.375
 24.370    607.000    562.796     44.204    544.067    562.507    544.067    544.368    544.067
 24.470    619.000    575.259     43.741    543.758    574.973    543.758    544.065    543.758
 24.570    618.000    594.106     23.894    543.449    593.826    543.449    543.763    543.449
 24.670    595.798    615.922    -20.124    543.139    615.650    543.139    543.460    543.139
 24.770    645.000    631.127     13.873    542.828    630.859    542.828    543.158    542.828
 24.870    641.308    629.554     11.753    542.518    629.278    542.518    542.855    542.518
 24.970    649.000    612.267     36.733    542.207    611.970    542.207    542.552    542.207
 25.070    568.000    589.996    -21.996    541.895    589.674    541.895    542.250    541.895
 25.170    595.000    571.468     23.532    541.583    571.123    541.583    541.948    541.583
 25.270    561.612    559.357      2.255    541.271    558.994    541.271    541.646    541.271
 25.370    555.000    552.598      2.402    540.958    552.219    540.958    541.344    540.958
 25.470    577.573    549.107     28.466    540.645    548.714    540.645    541.043    540.645
 25.570    512.896    547.187    -34.291    540.332    546.780    540.332    540.742    540.332
 25.670    582.000    545.983     36.017    540.019    545.562    540.019    540.442    540.019
 25.770    540.499    545.121     -4.621    539.705    544.685    539.705    540.142    539.705
 25.870    547.000    544.452      2.548    539.391    544.001    539.391    539.843    539.391
 25.970    540.722    543.921     -3.199    539.077    543.453    539.077    539.546    539.077
 26.070    567.000    543.475     23.525    538.763    542.990    538.763    539.249    538.763
 26.170    578.000    543.103     34.897    538.449    542.598    538.449    538.954    538.449
 26.270    505.000    542.805    -37.805    538.135    542.280    538.135    538.660    538.135
 26.370    572.000    542.554     29.446    537.820    542.006    537.820    538.368    537.820
 26.470    504.178    542.360    -38.182    537.506    541.788    537.506    538.078    537.506
 26.570    544.000    542.220      1.780    537.191    541.622    537.191    537.790    537.191
 26.670    497.091    542.138    -45.047    536.877    541.511    536.877    537.504    536.877
 26.770    555.000    542.123     12.877    536.562    541.464    536.562    537.221    536.562
 26.870    564.000    542.187     21.813    536.248    541.494    536.248    536.941    536.248
 26.970    586.743    542.348     44.395    535.934    541.616    535.934    536.665    535.934
 27.070    560.082    542.631     17.451    535.619    541.856    535.619    536.393    535.619
 27.170    548.000    543.067      4.933    535.305    542.246    535.305    536.126    535.305
 27.270    520.339    543.713    -23.374    534.991    542.839    534.991    535.864    534.991
 27.370    569.000    544.651     24.349    534.677    543.718    534.677    535.609    534.677
 27.470    565.000    546.035     18.965    534.364    545.036    534.364    535.361    534.364
 27.570    567.000    548.269     18.731    534.050    547.195    534.050    535.122    534.050
 27.670    548.825    552.765     -3.940    533.737    551.606    533.737    534.893    533.737
 27.770    579.000    564.115     14.885    533.424    562.855    533.424    534.676    533.424
 27.870    592.000    593.434     -1.434    533.111    592.053    533.111    534.474    533.111
 27.970    678.353    657.324     21.029    532.798    655.793    532.798    534.290    532.798
 28.070    785.338    762.633     22.705    532.486    760.919    532.486    534.129    532.486
 28.170    856.000    880.711    -24.711    532.174    878.791    532.174    533.995    532.174
 28.270    930.000    942.739    -12.739    531.863    940.608    531.863    533.896    531.863
 28.370    956.745    900.921     55.824    531.552    898.569    531.552    533.839    531.552
 28.470    818.000    799.089     18.911    531.241    796.466    531.241    533.836    531.241
 28.570    767.242    715.531     51.711    530.930    712.552    530.930    533.899    530.930
 28.670    664.724    694.647    -29.923    530.621    691.214    530.621    534.042    530.621
 28.770    782.000    734.804     47.196    530.311    730.814    530.311    534.281    530.311
 28.870    752.888    799.439    -46.551    530.002    794.784    530.002    534.632    530.002
 28.970    829.000    832.464     -3.464    529.693    827.029    529.693    535.110    529.693
 29.070    755.470    798.440    -42.971    529.385    792.100    529.385    535.725    529.385
 29.170    680.000    722.256    -42.256    529.078    714.874    529.078    536.470    529.078
 29.270    666.000    647.829     18.171    528.771    639.296    528.771    537.316    528.771
 29.370    651.000    597.545     53.455    528.464    587.831    528.464    538.187    528.464
 29.470    625.000    571.298     53.702    528.158    560.506    528.158    538.955    528.158
 29.570    541.867    559.700    -17.832    527.853    548.108    527.853    539.447    527.853
 29.670    600.000    554.504     45.496    527.548    542.557    527.548    539.496    527.548
 29.770    527.096    551.437    -24.342    527.244    539.662    527.244    539.019    527.244
 29.870    584.000    548.957     35.043    526.941    537.838    526.941    538.059    526.941
 29.970    558.000    546.697     11.303    526.638    536.572    526.638    536.762    526.638
 30.070    582.451    544.675     37.777    526.336    535.704    526.336    535.305    526.336
 30.170    550.142    543.008      7.134    526.035    535.205    526.035    533.835    526.035
 30.270    609.000    541.908     67.092    525.734    535.195    525.734    532.445    525.734
 30.370    516.937    541.864    -24.927    525.434    536.117    525.434    531.178    525.434
