neutron_powder_diffraction_0244
R_wp: 4.073
Temperature (K): 978.459
Counts: 83780.00
Wavelength (Ã…): 2.52098
COMMENTS
Test file for demonstrating the .xyy file format in Reel1.0
END OF HEADER
   tth       Y_obs     Y_calc      Y_res    Background    Phase_1_Nuc    Phase_1_Mag    Phase_2_Nuc    Phase_2_Mag
  9.970    616.000    566.036     49.964    565.471    566.013    565.471    565.494    565.471
 10.070    595.000    566.203     28.797    565.583    566.180    565.583    565.606    565.583
 10.170    618.000    566.363     51.637    565.689    566.339    565.689    565.712    565.689
 10.270    580.000    566.523     13.477    565.789    566.500    565.789    565.812    565.789
 10.370    617.270    566.688     50.582    565.883    566.665    565.883    565.906    565.883
 10.470    579.000    566.859     12.141    565.970    566.835    565.970    565.994    565.970
 10.570    593.000    567.039     25.961    566.052    567.015    566.052    566.076    566.052
 10.670    565.000    567.233     -2.233    566.128    567.207    566.128    566.154    566.128
 10.770    589.000    567.447     21.553    566.198    567.418    566.198    566.226    566.198
 10.870    570.000    567.683      2.317    566.263    567.654    566.263    566.291    566.263
 10.970    537.144    567.954    -30.810    566.321    567.925    566.321    566.350    566.321
 11.070    529.517    568.274    -38.757    566.374    568.245    566.374    566.403    566.374
 11.170    603.997    568.664     35.333    566.422    568.634    566.422    566.451    566.422
 11.270    554.000    569.153    -15.153    566.464    569.123    566.464    566.493    566.464
 11.370    597.000    569.795     27.205    566.500    569.764    566.500    566.529    566.500
 11.470    572.000    570.691      1.309    566.531    570.660    566.531    566.560    566.531
 11.570    593.000    572.132     20.868    566.557    572.100    566.557    566.586    566.557
 11.670    550.447    575.013    -24.566    566.577    574.979    566.577    566.607    566.577
 11.770    668.000    581.732     86.268    566.592    581.694    566.592    566.622    566.592
 11.870    635.000    596.876     38.124    566.602    596.829    566.602    566.632    566.602
 11.970    608.599    625.304    -16.705    566.607    625.241    566.607    566.637    566.607
 12.070    674.000    665.456      8.544    566.606    665.368    566.606    566.638    566.606
 12.170    664.933    701.587    -36.654    566.601    701.479    566.601    566.633    566.601
 12.270    674.116    709.089    -34.974    566.590    708.977    566.590    566.623    566.590
 12.370    667.000    681.026    -14.026    566.574    680.929    566.574    566.607    566.574
 12.470    604.035    639.178    -35.142    566.554    639.104    566.554    566.587    566.554
 12.570    634.725    605.314     29.411    566.529    605.259    566.529    566.562    566.529
 12.670    612.493    585.666     26.827    566.498    585.622    566.498    566.532    566.498
 12.770    573.000    576.577     -3.577    566.464    576.538    566.464    566.497    566.464
 12.870    585.000    572.752     12.248    566.424    572.715    566.424    566.458    566.424
 12.970    526.000    570.966    -44.966    566.380    570.929    566.380    566.414    566.380
 13.070    588.000    569.918     18.082    566.331    569.881    566.331    566.365    566.331
 13.170    550.000    569.192    -19.192    566.277    569.151    566.277    566.316    566.277
 13.270    559.000    568.649     -9.649    566.219    568.600    566.219    566.267    566.219
 13.370    599.971    568.214     31.758    566.157    568.164    566.157    566.205    566.157
 13.470    525.036    567.858    -42.822    566.090    567.808    566.090    566.139    566.090
 13.570    544.000    567.560    -23.560    566.018    567.509    566.018    566.068    566.018
 13.670    603.000    567.302     35.698    565.943    567.251    565.943    565.993    565.943
 13.770    515.000    567.073    -52.073    565.863    567.022    565.863    565.913    565.863
 13.870    516.022    566.867    -50.846    565.779    566.815    565.779    565.830    565.779
 13.970    556.000    566.679    -10.679    565.690    566.625    565.690    565.744    565.690
 14.070    549.302    566.505    -17.204    565.598    566.447    565.598    565.656    565.598
 14.170    520.000    566.337    -46.337    565.501    566.277    565.501    565.560    565.501
 14.270    542.000    566.174    -24.174    565.400    566.115    565.400    565.459    565.400
 14.370    547.000    566.016    -19.016    565.296    565.956    565.296    565.355    565.296
 14.470    556.000    565.861     -9.861    565.187    565.801    565.187    565.247    565.187
 14.570    572.868    565.709      7.159    565.074    565.648    565.074    565.135    565.074
 14.670    562.004    565.558     -3.553    564.958    565.497    564.958    565.019    564.958
 14.770    566.000    565.409      0.591    564.838    565.348    564.838    564.899    564.838
 14.870    592.000    565.263     26.737    564.714    565.201    564.714    564.775    564.714
 14.970    487.000    565.111    -78.111    564.586    565.050    564.586    564.648    564.586
 15.070    518.000    564.959    -46.959    564.455    564.897    564.455    564.516    564.455
 15.170    603.824    564.805     39.019    564.319    564.743    564.319    564.382    564.319
 15.270    568.000    564.650      3.350    564.181    564.587    564.181    564.243    564.181
 15.370    531.988    564.492    -32.505    564.038    564.429    564.038    564.101    564.038
 15.470    561.000    564.333     -3.333    563.893    564.270    563.893    563.956    563.893
 15.570    529.000    564.172    -35.172    563.743    564.108    563.743    563.807    563.743
 15.670    533.000    564.009    -31.009    563.591    563.945    563.591    563.655    563.591
 15.770    562.932    563.843     -0.911    563.435    563.779    563.435    563.499    563.435
 15.870    554.000    563.676     -9.676    563.275    563.611    563.275    563.340    563.275
 15.970    568.000    563.505      4.495    563.112    563.440    563.112    563.178    563.112
 16.070    576.000    563.333     12.667    562.946    563.267    562.946    563.012    562.946
 16.170    580.000    563.158     16.842    562.777    563.091    562.777    562.844    562.777
 16.270    527.000    562.980    -35.980    562.605    562.913    562.605    562.672    562.605
 16.370    598.000    562.800     35.200    562.429    562.733    562.429    562.496    562.429
 16.470    525.000    562.617    -37.617    562.251    562.550    562.251    562.319    562.251
 16.570    549.421    562.435    -13.014    562.069    562.364    562.069    562.140    562.069
 16.670    551.000    562.248    -11.248    561.884    562.176    561.884    561.957    561.884
 16.770    574.000    562.058     11.942    561.697    561.985    561.697    561.770    561.697
 16.870    549.000    561.866    -12.866    561.506    561.792    561.506    561.580    561.506
 16.970    549.000    561.671    -12.671    561.313    561.597    561.313    561.388    561.313
 17.070    538.000    561.474    -23.474    561.116    561.398    561.116    561.192    561.116
 17.170    541.000    561.274    -20.274    560.917    561.198    560.917    560.994    560.917
 17.270    509.000    561.072    -52.072    560.715    560.995    560.715    560.792    560.715
 17.370    569.000    560.867      8.133    560.511    560.790    560.511    560.588    560.511
 17.470    542.000    560.661    -18.661    560.304    560.583    560.304    560.382    560.304
 17.570    535.000    560.453    -25.453    560.094    560.374    560.094    560.172    560.094
 17.670    527.000    560.241    -33.241    559.881    560.162    559.881    559.960    559.881
 17.770    555.000    560.027     -5.027    559.666    559.948    559.666    559.745    559.666
 17.870    541.000    559.811    -18.811    559.448    559.731    559.448    559.528    559.448
 17.970    586.000    559.592     26.408    559.228    559.511    559.228    559.309    559.228
 18.070    556.000    559.371     -3.371    559.005    559.290    559.005    559.087    559.005
 18.170    577.950    559.148     18.802    558.780    559.066    558.780    558.862    558.780
 18.270    552.000    558.923     -6.923    558.553    558.841    558.553    558.635    558.553
 18.370    510.448    558.696    -48.248    558.323    558.613    558.323    558.406    558.323
 18.470    605.789    558.467     47.322    558.091    558.383    558.091    558.175    558.091
 18.570    519.241    558.235    -38.994    557.856    558.151    557.856    557.941    557.856
 18.670    598.716    558.002     40.714    557.620    557.917    557.620    557.705    557.620
 18.770    583.000    557.768     25.232    557.381    557.681    557.381    557.468    557.381
 18.870    603.000    557.531     45.469    557.140    557.443    557.140    557.228    557.140
 18.970    564.411    557.293      7.118    556.897    557.203    556.897    556.986    556.897
 19.070    583.000    557.052     25.948    556.651    556.962    556.651    556.741    556.651
 19.170    587.000    556.810     30.190    556.404    556.719    556.404    556.495    556.404
 19.270    526.183    556.566    -30.383    556.155    556.474    556.155    556.246    556.155
 19.370    565.730    556.320      9.410    555.904    556.228    555.904    555.996    555.904
 19.470    514.782    556.072    -41.290    555.650    555.979    555.650    555.743    555.650
 19.570    530.000    555.824    -25.824    555.395    555.731    555.395    555.489    555.395
 19.670    535.453    555.574    -20.121    555.138    555.479    555.138    555.232    555.138
 19.770    546.367    555.321     -8.954    554.879    555.226    554.879    554.974    554.879
 19.870    550.000    555.068     -5.068    554.618    554.972    554.618    554.714    554.618
 19.970    556.633    554.814      1.819    554.356    554.718    554.356    554.453    554.356
 20.070    562.000    554.578      7.422    554.092    554.480    554.092    554.189    554.092
 20.170    555.000    554.323      0.677    553.826    554.224    553.826    553.924    553.826
 20.270    542.000    554.064    -12.064    553.558    553.965    553.558    553.658    553.558
 20.370    588.199    553.804     34.394    553.289    553.704    553.289    553.389    553.289
 20.470    574.000    553.543     20.457    553.018    553.441    553.018    553.120    553.018
 20.570    598.732    553.287     45.446    552.745    553.178    552.745    552.854    552.745
 20.670    570.000    553.025     16.975    552.471    552.914    552.471    552.582    552.471
 20.770    596.915    552.761     44.154    552.196    552.649    552.196    552.308    552.196
 20.870    534.000    552.496    -18.496    551.919    552.383    551.919    552.032    551.919
 20.970    579.589    552.230     27.359    551.640    552.116    551.640    551.754    551.640
 21.070    523.678    551.964    -28.286    551.360    551.849    551.360    551.476    551.360
 21.170    522.000    551.697    -29.697    551.079    551.581    551.079    551.196    551.079
 21.270    554.000    551.430      2.570    550.796    551.312    550.796    550.914    550.796
 21.370    521.018    551.162    -30.145    550.512    551.043    550.512    550.632    550.512
 21.470    561.000    550.895     10.105    550.227    550.774    550.227    550.348    550.227
 21.570    550.000    550.631     -0.631    549.941    550.509    549.941    550.062    549.941
 21.670    511.056    550.419    -39.363    549.653    550.296    549.653    549.776    549.653
 21.770    504.647    550.261    -45.614    549.364    550.136    549.364    549.489    549.364
 21.870    508.890    550.005    -41.115    549.074    549.879    549.074    549.200    549.074
 21.970    539.000    549.739    -10.739    548.783    549.612    548.783    548.910    548.783
 22.070    517.000    549.475    -32.475    548.490    549.345    548.490    548.619    548.490
 22.170    523.300    549.211    -25.911    548.197    549.080    548.197    548.327    548.197
 22.270    509.000    548.949    -39.949    547.902    548.817    547.902    548.035    547.902
 22.370    507.000    548.690    -41.690    547.607    548.556    547.607    547.741    547.607
 22.470    548.000    548.436     -0.436    547.310    548.300    547.310    547.446    547.310
 22.570    583.000    548.185     34.815    547.013    548.047    547.013    547.150    547.013
 22.670    541.680    547.953     -6.272    546.714    547.813    546.714    546.854    546.714
 22.770    595.957    547.755     48.202    546.415    547.613    546.415    546.557    546.415
 22.870    577.618    547.521     30.097    546.114    547.378    546.114    546.258    546.114
 22.970    593.333    547.289     46.044    545.813    547.143    545.813    545.959    545.813
 23.070    562.486    547.065     15.421    545.511    546.917    545.511    545.660    545.511
 23.170    562.000    546.853     15.147    545.209    546.702    545.209    545.359    545.209
 23.270    575.000    546.654     28.346    544.905    546.501    544.905    545.058    544.905
 23.370    553.313    546.473      6.840    544.601    546.318    544.601    544.757    544.601
 23.470    529.000    546.314    -17.314    544.296    546.157    544.296    544.454    544.296
 23.570    551.113    546.187      4.927    543.991    546.026    543.991    544.151    543.991
 23.670    527.000    546.099    -19.099    543.684    545.936    543.684    543.848    543.684
 23.770    554.000    546.067      7.933    543.377    545.901    543.377    543.544    543.377
 23.870    561.000    546.112     14.888    543.070    545.944    543.070    543.240    543.070
 23.970    504.324    546.275    -41.951    542.762    546.104    542.762    542.935    542.762
 24.070    528.920    546.641    -17.721    542.453    546.467    542.453    542.630    542.453
 24.170    566.000    547.457     18.543    542.144    547.277    542.144    542.327    542.144
 24.270    588.584    549.425     39.158    541.834    549.242    541.834    542.021    541.834
 24.370    552.000    554.237     -2.237    541.524    554.054    541.524    541.715    541.524
 24.470    572.000    564.745      7.255    541.214    564.565    541.214    541.409    541.214
 24.570    573.000    583.444    -10.444    540.903    583.274    540.903    541.102    540.903
 24.670    604.000    608.539     -4.539    540.591    608.383    540.591    540.795    540.591
 24.770    621.276    630.057     -8.781    540.279    629.911    540.279    540.489    540.279
 24.870    667.216    633.738     33.478    539.967    633.591    539.967    540.182    539.967
 24.970    625.448    616.143      9.304    539.655    615.977    539.655    539.875    539.655
 25.070    548.930    589.960    -41.030    539.342    589.770    539.342    539.568    539.342
 25.170    561.000    567.998     -6.998    539.029    567.786    539.029    539.261    539.029
 25.270    570.000    554.500     15.500    538.716    554.272    538.716    538.954    538.716
 25.370    569.384    547.769     21.615    538.402    547.529    538.402    538.647    538.402
 25.470    511.000    544.682    -33.682    538.088    544.433    538.088    538.341    538.088
 25.570    527.657    543.144    -15.486    537.775    542.885    537.775    538.035    537.775
 25.670    539.000    542.194     -3.194    537.460    541.926    537.460    537.729    537.460
 25.770    583.000    541.500     41.500    537.146    541.223    537.146    537.424    537.146
 25.870    542.000    540.955      1.045    536.832    540.668    536.832    537.120    536.832
 25.970    579.000    540.511     38.489    536.518    540.214    536.518    536.816    536.518
 26.070    575.000    540.141     34.859    536.203    539.831    536.203    536.513    536.203
 26.170    556.146    539.831     16.315    535.889    539.510    535.889    536.211    535.889
 26.270    534.000    539.576     -5.576    535.574    539.241    535.574    535.909    535.574
 26.370    575.000    539.372     35.628    535.259    539.023    535.259    535.609    535.259
 26.470    493.075    539.219    -46.144    534.945    538.853    534.945    535.311    534.945
 26.570    560.000    539.120     20.880    534.630    538.737    534.630    535.013    534.630
 26.670    538.000    539.097     -1.097    534.316    538.695    534.316    534.718    534.316
 26.770    492.577    539.169    -46.592    534.002    538.747    534.002    534.424    534.002
 26.870    522.000    539.288    -17.288    533.688    538.842    533.688    534.133    533.688
 26.970    557.707    539.496     18.210    533.373    539.025    533.373    533.844    533.373
 27.070    581.000    539.832     41.168    533.059    539.332    533.059    533.559    533.059
 27.170    511.618    540.336    -28.718    532.746    539.805    532.746    533.276    532.746
 27.270    592.000    541.072     50.928    532.432    540.505    532.432    532.998    532.432
 27.370    553.000    542.115     10.885    532.119    541.508    532.119    532.724    532.119
 27.470    614.000    543.633     70.367    531.806    542.981    531.806    532.456    531.806
 27.570    563.000    546.041     16.959    531.493    545.336    531.493    532.194    531.493
 27.670    541.743    550.614     -8.871    531.180    549.850    531.180    531.940    531.180
 27.770    577.000    561.458     15.542    530.868    560.623    530.868    531.695    530.868
 27.870    578.322    588.607    -10.285    530.556    587.684    530.556    531.462    530.556
 27.970    678.000    647.642     30.358    530.244    646.609    530.244    531.241    530.244
 28.070    775.000    747.141     27.859    529.933    745.972    529.933    531.038    529.933
 28.170    897.000    864.830     32.170    529.622    863.509    529.622    530.855    529.622
 28.270    958.000    937.782     20.218    529.311    936.307    529.311    530.698    529.311
 28.370    889.000    912.420    -23.420    529.001    910.789    529.001    530.575    529.001
 28.470    772.000    817.771    -45.771    528.691    815.941    528.691    530.496    528.691
 28.570    733.000    728.562      4.438    528.382    726.457    528.382    530.477    528.382
 28.670    711.000    695.875     15.125    528.073    693.392    528.073    530.544    528.073
 28.770    695.628    726.389    -30.760    527.765    723.389    527.765    530.746    527.765
 28.870    828.992    789.397     39.595    527.457    785.659    527.457    531.173    527.457
 28.970    766.000    830.134    -64.134    527.150    825.280    527.150    531.989    527.150
 29.070    776.000    807.278    -31.278    526.843    800.661    526.843    533.462    526.843
 29.170    738.917    736.870      2.047    526.537    727.460    526.537    535.960    526.537
 29.270    651.000    662.833    -11.833    526.231    649.206    526.231    539.871    526.231
 29.370    582.000    612.472    -30.472    525.926    592.994    525.926    545.413    525.926
 29.470    662.000    588.562     73.438    525.622    561.907    525.622    552.280    525.622
 29.570    632.925    581.211     51.713    525.318    547.418    525.318    559.110    525.318
 29.670    609.000    579.184     29.816    525.014    540.925    525.014    563.272    525.014
 29.770    525.928    575.318    -49.390    524.712    537.620    524.712    562.409    524.712
 29.870    614.000    568.048     45.952    524.410    535.578    524.410    556.878    524.410
 29.970    587.514    559.344     28.170    524.109    534.163    524.109    549.288    524.109
 30.070    534.523    551.393    -16.870    523.808    533.169    523.808    542.030    523.808
 30.170    518.864    545.245    -26.381    523.508    532.540    523.508    536.211    523.508
 30.270    492.739    541.142    -48.402    523.209    532.347    523.209    532.002    523.209
 30.370    571.435    539.160     32.275    522.911    532.936    522.911    529.132    522.911
