neutron_powder_diffraction_0114
R_wp: 4.004
Temperature (K): 956.823
Counts: 83506.00
Wavelength (Ã…): 2.52098
COMMENTS
Test file for demonstrating the .xyy file format in Reel1.0
END OF HEADER
   tth       Y_obs     Y_calc      Y_res    Background    Phase_1_Nuc    Phase_1_Mag    Phase_2_Nuc    Phase_2_Mag
  9.970    582.000    550.427     31.573    549.311    550.239    549.311    549.498    549.311
 10.070    584.000    550.889     33.111    549.694    550.701    549.694    549.881    549.694
 10.170    587.287    551.353     35.934    550.068    551.165    550.068    550.256    550.068
 10.270    538.459    551.822    -13.363    550.432    551.633    550.432    550.621    550.432
 10.370    578.272    552.298     25.974    550.787    552.108    550.787    550.977    550.787
 10.470    513.000    552.785    -39.785    551.133    552.594    551.133    551.323    551.133
 10.570    544.999    553.288     -8.289    551.469    553.096    551.469    551.661    551.469
 10.670    590.000    553.814     36.186    551.797    553.621    551.797    551.989    551.797
 10.770    580.000    554.371     25.629    552.116    554.177    552.116    552.309    552.116
 10.870    589.021    554.970     34.051    552.426    554.775    552.426    552.619    552.426
 10.970    554.800    555.628     -0.828    552.727    555.432    552.727    552.921    552.727
 11.070    577.000    556.368     20.632    553.019    556.171    553.019    553.214    553.019
 11.170    585.623    557.226     28.397    553.303    557.028    553.303    553.499    553.303
 11.270    575.000    558.246     16.754    553.578    558.046    553.578    553.775    553.578
 11.370    561.974    559.521      2.453    553.844    559.321    553.844    554.042    553.844
 11.470    601.000    561.251     39.749    554.102    561.048    554.102    554.301    554.102
 11.570    553.000    563.913    -10.913    554.352    563.709    554.352    554.552    554.352
 11.670    573.000    568.638      4.362    554.594    568.430    554.594    554.794    554.594
 11.770    635.000    577.611     57.389    554.827    577.397    554.827    555.028    554.827
 11.870    547.570    593.897    -46.327    555.052    593.673    555.052    555.254    555.052
 11.970    584.700    619.667    -34.967    555.269    619.428    555.269    555.472    555.269
 12.070    678.000    652.426     25.574    555.478    652.168    555.478    555.682    555.478
 12.170    708.000    680.874     27.126    555.679    680.599    555.679    555.884    555.679
 12.270    641.000    687.875    -46.875    555.872    687.595    555.872    556.078    555.872
 12.370    717.033    667.724     49.309    556.058    667.455    556.058    556.265    556.058
 12.470    594.625    634.946    -40.322    556.236    634.694    556.236    556.444    556.236
 12.570    603.000    605.431     -2.431    556.406    605.195    556.406    556.615    556.406
 12.670    556.801    585.308    -28.507    556.569    585.083    556.569    556.778    556.569
 12.770    544.000    573.867    -29.867    556.724    573.647    556.724    556.934    556.724
 12.870    527.000    568.028    -41.028    556.871    567.810    556.871    557.083    556.871
 12.970    576.430    565.072     11.359    557.012    564.855    557.012    557.224    557.012
 13.070    551.000    563.426    -12.426    557.145    563.209    557.145    557.358    557.145
 13.170    551.214    562.384    -11.170    557.271    562.167    557.271    557.485    557.271
 13.270    549.000    561.663    -12.663    557.389    561.445    557.389    557.605    557.389
 13.370    536.696    561.141    -24.445    557.501    560.923    557.501    557.718    557.501
 13.470    579.000    560.754     18.246    557.606    560.535    557.606    557.823    557.606
 13.570    546.000    560.463    -14.463    557.703    560.243    557.703    557.922    557.703
 13.670    569.000    560.242      8.758    557.794    560.021    557.794    558.014    557.794
 13.770    553.000    560.072     -7.072    557.878    559.851    557.878    558.099    557.878
 13.870    536.000    559.942    -23.942    557.955    559.720    557.955    558.177    557.955
 13.970    594.000    559.839     34.161    558.026    559.615    558.026    558.249    558.026
 14.070    514.000    559.756    -45.756    558.090    559.531    558.090    558.314    558.090
 14.170    561.743    559.688      2.054    558.147    559.463    558.147    558.372    558.147
 14.270    527.736    559.633    -31.897    558.198    559.406    558.198    558.425    558.198
 14.370    510.000    559.586    -49.586    558.243    559.358    558.243    558.470    558.243
 14.470    534.814    559.545    -24.731    558.281    559.316    558.281    558.510    558.281
 14.570    563.492    559.508      3.984    558.313    559.277    558.313    558.543    558.313
 14.670    582.148    559.473     22.675    558.338    559.242    558.338    558.570    558.338
 14.770    604.083    559.440     44.643    558.358    559.207    558.358    558.590    558.358
 14.870    535.000    559.407    -24.407    558.371    559.173    558.371    558.605    558.371
 14.970    522.000    559.373    -37.373    558.379    559.138    558.379    558.614    558.379
 15.070    593.000    559.338     33.662    558.380    559.102    558.380    558.616    558.380
 15.170    566.000    559.301      6.699    558.376    559.064    558.376    558.613    558.376
 15.270    533.484    559.262    -25.777    558.365    559.023    558.365    558.604    558.365
 15.370    564.000    559.220      4.780    558.349    558.980    558.349    558.589    558.349
 15.470    532.000    559.175    -27.175    558.328    558.934    558.328    558.569    558.328
 15.570    564.761    559.127      5.633    558.300    558.885    558.300    558.543    558.300
 15.670    537.908    559.076    -21.168    558.267    558.832    558.267    558.511    558.267
 15.770    521.178    559.021    -37.843    558.228    558.776    558.228    558.474    558.228
 15.870    565.000    558.962      6.038    558.184    558.716    558.184    558.431    558.184
 15.970    553.000    558.900     -5.900    558.135    558.652    558.135    558.383    558.135
 16.070    548.570    558.834    -10.264    558.080    558.584    558.080    558.330    558.080
 16.170    551.000    558.778     -7.778    558.020    558.527    558.020    558.271    558.020
 16.270    541.000    558.814    -17.814    557.955    558.562    557.955    558.207    557.955
 16.370    536.925    558.747    -21.822    557.884    558.493    557.884    558.138    557.884
 16.470    510.495    558.667    -48.172    557.809    558.411    557.809    558.064    557.809
 16.570    517.142    558.601    -41.459    557.728    558.344    557.728    557.985    557.728
 16.670    538.000    558.519    -20.519    557.642    558.260    557.642    557.901    557.642
 16.770    599.001    558.425     40.576    557.552    558.165    557.552    557.812    557.552
 16.870    606.000    558.326     47.674    557.456    558.064    557.456    557.718    557.456
 16.970    577.000    558.223     18.777    557.356    557.960    557.356    557.619    557.356
 17.070    532.432    558.116    -25.684    557.251    557.851    557.251    557.516    557.251
 17.170    608.000    558.005     49.995    557.141    557.738    557.141    557.407    557.141
 17.270    524.389    557.889    -33.500    557.027    557.621    557.027    557.295    557.027
 17.370    541.000    557.770    -16.770    556.907    557.500    556.907    557.177    556.907
 17.470    549.000    557.647     -8.647    556.784    557.375    556.784    557.055    556.784
 17.570    555.000    557.520     -2.520    556.656    557.246    556.656    556.929    556.656
 17.670    556.000    557.389     -1.389    556.523    557.114    556.523    556.798    556.523
 17.770    539.599    557.258    -17.659    556.386    556.981    556.386    556.663    556.386
 17.870    562.000    557.119      4.881    556.245    556.841    556.245    556.524    556.245
 17.970    564.000    556.977      7.023    556.100    556.696    556.100    556.380    556.100
 18.070    536.000    556.830    -20.830    555.950    556.547    555.950    556.233    555.950
 18.170    530.000    556.680    -26.680    555.796    556.395    555.796    556.081    555.796
 18.270    547.000    556.526     -9.526    555.638    556.239    555.638    555.925    555.638
 18.370    542.851    556.368    -13.517    555.476    556.080    555.476    555.765    555.476
 18.470    533.000    556.207    -23.207    555.310    555.916    555.310    555.601    555.310
 18.570    550.000    556.042     -6.042    555.140    555.749    555.140    555.433    555.140
 18.670    506.000    555.874    -49.874    554.966    555.579    554.966    555.261    554.966
 18.770    552.000    555.702     -3.702    554.789    555.405    554.789    555.086    554.789
 18.870    571.000    555.528     15.472    554.607    555.229    554.607    554.907    554.607
 18.970    565.000    555.361      9.639    554.422    555.059    554.422    554.724    554.422
 19.070    565.000    555.242      9.758    554.233    554.939    554.233    554.537    554.233
 19.170    536.564    555.070    -18.506    554.041    554.764    554.041    554.347    554.041
 19.270    542.000    554.886    -12.886    553.845    554.577    553.845    554.153    553.845
 19.370    534.000    554.696    -20.696    553.645    554.385    553.645    553.956    553.645
 19.470    512.000    554.502    -42.502    553.442    554.189    553.442    553.755    553.442
 19.570    551.000    554.306     -3.306    553.235    553.990    553.235    553.551    553.235
 19.670    521.000    554.107    -33.107    553.025    553.788    553.025    553.344    553.025
 19.770    535.000    553.905    -18.905    552.812    553.583    552.812    553.133    552.812
 19.870    596.759    553.700     43.059    552.595    553.376    552.595    552.919    552.595
 19.970    509.861    553.493    -43.632    552.375    553.166    552.375    552.702    552.375
 20.070    541.000    553.287    -12.287    552.152    552.957    552.152    552.482    552.152
 20.170    550.000    553.118     -3.118    551.926    552.785    551.926    552.259    551.926
 20.270    544.000    552.913     -8.913    551.697    552.577    551.697    552.033    551.697
 20.370    546.326    552.697     -6.370    551.465    552.358    551.465    551.803    551.465
 20.470    540.000    552.478    -12.478    551.229    552.136    551.229    551.571    551.229
 20.570    506.000    552.257    -46.257    550.991    551.912    550.991    551.336    550.991
 20.670    533.069    552.034    -18.965    550.750    551.686    550.750    551.098    550.750
 20.770    525.326    551.809    -26.483    550.506    551.457    550.506    550.858    550.506
 20.870    491.000    551.583    -60.583    550.259    551.228    550.259    550.614    550.259
 20.970    505.000    551.363    -46.363    550.009    551.005    550.009    550.368    550.009
 21.070    529.594    551.149    -21.556    549.757    550.787    549.757    550.119    549.757
 21.170    553.000    550.920      2.080    549.502    550.554    549.502    549.868    549.502
 21.270    520.000    550.687    -30.687    549.244    550.318    549.244    549.614    549.244
 21.370    566.000    550.454     15.546    548.984    550.081    548.984    549.358    548.984
 21.470    546.000    550.220     -4.220    548.721    549.843    548.721    549.099    548.721
 21.570    591.000    549.986     41.014    548.456    549.604    548.456    548.838    548.456
 21.670    544.000    549.752     -5.752    548.189    549.366    548.189    548.575    548.189
 21.770    548.000    549.530     -1.530    547.918    549.139    547.918    548.309    547.918
 21.870    568.755    549.334     19.421    547.646    548.939    547.646    548.041    547.646
 21.970    518.505    549.110    -30.605    547.371    548.711    547.371    547.771    547.371
 22.070    545.000    548.903     -3.903    547.094    548.498    547.094    547.499    547.094
 22.170    553.000    548.675      4.325    546.815    548.266    546.815    547.224    546.815
 22.270    550.245    548.446      1.799    546.533    548.031    546.533    546.948    546.533
 22.370    541.000    548.223     -7.223    546.249    547.803    546.249    546.669    546.249
 22.470    555.364    548.039      7.324    545.964    547.614    545.964    546.389    545.964
 22.570    560.000    547.843     12.157    545.676    547.412    545.676    546.107    545.676
 22.670    553.000    547.641      5.359    545.386    547.204    545.386    545.823    545.386
 22.770    604.000    547.437     56.563    545.094    546.995    545.094    545.537    545.094
 22.870    541.000    547.240     -6.240    544.800    546.791    544.800    545.250    544.800
 22.970    552.000    547.056      4.944    544.505    546.601    544.505    544.960    544.505
 23.070    553.000    546.917      6.083    544.207    546.455    544.207    544.669    544.207
 23.170    517.000    546.789    -29.789    543.908    546.320    543.908    544.377    543.908
 23.270    570.000    546.656     23.344    543.607    546.180    543.607    544.083    543.607
 23.370    578.000    546.550     31.450    543.304    546.067    543.304    543.788    543.304
 23.470    517.993    546.490    -28.498    542.999    546.000    542.999    543.491    542.999
 23.570    548.000    546.467      1.533    542.693    545.968    542.693    543.193    542.693
 23.670    572.000    546.511     25.489    542.385    546.004    542.385    542.893    542.385
 23.770    529.000    546.639    -17.639    542.075    546.123    542.075    542.593    542.075
 23.870    534.000    546.882    -12.882    541.764    546.357    541.764    542.291    541.764
 23.970    551.000    547.309      3.691    541.452    546.775    541.452    541.988    541.452
 24.070    568.886    548.064     20.821    541.138    547.521    541.138    541.684    541.138
 24.170    539.000    549.492    -10.492    540.822    548.940    540.822    541.379    540.822
 24.270    554.000    552.377      1.623    540.505    551.816    540.505    541.073    540.505
 24.370    555.000    558.175     -3.175    540.187    557.606    540.187    540.767    540.187
 24.470    602.863    568.847     34.017    539.868    568.274    539.868    540.459    539.868
 24.570    595.000    585.686      9.314    539.547    585.113    539.547    540.151    539.547
 24.670    617.000    606.953     10.047    539.225    606.382    539.225    539.842    539.225
 24.770    627.000    625.360      1.640    538.901    624.789    538.901    539.533    538.901
 24.870    644.141    629.907     14.234    538.577    629.324    538.577    539.223    538.577
 24.970    643.376    616.688     26.688    538.251    616.080    538.251    538.913    538.251
 25.070    630.879    594.798     36.080    537.925    594.158    537.925    538.603    537.925
 25.170    582.000    574.613      7.387    537.597    573.942    537.597    538.293    537.597
 25.270    562.000    560.414      1.586    537.268    559.714    537.268    537.983    537.268
 25.370    568.000    552.002     15.998    536.938    551.276    536.938    537.672    536.938
 25.470    540.000    547.474     -7.474    536.607    546.724    536.607    537.362    536.607
 25.570    572.000    545.022     26.978    536.276    544.249    536.276    537.052    536.276
 25.670    585.000    543.547     41.453    535.943    542.749    535.943    536.743    535.943
 25.770    521.185    542.530    -21.345    535.609    541.707    535.609    536.435    535.609
 25.870    541.000    541.763     -0.763    535.275    540.913    535.275    536.127    535.275
 25.970    580.000    541.157     38.843    534.940    540.278    534.940    535.820    534.940
 26.070    559.000    540.668     18.332    534.604    539.758    534.604    535.515    534.604
 26.170    585.072    540.272     44.800    534.267    539.330    534.267    535.211    534.267
 26.270    573.000    539.955     33.045    533.930    538.977    533.930    534.909    533.930
 26.370    522.000    539.708    -17.708    533.592    538.692    533.592    534.609    533.592
 26.470    555.000    539.530     15.470    533.253    538.473    533.253    534.311    533.253
 26.570    539.000    539.418     -0.418    532.914    538.317    532.914    534.016    532.914
 26.670    571.000    539.378     31.622    532.574    538.229    532.574    533.724    532.574
 26.770    516.000    539.420    -23.420    532.234    538.219    532.234    533.435    532.234
 26.870    556.235    539.556     16.679    531.893    538.299    531.893    533.151    531.893
 26.970    524.000    539.808    -15.808    531.552    538.488    531.552    532.871    531.552
 27.070    571.155    540.203     30.952    531.210    538.816    531.210    532.597    531.210
 27.170    551.000    540.785     10.215    530.868    539.324    530.868    532.328    530.868
 27.270    581.180    541.612     39.568    530.525    540.070    530.525    532.066    530.525
 27.370    556.000    542.783     13.217    530.182    541.152    530.182    531.813    530.182
 27.470    501.605    544.478    -42.873    529.839    542.748    529.839    531.567    529.839
 27.570    568.474    547.155     21.319    529.495    545.316    529.495    531.332    529.495
 27.670    592.000    552.262     39.738    529.151    550.301    529.151    531.109    529.151
 27.770    588.000    563.997     24.003    528.807    561.899    528.807    530.897    528.807
 27.870    581.000    591.670    -10.670    528.463    589.416    528.463    530.701    528.463
 27.970    695.000    648.527     46.473    528.118    646.091    528.118    530.520    528.118
 28.070    688.058    740.740    -52.682    527.774    738.096    527.774    530.357    527.774
 28.170    890.000    848.504     41.496    527.429    845.638    527.429    530.214    527.429
 28.270    900.000    918.549    -18.549    527.084    915.459    527.084    530.093    527.084
 28.370    899.000    903.759     -4.759    526.739    900.447    526.739    529.995    526.739
 28.470    832.294    824.236      8.058    526.394    820.679    526.394    529.923    526.394
 28.570    762.000    743.713     18.287    526.049    739.871    526.049    529.878    526.049
 28.670    770.000    709.568     60.432    525.704    705.401    525.704    529.860    525.704
 28.770    729.000    730.326     -1.326    525.359    725.801    525.359    529.868    525.359
 28.870    785.762    780.949      4.812    525.014    776.046    525.014    529.900    525.014
 28.970    761.000    815.664    -54.664    524.669    810.373    524.669    529.950    524.669
 29.070    804.000    798.140      5.860    524.324    792.459    524.324    530.011    524.324
 29.170    769.956    736.652     33.304    523.980    730.577    523.980    530.069    523.980
 29.270    661.000    665.710     -4.710    523.635    659.251    523.635    530.109    523.635
 29.370    608.000    610.203     -2.203    523.291    603.395    523.291    530.111    523.291
 29.470    599.000    576.187     22.813    522.947    569.088    522.947    530.052    522.947
 29.570    568.000    558.560      9.440    522.603    551.254    522.603    529.914    522.603
 29.670    582.000    550.051     31.949    522.260    542.634    522.260    529.678    522.260
 29.770    632.000    545.649     86.351    521.917    538.231    521.917    529.336    521.917
 29.870    548.000    542.939      5.061    521.574    535.626    521.574    528.889    521.574
 29.970    541.000    540.999      0.001    521.231    533.887    521.231    528.344    521.231
 30.070    636.000    539.527     96.473    520.889    532.696    520.889    527.720    520.889
 30.170    491.468    538.464    -46.995    520.547    531.975    520.547    527.036    520.547
 30.270    552.000    537.927     14.073    520.206    531.818    520.206    526.314    520.206
 30.370    596.000    538.325     57.675    519.865    532.613    519.865    525.575    519.865
