neutron_powder_diffraction_0104
R_wp: 3.888
Temperature (K): 909.435
Counts: 83604.00
Wavelength (Ã…): 2.52098
COMMENTS
Test file for demonstrating the .xyy file format in Reel1.0
END OF HEADER
   tth       Y_obs     Y_calc      Y_res    Background    Phase_1_Nuc    Phase_1_Mag    Phase_2_Nuc    Phase_2_Mag
  9.970    583.000    550.487     32.513    549.315    550.336    549.315    549.466    549.315
 10.070    597.898    551.034     46.864    549.774    550.882    549.774    549.926    549.774
 10.170    544.000    551.583     -7.583    550.223    551.430    550.223    550.375    550.223
 10.270    560.518    552.136      8.382    550.662    551.983    550.662    550.815    550.662
 10.370    510.036    552.698    -42.662    551.090    552.543    551.090    551.244    551.090
 10.470    628.000    553.272     74.728    551.509    553.117    551.509    551.663    551.509
 10.570    542.000    553.867    -11.867    551.918    553.711    551.918    552.072    551.918
 10.670    512.393    554.484    -42.091    552.316    554.328    552.316    552.472    552.316
 10.770    548.000    555.133     -7.133    552.706    554.976    552.706    552.861    552.706
 10.870    540.940    555.829    -14.889    553.085    555.671    553.085    553.241    553.085
 10.970    561.000    556.587      4.413    553.455    556.429    553.455    553.612    553.455
 11.070    584.000    557.433     26.567    553.815    557.274    553.815    553.973    553.815
 11.170    626.000    558.402     67.598    554.166    558.241    554.166    554.324    554.166
 11.270    589.000    559.547     29.453    554.507    559.385    554.507    554.666    554.507
 11.370    599.000    560.967     38.033    554.839    560.804    554.839    554.999    554.839
 11.470    561.000    562.869     -1.869    555.162    562.704    555.162    555.322    555.162
 11.570    587.000    565.735     21.265    555.476    565.568    555.476    555.637    555.476
 11.670    552.827    570.632    -17.806    555.780    570.462    555.780    555.942    555.780
 11.770    622.000    579.521     42.479    556.076    579.346    556.076    556.239    556.076
 11.870    591.329    595.053     -3.724    556.363    594.868    556.363    556.526    556.363
 11.970    625.000    619.101      5.899    556.640    618.902    556.640    556.805    556.640
 12.070    646.000    649.725     -3.725    556.910    649.507    556.910    557.075    556.910
 12.170    682.000    677.484      4.516    557.170    677.249    557.170    557.336    557.170
 12.270    706.344    686.612     19.732    557.422    686.372    557.422    557.588    557.422
 12.370    654.000    669.924    -15.924    557.665    669.693    557.665    557.832    557.665
 12.470    613.423    639.692    -26.269    557.900    639.477    557.900    558.068    557.900
 12.570    576.923    611.053    -34.130    558.127    610.855    558.127    558.295    558.127
 12.670    600.000    590.525      9.475    558.345    590.337    558.345    558.514    558.345
 12.770    544.000    578.188    -34.188    558.555    578.006    558.555    558.725    558.555
 12.870    551.000    571.564    -20.564    558.757    571.386    558.757    558.928    558.757
 12.970    552.000    568.120    -16.120    558.950    567.943    558.950    559.122    558.950
 13.070    539.000    566.216    -27.216    559.136    566.040    559.136    559.309    559.136
 13.170    535.000    565.042    -30.042    559.314    564.866    559.314    559.487    559.314
 13.270    603.000    564.250     38.750    559.484    564.074    559.484    559.658    559.484
 13.370    538.000    563.690    -25.690    559.646    563.513    559.646    559.821    559.646
 13.470    544.000    563.284    -19.284    559.800    563.107    559.800    559.976    559.800
 13.570    571.000    562.988      8.012    559.947    562.810    559.947    560.124    559.947
 13.670    556.992    562.772     -5.780    560.086    562.593    560.086    560.264    560.086
 13.770    591.742    562.615     29.128    560.218    562.435    560.218    560.396    560.218
 13.870    577.000    562.502     14.498    560.342    562.321    560.342    560.521    560.342
 13.970    558.000    562.420     -4.420    560.459    562.239    560.459    560.639    560.459
 14.070    538.823    562.362    -23.539    560.568    562.180    560.568    560.749    560.568
 14.170    587.000    562.322     24.678    560.670    562.139    560.670    560.852    560.670
 14.270    547.000    562.296    -15.296    560.766    562.112    560.766    560.948    560.766
 14.370    556.709    562.279     -5.570    560.854    562.095    560.854    561.037    560.854
 14.470    544.326    562.270    -17.944    560.935    562.084    560.935    561.119    560.935
 14.570    546.000    562.265    -16.265    561.009    562.079    561.009    561.194    561.009
 14.670    599.584    562.263     37.320    561.076    562.076    561.076    561.262    561.076
 14.770    564.000    562.263      1.737    561.136    562.075    561.136    561.324    561.136
 14.870    562.000    562.263     -0.263    561.189    562.074    561.189    561.378    561.189
 14.970    583.085    562.262     20.822    561.236    562.073    561.236    561.426    561.236
 15.070    544.496    562.261    -17.765    561.277    562.070    561.277    561.467    561.277
 15.170    520.392    562.258    -41.866    561.310    562.066    561.310    561.502    561.310
 15.270    539.880    562.263    -22.383    561.337    562.070    561.337    561.530    561.337
 15.370    544.028    562.270    -18.243    561.358    562.077    561.358    561.552    561.358
 15.470    550.000    562.260    -12.260    561.373    562.065    561.373    561.567    561.373
 15.570    534.000    562.248    -28.248    561.381    562.052    561.381    561.576    561.381
 15.670    566.000    562.230      3.770    561.382    562.033    561.382    561.579    561.382
 15.770    540.000    562.207    -22.207    561.378    562.008    561.378    561.576    561.378
 15.870    545.000    562.179    -17.179    561.368    561.980    561.368    561.567    561.368
 15.970    564.000    562.147      1.853    561.351    561.947    561.351    561.552    561.351
 16.070    608.000    562.111     45.889    561.329    561.909    561.329    561.530    561.329
 16.170    543.000    562.070    -19.070    561.300    561.867    561.300    561.503    561.300
 16.270    575.000    562.026     12.974    561.266    561.822    561.266    561.470    561.266
 16.370    555.000    561.993     -6.993    561.226    561.787    561.226    561.431    561.226
 16.470    514.000    562.044    -48.044    561.181    561.837    561.181    561.387    561.181
 16.570    565.000    561.995      3.005    561.129    561.788    561.129    561.337    561.129
 16.670    533.000    561.932    -28.932    561.072    561.723    561.072    561.281    561.072
 16.770    546.000    561.864    -15.864    561.010    561.654    561.010    561.219    561.010
 16.870    533.000    561.791    -28.791    560.942    561.580    560.942    561.153    560.942
 16.970    551.000    561.714    -10.714    560.868    561.501    560.868    561.081    560.868
 17.070    567.000    561.631      5.369    560.789    561.418    560.789    561.003    560.789
 17.170    557.000    561.545     -4.545    560.705    561.330    560.705    560.920    560.705
 17.270    540.000    561.453    -21.453    560.616    561.237    560.616    560.832    560.616
 17.370    536.000    561.358    -25.358    560.521    561.140    560.521    560.739    560.521
 17.470    554.488    561.258     -6.769    560.422    561.038    560.422    560.641    560.422
 17.570    526.076    561.159    -35.082    560.317    560.938    560.317    560.538    560.317
 17.670    550.000    561.050    -11.050    560.207    560.828    560.207    560.429    560.207
 17.770    523.526    560.937    -37.411    560.093    560.713    560.093    560.316    560.093
 17.870    559.000    560.818     -1.818    559.973    560.593    559.973    560.198    559.973
 17.970    550.000    560.696    -10.696    559.849    560.469    559.849    560.075    559.849
 18.070    548.267    560.569    -12.302    559.720    560.341    559.720    559.948    559.720
 18.170    502.000    560.438    -58.438    559.586    560.208    559.586    559.815    559.586
 18.270    528.000    560.302    -32.302    559.447    560.071    559.447    559.678    559.447
 18.370    548.415    560.163    -11.748    559.304    559.930    559.304    559.537    559.304
 18.470    537.000    560.019    -23.019    559.156    559.785    559.156    559.391    559.156
 18.570    563.000    559.872      3.128    559.004    559.635    559.004    559.240    559.004
 18.670    599.955    559.720     40.236    558.847    559.482    558.847    559.085    558.847
 18.770    603.432    559.565     43.867    558.686    559.325    558.686    558.926    558.686
 18.870    562.339    559.407      2.932    558.521    559.166    558.521    558.763    558.521
 18.970    598.925    559.251     39.674    558.351    559.008    558.351    558.595    558.351
 19.070    525.000    559.134    -34.134    558.178    558.889    558.178    558.423    558.178
 19.170    537.058    558.988    -21.930    558.000    558.741    558.000    558.247    558.000
 19.270    505.000    558.816    -53.816    557.818    558.567    557.818    558.067    557.818
 19.370    529.000    558.638    -29.638    557.631    558.387    557.631    557.882    557.631
 19.470    568.000    558.457      9.543    557.441    558.204    557.441    557.694    557.441
 19.570    587.362    558.273     29.089    557.247    558.018    557.247    557.502    557.247
 19.670    548.000    558.085    -10.085    557.049    557.828    557.049    557.306    557.049
 19.770    577.829    557.894     19.935    556.847    557.635    556.847    557.107    556.847
 19.870    560.000    557.700      2.300    556.642    557.438    556.642    556.903    556.642
 19.970    545.000    557.505    -12.505    556.432    557.241    556.432    556.696    556.432
 20.070    525.000    557.317    -32.317    556.219    557.051    556.219    556.485    556.219
 20.170    598.283    557.128     41.156    556.002    556.859    556.002    556.271    556.002
 20.270    549.000    556.923     -7.923    555.782    556.652    555.782    556.053    555.782
 20.370    534.294    556.715    -22.421    555.558    556.442    555.558    555.831    555.558
 20.470    583.742    556.512     27.230    555.331    556.237    555.331    555.607    555.331
 20.570    555.000    556.305     -1.305    555.100    556.027    555.100    555.378    555.100
 20.670    513.000    556.125    -43.125    554.866    555.844    554.866    555.147    554.866
 20.770    506.000    555.933    -49.933    554.628    555.649    554.628    554.912    554.628
 20.870    546.000    555.714     -9.714    554.388    555.428    554.388    554.674    554.388
 20.970    544.000    555.492    -11.492    554.144    555.203    554.144    554.433    554.144
 21.070    554.297    555.267     -0.971    553.896    554.975    553.896    554.189    553.896
 21.170    528.000    555.041    -27.041    553.646    554.746    553.646    553.941    553.646
 21.270    526.000    554.813    -28.813    553.393    554.515    553.393    553.691    553.393
 21.370    518.000    554.584    -36.584    553.136    554.283    553.136    553.438    553.136
 21.470    548.790    554.353     -5.564    552.877    554.049    552.877    553.181    552.877
 21.570    582.000    554.122     27.878    552.614    553.814    552.614    552.922    552.614
 21.670    550.000    553.890     -3.890    552.349    553.579    552.349    552.660    552.349
 21.770    530.000    553.658    -23.658    552.081    553.343    552.081    552.396    552.081
 21.870    542.395    553.427    -11.032    551.810    553.108    551.810    552.128    551.810
 21.970    542.361    553.211    -10.849    551.536    552.888    551.536    551.858    551.536
 22.070    520.000    552.992    -32.992    551.259    552.666    551.259    551.586    551.259
 22.170    561.396    552.769      8.627    550.980    552.439    550.980    551.310    550.980
 22.270    532.832    552.562    -19.730    550.698    552.228    550.698    551.033    550.698
 22.370    508.000    552.362    -44.362    550.414    552.023    550.414    550.753    550.414
 22.470    563.135    552.189     10.945    550.127    551.847    550.127    550.470    550.127
 22.570    564.000    551.984     12.016    549.838    551.637    549.838    550.185    549.838
 22.670    565.862    551.788     14.074    549.546    551.436    549.546    549.898    549.546
 22.770    590.725    551.588     39.137    549.251    551.232    549.251    549.609    549.251
 22.870    544.000    551.426     -7.426    548.955    551.064    548.955    549.317    548.955
 22.970    540.000    551.257    -11.257    548.656    550.890    548.656    549.023    548.656
 23.070    577.000    551.094     25.906    548.355    550.722    548.355    548.727    548.355
 23.170    545.000    550.942     -5.942    548.051    550.564    548.051    548.430    548.051
 23.270    559.000    550.815      8.185    547.746    550.432    547.746    548.130    547.746
 23.370    570.000    550.723     19.277    547.438    550.334    547.438    547.828    547.438
 23.470    562.182    550.673     11.509    547.128    550.277    547.128    547.525    547.128
 23.570    532.904    550.662    -17.757    546.816    550.260    546.816    547.219    546.816
 23.670    545.000    550.712     -5.712    546.502    550.304    546.502    546.912    546.502
 23.770    568.000    550.851     17.149    546.186    550.435    546.186    546.603    546.186
 23.870    579.692    551.114     28.577    545.868    550.692    545.868    546.293    545.868
 23.970    556.000    551.569      4.431    545.548    551.140    545.548    545.981    545.548
 24.070    597.200    552.356     44.844    545.227    551.919    545.227    545.667    545.227
 24.170    592.144    553.790     38.354    544.903    553.346    544.903    545.352    544.903
 24.270    549.006    556.546     -7.540    544.578    556.094    544.578    545.036    544.578
 24.370    584.000    561.854     22.146    544.251    561.397    544.251    544.719    544.251
 24.470    584.000    571.351     12.649    543.923    570.892    543.923    544.400    543.923
 24.570    591.000    586.233      4.767    543.592    585.774    543.592    544.080    543.592
 24.670    611.096    605.530      5.566    543.260    605.074    543.260    543.759    543.260
 24.770    658.000    623.853     34.147    542.927    623.399    542.927    543.437    542.927
 24.870    595.889    631.179    -35.291    542.592    630.718    542.592    543.114    542.592
 24.970    622.945    621.631      1.314    542.255    621.151    542.255    542.790    542.255
 25.070    629.000    602.107     26.893    541.917    601.600    541.917    542.465    541.917
 25.170    555.128    582.535    -27.407    541.578    582.000    541.578    542.140    541.578
 25.270    543.000    567.730    -24.730    541.237    567.170    541.237    541.814    541.237
 25.370    603.000    558.276     44.724    540.895    557.693    540.895    541.488    540.895
 25.470    585.000    552.837     32.163    540.551    552.234    540.551    541.161    540.551
 25.570    567.000    549.785     17.215    540.207    549.162    540.207    540.835    540.207
 25.670    596.000    547.957     48.043    539.861    547.313    539.861    540.508    539.861
 25.770    572.587    546.725     25.861    539.514    546.061    539.514    540.181    539.514
 25.870    557.671    545.809     11.863    539.165    545.122    539.165    539.854    539.165
 25.970    567.000    545.085     21.915    538.816    544.374    538.816    539.528    538.816
 26.070    560.000    544.496     15.504    538.465    543.760    538.465    539.203    538.465
 26.170    564.000    544.011     19.989    538.114    543.248    538.114    538.878    538.114
 26.270    587.643    543.611     44.032    537.761    542.818    537.761    538.554    537.761
 26.370    563.000    543.284     19.716    537.407    542.461    537.407    538.232    537.407
 26.470    506.011    543.027    -37.016    537.053    542.169    537.053    537.911    537.053
 26.570    510.000    542.835    -32.835    536.697    541.941    536.697    537.592    536.697
 26.670    540.000    542.712     -2.712    536.341    541.779    536.341    537.275    536.341
 26.770    564.000    542.664     21.336    535.984    541.688    535.984    536.960    535.984
 26.870    547.000    542.702      4.298    535.625    541.679    535.625    536.649    535.625
 26.970    549.000    542.843      6.157    535.267    541.768    535.267    536.342    535.267
 27.070    589.000    543.110     45.890    534.907    541.978    534.907    536.038    534.907
 27.170    580.000    543.539     36.461    534.547    542.346    534.547    535.740    534.547
 27.270    542.000    544.183     -2.183    534.186    542.921    534.186    535.447    534.186
 27.370    561.000    545.120     15.880    533.824    543.783    533.824    535.161    533.824
 27.470    550.811    546.498      4.313    533.462    545.076    533.462    534.882    533.462
 27.570    559.000    548.678     10.322    533.099    547.163    533.099    534.612    533.099
 27.670    580.000    552.827     27.173    532.735    551.207    532.735    534.353    532.735
 27.770    618.000    562.546     55.454    532.371    560.805    532.371    534.105    532.371
 27.870    599.000    586.471     12.529    532.007    584.591    532.007    533.871    532.007
 27.970    638.000    638.304     -0.304    531.642    636.260    531.642    533.653    531.642
 28.070    715.000    727.187    -12.187    531.277    724.952    531.277    533.453    531.277
 28.170    829.000    837.955     -8.955    530.911    835.510    530.911    533.273    530.911
 28.270    956.939    919.813     37.126    530.545    917.156    530.545    533.116    530.545
 28.370    904.000    919.220    -15.220    530.178    916.351    530.178    532.985    530.178
 28.470    821.647    843.381    -21.733    529.812    840.276    529.812    532.883    529.812
 28.570    777.000    755.236     21.764    529.445    751.850    529.445    532.813    529.445
 28.670    722.000    710.110     11.890    529.077    706.396    529.077    532.777    529.077
 28.770    707.000    723.059    -16.059    528.710    718.974    528.710    532.777    528.710
 28.870    730.106    772.377    -42.271    528.342    767.888    528.342    532.811    528.342
 28.970    747.000    813.448    -66.448    527.974    808.532    527.974    532.878    527.974
 29.070    791.000    806.045    -15.045    527.606    800.682    527.606    532.971    527.606
 29.170    773.000    749.960     23.040    527.238    744.132    527.238    533.078    527.238
 29.270    667.000    678.047    -11.047    526.870    671.750    526.870    533.181    526.870
 29.370    607.000    618.942    -11.942    526.502    612.199    526.502    533.254    526.502
 29.470    585.766    581.742      4.024    526.133    574.613    526.133    533.267    526.133
 29.570    590.000    562.333     27.667    525.765    554.912    525.765    533.189    525.765
 29.670    524.712    553.123    -28.412    525.397    545.531    525.397    532.991    525.397
 29.770    605.000    548.525     56.475    525.029    540.900    525.029    532.655    525.029
 29.870    588.000    545.764     42.236    524.661    538.248    524.661    532.177    524.661
 29.970    510.273    543.781    -33.507    524.293    536.503    524.293    531.570    524.293
 30.070    586.000    542.239     43.761    523.925    535.304    523.925    530.859    523.925
 30.170    524.088    541.074    -16.986    523.557    534.555    523.557    530.075    523.557
 30.270    585.000    540.390     44.610    523.190    534.329    523.190    529.250    523.190
 30.370    522.216    540.552    -18.335    522.822    534.961    522.822    528.410    522.822
