neutron_powder_diffraction_0186
R_wp: 3.902
Temperature (K): 1074.000
Counts: 83566.00
Wavelength (Ã…): 2.52098
COMMENTS
Test file for demonstrating the .xyy file format in Reel1.0
END OF HEADER
   tth       Y_obs     Y_calc      Y_res    Background    Phase_1_Nuc    Phase_1_Mag    Phase_2_Nuc    Phase_2_Mag
  9.970    649.000    576.657     72.343    575.999    576.632    575.999    576.024    575.999
 10.070    541.456    576.683    -35.227    575.969    576.656    575.969    575.995    575.969
 10.170    557.524    576.712    -19.188    575.934    576.683    575.934    575.962    575.934
 10.270    589.000    576.745     12.255    575.895    576.716    575.895    575.924    575.895
 10.370    582.843    576.786      6.057    575.852    576.757    575.852    575.881    575.852
 10.470    616.518    576.836     39.682    575.805    576.807    575.805    575.834    575.805
 10.570    609.235    576.901     32.334    575.753    576.871    575.753    575.783    575.753
 10.670    579.809    576.993      2.815    575.698    576.953    575.698    575.737    575.698
 10.770    596.930    577.101     19.829    575.638    577.060    575.638    575.679    575.638
 10.870    584.765    577.241      7.523    575.574    577.199    575.574    575.615    575.574
 10.970    527.000    577.426    -50.426    575.506    577.384    575.506    575.548    575.506
 11.070    617.170    577.673     39.498    575.435    577.630    575.435    575.476    575.435
 11.170    581.000    578.005      2.995    575.359    577.962    575.359    575.401    575.359
 11.270    533.727    578.463    -44.736    575.279    578.419    575.279    575.321    575.279
 11.370    626.000    579.109     46.891    575.196    579.065    575.196    575.238    575.196
 11.470    609.618    580.087     29.530    575.109    580.042    575.109    575.151    575.109
 11.570    587.529    581.794      5.735    575.018    581.747    575.018    575.061    575.018
 11.670    609.278    585.380     23.898    574.923    585.327    574.923    574.971    574.923
 11.770    580.719    593.560    -12.841    574.825    593.501    574.825    574.873    574.825
 11.870    629.000    610.808     18.192    574.723    610.739    574.723    574.772    574.723
 11.970    665.000    640.696     24.304    574.617    640.610    574.617    574.666    574.617
 12.070    650.000    679.439    -29.439    574.508    679.331    574.508    574.557    574.508
 12.170    682.000    709.996    -27.996    574.395    709.870    574.395    574.445    574.395
 12.270    702.000    710.883     -8.883    574.279    710.755    574.279    574.329    574.279
 12.370    634.000    681.190    -47.190    574.159    681.080    574.159    574.209    574.159
 12.470    640.000    642.031     -2.031    574.036    641.942    574.036    574.087    574.036
 12.570    622.588    611.216     11.372    573.910    611.144    573.910    573.960    573.910
 12.670    584.968    593.132     -8.164    573.780    593.070    573.780    573.831    573.780
 12.770    616.170    584.386     31.784    573.647    584.328    573.647    573.698    573.647
 12.870    565.000    580.431    -15.431    573.511    580.376    573.511    573.562    573.511
 12.970    596.000    578.443     17.557    573.371    578.389    573.371    573.423    573.371
 13.070    596.000    577.215     18.785    573.228    577.161    573.228    573.280    573.228
 13.170    552.000    576.329    -24.329    573.083    576.275    573.083    573.135    573.083
 13.270    515.000    575.638    -60.638    572.934    575.584    572.934    572.986    572.934
 13.370    534.000    575.075    -41.075    572.782    575.021    572.782    572.834    572.782
 13.470    593.000    574.601     18.399    572.627    574.546    572.627    572.680    572.627
 13.570    565.000    574.192     -9.192    572.469    574.135    572.469    572.525    572.469
 13.670    540.851    573.829    -32.978    572.308    573.770    572.308    572.365    572.308
 13.770    556.886    573.499    -16.613    572.144    573.440    572.144    572.202    572.144
 13.870    509.000    573.196    -64.196    571.977    573.136    571.977    572.035    571.977
 13.970    589.000    572.912     16.088    571.807    572.852    571.807    571.866    571.807
 14.070    543.000    572.644    -29.644    571.635    572.584    571.635    571.694    571.635
 14.170    577.000    572.387      4.613    571.459    572.326    571.459    571.519    571.459
 14.270    545.000    572.139    -27.139    571.281    572.078    571.281    571.342    571.281
 14.370    575.000    571.898      3.102    571.101    571.837    571.101    571.161    571.101
 14.470    591.528    571.663     19.865    570.917    571.601    570.917    570.978    570.917
 14.570    536.000    571.431    -35.431    570.731    571.370    570.731    570.792    570.731
 14.670    587.000    571.206     15.794    570.543    571.144    570.543    570.604    570.543
 14.770    612.535    570.981     41.553    570.351    570.919    570.351    570.413    570.351
 14.870    585.000    570.757     14.243    570.158    570.694    570.158    570.220    570.158
 14.970    567.000    570.533     -3.533    569.961    570.471    569.961    570.024    569.961
 15.070    556.000    570.311    -14.311    569.763    570.247    569.763    569.826    569.763
 15.170    577.939    570.088      7.851    569.561    570.024    569.561    569.625    569.561
 15.270    593.000    569.865     23.135    569.358    569.801    569.358    569.422    569.358
 15.370    546.000    569.642    -23.642    569.152    569.578    569.152    569.216    569.152
 15.470    554.484    569.418    -14.934    568.944    569.354    568.944    569.008    568.944
 15.570    592.000    569.194     22.806    568.733    569.129    568.733    568.798    568.733
 15.670    582.000    568.969     13.031    568.520    568.904    568.520    568.586    568.520
 15.770    536.000    568.743    -32.743    568.305    568.677    568.305    568.371    568.305
 15.870    552.000    568.516    -16.516    568.088    568.450    568.088    568.154    568.088
 15.970    532.000    568.288    -36.288    567.869    568.221    567.869    567.935    567.869
 16.070    579.000    568.060     10.940    567.647    567.992    567.647    567.715    567.647
 16.170    566.000    567.831     -1.831    567.423    567.762    567.423    567.492    567.423
 16.270    606.000    567.599     38.401    567.198    567.530    567.198    567.267    567.198
 16.370    587.151    567.366     19.785    566.970    567.296    566.970    567.039    566.970
 16.470    580.739    567.131     13.608    566.740    567.061    566.740    566.810    566.740
 16.570    597.615    566.895     30.719    566.508    566.825    566.508    566.579    566.508
 16.670    591.000    566.658     24.342    566.274    566.587    566.274    566.345    566.274
 16.770    561.939    566.419     -4.480    566.039    566.347    566.039    566.110    566.039
 16.870    550.000    566.178    -16.178    565.801    566.107    565.801    565.873    565.801
 16.970    528.133    565.937    -37.804    565.562    565.865    565.562    565.634    565.562
 17.070    580.504    565.694     14.810    565.321    565.621    565.321    565.393    565.321
 17.170    548.000    565.449    -17.449    565.078    565.376    565.078    565.151    565.078
 17.270    592.000    565.204     26.796    564.833    565.130    564.833    564.907    564.833
 17.370    564.000    564.959     -0.959    564.586    564.884    564.586    564.661    564.586
 17.470    591.000    564.711     26.289    564.338    564.636    564.338    564.413    564.338
 17.570    575.000    564.461     10.539    564.088    564.385    564.088    564.163    564.088
 17.670    590.249    564.209     26.039    563.837    564.134    563.837    563.912    563.837
 17.770    535.000    563.957    -28.957    563.583    563.880    563.583    563.660    563.583
 17.870    561.000    563.703     -2.703    563.329    563.626    563.329    563.406    563.329
 17.970    560.861    563.448     -2.587    563.072    563.370    563.072    563.150    563.072
 18.070    560.000    563.192     -3.192    562.815    563.114    562.815    562.893    562.815
 18.170    562.000    562.934     -0.934    562.555    562.855    562.555    562.634    562.555
 18.270    528.000    562.680    -34.680    562.294    562.596    562.294    562.378    562.294
 18.370    598.348    562.421     35.926    562.032    562.336    562.032    562.118    562.032
 18.470    599.000    562.161     36.839    561.769    562.074    561.769    561.855    561.769
 18.570    604.000    561.899     42.101    561.503    561.812    561.503    561.591    561.503
 18.670    542.558    561.636    -19.078    561.237    561.548    561.237    561.325    561.237
 18.770    558.000    561.372     -3.372    560.969    561.283    560.969    561.058    560.969
 18.870    577.000    561.107     15.893    560.700    561.017    560.700    560.789    560.700
 18.970    546.196    560.840    -14.644    560.430    560.750    560.430    560.520    560.430
 19.070    561.000    560.573      0.427    560.158    560.482    560.158    560.249    560.158
 19.170    553.986    560.305     -6.319    559.886    560.214    559.886    559.977    559.886
 19.270    562.000    560.036      1.964    559.612    559.944    559.612    559.704    559.612
 19.370    548.000    559.766    -11.766    559.336    559.673    559.336    559.429    559.336
 19.470    568.054    559.496      8.558    559.060    559.403    559.060    559.154    559.060
 19.570    587.176    559.226     27.950    558.783    559.131    558.783    558.877    558.783
 19.670    509.000    558.954    -49.954    558.504    558.859    558.504    558.599    558.504
 19.770    561.000    558.681      2.319    558.225    558.585    558.225    558.321    558.225
 19.870    566.195    558.407      7.787    557.944    558.310    557.944    558.041    557.944
 19.970    545.631    558.134    -12.504    557.662    558.037    557.662    557.760    557.662
 20.070    514.000    557.873    -43.873    557.380    557.775    557.380    557.478    557.380
 20.170    537.765    557.608    -19.843    557.096    557.509    557.096    557.196    557.096
 20.270    535.000    557.333    -22.333    556.812    557.233    556.812    556.912    556.812
 20.370    573.070    557.057     16.013    556.526    556.956    556.526    556.628    556.526
 20.470    588.760    556.781     31.978    556.240    556.679    556.240    556.342    556.240
 20.570    522.000    556.505    -34.505    555.953    556.401    555.953    556.056    555.953
 20.670    560.000    556.228      3.772    555.665    556.124    555.665    555.769    555.665
 20.770    550.000    555.951     -5.951    555.376    555.846    555.376    555.481    555.376
 20.870    592.000    555.674     36.326    555.087    555.568    555.087    555.193    555.087
 20.970    561.000    555.397      5.603    554.796    555.290    554.796    554.904    554.796
 21.070    554.000    555.120     -1.120    554.505    555.012    554.505    554.614    554.505
 21.170    582.000    554.844     27.156    554.213    554.734    554.213    554.323    554.213
 21.270    539.000    554.576    -15.576    553.921    554.465    553.921    554.032    553.921
 21.370    531.000    554.386    -23.386    553.628    554.274    553.628    553.740    553.628
 21.470    529.730    554.133    -24.402    553.334    554.019    553.334    553.447    553.334
 21.570    528.252    553.860    -25.608    553.039    553.745    553.039    553.154    553.039
 21.670    620.000    553.586     66.414    552.744    553.470    552.744    552.860    552.744
 21.770    592.040    553.316     38.725    552.449    553.199    552.449    552.566    552.449
 21.870    592.985    553.067     39.918    552.153    552.948    552.153    552.271    552.153
 21.970    517.993    552.826    -34.832    551.856    552.706    551.856    551.976    551.856
 22.070    562.229    552.561      9.667    551.559    552.440    551.559    551.681    551.559
 22.170    544.000    552.296     -8.296    551.261    552.173    551.261    551.385    551.261
 22.270    581.000    552.033     28.967    550.963    551.909    550.963    551.088    550.963
 22.370    542.620    551.778     -9.158    550.665    551.652    550.665    550.791    550.665
 22.470    573.432    551.570     21.862    550.366    551.440    550.366    550.496    550.366
 22.570    549.000    551.339     -2.339    550.066    551.207    550.066    550.199    550.066
 22.670    512.648    551.098    -38.450    549.767    550.964    549.767    549.901    549.767
 22.770    577.724    550.858     26.865    549.467    550.722    549.467    549.603    549.467
 22.870    554.763    550.625      4.138    549.166    550.487    549.166    549.305    549.166
 22.970    538.000    550.402    -12.402    548.865    550.261    548.865    549.006    548.865
 23.070    545.000    550.189     -5.189    548.564    550.046    548.564    548.707    548.564
 23.170    534.000    549.989    -15.989    548.263    549.845    548.263    548.408    548.263
 23.270    565.000    549.807     15.193    547.962    549.660    547.962    548.109    547.962
 23.370    513.689    549.647    -35.958    547.660    549.497    547.660    547.810    547.660
 23.470    544.678    549.515     -4.837    547.358    549.364    547.358    547.510    547.358
 23.570    570.000    549.423     20.577    547.056    549.269    547.056    547.211    547.056
 23.670    530.000    549.378    -19.378    546.754    549.221    546.754    546.911    546.754
 23.770    561.477    549.401     12.076    546.451    549.241    546.451    546.612    546.451
 23.870    600.000    549.522     50.478    546.149    549.359    546.149    546.312    546.149
 23.970    527.651    549.793    -22.142    545.846    549.628    545.846    546.013    545.846
 24.070    588.000    550.341     37.659    545.543    550.173    545.543    545.713    545.543
 24.170    558.000    551.524      6.476    545.240    551.354    545.240    545.414    545.240
 24.270    547.986    554.314     -6.328    544.938    554.142    544.938    545.115    544.938
 24.370    536.000    560.775    -24.775    544.635    560.605    544.635    544.816    544.635
 24.470    559.000    573.810    -14.810    544.332    573.645    544.332    544.517    544.332
 24.570    558.000    594.902    -36.902    544.029    594.748    544.029    544.218    544.029
 24.670    633.000    619.940     13.060    543.726    619.800    543.726    543.920    543.726
 24.770    602.000    636.559    -34.559    543.423    636.426    543.423    543.622    543.423
 24.870    644.230    632.514     11.716    543.121    632.373    543.121    543.324    543.121
 24.970    626.000    611.102     14.898    542.818    610.942    542.818    543.027    542.818
 25.070    592.000    586.113      5.887    542.516    585.929    542.516    542.730    542.516
 25.170    584.903    567.129     17.774    542.213    566.925    542.213    542.433    542.213
 25.270    525.359    555.994    -30.634    541.911    555.776    541.911    542.137    541.911
 25.370    531.000    550.458    -19.458    541.609    550.230    541.609    541.842    541.609
 25.470    530.653    547.814    -17.161    541.307    547.577    541.307    541.547    541.307
 25.570    535.857    546.398    -10.540    541.005    546.152    541.005    541.253    541.005
 25.670    544.000    545.480     -1.480    540.704    545.225    540.704    540.960    540.704
 25.770    526.000    544.797    -18.797    540.402    544.533    540.402    540.667    540.402
 25.870    564.000    544.251     19.749    540.101    543.978    540.101    540.376    540.101
 25.970    561.000    543.805     17.195    539.801    543.522    539.801    540.085    539.801
 26.070    534.000    543.436     -9.436    539.500    543.141    539.500    539.796    539.500
 26.170    600.000    543.131     56.869    539.200    542.824    539.200    539.507    539.200
 26.270    580.000    542.907     37.093    538.900    542.587    538.900    539.220    538.900
 26.370    582.000    542.730     39.270    538.601    542.396    538.601    538.935    538.601
 26.470    521.850    542.582    -20.732    538.301    542.232    538.301    538.651    538.301
 26.570    571.000    542.485     28.515    538.003    542.118    538.003    538.369    538.003
 26.670    574.000    542.449     31.551    537.704    542.064    537.704    538.089    537.704
 26.770    539.000    542.484     -3.484    537.406    542.078    537.406    537.811    537.406
 26.870    520.932    542.593    -21.661    537.109    542.165    537.109    537.536    537.109
 26.970    539.000    542.803     -3.803    536.811    542.350    536.811    537.263    536.811
 27.070    573.000    543.155     29.845    536.515    542.675    536.515    536.994    536.515
 27.170    527.000    543.693    -16.693    536.218    543.182    536.218    536.729    536.218
 27.270    532.864    544.421    -11.557    535.922    543.875    535.922    536.467    535.922
 27.370    573.529    545.458     28.071    535.627    544.873    535.627    536.211    535.627
 27.470    520.418    546.974    -26.556    535.332    546.345    535.332    535.960    535.332
 27.570    579.000    549.398     29.602    535.038    548.717    535.038    535.716    535.038
 27.670    544.000    554.203    -10.203    534.744    553.464    534.744    535.479    534.744
 27.770    554.000    566.223    -12.223    534.451    565.414    534.451    535.252    534.451
 27.870    625.000    597.269     27.731    534.158    596.373    534.158    535.036    534.158
 27.970    689.000    665.064     23.936    533.866    664.056    533.866    534.834    533.866
 28.070    797.863    776.726     21.137    533.575    775.580    533.575    534.649    533.575
 28.170    888.206    900.696    -12.490    533.284    899.397    533.284    534.485    533.284
 28.270    983.000    961.834     21.166    532.993    960.385    532.993    534.347    532.993
 28.370    880.571    910.488    -29.917    532.704    908.889    532.704    534.243    532.704
 28.470    788.807    799.640    -10.833    532.415    797.846    532.415    534.184    532.415
 28.570    681.726    713.520    -31.795    532.126    711.448    532.126    534.187    532.126
 28.670    672.000    695.603    -23.603    531.839    693.143    531.839    534.284    531.839
 28.770    720.000    741.272    -21.272    531.552    738.279    531.552    534.526    531.552
 28.870    771.000    810.395    -39.395    531.266    806.638    531.266    535.010    531.266
 28.970    834.849    842.994     -8.145    530.980    838.088    530.980    535.889    530.980
 29.070    752.000    803.529    -51.529    530.695    796.851    530.695    537.386    530.695
 29.170    744.727    722.954     21.773    530.411    713.612    530.411    539.767    530.411
 29.270    634.000    649.034    -15.034    530.128    635.910    530.128    543.259    530.128
 29.370    564.730    603.387    -38.657    529.845    585.333    529.845    547.902    529.845
 29.470    640.000    583.392     56.608    529.563    559.696    529.563    553.259    529.563
 29.570    579.000    577.225      1.775    529.282    548.479    529.282    558.025    529.282
 29.670    581.000    574.559      6.441    529.002    543.476    529.002    560.083    529.002
 29.770    580.000    570.179      9.821    528.723    540.786    528.723    558.113    528.723
 29.870    581.000    563.720     17.280    528.444    539.039    528.444    553.122    528.444
 29.970    620.000    556.861     63.139    528.167    537.814    528.167    547.211    528.167
 30.070    608.000    550.929     57.071    527.890    536.972    527.890    541.844    527.890
 30.170    583.000    546.460     36.540    527.614    536.488    527.614    537.584    527.614
 30.270    514.584    543.595    -29.011    527.339    536.472    527.339    534.458    527.339
 30.370    523.820    542.573    -18.753    527.064    537.372    527.064    532.262    527.064
