neutron_powder_diffraction_0017
R_wp: 3.592
Temperature (K): 481.813
Counts: 83268.00
Wavelength (Ã…): 2.52098
COMMENTS
Test file for demonstrating the .xyy file format in Reel1.0
END OF HEADER
   tth       Y_obs     Y_calc      Y_res    Background    Phase_1_Nuc    Phase_1_Mag    Phase_2_Nuc    Phase_2_Mag
  9.970    774.000    728.612     45.388    726.816    727.935    727.492    726.816    726.816
 10.070    728.623    727.587      1.036    725.693    726.902    726.377    725.693    725.693
 10.170    716.688    726.579     -9.891    724.576    725.887    725.267    724.576    724.576
 10.270    715.993    725.591     -9.599    723.465    724.892    724.163    723.465    723.465
 10.370    727.000    724.627      2.373    722.359    723.921    723.065    722.359    722.359
 10.470    733.000    723.691      9.309    721.259    722.977    721.972    721.259    721.259
 10.570    726.048    722.788      3.260    720.164    722.066    720.886    720.164    720.164
 10.670    702.000    721.921    -19.921    719.075    721.190    719.804    719.075    719.075
 10.770    727.000    721.099      5.901    717.991    720.360    718.729    717.991    717.991
 10.870    760.768    720.335     40.433    716.913    719.588    717.659    716.913    716.913
 10.970    726.180    719.643      6.538    715.841    718.887    716.594    715.841    715.841
 11.070    783.000    719.040     63.960    714.774    718.276    715.536    714.774    714.774
 11.170    732.000    718.557     13.443    713.712    717.784    714.483    713.712    713.712
 11.270    759.751    718.236     41.516    712.656    717.454    713.436    712.656    712.656
 11.370    726.000    718.144      7.856    711.606    717.353    712.394    711.606    711.606
 11.470    715.144    718.411     -3.267    710.560    717.610    711.358    710.560    710.560
 11.570    761.000    719.306     41.694    709.521    718.495    710.327    709.521    709.521
 11.670    748.000    721.412     26.588    708.487    720.589    709.303    708.487    708.487
 11.770    679.774    725.855    -46.080    707.458    725.020    708.283    707.458    707.458
 11.870    822.000    734.422     87.578    706.435    733.572    707.270    706.435    706.435
 11.970    809.000    749.146     59.854    705.417    748.278    706.262    705.417    705.417
 12.070    825.000    770.965     54.035    704.405    770.074    705.260    704.405    704.405
 12.170    914.000    797.326    116.674    703.398    796.410    704.263    703.398    703.398
 12.270    832.616    819.267     13.349    702.396    818.329    703.272    702.396    702.396
 12.370    836.162    823.908     12.254    701.400    822.956    702.286    701.400    701.400
 12.470    812.000    806.991      5.009    700.409    806.037    701.306    700.409    700.409
 12.570    750.355    779.061    -28.707    699.424    778.111    700.332    699.424    699.424
 12.670    786.759    752.342     34.417    698.444    751.394    699.363    698.444    698.444
 12.770    685.000    732.209    -47.209    697.469    731.259    698.400    697.469    697.469
 12.870    720.000    719.000      1.000    696.499    718.045    697.442    696.499    696.499
 12.970    714.000    710.932      3.068    695.535    709.970    696.490    695.535    695.535
 13.070    686.000    705.972    -19.972    694.577    705.000    695.543    694.577    694.577
 13.170    676.000    702.662    -26.662    693.623    701.679    694.602    693.623    693.623
 13.270    747.850    700.192     47.657    692.675    699.198    693.666    692.675    692.675
 13.370    710.304    698.176     12.128    691.732    697.170    692.736    691.732    691.732
 13.470    627.000    696.437    -69.437    690.795    695.418    691.812    690.795    690.795
 13.570    689.000    694.886     -5.886    689.862    693.854    690.893    689.862    689.862
 13.670    645.000    693.471    -48.471    688.935    692.426    689.979    688.935    688.935
 13.770    712.853    692.160     20.693    688.014    691.101    689.071    688.014    688.014
 13.870    677.685    690.928    -13.243    687.097    689.855    688.169    687.097    687.097
 13.970    715.000    689.758     25.242    686.186    688.672    687.272    686.186    686.186
 14.070    742.000    688.640     53.360    685.280    687.538    686.380    685.280    685.280
 14.170    686.000    687.562     -1.562    684.379    686.446    685.494    684.379    684.379
 14.270    625.000    686.519    -61.519    683.483    685.388    684.614    683.483    683.483
 14.370    668.000    685.506    -17.506    682.593    684.359    683.739    682.593    682.593
 14.470    654.043    684.516    -30.473    681.707    683.354    682.869    681.707    681.707
 14.570    651.000    683.551    -32.551    680.827    682.372    682.005    680.827    680.827
 14.670    720.000    682.608     37.392    679.952    681.413    681.147    679.952    679.952
 14.770    727.548    681.680     45.869    679.082    680.467    680.294    679.082    679.082
 14.870    667.065    680.763    -13.698    678.217    679.533    679.447    678.217    678.217
 14.970    731.000    679.859     51.141    677.358    678.611    678.605    677.358    677.358
 15.070    605.000    678.967    -73.967    676.503    677.702    677.768    676.503    676.503
 15.170    676.000    678.087     -2.087    675.654    676.804    676.937    675.654    675.654
 15.270    684.000    677.218      6.782    674.810    675.916    676.112    674.810    674.810
 15.370    656.060    676.360    -20.299    673.970    675.038    675.292    673.970    673.970
 15.470    653.141    675.518    -22.377    673.136    674.176    674.477    673.136    673.136
 15.570    708.870    674.702     34.168    672.307    673.341    673.668    672.307    672.307
 15.670    622.000    673.873    -51.873    671.483    672.491    672.864    671.483    671.483
 15.770    677.000    673.052      3.948    670.664    671.649    672.066    670.664    670.664
 15.870    682.000    672.237      9.763    669.850    670.812    671.274    669.850    669.850
 15.970    691.000    671.429     19.571    669.041    669.983    670.487    669.041    669.041
 16.070    656.000    670.629    -14.629    668.237    669.160    669.705    668.237    668.237
 16.170    631.000    669.836    -38.836    667.438    668.344    668.929    667.438    667.438
 16.270    639.571    669.051    -29.480    666.643    667.535    668.159    666.643    666.643
 16.370    671.000    668.273      2.727    665.854    666.734    667.394    665.854    665.854
 16.470    710.681    667.515     43.166    665.070    665.950    666.635    665.070    665.070
 16.570    687.000    666.752     20.248    664.291    665.162    665.881    664.291    664.291
 16.670    622.237    665.994    -43.757    663.517    664.378    665.133    663.517    663.517
 16.770    702.672    665.243     37.429    662.747    663.600    664.390    662.747    662.747
 16.870    622.229    664.498    -42.269    661.983    662.828    663.653    661.983    661.983
 16.970    716.000    663.768     52.232    661.223    662.069    662.921    661.223    661.223
 17.070    682.783    663.108     19.676    660.468    661.378    662.198    660.468    660.468
 17.170    649.000    662.391    -13.391    659.718    660.630    661.479    659.718    659.718
 17.270    651.000    661.672    -10.672    658.973    659.881    660.764    658.973    658.973
 17.370    639.000    660.960    -21.960    658.233    659.138    660.055    658.233    658.233
 17.470    676.860    660.254     16.605    657.498    658.400    659.352    657.498    657.498
 17.570    630.000    659.555    -29.555    656.768    657.668    658.654    656.768    656.768
 17.670    655.000    658.861     -3.861    656.042    656.941    657.962    656.042    656.042
 17.770    601.000    658.174    -57.174    655.321    656.220    657.276    655.321    655.321
 17.870    659.261    657.494      1.767    654.605    655.504    656.595    654.605    654.605
 17.970    613.000    656.820    -43.820    653.894    654.793    655.920    653.894    653.894
 18.070    625.000    656.152    -31.152    653.187    654.087    655.251    653.187    653.187
 18.170    661.853    655.490      6.363    652.485    653.387    654.588    652.485    652.485
 18.270    657.000    654.836      2.164    651.788    652.693    653.931    651.788    651.788
 18.370    678.000    654.199     23.801    651.096    652.015    653.279    651.096    651.096
 18.470    635.000    653.557    -18.557    650.408    651.332    652.634    650.408    650.408
 18.570    615.695    652.926    -37.231    649.725    650.657    651.994    649.725    649.725
 18.670    691.748    652.296     39.451    649.047    649.983    651.360    649.047    649.047
 18.770    613.556    651.673    -38.117    648.373    649.314    650.733    648.373    648.373
 18.870    630.000    651.056    -21.056    647.704    648.650    650.111    647.704    647.704
 18.970    658.000    650.446      7.554    647.040    647.991    649.495    647.040    647.040
 19.070    633.947    649.843    -15.896    646.381    647.338    648.886    646.381    646.381
 19.170    617.880    649.257    -31.377    645.726    646.699    648.283    645.726    645.726
 19.270    623.000    648.684    -25.684    645.075    646.073    647.686    645.075    645.075
 19.370    636.000    648.107    -12.107    644.429    645.439    647.097    644.429    644.429
 19.470    599.807    647.576    -47.769    643.788    644.837    646.527    643.788    643.788
 19.570    617.000    647.039    -30.039    643.152    644.231    645.960    643.152    643.152
 19.670    641.000    646.481     -5.481    642.520    643.611    645.390    642.520    642.520
 19.770    641.250    645.927     -4.677    641.892    642.994    644.825    641.892    641.892
 19.870    618.000    645.379    -27.379    641.269    642.381    644.267    641.269    641.269
 19.970    628.000    644.845    -16.845    640.651    641.777    643.718    640.651    640.651
 20.070    662.000    644.368     17.632    640.037    641.209    643.196    640.037    640.037
 20.170    612.605    643.915    -31.310    639.427    640.676    642.667    639.427    639.427
 20.270    673.688    643.435     30.253    638.823    640.120    642.138    638.823    638.823
 20.370    680.624    642.962     37.661    638.222    639.568    641.616    638.222    638.222
 20.470    609.000    642.482    -33.482    637.626    639.007    641.101    637.626    637.626
 20.570    686.542    642.029     44.513    637.035    638.466    640.598    637.035    637.035
 20.670    617.000    641.556    -24.556    636.448    637.903    640.100    636.448    636.448
 20.770    562.000    641.082    -79.082    635.865    637.340    639.607    635.865    635.865
 20.870    627.769    640.617    -12.848    635.287    636.782    639.122    635.287    635.287
 20.970    669.462    640.163     29.299    634.713    636.232    638.644    634.713    634.713
 21.070    599.000    639.716    -40.716    634.143    635.684    638.175    634.143    634.143
 21.170    651.000    639.278     11.722    633.578    635.143    637.714    633.578    633.578
 21.270    663.142    638.850     24.292    633.018    634.606    637.261    633.018    633.018
 21.370    605.000    638.433    -33.433    632.461    634.077    636.818    632.461    632.461
 21.470    629.000    638.037     -9.037    631.909    633.563    636.383    631.909    631.909
 21.570    607.000    637.645    -30.645    631.361    633.048    635.958    631.361    631.361
 21.670    666.000    637.261     28.739    630.818    632.537    635.542    630.818    630.818
 21.770    621.000    636.889    -15.889    630.279    632.032    635.136    630.279    630.279
 21.870    599.000    636.530    -37.530    629.744    631.535    634.739    629.744    629.744
 21.970    641.000    636.185      4.815    629.213    631.045    634.354    629.213    629.213
 22.070    614.000    635.853    -21.853    628.687    630.562    633.979    628.687    628.687
 22.170    611.000    635.538    -24.538    628.165    630.088    633.615    628.165    628.165
 22.270    587.424    635.236    -47.812    627.647    629.621    633.262    627.647    627.647
 22.370    637.000    634.951      2.049    627.134    629.163    632.922    627.134    627.134
 22.470    655.165    634.684     20.481    626.624    628.714    632.594    626.624    626.624
 22.570    667.000    634.435     32.565    626.119    628.275    632.280    626.119    626.119
 22.670    662.000    634.207     27.793    625.618    627.847    631.979    625.618    625.618
 22.770    645.000    634.002     10.998    625.121    627.432    631.692    625.121    625.121
 22.870    635.000    633.827      1.173    624.628    627.034    631.422    624.628    624.628
 22.970    668.000    633.675     34.325    624.140    626.649    631.166    624.140    624.140
 23.070    640.000    633.551      6.449    623.655    626.280    630.926    623.655    623.655
 23.170    618.000    633.461    -15.461    623.175    625.931    630.705    623.175    623.175
 23.270    666.953    633.408     33.545    622.699    625.606    630.501    622.699    622.699
 23.370    638.000    633.398      4.602    622.227    625.308    630.317    622.227    622.227
 23.470    597.910    633.438    -35.529    621.758    625.045    630.153    621.758    621.758
 23.570    632.000    633.537     -1.537    621.294    624.822    630.011    621.294    621.294
 23.670    638.000    633.707      4.293    620.834    624.650    629.892    620.834    620.834
 23.770    587.119    633.962    -46.844    620.378    624.545    629.798    620.378    620.378
 23.870    681.566    634.326     47.240    619.926    624.524    629.730    619.926    619.926
 23.970    669.305    634.829     34.475    619.478    624.618    629.691    619.478    619.478
 24.070    638.000    635.525      2.475    619.034    624.879    629.683    619.034    619.034
 24.170    641.000    636.510      4.490    618.594    625.399    629.708    618.594    618.594
 24.270    672.000    637.983     34.017    618.158    626.377    629.768    618.158    618.158
 24.370    661.000    640.355     20.645    617.726    628.220    629.867    617.726    617.726
 24.470    648.000    644.370      3.630    617.298    631.669    630.007    617.298    617.298
 24.570    703.000    651.132     51.868    616.874    637.826    630.193    616.874    616.874
 24.670    665.294    661.811      3.482    616.454    647.857    630.429    616.454    616.454
 24.770    703.000    676.854     26.146    616.037    662.204    630.719    616.037    616.037
 24.870    698.000    694.627      3.373    615.625    679.227    631.069    615.625    615.625
 24.970    719.000    709.898      9.102    615.216    693.685    631.485    615.216    615.216
 25.070    673.062    714.890    -41.828    614.811    697.786    631.974    614.811    614.811
 25.170    688.000    706.401    -18.401    614.410    688.319    632.543    614.410    614.410
 25.270    731.000    690.323     40.677    614.013    671.172    633.203    614.013    614.013
 25.370    642.000    674.298    -32.298    613.619    653.981    633.963    613.619    613.619
 25.470    686.274    662.120     24.155    613.230    640.530    634.837    613.230    613.230
 25.570    641.000    654.415    -13.415    612.844    631.432    635.837    612.844    612.844
 25.670    626.050    650.328    -24.277    612.462    625.815    636.982    612.462    612.462
 25.770    689.346    648.658     40.688    612.084    622.456    638.291    612.084    612.084
 25.870    641.000    648.448     -7.448    611.709    620.373    639.786    611.709    611.709
 25.970    695.188    649.126     46.062    611.338    618.968    641.498    611.338    611.338
 26.070    669.000    650.419     18.581    610.971    617.933    643.458    610.971    610.971
 26.170    664.000    652.226     11.774    610.608    617.126    645.709    610.608    610.608
 26.270    657.136    654.534      2.602    610.248    616.481    648.301    610.248    610.248
 26.370    686.000    657.350     28.650    609.892    615.953    651.288    609.892    609.892
 26.470    666.504    660.732      5.772    609.540    615.522    654.748    609.540    609.540
 26.570    692.000    664.764     27.236    609.191    615.179    658.775    609.191    609.191
 26.670    706.595    669.559     37.036    608.846    614.916    663.487    608.846    608.846
 26.770    666.000    675.268     -9.268    608.504    614.733    669.037    608.504    608.504
 26.870    685.000    682.088      2.912    608.166    614.633    675.619    608.166    608.166
 26.970    670.000    690.287    -20.287    607.832    614.623    683.492    607.832    607.832
 27.070    707.000    700.223      6.777    607.501    614.718    693.002    607.501    607.501
 27.170    690.000    712.386    -22.386    607.174    614.937    704.617    607.174    607.174
 27.270    781.000    727.459     53.541    606.850    615.311    718.992    606.850    606.850
 27.370    730.000    746.416    -16.416    606.530    615.882    737.055    606.530    606.530
 27.470    748.745    770.705    -21.960    606.213    616.719    760.188    606.213    606.213
 27.570    803.000    802.637      0.363    605.900    617.927    790.596    605.900    605.900
 27.670    846.000    846.902     -0.902    605.591    619.720    832.753    605.591    605.591
 27.770    933.913    916.422     17.491    605.284    622.689    898.988    605.284    605.284
 27.870   1053.000   1051.525      1.475    604.982    628.672   1027.781    604.982    604.982
 27.970   1332.000   1362.202    -30.202    604.682    642.668   1324.102    604.682    604.682
 28.070   1970.000   2069.800    -99.800    604.386    674.739   1999.191    604.386    604.386
 28.170   3350.287   3444.474    -94.187    604.094    737.169   3310.894    604.094    604.094
 28.270   5370.000   5526.995   -156.995    603.805    831.842   5298.147    603.805    603.805
 28.370   7577.000   7747.376   -170.376    603.519    932.959   7416.952    603.519    603.519
 28.470   8822.000   8888.080    -66.080    603.237    985.432   8505.092    603.237    603.237
 28.570   8214.685   8124.659     90.026    602.958    952.309   7775.028    602.958    602.958
 28.670   6473.000   6215.324    257.676    602.683    869.053   5949.083    602.683    602.683
 28.770   4364.354   4495.922   -131.568    602.410    798.015   4300.560    602.410    602.410
 28.870   3713.000   3723.435    -10.435    602.141    775.199   3550.546    602.141    602.141
 28.970   3875.000   3907.147    -32.147    601.876    800.743   3708.358    601.876    601.876
 29.070   4602.000   4545.820     56.180    601.613    847.406   4300.109    601.613    601.613
 29.170   4943.000   4908.169     34.831    601.354    872.917   4636.814    601.354    601.354
 29.270   4531.000   4509.491     21.509    601.098    848.695   4262.264    601.098    601.098
 29.370   3622.894   3554.532     68.362    600.846    788.606   3367.193    600.846    600.846
 29.470   2427.000   2534.614   -107.614    600.596    724.165   2411.396    600.596    600.596
 29.570   1717.508   1754.692    -37.183    600.350    674.861   1680.416    600.350    600.350
 29.670   1313.259   1274.751     38.507    600.107    644.559   1230.434    600.107    600.107
 29.770    961.741   1020.120    -58.379    599.867    628.544    991.513    599.867    599.867
 29.870    934.000    892.807     41.193    599.631    620.611    871.863    599.631    599.631
 29.970    824.453    825.301     -0.848    599.397    616.486    808.233    599.397    599.397
 30.070    834.000    784.060     49.940    599.167    614.059    769.181    599.167    599.167
 30.170    804.000    755.426     48.574    598.940    612.485    741.888    598.940    598.940
 30.270    753.125    734.157     18.969    598.716    611.473    721.405    598.716    598.716
 30.370    702.000    718.064    -16.064    598.495    610.961    705.601    598.495    598.495
