neutron_powder_diffraction_0064
R_wp: 4.169
Temperature (K): 717.216
Counts: 83326.00
Wavelength (Ã…): 2.52098
COMMENTS
Test file for demonstrating the .xyy file format in Reel1.0
END OF HEADER
   tth       Y_obs     Y_calc      Y_res    Background    Phase_1_Nuc    Phase_1_Mag    Phase_2_Nuc    Phase_2_Mag
  9.970    636.000    634.948      1.052    633.818    634.733    634.033    633.818    633.818
 10.070    681.000    635.216     45.784    634.012    634.998    634.229    634.012    634.012
 10.170    630.000    635.485     -5.485    634.198    635.265    634.417    634.198    634.198
 10.270    633.000    635.758     -2.758    634.374    635.535    634.596    634.374    634.374
 10.370    596.137    636.037    -39.900    634.542    635.812    634.767    634.542    634.542
 10.470    667.000    636.325     30.675    634.702    636.097    634.929    634.702    634.702
 10.570    666.000    636.626     29.374    634.854    636.396    635.083    634.854    634.854
 10.670    672.000    636.947     35.053    634.997    636.714    635.229    634.997    634.997
 10.770    670.000    637.293     32.707    635.132    637.058    635.366    635.132    635.132
 10.870    678.000    637.675     40.325    635.259    637.437    635.496    635.259    635.259
 10.970    660.000    638.106     21.894    635.377    637.865    635.617    635.377    635.377
 11.070    694.000    638.609     55.391    635.488    638.365    635.731    635.488    635.488
 11.170    666.000    639.255     26.745    635.591    639.008    635.836    635.591    635.591
 11.270    652.747    640.092     12.655    635.686    639.841    635.934    635.686    635.686
 11.370    689.000    641.023     47.977    635.774    640.769    636.024    635.774    635.774
 11.470    659.000    642.251     16.749    635.853    641.994    636.107    635.853    635.853
 11.570    674.000    644.063     29.937    635.925    643.801    636.182    635.925    635.925
 11.670    632.117    647.175    -15.058    635.990    646.909    636.250    635.990    635.990
 11.770    712.000    653.306     58.694    636.047    653.034    636.310    636.047    636.047
 11.870    782.000    665.648    116.352    636.096    665.365    636.362    636.096    636.096
 11.970    750.000    688.083     61.917    636.139    687.784    636.408    636.139    636.139
 12.070    733.000    721.827     11.173    636.174    721.505    636.446    636.174    636.174
 12.170    799.010    759.801     39.209    636.202    759.455    636.477    636.202    636.202
 12.270    801.000    783.088     17.912    636.222    782.725    636.501    636.222    636.222
 12.370    719.145    774.530    -55.385    636.236    774.169    636.518    636.236    636.236
 12.470    688.355    741.490    -53.134    636.243    741.144    636.529    636.243    636.243
 12.570    646.000    704.377    -58.377    636.243    704.049    636.532    636.243    636.243
 12.670    655.343    676.117    -20.774    636.236    675.802    636.529    636.236    636.236
 12.770    636.957    659.052    -22.095    636.222    658.742    636.518    636.222    636.222
 12.870    641.000    650.176     -9.176    636.201    649.868    636.502    636.201    636.201
 12.970    619.000    645.787    -26.787    636.174    645.477    636.478    636.174    636.174
 13.070    706.000    643.453     62.547    636.140    643.141    636.448    636.140    636.140
 13.170    669.000    642.010     26.990    636.100    641.695    636.412    636.100    636.100
 13.270    636.000    640.995     -4.995    636.053    640.676    636.370    636.053    636.053
 13.370    605.000    640.228    -35.228    636.000    639.906    636.321    636.000    636.000
 13.470    616.000    639.624    -23.624    635.941    639.298    636.266    635.941    635.941
 13.570    598.000    639.134    -41.134    635.876    638.803    636.204    635.876    635.876
 13.670    585.000    638.724    -53.724    635.804    638.390    636.137    635.804    635.804
 13.770    634.000    638.375     -4.375    635.726    638.036    636.063    635.726    635.726
 13.870    596.000    638.071    -42.071    635.642    637.728    635.984    635.642    635.642
 13.970    633.117    637.813     -4.696    635.552    637.465    635.899    635.552    635.552
 14.070    636.000    637.580     -1.580    635.456    637.228    635.808    635.456    635.456
 14.170    686.419    637.353     49.066    635.355    636.995    635.711    635.355    635.355
 14.270    620.000    637.138    -17.138    635.247    636.776    635.609    635.247    635.247
 14.370    583.000    636.934    -53.934    635.134    636.566    635.501    635.134    635.134
 14.470    610.000    636.737    -26.737    635.015    636.365    635.387    635.015    635.015
 14.570    599.000    636.546    -37.546    634.891    636.168    635.268    634.891    634.891
 14.670    631.000    636.359     -5.359    634.761    635.976    635.143    634.761    634.761
 14.770    681.340    636.174     45.166    634.625    635.786    635.013    634.625    634.625
 14.870    670.961    635.991     34.970    634.484    635.597    634.878    634.484    634.484
 14.970    587.634    635.808    -48.174    634.338    635.408    634.738    634.338    634.338
 15.070    621.947    635.625    -13.677    634.187    635.219    634.592    634.187    634.187
 15.170    598.000    635.443    -37.443    634.030    635.031    634.441    634.030    634.030
 15.270    674.889    635.261     39.628    633.868    634.844    634.285    633.868    633.868
 15.370    638.000    635.075      2.925    633.701    634.651    634.124    633.701    633.701
 15.470    591.000    634.886    -43.886    633.529    634.455    633.959    633.529    633.529
 15.570    606.000    634.694    -28.694    633.352    634.257    633.788    633.352    633.352
 15.670    620.223    634.508    -14.285    633.170    634.065    633.613    633.170    633.170
 15.770    611.731    634.388    -22.657    632.983    633.937    633.433    632.983    632.983
 15.870    632.000    634.218     -2.218    632.791    633.758    633.250    632.791    632.791
 15.970    632.000    634.069     -2.069    632.595    633.597    633.066    632.595    632.595
 16.070    632.000    633.869     -1.869    632.393    633.390    632.873    632.393    632.393
 16.170    609.000    633.662    -24.662    632.188    633.175    632.674    632.188    632.188
 16.270    656.631    633.451     23.180    631.977    632.956    632.472    631.977    631.977
 16.370    621.838    633.237    -11.399    631.762    632.734    632.265    631.762    631.762
 16.470    614.000    633.021    -19.021    631.543    632.510    632.053    631.543    631.543
 16.570    632.000    632.807     -0.807    631.319    632.288    631.838    631.319    631.319
 16.670    590.000    632.586    -42.586    631.091    632.058    631.618    631.091    631.091
 16.770    650.281    632.359     17.922    630.858    631.823    631.394    630.858    630.858
 16.870    676.487    632.129     44.359    630.621    631.583    631.167    630.621    630.621
 16.970    602.836    631.895    -29.059    630.380    631.340    630.935    630.380    630.380
 17.070    611.000    631.658    -20.658    630.135    631.094    630.699    630.135    630.135
 17.170    639.000    631.419      7.581    629.886    630.845    630.460    629.886    629.886
 17.270    633.051    631.185      1.865    629.633    630.602    630.216    629.633    629.633
 17.370    544.000    630.944    -86.944    629.376    630.350    629.969    629.376    629.376
 17.470    622.876    630.695     -7.819    629.115    630.091    629.719    629.115    629.115
 17.570    615.298    630.443    -15.145    628.850    629.828    629.465    628.850    628.850
 17.670    637.000    630.188      6.812    628.581    629.562    629.207    628.581    628.581
 17.770    629.305    629.934     -0.629    628.308    629.296    628.946    628.308    628.308
 17.870    631.000    629.698      1.302    628.032    629.049    628.681    628.032    628.032
 17.970    654.136    629.443     24.694    627.752    628.781    628.413    627.752    627.752
 18.070    637.697    629.183      8.513    627.469    628.510    628.142    627.469    627.469
 18.170    664.756    628.921     35.835    627.181    628.235    627.868    627.181    627.181
 18.270    624.451    628.702     -4.251    626.891    628.002    627.591    626.891    626.891
 18.370    570.000    628.440    -58.440    626.597    627.726    627.310    626.597    626.597
 18.470    620.000    628.163     -8.163    626.299    627.435    627.027    626.299    626.299
 18.570    643.614    627.885     15.730    625.999    627.143    626.740    625.999    625.999
 18.670    611.000    627.617    -16.617    625.694    626.859    626.452    625.694    625.694
 18.770    612.000    627.342    -15.342    625.387    626.567    626.161    625.387    625.387
 18.870    626.000    627.056     -1.056    625.077    626.266    625.867    625.077    625.077
 18.970    597.598    626.767    -29.169    624.763    625.961    625.569    624.763    624.763
 19.070    670.458    626.476     43.982    624.446    625.654    625.269    624.446    624.446
 19.170    592.000    626.193    -34.193    624.126    625.353    624.966    624.126    624.126
 19.270    596.123    625.958    -29.835    623.803    625.100    624.661    623.803    623.803
 19.370    588.000    625.669    -37.669    623.477    624.793    624.353    623.477    623.477
 19.470    666.307    625.387     40.920    623.149    624.492    624.044    623.149    623.149
 19.570    583.000    625.106    -42.106    622.817    624.190    623.733    622.817    622.817
 19.670    611.000    624.819    -13.819    622.483    623.883    623.419    622.483    622.483
 19.770    588.000    624.526    -36.526    622.146    623.569    623.103    622.146    622.146
 19.870    606.188    624.224    -18.036    621.806    623.245    622.785    621.806    621.806
 19.970    586.142    623.941    -37.799    621.463    622.940    622.464    621.463    621.463
 20.070    663.458    623.663     39.795    621.118    622.638    622.142    621.118    621.118
 20.170    613.000    623.361    -10.361    620.770    622.312    621.818    620.770    620.770
 20.270    614.000    623.052     -9.052    620.420    621.979    621.493    620.420    620.420
 20.370    606.185    622.744    -16.559    620.067    621.645    621.166    620.067    620.067
 20.470    544.000    622.434    -78.434    619.712    621.308    620.837    619.712    619.712
 20.570    581.350    622.124    -40.774    619.354    620.971    620.507    619.354    619.354
 20.670    627.204    621.817      5.387    618.994    620.635    620.176    618.994    618.994
 20.770    581.000    621.509    -40.509    618.632    620.297    619.844    618.632    618.632
 20.870    657.937    621.202     36.736    618.267    619.958    619.511    618.267    618.267
 20.970    641.951    620.891     21.059    617.901    619.616    619.176    617.901    617.901
 21.070    636.000    620.587     15.413    617.532    619.279    618.840    617.532    617.532
 21.170    613.000    620.279     -7.279    617.161    618.936    618.504    617.161    617.161
 21.270    607.000    619.969    -12.969    616.787    618.590    618.166    616.787    616.787
 21.370    643.000    619.660     23.340    616.412    618.244    617.829    616.412    616.412
 21.470    584.333    619.353    -35.019    616.035    617.897    617.491    616.035    616.035
 21.570    636.000    619.047     16.953    615.656    617.550    617.152    615.656    615.656
 21.670    618.000    618.744     -0.744    615.275    617.205    616.814    615.275    615.275
 21.770    608.948    618.444     -9.496    614.892    616.860    616.475    614.892    614.892
 21.870    617.000    618.145     -1.145    614.507    616.515    616.137    614.507    614.507
 21.970    665.000    617.850     47.150    614.120    616.172    615.799    614.120    614.120
 22.070    650.508    617.557     32.951    613.732    615.828    615.461    613.732    613.732
 22.170    578.000    617.269    -39.269    613.342    615.486    615.124    613.342    613.342
 22.270    631.948    616.985     14.963    612.950    615.147    614.788    612.950    612.950
 22.370    606.409    616.706    -10.297    612.557    614.810    614.453    612.557    612.557
 22.470    608.000    616.433     -8.433    612.162    614.476    614.119    612.162    612.162
 22.570    588.000    616.168    -28.168    611.765    614.146    613.787    611.765    611.765
 22.670    564.000    615.911    -51.911    611.367    613.821    613.456    611.367    611.367
 22.770    642.320    615.665     26.655    610.968    613.504    613.128    610.968    610.968
 22.870    648.000    615.428     32.572    610.567    613.194    612.802    610.567    610.567
 22.970    652.963    615.205     37.757    610.164    612.892    612.478    610.164    610.164
 23.070    610.000    614.998     -4.998    609.761    612.602    612.157    609.761    609.761
 23.170    626.123    614.809     11.314    609.355    612.326    611.839    609.355    609.355
 23.270    627.000    614.642     12.358    608.949    612.066    611.526    608.949    608.949
 23.370    578.000    614.504    -36.504    608.542    611.830    611.216    608.542    608.542
 23.470    613.000    614.397     -1.397    608.133    611.620    610.911    608.133    608.133
 23.570    611.000    614.332     -3.332    607.723    611.445    610.611    607.723    607.723
 23.670    612.000    614.320     -2.320    607.312    611.317    610.316    607.312    607.312
 23.770    646.000    614.377     31.623    606.900    611.250    610.028    606.900    606.900
 23.870    588.854    614.525    -25.670    606.486    611.266    609.746    606.486    606.486
 23.970    618.900    614.799      4.101    606.072    611.400    609.472    606.072    606.072
 24.070    634.000    615.260     18.740    605.657    611.712    609.207    605.657    605.657
 24.170    626.000    616.042      9.958    605.241    612.334    608.952    605.241    605.241
 24.270    646.000    617.454     28.546    604.824    613.575    608.707    604.824    604.824
 24.370    620.000    620.258     -0.258    604.406    616.198    608.472    604.406    604.406
 24.470    648.000    626.001     21.999    603.987    621.747    608.250    603.987    603.987
 24.570    663.169    636.949     26.219    603.567    632.492    608.043    603.567    603.567
 24.670    651.472    654.924     -3.452    603.147    650.251    607.850    603.147    603.147
 24.770    685.000    678.645      6.355    602.726    673.742    607.676    602.726    602.726
 24.870    693.000    700.645     -7.645    602.304    695.492    607.521    602.304    602.304
 24.970    718.000    708.144      9.856    601.881    702.705    607.389    601.881    601.881
 25.070    653.000    694.970    -41.970    601.458    689.208    607.280    601.458    601.458
 25.170    661.000    670.902     -9.902    601.034    664.780    607.199    601.034    601.034
 25.270    698.585    648.294     50.291    600.610    641.783    607.148    600.610    600.610
 25.370    669.000    632.516     36.484    600.185    625.585    607.132    600.185    600.185
 25.470    689.000    623.491     65.509    599.760    616.104    607.156    599.760    599.760
 25.570    641.000    618.994     22.006    599.334    611.108    607.225    599.334    599.334
 25.670    663.000    616.896     46.104    598.908    608.461    607.346    598.908    598.908
 25.770    687.000    615.931     71.069    598.481    606.888    607.526    598.481    598.481
 25.870    624.000    615.529      8.471    598.054    605.809    607.775    598.054    598.054
 25.970    598.319    615.473    -17.154    597.626    604.997    608.103    597.626    597.626
 26.070    637.000    615.685     21.315    597.199    604.360    608.524    597.199    597.199
 26.170    609.000    616.138     -7.138    596.771    603.855    609.053    596.771    596.771
 26.270    621.000    616.828      4.172    596.342    603.459    609.711    596.342    596.342
 26.370    677.000    617.767     59.233    595.914    603.158    610.522    595.914    595.914
 26.470    623.000    618.979      4.021    595.485    602.947    611.517    595.485    595.485
 26.570    662.000    620.504     41.496    595.056    602.826    612.733    595.056    595.056
 26.670    673.000    622.397     50.603    594.627    602.802    614.220    594.627    594.627
 26.770    687.000    624.731     62.269    594.198    602.886    616.042    594.198    594.198
 26.870    597.711    627.609    -29.899    593.769    603.094    618.281    593.769    593.769
 26.970    672.000    631.167     40.833    593.339    603.453    621.050    593.339    593.339
 27.070    616.597    635.590    -18.993    592.910    603.999    624.499    592.910    592.910
 27.170    614.817    641.141    -26.324    592.481    604.781    628.836    592.481    592.481
 27.270    612.985    648.188    -35.202    592.051    605.875    634.360    592.051    592.051
 27.370    698.000    657.290     40.710    591.622    607.390    641.516    591.622    591.622
 27.470    747.000    669.392     77.608    591.193    609.515    651.063    591.193    591.193
 27.570    673.578    686.436    -12.858    590.764    612.634    664.556    590.764    590.764
 27.670    677.493    713.071    -35.578    590.335    617.664    685.728    590.335    590.335
 27.770    827.000    760.401     66.599    589.907    626.788    723.497    589.907    589.907
 27.870    849.000    851.075     -2.075    589.478    644.457    796.056    589.478    589.478
 27.970    976.266   1020.052    -43.787    589.050    677.541    931.489    589.050    589.050
 28.070   1229.000   1300.440    -71.440    588.622    732.554   1156.387    588.622    588.622
 28.170   1597.000   1688.546    -91.546    588.194    808.816   1467.749    588.194    588.194
 28.270   2060.000   2096.098    -36.098    587.767    889.116   1794.543    587.767    587.767
 28.370   2298.000   2332.440    -34.440    587.340    936.281   1983.323    587.340    587.340
 28.470   2296.730   2250.925     45.804    586.913    921.999   1915.751    586.913    586.913
 28.570   1888.866   1949.713    -60.847    586.487    866.307   1669.878    586.487    586.487
 28.670   1684.795   1644.766     40.028    586.061    812.640   1418.199    586.061    586.061
 28.770   1356.000   1477.012   -121.012    585.635    789.519   1273.136    585.635    585.635
 28.870   1540.016   1471.745     68.271    585.210    801.539   1255.411    585.210    585.210
 28.970   1542.000   1560.386    -18.386    584.786    832.214   1312.952    584.786    584.786
 29.070   1662.000   1613.789     48.211    584.362    849.961   1348.206    584.362    584.362
 29.170   1607.000   1531.286     75.714    583.938    830.098   1285.177    583.938    583.938
 29.270   1463.000   1336.003    126.997    583.515    779.699   1139.888    583.515    583.515
 29.370   1088.000   1116.819    -28.819    583.093    722.608    977.367    583.093    583.093
 29.470    898.098    936.017    -37.918    582.671    675.412    843.321    582.671    582.671
 29.570    863.251    811.984     51.267    582.250    643.039    751.223    582.250    582.250
 29.670    761.869    736.725     25.143    581.830    623.432    695.138    581.830    581.830
 29.770    804.000    693.792    110.208    581.410    612.294    662.915    581.410    581.410
 29.870    629.528    668.949    -39.421    580.991    605.901    644.042    580.991    580.991
 29.970    728.000    653.395     74.605    580.572    601.960    632.008    580.572    580.572
 30.070    726.000    642.721     83.279    580.155    599.339    623.537    580.155    580.155
 30.170    646.390    634.971     11.419    579.738    597.562    617.146    579.738    579.738
 30.270    740.000    629.344    110.656    579.322    596.494    612.169    579.322    579.322
 30.370    665.000    625.647     39.353    578.906    596.240    608.309    578.906    578.906
