neutron_powder_diffraction_0110
R_wp: 3.945
Temperature (K): 938.005
Counts: 83284.00
Wavelength (Ã…): 2.52098
COMMENTS
Test file for demonstrating the .xyy file format in Reel1.0
END OF HEADER
   tth       Y_obs     Y_calc      Y_res    Background    Phase_1_Nuc    Phase_1_Mag    Phase_2_Nuc    Phase_2_Mag
  9.970    582.443    548.438     34.005    547.224    548.281    547.224    547.381    547.224
 10.070    566.000    549.001     16.999    547.692    548.843    547.692    547.849    547.692
 10.170    592.000    549.562     42.438    548.149    549.403    548.149    548.307    548.149
 10.270    596.846    550.127     46.719    548.595    549.968    548.595    548.754    548.595
 10.370    584.000    550.701     33.299    549.032    550.541    549.032    549.191    549.032
 10.470    579.470    551.288     28.182    549.458    551.127    549.458    549.618    549.458
 10.570    587.956    551.893     36.063    549.874    551.731    549.874    550.034    549.874
 10.670    556.504    552.523      3.980    550.280    552.361    550.280    550.441    550.280
 10.770    596.000    553.189     42.811    550.676    553.026    550.676    550.838    550.676
 10.870    514.567    553.903    -39.336    551.062    553.739    551.062    551.225    551.062
 10.970    569.747    554.683     15.064    551.439    554.518    551.439    551.602    551.439
 11.070    558.000    555.555      2.445    551.805    555.389    551.805    551.969    551.805
 11.170    584.672    556.555     28.118    552.162    556.388    552.162    552.327    552.162
 11.270    597.000    557.741     39.259    552.510    557.573    552.510    552.675    552.510
 11.370    575.802    559.218     16.584    552.848    559.048    552.848    553.014    552.848
 11.470    595.000    561.210     33.790    553.177    561.039    553.177    553.343    553.177
 11.570    629.000    564.240     64.760    553.496    564.067    553.496    553.663    553.496
 11.670    595.000    569.444     25.556    553.806    569.267    553.806    553.974    553.806
 11.770    594.000    578.868     15.132    554.107    578.685    554.107    554.276    554.107
 11.870    629.000    595.185     33.815    554.399    594.992    554.399    554.569    554.399
 11.970    611.024    620.115     -9.091    554.682    619.906    554.682    554.852    554.682
 12.070    636.000    651.258    -15.258    554.956    651.032    554.956    555.127    554.956
 12.170    657.674    678.484    -20.811    555.221    678.241    555.221    555.393    555.221
 12.270    653.000    686.083    -33.083    555.478    685.835    555.478    555.650    555.478
 12.370    635.000    668.106    -33.106    555.725    667.867    555.725    555.899    555.725
 12.470    666.716    637.376     29.340    555.964    637.155    555.964    556.139    555.964
 12.570    639.000    608.751     30.249    556.195    608.545    556.195    556.370    556.195
 12.670    571.000    588.408    -17.408    556.417    588.214    556.417    556.593    556.417
 12.770    572.000    576.236     -4.236    556.631    576.049    556.631    556.808    556.631
 12.870    565.000    569.704     -4.704    556.837    569.519    556.837    557.014    556.837
 12.970    548.011    566.292    -18.281    557.034    566.108    557.034    557.212    557.034
 13.070    557.000    564.394     -7.394    557.223    564.211    557.223    557.403    557.223
 13.170    546.000    563.218    -17.218    557.404    563.035    557.404    557.585    557.404
 13.270    537.000    562.423    -25.423    557.578    562.240    557.578    557.759    557.578
 13.370    551.000    561.859    -10.859    557.743    561.675    557.743    557.925    557.743
 13.470    583.000    561.451     21.549    557.900    561.267    557.900    558.083    557.900
 13.570    604.523    561.153     43.370    558.050    560.968    558.050    558.233    558.050
 13.670    533.000    560.936    -27.936    558.192    560.750    558.192    558.376    558.192
 13.770    536.000    560.777    -24.777    558.326    560.590    558.326    558.511    558.326
 13.870    525.468    560.662    -35.194    558.453    560.474    558.453    558.639    558.453
 13.970    548.000    560.579    -12.579    558.572    560.391    558.572    558.759    558.572
 14.070    574.000    560.521     13.479    558.684    560.333    558.684    558.872    558.684
 14.170    540.000    560.482    -20.482    558.788    560.292    558.788    558.977    558.788
 14.270    564.000    560.456      3.544    558.886    560.265    558.886    559.076    558.886
 14.370    548.000    560.440    -12.440    558.976    560.249    558.976    559.167    558.976
 14.470    602.000    560.431     41.569    559.059    560.239    559.059    559.251    559.059
 14.570    571.000    560.427     10.573    559.135    560.234    559.135    559.328    559.135
 14.670    499.000    560.426    -61.426    559.204    560.232    559.204    559.397    559.204
 14.770    563.000    560.427      2.573    559.266    560.232    559.266    559.460    559.266
 14.870    606.402    560.428     45.973    559.321    560.232    559.321    559.517    559.321
 14.970    537.000    560.430    -23.430    559.369    560.232    559.369    559.566    559.369
 15.070    515.000    560.430    -45.430    559.411    560.232    559.411    559.609    559.411
 15.170    561.000    560.429      0.571    559.446    560.229    559.446    559.645    559.446
 15.270    554.000    560.441     -6.441    559.474    560.240    559.474    559.674    559.474
 15.370    549.308    560.444    -11.135    559.496    560.242    559.496    559.697    559.496
 15.470    559.000    560.433     -1.433    559.512    560.231    559.512    559.714    559.512
 15.570    549.000    560.419    -11.419    559.521    560.215    559.521    559.724    559.521
 15.670    552.000    560.400     -8.400    559.524    560.195    559.524    559.728    559.524
 15.770    478.000    560.377    -82.377    559.520    560.171    559.520    559.726    559.520
 15.870    511.000    560.351    -49.351    559.511    560.143    559.511    559.718    559.511
 15.970    549.780    560.322    -10.542    559.495    560.114    559.495    559.703    559.495
 16.070    540.000    560.289    -20.289    559.473    560.079    559.473    559.683    559.473
 16.170    593.140    560.249     32.891    559.446    560.038    559.446    559.656    559.446
 16.270    574.373    560.204     14.169    559.412    559.993    559.412    559.624    559.412
 16.370    599.523    560.163     39.360    559.373    559.950    559.373    559.585    559.373
 16.470    555.809    560.189     -4.380    559.327    559.974    559.327    559.541    559.327
 16.570    534.686    560.177    -25.491    559.276    559.961    559.276    559.492    559.276
 16.670    589.846    560.118     29.728    559.220    559.901    559.220    559.437    559.220
 16.770    577.934    560.050     17.884    559.158    559.832    559.158    559.376    559.158
 16.870    576.989    559.978     17.011    559.090    559.758    559.090    559.309    559.090
 16.970    531.000    559.901    -28.901    559.017    559.680    559.017    559.237    559.017
 17.070    539.000    559.819    -20.819    558.938    559.597    558.938    559.160    558.938
 17.170    582.000    559.733     22.267    558.854    559.509    558.854    559.078    558.854
 17.270    592.110    559.642     32.469    558.765    559.417    558.765    558.990    558.765
 17.370    538.981    559.546    -20.566    558.670    559.320    558.670    558.897    558.670
 17.470    541.081    559.446    -18.365    558.571    559.218    558.571    558.799    558.571
 17.570    566.866    559.342      7.524    558.466    559.112    558.466    558.695    558.466
 17.670    561.000    559.234      1.766    558.356    559.003    558.356    558.587    558.356
 17.770    562.000    559.126      2.874    558.242    558.894    558.242    558.474    558.242
 17.870    528.000    559.009    -31.009    558.122    558.775    558.122    558.356    558.122
 17.970    555.092    558.886     -3.795    557.997    558.651    557.997    558.233    557.997
 18.070    529.386    558.760    -29.374    557.868    558.523    557.868    558.105    557.868
 18.170    530.000    558.629    -28.629    557.734    558.390    557.734    557.973    557.734
 18.270    572.000    558.494     13.506    557.595    558.253    557.595    557.836    557.595
 18.370    594.417    558.361     36.056    557.452    558.119    557.452    557.694    557.452
 18.470    600.000    558.286     41.714    557.304    558.042    557.304    557.548    557.304
 18.570    565.670    558.150      7.520    557.151    557.904    557.151    557.397    557.151
 18.670    576.000    557.999     18.001    556.995    557.752    556.995    557.242    556.995
 18.770    512.488    557.844    -45.356    556.833    557.595    556.833    557.082    556.833
 18.870    566.000    557.686      8.314    556.668    557.434    556.668    556.919    556.668
 18.970    548.000    557.523     -9.523    556.498    557.270    556.498    556.751    556.498
 19.070    547.246    557.356    -10.110    556.323    557.102    556.323    556.578    556.323
 19.170    546.000    557.186    -11.186    556.145    556.930    556.145    556.402    556.145
 19.270    513.055    557.013    -43.958    555.963    556.754    555.963    556.222    555.963
 19.370    532.693    556.836    -24.143    555.776    556.575    555.776    556.037    555.776
 19.470    579.291    556.655     22.636    555.586    556.392    555.586    555.849    555.586
 19.570    558.000    556.471      1.529    555.391    556.206    555.391    555.656    555.391
 19.670    540.000    556.283    -16.283    555.193    556.016    555.193    555.460    555.193
 19.770    521.271    556.093    -34.822    554.990    555.823    554.990    555.260    554.990
 19.870    570.000    555.904     14.096    554.784    555.632    554.784    555.056    554.784
 19.970    528.000    555.716    -27.716    554.574    555.442    554.574    554.849    554.574
 20.070    553.000    555.531     -2.531    554.361    555.254    554.361    554.638    554.361
 20.170    554.000    555.374     -1.374    554.144    555.095    554.144    554.423    554.144
 20.270    603.000    555.207     47.793    553.923    554.925    553.923    554.205    553.923
 20.370    519.000    555.002    -36.002    553.699    554.718    553.699    553.983    553.699
 20.470    524.735    554.792    -30.056    553.471    554.505    553.471    553.758    553.471
 20.570    570.472    554.579     15.893    553.240    554.290    553.240    553.530    553.240
 20.670    542.000    554.364    -12.364    553.006    554.072    553.006    553.298    553.006
 20.770    580.514    554.146     26.368    552.768    553.851    552.768    553.063    552.768
 20.870    579.000    553.928     25.072    552.527    553.630    552.527    552.824    552.527
 20.970    578.888    553.707     25.181    552.282    553.406    552.282    552.583    552.282
 21.070    549.000    553.483     -4.483    552.035    553.180    552.035    552.339    552.035
 21.170    523.165    553.258    -30.094    551.784    552.951    551.784    552.091    551.784
 21.270    517.000    553.031    -36.031    551.530    552.721    551.530    551.841    551.530
 21.370    598.483    552.806     45.677    551.274    552.492    551.274    551.587    551.274
 21.470    521.000    552.601    -31.601    551.014    552.284    551.014    551.331    551.014
 21.570    548.000    552.380     -4.380    550.751    552.060    550.751    551.071    550.751
 21.670    509.803    552.156    -42.353    550.486    551.832    550.486    550.810    550.486
 21.770    552.000    551.982      0.018    550.217    551.655    550.217    550.545    550.217
 21.870    577.103    551.785     25.318    549.946    551.454    549.946    550.277    549.946
 21.970    575.377    551.559     23.818    549.672    551.224    549.672    550.007    549.672
 22.070    579.102    551.332     27.770    549.395    550.993    549.395    549.735    549.395
 22.170    551.000    551.131     -0.131    549.116    550.788    549.116    549.460    549.116
 22.270    546.000    550.951     -4.951    548.834    550.603    548.834    549.182    548.834
 22.370    524.000    550.736    -26.736    548.550    550.384    548.550    548.902    548.550
 22.470    530.000    550.526    -20.526    548.263    550.169    548.263    548.620    548.263
 22.570    527.000    550.317    -23.317    547.974    549.956    547.974    548.335    547.974
 22.670    569.071    550.110     18.961    547.682    549.744    547.682    548.048    547.682
 22.770    589.505    549.913     39.592    547.388    549.542    547.388    547.759    547.388
 22.870    538.000    549.725    -11.725    547.091    549.349    547.091    547.468    547.091
 22.970    546.000    549.549     -3.549    546.792    549.167    546.792    547.175    546.792
 23.070    519.000    549.397    -30.397    546.491    549.010    546.491    546.879    546.491
 23.170    562.000    549.261     12.739    546.188    548.868    546.188    546.582    546.188
 23.270    516.000    549.140    -33.140    545.883    548.741    545.883    546.283    545.883
 23.370    593.631    549.048     44.583    545.575    548.643    545.575    545.981    545.575
 23.470    548.000    548.995     -0.995    545.266    548.583    545.266    545.679    545.266
 23.570    555.000    548.997      6.003    544.954    548.578    544.954    545.374    544.954
 23.670    526.812    549.068    -22.256    544.641    548.643    544.641    545.067    544.641
 23.770    537.000    549.232    -12.232    544.325    548.799    544.325    544.759    544.325
 23.870    541.087    549.526     -8.439    544.008    549.086    544.008    544.450    544.008
 23.970    564.676    550.026     14.650    543.689    549.579    543.689    544.139    543.689
 24.070    568.000    550.889     17.111    543.368    550.433    543.368    543.826    543.368
 24.170    536.000    552.469    -16.469    543.045    552.006    543.045    543.512    543.045
 24.270    553.911    555.528     -1.617    542.720    555.058    542.720    543.197    542.720
 24.370    529.964    561.401    -31.437    542.394    560.926    542.394    542.881    542.394
 24.470    618.807    571.797     47.010    542.066    571.319    542.066    542.563    542.066
 24.570    565.000    587.804    -22.804    541.737    587.327    541.737    542.244    541.737
 24.670    611.000    607.936      3.064    541.406    607.461    541.406    541.924    541.406
 24.770    654.000    625.884     28.116    541.073    625.410    541.073    541.604    541.073
 24.870    602.594    631.437    -28.843    540.739    630.955    540.739    541.282    540.739
 24.970    585.000    620.024    -35.024    540.404    619.522    540.404    540.960    540.404
 25.070    613.000    599.500     13.500    540.067    598.969    540.067    540.637    540.067
 25.170    544.000    579.735    -35.735    539.728    579.176    539.728    540.313    539.728
 25.270    527.839    565.177    -37.339    539.389    564.593    539.389    539.989    539.389
 25.370    604.000    556.081     47.919    539.048    555.473    539.048    539.665    539.048
 25.470    560.000    550.927      9.073    538.706    550.298    538.706    539.341    538.706
 25.570    570.868    548.048     22.819    538.362    547.399    538.362    539.016    538.362
 25.670    581.103    546.313     34.790    538.018    545.643    538.018    538.691    538.018
 25.770    566.000    545.136     20.864    537.672    544.444    537.672    538.367    537.672
 25.870    556.000    544.257     11.743    537.325    543.542    537.325    538.043    537.325
 25.970    590.000    543.566     46.434    536.977    542.826    536.977    537.719    536.977
 26.070    574.000    543.011     30.989    536.628    542.245    536.628    537.396    536.628
 26.170    578.346    542.559     35.787    536.278    541.765    536.278    537.074    536.278
 26.270    571.137    542.194     28.943    535.928    541.369    535.928    536.753    535.928
 26.370    583.000    541.905     41.095    535.576    541.048    535.576    536.434    535.576
 26.470    562.000    541.689     20.311    535.223    540.797    535.223    536.116    535.223
 26.570    544.000    541.545      2.455    534.869    540.615    534.869    535.800    534.869
 26.670    560.623    541.476     19.147    534.515    540.505    534.515    535.486    534.515
 26.770    562.000    541.492     20.508    534.160    540.476    534.160    535.176    534.160
 26.870    587.972    541.605     46.367    533.804    540.540    533.804    534.868    533.804
 26.970    575.000    541.836     33.164    533.447    540.719    533.447    534.565    533.447
 27.070    585.155    542.213     42.942    533.090    541.037    533.090    534.266    533.090
 27.170    546.000    542.777      3.223    532.732    541.537    532.732    533.971    532.732
 27.270    518.522    543.591    -25.069    532.373    542.280    532.373    533.683    532.373
 27.370    576.000    544.750     31.250    532.014    543.361    532.014    533.401    532.014
 27.470    542.877    546.433     -3.555    531.654    544.958    531.654    533.128    531.654
 27.570    572.000    549.086     22.914    531.294    547.515    531.294    532.863    531.294
 27.670    592.000    554.100     37.900    530.933    552.421    530.933    532.608    530.933
 27.770    522.287    565.526    -43.239    530.572    563.725    530.572    532.366    530.572
 27.870    622.000    592.434     29.566    530.211    590.490    530.211    532.136    530.211
 27.970    677.000    648.040     28.960    529.848    645.930    529.848    531.922    529.848
 28.070    738.000    739.288     -1.288    529.486    736.985    529.486    531.726    529.486
 28.170    866.948    848.087     18.861    529.123    845.575    529.123    531.549    529.123
 28.270    891.000    922.505    -31.505    528.760    919.784    528.760    531.393    528.760
 28.370    870.382    913.386    -43.004    528.397    910.457    528.397    531.263    528.397
 28.470    841.000    836.056      4.944    528.033    832.896    528.033    531.158    528.033
 28.570    787.000    753.499     33.501    527.670    750.068    527.670    531.083    527.670
 28.670    723.802    715.383      8.419    527.306    711.635    527.306    531.038    527.306
 28.770    756.000    732.436     23.564    526.942    728.335    526.942    531.024    526.942
 28.870    791.000    781.326      9.674    526.577    776.843    526.577    531.039    526.577
 28.970    824.000    817.506      6.494    526.213    812.625    526.213    531.079    526.213
 29.070    827.000    803.711     23.289    525.849    798.421    525.849    531.138    525.849
 29.170    711.000    744.784    -33.784    525.484    739.075    525.484    531.203    525.484
 29.270    665.000    673.913     -8.913    525.120    667.788    525.120    531.256    525.120
 29.370    571.118    616.918    -45.800    524.756    610.406    524.756    531.276    524.756
 29.470    573.971    581.088     -7.117    524.391    574.248    524.391    531.236    524.391
 29.570    548.000    562.086    -14.086    524.027    555.004    524.027    531.111    524.027
 29.670    657.000    552.776    104.224    523.663    545.561    523.663    530.879    523.663
 29.770    510.538    547.960    -37.423    523.299    540.734    523.299    530.526    523.299
 29.870    543.000    545.024     -2.024    522.935    537.907    522.935    530.052    522.935
 29.970    590.790    542.934     47.857    522.571    536.036    522.571    529.468    522.571
 30.070    608.000    541.348     66.652    522.208    534.759    522.208    528.795    522.208
 30.170    567.000    540.198     26.802    521.845    533.982    521.845    528.059    521.845
 30.270    584.182    539.602     44.580    521.482    533.796    521.482    527.286    521.482
 30.370    517.005    539.956    -22.951    521.119    534.574    521.119    526.498    521.119
