neutron_powder_diffraction_0148
R_wp: 3.864
Temperature (K): 1074.000
Counts: 83877.00
Wavelength (Ã…): 2.52098
COMMENTS
Test file for demonstrating the .xyy file format in Reel1.0
END OF HEADER
   tth       Y_obs     Y_calc      Y_res    Background    Phase_1_Nuc    Phase_1_Mag    Phase_2_Nuc    Phase_2_Mag
  9.970    593.000    577.873     15.127    577.140    577.809    577.140    577.204    577.140
 10.070    596.000    577.895     18.105    577.100    577.830    577.100    577.164    577.100
 10.170    585.000    577.917      7.083    577.055    577.852    577.055    577.120    577.055
 10.270    590.000    577.945     12.055    577.006    577.879    577.006    577.070    577.006
 10.370    578.000    577.980      0.020    576.952    577.915    576.952    577.017    576.952
 10.470    603.977    578.027     25.950    576.893    577.961    576.893    576.959    576.893
 10.570    608.000    578.089     29.911    576.831    578.022    576.831    576.896    576.831
 10.670    567.269    578.171    -10.902    576.764    578.104    576.764    576.830    576.764
 10.770    547.913    578.279    -30.366    576.692    578.212    576.692    576.758    576.692
 10.870    641.000    578.422     62.578    576.617    578.354    576.617    576.683    576.617
 10.970    574.000    578.613     -4.613    576.537    578.545    576.537    576.604    576.537
 11.070    616.022    578.870     37.151    576.453    578.802    576.453    576.520    576.453
 11.170    650.000    579.220     70.780    576.365    579.151    576.365    576.432    576.365
 11.270    614.732    579.703     35.029    576.273    579.633    576.273    576.341    576.273
 11.370    573.000    580.389     -7.389    576.177    580.319    576.177    576.245    576.177
 11.470    540.290    581.435    -41.144    576.077    581.363    576.077    576.145    576.077
 11.570    625.000    583.269     41.731    575.973    583.197    575.973    576.041    575.973
 11.670    579.000    587.092     -8.092    575.865    587.017    575.865    575.934    575.865
 11.770    626.000    595.626     30.374    575.753    595.546    575.753    575.823    575.753
 11.870    629.000    613.165     15.835    575.638    613.074    575.638    575.707    575.638
 11.970    683.770    642.921     40.849    575.519    642.813    575.519    575.588    575.519
 12.070    671.000    680.956     -9.956    575.396    680.825    575.396    575.466    575.396
 12.170    697.407    710.723    -13.317    575.269    710.576    575.269    575.339    575.269
 12.270    708.647    711.567     -2.920    575.139    711.418    575.139    575.210    575.139
 12.370    671.000    682.615    -11.615    575.005    682.483    575.005    575.076    575.005
 12.470    620.685    644.162    -23.477    574.868    644.051    574.868    574.939    574.868
 12.570    650.000    613.484     36.516    574.727    613.390    574.727    574.798    574.727
 12.670    587.000    595.092     -8.092    574.582    595.008    574.582    574.655    574.582
 12.770    622.179    585.957     36.223    574.435    585.878    574.435    574.507    574.435
 12.870    625.276    581.727     43.549    574.284    581.650    574.284    574.356    574.284
 12.970    547.000    579.578    -32.578    574.129    579.502    574.129    574.202    574.129
 13.070    596.995    578.252     18.743    573.971    578.176    573.971    574.045    573.971
 13.170    566.253    577.298    -11.045    573.810    577.222    573.810    573.884    573.810
 13.270    619.706    576.553     43.153    573.646    576.478    573.646    573.720    573.646
 13.370    552.738    575.945    -23.207    573.479    575.869    573.479    573.553    573.479
 13.470    544.000    575.432    -31.432    573.308    575.356    573.308    573.383    573.308
 13.570    542.000    574.987    -32.987    573.135    574.911    573.135    573.210    573.135
 13.670    617.368    574.592     42.775    572.958    574.516    572.958    573.034    572.958
 13.770    547.000    574.235    -27.235    572.778    574.158    572.778    572.854    572.778
 13.870    595.000    573.905     21.095    572.596    573.828    572.596    572.672    572.596
 13.970    608.000    573.597     34.403    572.410    573.520    572.410    572.487    572.410
 14.070    558.984    573.306    -14.322    572.222    573.228    572.222    572.299    572.222
 14.170    610.229    573.027     37.203    572.030    572.949    572.030    572.108    572.030
 14.270    594.070    572.758     21.312    571.836    572.680    571.836    571.914    571.836
 14.370    541.357    572.499    -31.141    571.639    572.420    571.639    571.717    571.639
 14.470    611.000    572.243     38.757    571.439    572.164    571.439    571.518    571.439
 14.570    590.000    571.995     18.005    571.237    571.916    571.237    571.316    571.237
 14.670    555.000    571.749    -16.749    571.032    571.669    571.032    571.111    571.032
 14.770    595.538    571.504     24.034    570.824    571.423    570.824    570.904    570.824
 14.870    589.587    571.260     18.327    570.614    571.180    570.614    570.694    570.614
 14.970    604.000    571.018     32.982    570.401    570.937    570.401    570.482    570.401
 15.070    526.547    570.776    -44.229    570.185    570.695    570.185    570.267    570.185
 15.170    590.000    570.535     19.465    569.968    570.453    569.968    570.049    569.968
 15.270    478.000    570.296    -92.296    569.747    570.212    569.747    569.831    569.747
 15.370    547.000    570.055    -23.055    569.525    569.970    569.525    569.610    569.525
 15.470    551.000    569.814    -18.814    569.299    569.728    569.299    569.385    569.299
 15.570    590.663    569.571     21.091    569.072    569.485    569.072    569.158    569.072
 15.670    546.000    569.328    -23.328    568.842    569.241    568.842    568.929    568.842
 15.770    567.000    569.084     -2.084    568.610    568.997    568.610    568.697    568.610
 15.870    551.000    568.839    -17.839    568.376    568.751    568.376    568.463    568.376
 15.970    559.000    568.593     -9.593    568.139    568.505    568.139    568.227    568.139
 16.070    592.000    568.345     23.655    567.901    568.257    567.901    567.989    567.901
 16.170    575.000    568.097      6.903    567.660    568.008    567.660    567.749    567.660
 16.270    569.000    567.847      1.153    567.417    567.758    567.417    567.507    567.417
 16.370    544.000    567.596    -23.596    567.172    567.506    567.172    567.262    567.172
 16.470    529.176    567.344    -38.168    566.925    567.253    566.925    567.016    566.925
 16.570    611.686    567.090     44.596    566.676    566.999    566.676    566.767    566.676
 16.670    569.000    566.835      2.165    566.425    566.743    566.425    566.517    566.425
 16.770    523.625    566.578    -42.953    566.172    566.486    566.172    566.265    566.172
 16.870    578.000    566.320     11.680    565.918    566.227    565.918    566.010    565.918
 16.970    560.896    566.061     -5.165    565.661    565.968    565.661    565.754    565.661
 17.070    582.000    565.803     16.197    565.402    565.709    565.402    565.496    565.402
 17.170    579.620    565.541     14.079    565.142    565.447    565.142    565.237    565.142
 17.270    571.000    565.278      5.722    564.880    565.183    564.880    564.975    564.880
 17.370    525.000    565.013    -40.013    564.616    564.917    564.616    564.712    564.616
 17.470    552.000    564.748    -12.748    564.351    564.651    564.351    564.447    564.351
 17.570    611.000    564.481     46.519    564.084    564.383    564.084    564.181    564.084
 17.670    564.116    564.212     -0.096    563.815    564.114    563.815    563.913    563.815
 17.770    567.000    563.942      3.058    563.545    563.843    563.545    563.643    563.545
 17.870    552.844    563.671    -10.827    563.273    563.572    563.273    563.372    563.273
 17.970    584.000    563.398     20.602    562.999    563.299    562.999    563.099    562.999
 18.070    552.687    563.125    -10.438    562.724    563.024    562.724    562.825    562.724
 18.170    539.000    562.851    -23.851    562.448    562.750    562.448    562.549    562.448
 18.270    587.242    562.576     24.666    562.170    562.474    562.170    562.272    562.170
 18.370    576.000    562.299     13.701    561.891    562.196    561.891    561.993    561.891
 18.470    565.000    562.021      2.979    561.610    561.917    561.610    561.713    561.610
 18.570    555.000    561.741     -6.741    561.328    561.637    561.328    561.432    561.328
 18.670    536.000    561.461    -25.461    561.045    561.356    561.045    561.149    561.045
 18.770    528.000    561.180    -33.180    560.760    561.074    560.760    560.865    560.760
 18.870    558.000    560.897     -2.897    560.474    560.791    560.474    560.580    560.474
 18.970    571.878    560.614     11.264    560.187    560.507    560.187    560.294    560.187
 19.070    569.000    560.330      8.670    559.898    560.222    559.898    560.006    559.898
 19.170    514.000    560.045    -46.045    559.609    559.936    559.609    559.718    559.609
 19.270    589.053    559.759     29.294    559.318    559.650    559.318    559.428    559.318
 19.370    566.000    559.473      6.527    559.026    559.362    559.026    559.137    559.026
 19.470    569.000    559.186      9.814    558.733    559.075    558.733    558.845    558.733
 19.570    575.000    558.912     16.088    558.439    558.800    558.439    558.552    558.439
 19.670    569.000    558.634     10.366    558.144    558.520    558.144    558.257    558.144
 19.770    542.000    558.345    -16.345    557.848    558.231    557.848    557.962    557.848
 19.870    593.000    558.055     34.945    557.551    557.940    557.551    557.666    557.551
 19.970    563.000    557.765      5.235    557.253    557.649    557.253    557.369    557.253
 20.070    570.490    557.474     13.016    556.954    557.357    556.954    557.071    556.954
 20.170    570.000    557.183     12.817    556.654    557.065    556.654    556.772    556.654
 20.270    541.000    556.891    -15.891    556.354    556.772    556.354    556.473    556.354
 20.370    543.000    556.608    -13.608    556.052    556.487    556.052    556.172    556.052
 20.470    569.000    556.400     12.600    555.750    556.278    555.750    555.871    555.750
 20.570    557.000    556.129      0.871    555.446    556.007    555.446    555.569    555.446
 20.670    581.868    555.838     26.029    555.142    555.714    555.142    555.266    555.142
 20.770    525.611    555.546    -29.935    554.838    555.421    554.838    554.963    554.838
 20.870    530.220    555.254    -25.034    554.532    555.127    554.532    554.659    554.532
 20.970    579.000    554.962     24.038    554.226    554.834    554.226    554.354    554.226
 21.070    571.000    554.670     16.330    553.920    554.541    553.920    554.048    553.920
 21.170    550.000    554.378     -4.378    553.612    554.248    553.612    553.742    553.612
 21.270    513.416    554.087    -40.671    553.304    553.955    553.304    553.436    553.304
 21.370    536.000    553.796    -17.796    552.996    553.663    552.996    553.129    552.996
 21.470    513.924    553.506    -39.583    552.687    553.372    552.687    552.821    552.687
 21.570    554.962    553.217      1.745    552.377    553.082    552.377    552.513    552.377
 21.670    596.261    552.930     43.332    552.067    552.792    552.067    552.204    552.067
 21.770    586.000    552.643     33.357    551.756    552.504    551.756    551.895    551.756
 21.870    508.000    552.360    -44.360    551.445    552.219    551.445    551.586    551.445
 21.970    580.144    552.082     28.062    551.133    551.940    551.133    551.276    551.133
 22.070    509.556    551.821    -42.265    550.821    551.677    550.821    550.966    550.821
 22.170    547.000    551.570     -4.570    550.509    551.424    550.509    550.655    550.509
 22.270    524.569    551.300    -26.731    550.196    551.152    550.196    550.344    550.196
 22.370    532.000    551.032    -19.032    549.883    550.882    549.883    550.033    549.883
 22.470    533.000    550.808    -17.808    549.570    550.657    549.570    549.722    549.570
 22.570    539.000    550.563    -11.563    549.256    550.409    549.256    549.410    549.256
 22.670    552.000    550.306      1.694    548.942    550.151    548.942    549.098    548.942
 22.770    567.000    550.055     16.945    548.628    549.897    548.628    548.786    548.628
 22.870    580.758    549.812     30.945    548.314    549.652    548.314    548.474    548.314
 22.970    560.000    549.579     10.421    547.999    549.417    547.999    548.162    547.999
 23.070    554.000    549.358      4.642    547.684    549.193    547.684    547.849    547.684
 23.170    527.241    549.151    -21.910    547.369    548.984    547.369    547.537    547.369
 23.270    570.000    548.963     21.037    547.054    548.793    547.054    547.225    547.054
 23.370    563.985    548.799     15.186    546.739    548.626    546.739    546.912    546.739
 23.470    559.000    548.666     10.334    546.423    548.490    546.423    546.600    546.423
 23.570    547.000    548.573     -1.573    546.108    548.394    546.108    546.287    546.108
 23.670    505.387    548.535    -43.148    545.793    548.353    545.793    545.975    545.793
 23.770    561.000    548.570     12.430    545.477    548.385    545.477    545.663    545.477
 23.870    546.000    548.711     -2.711    545.162    548.523    545.162    545.351    545.162
 23.970    550.341    549.018      1.322    544.846    548.828    544.846    545.039    544.846
 24.070    559.000    549.636      9.364    544.531    549.442    544.531    544.727    544.531
 24.170    588.680    550.961     37.719    544.215    550.764    544.215    544.416    544.215
 24.270    559.000    554.009      4.991    543.900    553.810    543.900    544.105    543.900
 24.370    586.000    560.799     25.201    543.585    560.601    543.585    543.794    543.585
 24.470    543.378    573.981    -30.604    543.270    573.789    543.270    543.483    543.270
 24.570    550.176    594.672    -44.496    542.955    594.489    542.955    543.173    542.955
 24.670    633.000    618.750     14.250    542.640    618.579    542.640    542.863    542.640
 24.770    618.000    634.557    -16.557    542.325    634.392    542.325    542.554    542.325
 24.870    641.000    630.690     10.310    542.011    630.517    542.011    542.245    542.011
 24.970    652.000    610.214     41.786    541.697    610.021    541.697    541.937    541.697
 25.070    556.205    585.994    -29.789    541.383    585.777    541.383    541.630    541.383
 25.170    601.000    567.168     33.832    541.069    566.932    541.069    541.323    541.069
 25.270    563.000    555.762      7.238    540.755    555.510    540.755    541.016    540.755
 25.370    528.000    549.877    -21.877    540.442    549.613    540.442    540.711    540.442
 25.470    524.000    546.986    -22.986    540.129    546.712    540.129    540.406    540.129
 25.570    535.000    545.422    -10.422    539.817    545.138    539.817    540.102    539.817
 25.670    543.000    544.412     -1.412    539.504    544.119    539.504    539.800    539.504
 25.770    554.000    543.664     10.336    539.193    543.360    539.193    539.498    539.193
 25.870    592.000    543.066     48.934    538.881    542.751    538.881    539.197    538.881
 25.970    530.000    542.574    -12.574    538.570    542.247    538.570    538.898    538.570
 26.070    586.000    542.174     43.826    538.259    541.834    538.259    538.600    538.259
 26.170    584.106    541.875     42.232    537.949    541.522    537.949    538.303    537.949
 26.270    580.017    541.609     38.408    537.640    541.241    537.640    538.008    537.640
 26.370    561.000    541.370     19.630    537.330    540.986    537.330    537.715    537.330
 26.470    529.000    541.178    -12.178    537.021    540.776    537.021    537.423    537.021
 26.570    538.360    541.037     -2.676    536.713    540.616    536.713    537.134    536.713
 26.670    546.000    540.950      5.050    536.405    540.508    536.405    536.847    536.405
 26.770    548.000    540.925      7.075    536.098    540.460    536.098    536.563    536.098
 26.870    536.000    540.974     -4.974    535.791    540.484    535.791    536.282    535.791
 26.970    547.000    541.124      5.876    535.485    540.606    535.485    536.004    535.485
 27.070    522.689    541.400    -18.711    535.180    540.850    535.180    535.729    535.180
 27.170    511.033    541.802    -30.768    534.875    541.217    534.875    535.459    534.875
 27.270    553.023    542.399     10.624    534.571    541.775    534.571    535.193    534.571
 27.370    558.000    543.274     14.726    534.267    542.606    534.267    534.933    534.267
 27.470    574.310    544.572     29.738    533.964    543.854    533.964    534.680    533.964
 27.570    496.000    546.677    -50.677    533.662    545.902    533.662    534.434    533.662
 27.670    522.659    550.971    -28.311    533.360    550.131    533.360    534.196    533.360
 27.770    556.000    562.162     -6.162    533.059    561.244    533.059    533.969    533.059
 27.870    552.361    592.135    -39.773    532.759    591.122    532.759    533.754    532.759
 27.970    645.649    659.229    -13.580    532.459    658.096    532.459    533.554    532.459
 28.070    762.000    771.263     -9.263    532.160    769.981    532.160    533.372    532.160
 28.170    903.000    896.133      6.867    531.862    894.686    531.862    533.212    531.862
 28.270    915.000    957.483    -42.483    531.565    955.871    531.565    533.082    531.565
 28.370    887.000    905.480    -18.480    531.269    903.700    531.269    532.989    531.269
 28.470    795.232    793.223      2.010    530.973    791.224    530.973    532.948    530.973
 28.570    657.000    706.266    -49.266    530.678    703.954    530.678    532.979    530.678
 28.670    678.682    689.089    -10.407    530.384    686.346    530.384    533.112    530.384
 28.770    746.000    736.600      9.400    530.091    733.279    530.091    533.393    530.091
 28.870    815.000    807.468      7.532    529.798    803.373    529.798    533.881    529.798
 28.970    822.000    840.798    -18.798    529.507    835.658    529.507    534.649    529.507
 29.070    851.218    800.870     50.348    529.216    794.319    529.216    535.780    529.216
 29.170    688.000    718.721    -30.721    528.927    710.315    528.927    537.345    528.927
 29.270    626.000    642.716    -16.716    528.638    631.985    528.638    539.377    528.638
 29.370    592.677    594.890     -2.212    528.350    581.443    528.350    541.800    528.350
 29.470    571.840    572.506     -0.667    528.063    556.246    528.063    544.324    528.063
 29.570    559.000    564.043     -5.043    527.777    545.480    527.777    546.339    527.777
 29.670    598.000    560.365     37.635    527.492    540.794    527.492    547.061    527.492
 29.770    523.855    557.161    -33.306    527.208    538.308    527.208    546.059    527.208
 29.870    568.789    553.428     15.361    526.925    536.698    526.925    543.653    526.925
 29.970    501.832    549.533    -47.702    526.643    535.567    526.643    540.608    526.643
 30.070    553.000    546.005      6.995    526.362    534.789    526.362    537.575    526.362
 30.170    578.000    543.161     34.839    526.082    534.341    526.082    534.899    526.082
 30.270    554.340    541.218     13.121    525.803    534.335    525.803    532.683    525.803
 30.370    563.000    540.605     22.395    525.525    535.214    525.525    530.911    525.525
