neutron_powder_diffraction_0030
R_wp: 3.685
Temperature (K): 543.070
Counts: 83542.00
Wavelength (Ã…): 2.52098
COMMENTS
Test file for demonstrating the .xyy file format in Reel1.0
END OF HEADER
   tth       Y_obs     Y_calc      Y_res    Background    Phase_1_Nuc    Phase_1_Mag    Phase_2_Nuc    Phase_2_Mag
  9.970    738.000    705.425     32.575    703.853    704.824    704.454    703.853    703.853
 10.070    737.264    704.489     32.776    702.833    703.881    703.440    702.833    702.833
 10.170    690.208    703.568    -13.360    701.818    702.954    702.431    701.818    701.818
 10.270    748.000    702.665     45.335    700.807    702.044    701.427    700.807    700.807
 10.370    721.113    701.782     19.331    699.800    701.154    700.427    699.800    699.800
 10.470    657.062    700.922    -43.861    698.799    700.288    699.433    698.799    698.799
 10.570    738.000    700.091     37.909    697.802    699.449    698.443    697.802    697.802
 10.670    679.000    699.292    -20.292    696.809    698.643    697.457    696.809    696.809
 10.770    685.000    698.533    -13.533    695.822    697.877    696.477    695.822    695.822
 10.870    715.232    697.825     17.407    694.839    697.161    695.501    694.839    694.839
 10.970    685.000    697.179    -12.179    693.860    696.508    694.530    693.860    693.860
 11.070    691.684    696.615     -4.930    692.886    695.936    693.563    692.886    692.886
 11.170    700.710    696.157      4.553    691.917    695.470    692.602    691.917    691.917
 11.270    684.893    695.844    -10.950    690.952    695.149    691.645    690.952    690.952
 11.370    722.000    695.735     26.265    689.992    695.032    690.693    689.992    689.992
 11.470    745.000    695.943     49.057    689.037    695.231    689.745    689.037    689.037
 11.570    763.000    696.711     66.289    688.086    695.990    688.802    688.086    688.086
 11.670    763.000    698.609     64.391    687.140    697.878    687.864    687.140    687.140
 11.770    765.000    702.857     62.143    686.198    702.115    686.931    686.198    686.198
 11.870    720.239    711.568      8.671    685.261    710.812    686.003    685.261    685.261
 11.970    783.000    727.340     55.660    684.328    726.565    685.079    684.328    684.328
 12.070    820.000    751.506     68.494    683.400    750.708    684.160    683.400    683.400
 12.170    860.000    780.931     79.069    682.477    780.106    683.246    682.477    682.477
 12.270    775.168    804.358    -29.189    681.558    803.509    682.336    681.558    681.558
 12.370    821.000    807.136     13.864    680.644    806.276    681.432    680.644    680.644
 12.470    840.000    786.299     53.701    679.734    785.440    680.531    679.734    679.734
 12.570    805.327    755.127     50.200    678.829    754.276    679.636    678.829    678.829
 12.670    732.000    727.049      4.951    677.928    726.204    678.745    677.928    677.928
 12.770    701.000    707.193     -6.193    677.032    706.349    677.859    677.032    677.032
 12.870    674.000    695.044    -21.044    676.140    694.196    676.978    676.140    676.140
 12.970    690.000    688.070      1.930    675.253    687.215    676.102    675.253    675.253
 13.070    697.000    683.918     13.082    674.371    683.054    675.230    674.371    674.371
 13.170    666.000    681.132    -15.132    673.493    680.258    674.363    673.493    673.493
 13.270    665.000    679.008    -14.008    672.619    678.124    673.500    672.619    672.619
 13.370    638.000    677.244    -39.244    671.750    676.349    672.643    671.750    671.750
 13.470    644.000    675.705    -31.705    670.886    674.799    671.790    670.886    670.886
 13.570    646.000    674.325    -28.325    670.026    673.407    670.942    670.026    670.026
 13.670    686.000    673.059     12.941    669.171    672.129    670.098    669.171    669.171
 13.770    666.601    671.880     -5.278    668.320    670.938    669.260    668.320    668.320
 13.870    707.364    670.768     36.596    667.473    669.814    668.426    667.473    667.473
 13.970    657.000    669.709    -12.709    666.631    668.743    667.596    666.631    666.631
 14.070    680.000    668.693     11.307    665.793    667.714    666.772    665.793    665.793
 14.170    671.000    667.714      3.286    664.960    666.721    665.952    664.960    664.960
 14.270    701.000    666.765     34.235    664.132    665.759    665.137    664.132    664.132
 14.370    625.555    665.838    -40.283    663.307    664.818    664.327    663.307    663.307
 14.470    622.000    664.931    -42.931    662.488    663.897    663.521    662.488    662.488
 14.570    618.008    664.042    -46.034    661.672    662.994    662.720    661.672    661.672
 14.670    594.000    663.169    -69.169    660.862    662.106    661.924    660.862    660.862
 14.770    663.000    662.311      0.689    660.055    661.233    661.133    660.055    660.055
 14.870    655.000    661.468     -6.468    659.253    660.374    660.346    659.253    659.253
 14.970    615.000    660.657    -45.657    658.456    659.547    659.565    658.456    658.456
 15.070    630.000    659.840    -29.840    657.662    658.714    658.788    657.662    657.662
 15.170    640.000    659.027    -19.027    656.874    657.884    658.016    656.874    656.874
 15.270    672.000    658.223     13.777    656.089    657.063    657.248    656.089    656.089
 15.370    678.089    657.428     20.661    655.309    656.252    656.485    655.309    655.309
 15.470    655.000    656.642     -1.642    654.534    655.448    655.727    654.534    654.534
 15.570    608.888    655.865    -46.977    653.762    654.653    654.974    653.762    653.762
 15.670    649.359    655.096     -5.737    652.996    653.866    654.226    652.996    652.996
 15.770    647.000    654.332     -7.332    652.233    653.083    653.482    652.233    652.233
 15.870    670.076    653.574     16.502    651.475    652.306    652.743    651.475    651.475
 15.970    635.000    652.823    -17.823    650.721    651.535    652.009    650.721    650.721
 16.070    642.000    652.078    -10.078    649.972    650.770    651.280    649.972    649.972
 16.170    620.520    651.340    -30.819    649.227    650.011    650.555    649.227    649.227
 16.270    609.000    650.608    -41.608    648.486    649.258    649.836    648.486    648.486
 16.370    607.164    649.882    -42.718    647.750    648.510    649.121    647.750    647.750
 16.470    630.000    649.162    -19.162    647.018    647.768    648.411    647.018    647.018
 16.570    681.000    648.448     32.552    646.290    647.031    647.706    646.290    646.290
 16.670    600.000    647.740    -47.740    645.566    646.300    647.006    645.566    645.566
 16.770    626.000    647.037    -21.037    644.847    645.574    646.310    644.847    644.847
 16.870    684.582    646.341     38.241    644.132    644.853    645.620    644.132    644.132
 16.970    695.000    645.650     49.350    643.422    644.137    644.935    643.422    643.422
 17.070    617.662    644.964    -27.302    642.715    643.426    644.254    642.715    642.715
 17.170    615.000    644.285    -29.285    642.013    642.720    643.579    642.013    642.013
 17.270    674.045    643.612     30.433    641.316    642.019    642.909    641.316    641.316
 17.370    591.000    642.947    -51.947    640.622    641.326    642.243    640.622    640.622
 17.470    664.042    642.321     21.721    639.933    640.671    641.583    639.933    639.933
 17.570    628.000    641.711    -13.711    639.248    640.030    640.928    639.248    639.248
 17.670    664.000    641.065     22.935    638.567    639.354    640.278    638.567    638.567
 17.770    636.000    640.421     -4.421    637.890    638.679    639.632    637.890    637.890
 17.870    595.877    639.794    -43.917    637.218    638.020    638.992    637.218    637.218
 17.970    653.142    639.161     13.981    636.550    637.354    638.356    636.550    636.550
 18.070    635.000    638.532     -3.532    635.886    636.692    637.726    635.886    635.886
 18.170    629.205    637.908     -8.703    635.226    636.034    637.101    635.226    635.226
 18.270    658.477    637.290     21.187    634.571    635.380    636.481    634.571    634.571
 18.370    604.000    636.678    -32.678    633.919    634.732    635.866    633.919    633.919
 18.470    632.000    636.072     -4.072    633.272    634.088    635.256    633.272    633.272
 18.570    654.020    635.471     18.549    632.629    633.448    634.652    632.629    632.629
 18.670    687.000    634.876     52.124    631.990    632.813    634.053    631.990    631.990
 18.770    677.000    634.288     42.712    631.355    632.183    633.459    631.355    631.355
 18.870    651.000    633.713     17.287    630.725    631.566    632.871    630.725    630.725
 18.970    586.000    633.157    -47.157    630.098    630.967    632.288    630.098    630.098
 19.070    632.685    632.594      0.091    629.476    630.357    631.713    629.476    629.476
 19.170    593.000    632.099    -39.099    628.857    629.796    631.160    628.857    628.857
 19.270    635.000    631.555      3.445    628.243    629.201    630.597    628.243    628.243
 19.370    619.000    631.008    -12.008    627.633    628.604    630.037    627.633    627.633
 19.470    625.000    630.462     -5.462    627.027    628.007    629.482    627.027    627.027
 19.570    624.000    629.921     -5.921    626.425    627.413    628.933    626.425    626.425
 19.670    636.000    629.387      6.613    625.828    626.825    628.390    625.828    625.828
 19.770    646.190    628.859     17.332    625.234    626.240    627.852    625.234    625.234
 19.870    633.000    628.337      4.663    624.644    625.661    627.321    624.644    624.644
 19.970    589.799    627.823    -38.024    624.059    625.085    626.796    624.059    624.059
 20.070    587.000    627.315    -40.315    623.477    624.516    626.276    623.477    623.477
 20.170    686.000    626.824     59.176    622.899    623.959    625.764    622.899    622.899
 20.270    593.000    626.354    -33.354    622.326    623.420    625.260    622.326    622.326
 20.370    592.000    625.910    -33.910    621.756    622.893    624.774    621.756    621.756
 20.470    627.000    625.450      1.550    621.191    622.353    624.287    621.191    621.191
 20.570    636.000    625.008     10.992    620.629    621.836    623.801    620.629    620.629
 20.670    638.000    624.573     13.427    620.072    621.324    623.321    620.072    620.072
 20.770    603.749    624.171    -20.422    619.518    620.840    622.849    619.518    619.518
 20.870    648.317    623.728     24.589    618.968    620.314    622.383    618.968    618.968
 20.970    671.094    623.289     47.805    618.423    619.787    621.924    618.423    618.423
 21.070    625.731    622.862      2.869    617.881    619.271    621.472    617.881    617.881
 21.170    609.000    622.458    -13.458    617.343    618.773    621.028    617.343    617.343
 21.270    583.963    622.081    -38.117    616.809    618.297    620.593    616.809    616.809
 21.370    617.000    621.690     -4.690    616.279    617.804    620.165    616.279    616.279
 21.470    603.000    621.296    -18.296    615.753    617.305    619.745    615.753    615.753
 21.570    627.000    620.912      6.088    615.231    616.810    619.332    615.231    615.231
 21.670    604.284    620.538    -16.254    614.713    616.322    618.929    614.713    614.713
 21.770    611.000    620.183     -9.183    614.199    615.845    618.537    614.199    614.199
 21.870    602.000    619.839    -17.839    613.688    615.372    618.155    613.688    613.688
 21.970    579.000    619.503    -40.503    613.182    614.905    617.779    613.182    613.182
 22.070    594.000    619.177    -25.177    612.679    614.443    617.413    612.679    612.679
 22.170    612.266    618.867     -6.600    612.180    613.990    617.057    612.180    612.180
 22.270    623.000    618.568      4.432    611.685    613.542    616.711    611.685    611.685
 22.370    662.288    618.283     44.005    611.194    613.100    616.376    611.194    611.194
 22.470    618.050    618.016      0.035    610.706    612.669    616.053    610.706    610.706
 22.570    621.000    617.770      3.230    610.223    612.249    615.743    610.223    610.223
 22.670    610.114    617.537     -7.422    609.743    611.836    615.444    609.743    609.743
 22.770    634.000    617.325     16.675    609.267    611.434    615.158    609.267    609.267
 22.870    661.771    617.134     44.637    608.795    611.044    614.885    608.795    608.795
 22.970    658.811    616.967     41.844    608.326    610.666    614.627    608.326    608.326
 23.070    631.000    616.826     14.174    607.862    610.305    614.383    607.862    607.862
 23.170    635.000    616.716     18.284    607.401    609.961    614.155    607.401    607.401
 23.270    585.000    616.639    -31.639    606.943    609.638    613.944    606.943    606.943
 23.370    654.729    616.601     38.128    606.490    609.340    613.751    606.490    606.490
 23.470    651.000    616.608     34.392    606.040    609.071    613.577    606.040    606.040
 23.570    604.000    616.668    -12.668    605.594    608.839    613.423    605.594    605.594
 23.670    604.000    616.791    -12.791    605.152    608.654    613.290    605.152    605.152
 23.770    637.000    616.992     20.008    604.713    608.527    613.179    604.713    604.713
 23.870    651.882    617.291     34.591    604.278    608.478    613.092    604.278    604.278
 23.970    627.000    617.716      9.284    603.846    608.532    613.032    603.846    603.846
 24.070    626.000    618.314      7.686    603.419    608.735    612.999    603.419    603.419
 24.170    630.000    619.171     10.829    602.995    609.171    612.997    602.995    602.995
 24.270    658.610    620.477     38.134    602.574    610.027    613.027    602.574    602.574
 24.370    663.000    622.661     40.339    602.158    611.730    613.093    602.158    602.158
 24.470    649.481    626.598     22.883    601.744    615.152    613.197    601.744    601.744
 24.570    650.166    633.722     16.444    601.335    621.727    613.342    601.335    601.335
 24.670    684.397    645.665     38.732    600.929    633.081    613.533    600.929    600.929
 24.770    687.000    663.051     23.949    600.526    649.835    613.774    600.526    600.526
 24.870    733.544    683.420     50.124    600.128    669.523    614.070    600.128    600.128
 24.970    691.000    699.346     -8.346    599.732    684.708    614.427    599.732    599.732
 25.070    707.000    701.586      5.414    599.341    686.134    614.851    599.341    599.341
 25.170    708.000    688.768     19.232    598.952    672.421    615.349    598.952    598.952
 25.270    689.385    669.443     19.941    598.568    652.116    615.930    598.568    598.568
 25.370    693.000    652.125     40.875    598.187    633.729    616.604    598.187    598.187
 25.470    701.000    640.188     60.812    597.809    620.627    617.383    597.809    597.809
 25.570    608.000    633.429    -25.429    597.435    612.592    618.279    597.435    597.435
 25.670    605.000    630.295    -25.295    597.064    608.055    619.308    597.064    597.064
 25.770    638.000    629.273      8.727    596.697    605.483    620.490    596.697    596.697
 25.870    619.000    629.401    -10.401    596.334    603.891    621.845    596.334    596.334
 25.970    665.000    630.212     34.788    595.973    602.785    623.401    595.973    595.973
 26.070    660.725    631.531     29.194    595.617    601.954    625.193    595.617    595.617
 26.170    613.227    633.283    -20.056    595.263    601.295    627.251    595.263    595.263
 26.270    634.000    635.473     -1.473    594.913    600.761    629.624    594.913    594.913
 26.370    641.982    638.135      3.846    594.567    600.330    632.370    594.567    594.567
 26.470    661.000    641.326     19.674    594.224    599.988    635.560    594.224    594.224
 26.570    630.024    645.127    -15.103    593.884    599.724    639.283    593.884    593.884
 26.670    696.541    649.647     46.893    593.548    599.538    643.653    593.548    593.548
 26.770    707.000    655.034     51.966    593.215    599.430    648.814    593.215    593.215
 26.870    670.000    661.480      8.520    592.885    599.406    654.954    592.885    592.885
 26.970    677.000    669.247      7.753    592.559    599.478    662.322    592.559    592.559
 27.070    651.000    678.686    -27.686    592.236    599.661    671.253    592.236    592.236
 27.170    686.000    690.281     -4.281    591.916    599.982    682.206    591.916    591.916
 27.270    652.000    704.705    -52.705    591.600    600.475    695.819    591.600    591.600
 27.370    722.000    722.922     -0.922    591.287    601.192    713.003    591.287    591.287
 27.470    725.000    746.401    -21.401    590.977    602.213    735.147    590.977    590.977
 27.570    766.000    777.653    -11.653    590.670    603.676    764.624    590.670    590.670
 27.670    825.000    822.225      2.775    590.367    605.882    806.679    590.367    590.367
 27.770    887.225    895.824     -8.599    590.067    609.680    876.160    590.067    590.067
 27.870    999.000   1044.091    -45.091    589.771    617.530   1016.230    589.771    589.771
 27.970   1342.610   1377.799    -35.190    589.477    635.402   1331.663    589.477    589.477
 28.070   1999.000   2091.080    -92.080    589.187    673.752   2006.106    589.187    589.187
 28.170   3226.000   3375.346   -149.346    588.900    742.904   3220.679    588.900    588.900
 28.270   5221.966   5171.342     50.624    588.616    839.713   4919.392    588.616    588.616
 28.370   6844.000   6898.275    -54.275    588.335    933.030   6552.783    588.335    588.335
 28.470   7788.000   7563.087    224.913    588.058    969.655   7181.001    588.058    588.058
 28.570   6803.000   6692.590    110.410    587.783    924.700   6355.487    587.783    587.783
 28.670   5270.000   5070.235    199.765    587.512    841.512   4816.182    587.512    587.512
 28.770   3764.519   3760.226      4.293    587.244    779.138   3568.270    587.244    587.244
 28.870   3326.000   3273.563     52.437    586.979    766.510   3093.921    586.979    586.979
 28.970   3589.399   3531.103     58.296    586.717    798.424   3319.289    586.717    586.717
 29.070   4142.000   4065.544     76.456    586.459    844.244   3807.767    586.459    586.459
 29.170   4225.000   4262.747    -37.747    586.203    861.435   3987.696    586.203    586.203
 29.270   3795.714   3794.118      1.596    585.950    827.125   3553.214    585.950    585.950
 29.370   2910.000   2926.154    -16.154    585.701    762.186   2749.917    585.701    585.701
 29.470   2116.636   2079.768     36.868    585.454    698.664   1966.731    585.454    585.454
 29.570   1534.058   1468.049     66.009    585.211    652.753   1400.606    585.211    585.211
 29.670   1164.000   1106.769     57.231    584.971    625.691   1066.097    584.971    584.971
 29.770    945.000    919.750     25.250    584.733    611.756    892.750    584.733    584.733
 29.870    907.000    825.922     81.078    584.499    604.846    805.586    584.499    584.499
 29.970    797.473    774.415     23.058    584.268    601.138    757.550    584.268    584.268
 30.070    776.000    741.583     34.417    584.039    598.868    726.756    584.039    584.039
 30.170    783.000    718.166     64.834    583.814    597.364    704.616    583.814    583.814
 30.270    763.000    700.583     62.417    583.591    596.397    687.776    583.591    583.591
 30.370    670.000    687.286    -17.286    583.372    595.938    674.718    583.372    583.372
