neutron_powder_diffraction_0229
R_wp: 4.023
Temperature (K): 1070.300
Counts: 83992.00
Wavelength (Ã…): 2.52098
COMMENTS
Test file for demonstrating the .xyy file format in Reel1.0
END OF HEADER
   tth       Y_obs     Y_calc      Y_res    Background    Phase_1_Nuc    Phase_1_Mag    Phase_2_Nuc    Phase_2_Mag
  9.970    591.000    571.593     19.407    570.903    571.568    570.903    570.928    570.903
 10.070    587.000    571.704     15.296    570.952    571.675    570.952    570.981    570.952
 10.170    597.226    571.814     25.412    570.997    571.785    570.997    571.026    570.997
 10.270    593.000    571.929     21.071    571.036    571.900    571.036    571.065    571.036
 10.370    594.000    572.052     21.948    571.069    572.022    571.069    571.099    571.069
 10.470    602.825    572.185     30.641    571.098    572.155    571.098    571.128    571.098
 10.570    557.148    572.331    -15.183    571.122    572.301    571.122    571.152    571.122
 10.670    563.000    572.496     -9.496    571.141    572.466    571.141    571.170    571.141
 10.770    606.054    572.687     33.367    571.155    572.656    571.155    571.185    571.155
 10.870    620.000    572.912     47.088    571.164    572.881    571.164    571.194    571.164
 10.970    587.349    573.184     14.165    571.168    573.153    571.168    571.198    571.168
 11.070    543.589    573.521    -29.931    571.167    573.489    571.167    571.198    571.167
 11.170    549.078    573.948    -24.869    571.162    573.916    571.162    571.192    571.162
 11.270    544.944    574.506    -29.562    571.152    574.473    571.152    571.183    571.152
 11.370    602.000    575.265     26.735    571.137    575.232    571.137    571.168    571.137
 11.470    547.421    576.381    -28.960    571.118    576.346    571.118    571.150    571.118
 11.570    588.000    578.275      9.725    571.094    578.238    571.094    571.127    571.094
 11.670    619.000    582.091     36.909    571.066    582.051    571.066    571.099    571.066
 11.770    615.000    590.356     24.644    571.033    590.311    571.033    571.067    571.033
 11.870    618.739    606.944     11.795    570.996    606.890    570.996    571.030    570.996
 11.970    641.917    634.649      7.268    570.955    634.580    570.955    570.989    570.955
 12.070    687.000    669.779     17.221    570.909    669.690    570.909    570.943    570.909
 12.170    674.000    697.270    -23.270    570.859    697.166    570.859    570.893    570.859
 12.270    746.545    698.280     48.264    570.805    698.175    570.805    570.839    570.805
 12.370    603.000    671.865    -68.865    570.746    671.773    570.746    570.782    570.746
 12.470    600.000    636.478    -36.478    570.684    636.394    570.684    570.731    570.684
 12.570    610.000    607.953      2.047    570.617    607.883    570.617    570.666    570.617
 12.670    607.000    590.608     16.392    570.546    590.547    570.546    570.596    570.546
 12.770    573.629    581.853     -8.224    570.472    581.796    570.472    570.522    570.472
 12.870    593.000    577.759     15.241    570.393    577.704    570.393    570.444    570.393
 12.970    537.000    575.693    -38.693    570.310    575.639    570.310    570.362    570.310
 13.070    549.000    574.445    -25.445    570.224    574.391    570.224    570.276    570.224
 13.170    573.000    573.568     -0.568    570.134    573.514    570.134    570.186    570.134
 13.270    555.000    572.899    -17.899    570.039    572.845    570.039    570.092    570.039
 13.370    569.000    572.370     -3.370    569.942    572.310    569.942    570.000    569.942
 13.470    530.300    571.930    -41.630    569.840    571.869    569.840    569.900    569.840
 13.570    534.145    571.556    -37.411    569.735    571.495    569.735    569.795    569.735
 13.670    533.000    571.231    -38.231    569.626    571.169    569.626    569.687    569.626
 13.770    593.076    570.942     22.134    569.514    570.880    569.514    569.575    569.514
 13.870    542.000    570.680    -28.680    569.398    570.618    569.398    569.459    569.398
 13.970    595.000    570.439     24.561    569.279    570.377    569.279    569.340    569.279
 14.070    554.903    570.214    -15.311    569.156    570.152    569.156    569.218    569.156
 14.170    542.276    570.001    -27.725    569.030    569.938    569.030    569.092    569.030
 14.270    537.000    569.797    -32.797    568.900    569.734    568.900    568.963    568.900
 14.370    547.591    569.600    -22.009    568.767    569.536    568.767    568.830    568.767
 14.470    536.000    569.411    -33.411    568.631    569.347    568.631    568.694    568.631
 14.570    566.413    569.224     -2.811    568.491    569.160    568.491    568.555    568.491
 14.670    586.743    569.039     17.704    568.349    568.975    568.349    568.413    568.349
 14.770    542.000    568.856    -26.856    568.203    568.791    568.203    568.267    568.203
 14.870    565.000    568.674     -3.674    568.054    568.609    568.054    568.119    568.054
 14.970    605.000    568.493     36.507    567.902    568.427    567.902    567.967    567.902
 15.070    542.097    568.312    -26.214    567.747    568.246    567.747    567.812    567.747
 15.170    548.000    568.130    -20.130    567.589    568.064    567.589    567.655    567.589
 15.270    606.000    567.949     38.051    567.428    567.882    567.428    567.494    567.428
 15.370    533.000    567.766    -34.766    567.264    567.699    567.264    567.331    567.264
 15.470    540.863    567.583    -26.719    567.097    567.516    567.097    567.164    567.097
 15.570    599.978    567.398     32.580    566.927    567.331    566.927    566.995    566.927
 15.670    553.490    567.214    -13.724    566.755    567.145    566.755    566.823    566.755
 15.770    577.000    567.031      9.969    566.579    566.959    566.579    566.651    566.579
 15.870    560.000    566.843     -6.843    566.401    566.770    566.401    566.474    566.401
 15.970    567.000    566.653      0.347    566.221    566.579    566.221    566.295    566.221
 16.070    613.000    566.461     46.539    566.037    566.387    566.037    566.112    566.037
 16.170    521.000    566.268    -45.268    565.851    566.192    565.851    565.927    565.851
 16.270    582.420    566.073     16.348    565.663    565.996    565.663    565.739    565.663
 16.370    550.574    565.875    -15.301    565.471    565.798    565.471    565.548    565.471
 16.470    546.702    565.676    -18.974    565.278    565.599    565.278    565.355    565.278
 16.570    520.000    565.475    -45.475    565.082    565.397    565.082    565.159    565.082
 16.670    530.000    565.272    -35.272    564.883    565.194    564.883    564.961    564.883
 16.770    586.784    565.067     21.716    564.682    564.988    564.682    564.761    564.682
 16.870    541.000    564.860    -23.860    564.479    564.781    564.479    564.558    564.479
 16.970    591.000    564.652     26.348    564.273    564.572    564.273    564.353    564.273
 17.070    573.000    564.442      8.558    564.065    564.361    564.065    564.145    564.065
 17.170    574.000    564.232      9.768    563.855    564.151    563.855    563.935    563.855
 17.270    564.000    564.018     -0.018    563.642    563.937    563.642    563.723    563.642
 17.370    560.000    563.803     -3.803    563.427    563.721    563.427    563.509    563.427
 17.470    506.000    563.585    -57.585    563.210    563.503    563.210    563.293    563.210
 17.570    523.521    563.366    -39.844    562.991    563.282    562.991    563.074    562.991
 17.670    562.000    563.144     -1.144    562.770    563.061    562.770    562.854    562.770
 17.770    559.000    562.922     -3.922    562.547    562.837    562.547    562.631    562.547
 17.870    530.000    562.697    -32.697    562.322    562.612    562.322    562.407    562.322
 17.970    539.006    562.471    -23.465    562.095    562.385    562.095    562.181    562.095
 18.070    540.000    562.244    -22.244    561.866    562.156    561.866    561.953    561.866
 18.170    558.000    562.015     -4.015    561.635    561.926    561.635    561.723    561.635
 18.270    577.752    561.784     15.969    561.402    561.694    561.402    561.491    561.402
 18.370    579.000    561.551     17.449    561.167    561.461    561.167    561.257    561.167
 18.470    519.000    561.316    -42.316    560.930    561.226    560.930    561.021    560.930
 18.570    527.000    561.081    -34.081    560.692    560.990    560.692    560.783    560.692
 18.670    566.000    560.845      5.155    560.451    560.753    560.451    560.543    560.451
 18.770    575.000    560.607     14.393    560.209    560.514    560.209    560.302    560.209
 18.870    513.000    560.366    -47.366    559.966    560.273    559.966    560.059    559.966
 18.970    567.237    560.125      7.112    559.721    560.031    559.721    559.815    559.721
 19.070    570.419    559.882     10.537    559.474    559.787    559.474    559.569    559.474
 19.170    559.026    559.638     -0.612    559.225    559.542    559.225    559.321    559.225
 19.270    575.000    559.392     15.608    558.975    559.296    558.975    559.072    558.975
 19.370    590.632    559.146     31.486    558.723    559.048    558.723    558.821    558.723
 19.470    523.869    558.898    -35.029    558.470    558.800    558.470    558.568    558.470
 19.570    566.248    558.649      7.599    558.216    558.550    558.216    558.315    558.216
 19.670    569.000    558.401     10.599    557.959    558.301    557.959    558.059    557.959
 19.770    515.000    558.163    -43.163    557.702    558.062    557.702    557.803    557.702
 19.870    518.000    557.926    -39.926    557.443    557.819    557.443    557.550    557.443
 19.970    549.000    557.676     -8.676    557.183    557.566    557.183    557.293    557.183
 20.070    537.000    557.422    -20.422    556.921    557.311    556.921    557.032    556.921
 20.170    563.000    557.168      5.832    556.658    557.056    556.658    556.770    556.658
 20.270    539.000    556.912    -17.912    556.394    556.799    556.394    556.507    556.394
 20.370    515.000    556.656    -41.656    556.129    556.542    556.129    556.243    556.129
 20.470    512.000    556.399    -44.399    555.862    556.284    555.862    555.977    555.862
 20.570    530.000    556.142    -26.142    555.594    556.026    555.594    555.711    555.594
 20.670    559.000    555.884      3.116    555.325    555.766    555.325    555.443    555.325
 20.770    566.000    555.625     10.375    555.055    555.507    555.055    555.174    555.055
 20.870    581.465    555.367     26.098    554.784    555.247    554.784    554.904    554.784
 20.970    514.000    555.108    -41.108    554.512    554.987    554.512    554.633    554.512
 21.070    514.608    554.848    -40.241    554.239    554.726    554.239    554.361    554.239
 21.170    564.000    554.589      9.411    553.964    554.466    553.964    554.088    553.964
 21.270    596.000    554.330     41.670    553.689    554.205    553.689    553.814    553.689
 21.370    558.000    554.071      3.929    553.413    553.945    553.413    553.539    553.413
 21.470    547.000    553.812     -6.812    553.136    553.684    553.136    553.263    553.136
 21.570    593.000    553.553     39.447    552.858    553.424    552.858    552.987    552.858
 21.670    509.336    553.296    -43.960    552.579    553.165    552.579    552.709    552.579
 21.770    566.000    553.039     12.961    552.299    552.907    552.299    552.431    552.299
 21.870    573.795    552.783     21.012    552.018    552.649    552.018    552.152    552.018
 21.970    583.918    552.528     31.390    551.737    552.393    551.737    551.872    551.737
 22.070    539.000    552.276    -13.276    551.454    552.139    551.454    551.591    551.454
 22.170    539.000    552.026    -13.026    551.172    551.888    551.172    551.310    551.172
 22.270    582.000    551.782     30.218    550.888    551.641    550.888    551.028    550.888
 22.370    511.030    551.536    -40.506    550.603    551.394    550.603    550.746    550.603
 22.470    543.919    551.294     -7.375    550.318    551.150    550.318    550.463    550.318
 22.570    558.583    551.062      7.521    550.033    550.916    550.033    550.179    550.033
 22.670    600.000    550.899     49.101    549.746    550.751    549.746    549.895    549.746
 22.770    531.105    550.793    -19.688    549.460    550.643    549.460    549.610    549.460
 22.870    571.000    550.602     20.398    549.172    550.450    549.172    549.325    549.172
 22.970    527.225    550.394    -23.170    548.884    550.240    548.884    549.039    548.884
 23.070    561.000    550.196     10.804    548.596    550.039    548.596    548.753    548.596
 23.170    514.000    550.013    -36.013    548.307    549.853    548.307    548.466    548.307
 23.270    560.000    549.849     10.151    548.017    549.687    548.017    548.180    548.017
 23.370    507.601    549.706    -42.105    547.727    549.541    547.727    547.892    547.727
 23.470    553.000    549.591      3.409    547.437    549.424    547.437    547.605    547.437
 23.570    549.526    549.515      0.011    547.146    549.345    547.146    547.317    547.146
 23.670    561.922    549.493     12.429    546.855    549.318    546.855    547.031    546.855
 23.770    525.347    549.541    -24.194    546.563    549.362    546.563    546.744    546.563
 23.870    548.000    549.691     -1.691    546.272    549.508    546.272    546.456    546.272
 23.970    524.085    550.000    -25.915    545.979    549.814    545.979    546.167    545.979
 24.070    584.539    550.605     33.935    545.687    550.416    545.687    545.878    545.687
 24.170    554.000    551.877      2.123    545.394    551.686    545.394    545.589    545.394
 24.270    584.791    554.761     30.030    545.101    554.568    545.101    545.301    545.101
 24.370    589.000    561.131     27.869    544.808    560.938    544.808    545.012    544.808
 24.470    576.000    573.450      2.550    544.515    573.262    544.515    544.723    544.515
 24.570    583.972    592.798     -8.826    544.222    592.619    544.222    544.434    544.222
 24.670    614.000    615.406     -1.406    543.928    615.239    543.928    544.145    543.928
 24.770    564.000    630.397    -66.397    543.634    630.236    543.634    543.857    543.634
 24.870    648.000    626.960     21.040    543.340    626.791    543.340    543.568    543.340
 24.970    573.631    607.835    -34.204    543.046    607.647    543.046    543.280    543.046
 25.070    593.704    585.068      8.636    542.752    584.857    542.752    542.993    542.752
 25.170    531.000    567.314    -36.314    542.458    567.084    542.458    542.705    542.458
 25.270    574.000    556.515     17.485    542.164    556.271    542.164    542.418    542.164
 25.370    536.536    550.912    -14.377    541.870    550.656    541.870    542.132    541.870
 25.470    570.000    548.158     21.842    541.576    547.892    541.576    541.845    541.576
 25.570    551.000    546.675      4.325    541.282    546.399    541.282    541.560    541.282
 25.670    587.051    545.709     41.341    540.988    545.424    540.988    541.275    540.988
 25.770    571.578    544.992     26.586    540.694    544.697    540.694    540.991    540.694
 25.870    546.030    544.426      1.604    540.400    544.119    540.400    540.708    540.400
 25.970    556.000    543.957     12.043    540.106    543.639    540.106    540.426    540.106
 26.070    547.000    543.563      3.437    539.813    543.232    539.813    540.144    539.813
 26.170    563.000    543.232     19.768    539.520    542.887    539.520    539.864    539.520
 26.270    543.657    542.954      0.703    539.226    542.595    539.226    539.585    539.226
 26.370    568.000    542.725     25.275    538.933    542.350    538.933    539.308    538.933
 26.470    533.000    542.547     -9.547    538.641    542.155    538.641    539.033    538.641
 26.570    537.000    542.443     -5.443    538.348    542.032    538.348    538.759    538.348
 26.670    501.605    542.387    -40.782    538.056    541.956    538.056    538.487    538.056
 26.770    573.000    542.373     30.627    537.764    541.919    537.764    538.218    537.764
 26.870    563.000    542.440     20.560    537.472    541.961    537.472    537.951    537.472
 26.970    594.000    542.582     51.418    537.180    542.075    537.180    537.687    537.180
 27.070    509.000    542.826    -33.826    536.889    542.288    536.889    537.427    536.889
 27.170    562.000    543.211     18.789    536.599    542.638    536.599    537.170    536.599
 27.270    599.000    543.797     55.203    536.308    543.185    536.308    536.918    536.308
 27.370    506.795    544.662    -37.866    536.018    544.007    536.018    536.672    536.018
 27.470    567.000    545.906     21.094    535.729    545.201    535.729    536.432    535.729
 27.570    560.000    547.896     12.104    535.439    547.134    535.439    536.198    535.439
 27.670    559.000    551.891      7.109    535.151    551.064    535.151    535.974    535.151
 27.770    638.000    562.340     75.660    534.862    561.435    534.862    535.760    534.862
 27.870    580.000    591.013    -11.013    534.574    590.013    534.574    535.558    534.574
 27.970    633.288    657.043    -23.755    534.287    655.920    534.287    535.372    534.287
 28.070    709.000    769.938    -60.938    534.000    768.663    534.000    535.204    534.000
 28.170    930.000    897.891     32.109    533.714    896.445    533.714    535.060    533.714
 28.270    902.762    961.602    -58.841    533.428    959.987    533.428    534.945    533.428
 28.370    865.991    908.204    -42.213    533.143    906.417    533.143    534.869    533.143
 28.470    800.000    792.527      7.473    532.858    790.518    532.858    534.843    532.858
 28.570    744.899    703.038     41.861    532.574    700.715    532.574    534.887    532.574
 28.670    677.000    684.770     -7.770    532.290    682.014    532.290    535.032    532.290
 28.770    718.000    732.060    -14.060    532.007    728.709    532.007    535.339    532.007
 28.870    802.180    803.498     -1.318    531.725    799.291    531.725    535.919    531.725
 28.970    752.000    837.921    -85.921    531.443    832.401    531.443    536.966    531.443
 29.070    751.000    799.073    -48.073    531.162    791.470    531.162    538.777    531.162
 29.170    685.000    718.773    -33.773    530.882    707.934    530.882    541.733    530.882
 29.270    632.000    646.174    -14.174    530.602    630.593    530.602    546.190    530.602
 29.370    590.000    603.200    -13.200    530.323    581.268    530.323    552.257    530.323
 29.470    628.799    586.388     42.410    530.045    557.023    530.045    559.409    530.045
 29.570    635.000    582.936     52.064    529.768    546.785    529.768    565.916    529.768
 29.670    613.000    581.698     31.302    529.491    542.335    529.491    568.850    529.491
 29.770    561.291    577.068    -15.777    529.215    539.955    529.215    566.325    529.215
 29.870    534.078    569.210    -35.131    528.940    538.404    528.940    559.743    528.940
 29.970    568.000    560.672      7.328    528.665    537.314    528.665    552.020    528.665
 30.070    592.059    553.315     38.744    528.392    536.569    528.392    545.136    528.392
 30.170    529.000    547.840    -18.840    528.119    536.147    528.119    539.810    528.119
 30.270    580.000    544.338     35.662    527.847    536.153    527.847    536.029    527.847
 30.370    521.000    542.908    -21.908    527.576    537.013    527.576    533.467    527.576
