neutron_powder_diffraction_0237
R_wp: 3.973
Temperature (K): 1016.030
Counts: 84020.00
Wavelength (Ã…): 2.52098
COMMENTS
Test file for demonstrating the .xyy file format in Reel1.0
END OF HEADER
   tth       Y_obs     Y_calc      Y_res    Background    Phase_1_Nuc    Phase_1_Mag    Phase_2_Nuc    Phase_2_Mag
  9.970    632.000    568.458     63.542    567.847    568.406    567.847    567.899    567.847
 10.070    610.000    568.679     41.321    568.004    568.626    568.004    568.056    568.004
 10.170    599.000    568.892     30.108    568.155    568.839    568.155    568.207    568.155
 10.270    573.803    569.101      4.702    568.298    569.048    568.298    568.351    568.298
 10.370    535.482    569.314    -33.832    568.436    569.261    568.436    568.489    568.436
 10.470    593.000    569.534     23.466    568.567    569.480    568.567    568.620    568.567
 10.570    563.633    569.763     -6.129    568.691    569.709    568.691    568.744    568.691
 10.670    567.000    570.006     -3.006    568.809    569.951    568.809    568.863    568.809
 10.770    584.000    570.272     13.728    568.920    570.213    568.920    568.979    568.920
 10.870    583.000    570.564     12.436    569.026    570.502    569.026    569.087    569.026
 10.970    588.000    570.890     17.110    569.125    570.828    569.125    569.187    569.125
 11.070    565.353    571.270     -5.917    569.218    571.207    569.218    569.280    569.218
 11.170    608.933    571.723     37.210    569.305    571.660    569.305    569.367    569.305
 11.270    571.119    572.285     -1.167    569.385    572.221    569.385    569.448    569.385
 11.370    614.000    573.012     40.988    569.460    572.947    569.460    569.523    569.460
 11.470    557.000    574.021    -17.021    569.529    573.956    569.529    569.592    569.529
 11.570    593.000    575.645     17.355    569.592    575.578    569.592    569.656    569.592
 11.670    623.000    578.880     44.120    569.649    578.811    569.649    569.713    569.649
 11.770    591.000    586.245      4.755    569.701    586.171    569.701    569.765    569.701
 11.870    622.000    602.236     19.764    569.746    602.154    569.746    569.811    569.746
 11.970    640.224    631.075      9.149    569.786    630.977    569.786    569.851    569.786
 12.070    700.000    670.194     29.806    569.821    670.074    569.821    569.886    569.821
 12.170    673.404    703.463    -30.059    569.849    703.323    569.849    569.916    569.849
 12.270    682.332    708.015    -25.683    569.873    707.869    569.873    569.942    569.873
 12.370    641.216    679.702    -38.486    569.891    679.571    569.891    569.961    569.891
 12.470    601.000    639.701    -38.701    569.903    639.591    569.903    569.975    569.903
 12.570    561.629    607.699    -46.070    569.910    607.607    569.910    569.982    569.910
 12.670    574.000    589.034    -15.034    569.912    588.951    569.912    569.985    569.912
 12.770    576.282    580.248     -3.966    569.909    580.169    569.909    569.982    569.909
 12.870    606.651    576.464     30.187    569.900    576.387    569.900    569.974    569.900
 12.970    575.593    574.674      0.919    569.886    574.597    569.886    569.961    569.886
 13.070    530.476    573.626    -43.150    569.868    573.549    569.868    569.942    569.868
 13.170    547.287    572.905    -25.618    569.844    572.828    569.844    569.919    569.844
 13.270    607.000    572.366     34.634    569.815    572.289    569.815    569.890    569.815
 13.370    533.000    571.946    -38.946    569.781    571.869    569.781    569.857    569.781
 13.470    512.000    571.608    -59.608    569.743    571.531    569.743    569.819    569.743
 13.570    538.000    571.328    -33.328    569.699    571.251    569.699    569.776    569.699
 13.670    611.636    571.090     40.547    569.651    571.012    569.651    569.728    569.651
 13.770    581.816    570.882     10.934    569.598    570.804    569.598    569.676    569.598
 13.870    588.000    570.697     17.303    569.541    570.619    569.541    569.618    569.541
 13.970    522.000    570.529    -48.529    569.479    570.451    569.479    569.557    569.479
 14.070    571.000    570.373      0.627    569.412    570.294    569.412    569.490    569.412
 14.170    550.000    570.226    -20.226    569.341    570.147    569.341    569.419    569.341
 14.270    577.000    570.086      6.914    569.265    570.006    569.265    569.344    569.265
 14.370    568.550    569.950     -1.400    569.185    569.870    569.185    569.264    569.185
 14.470    577.878    569.817      8.061    569.100    569.737    569.100    569.180    569.100
 14.570    533.000    569.686    -36.686    569.011    569.606    569.011    569.092    569.011
 14.670    546.556    569.557    -23.001    568.918    569.475    568.918    568.999    568.918
 14.770    543.000    569.427    -26.427    568.821    569.346    568.821    568.902    568.821
 14.870    532.000    569.300    -37.300    568.719    569.217    568.719    568.802    568.719
 14.970    527.000    569.173    -42.173    568.613    569.088    568.613    568.698    568.613
 15.070    561.000    569.041     -8.041    568.504    568.956    568.504    568.589    568.504
 15.170    603.000    568.908     34.092    568.390    568.822    568.390    568.475    568.390
 15.270    615.347    568.773     46.574    568.272    568.687    568.272    568.358    568.272
 15.370    601.000    568.638     32.362    568.150    568.551    568.150    568.237    568.150
 15.470    607.000    568.498     38.502    568.025    568.411    568.025    568.111    568.025
 15.570    564.000    568.356     -4.356    567.895    568.269    567.895    567.982    567.895
 15.670    534.910    568.212    -33.302    567.762    568.124    567.762    567.850    567.762
 15.770    562.000    568.065     -6.065    567.625    567.976    567.625    567.713    567.625
 15.870    601.671    567.915     33.756    567.484    567.826    567.484    567.573    567.484
 15.970    507.000    567.763    -60.763    567.339    567.673    567.339    567.429    567.339
 16.070    564.411    567.607     -3.196    567.191    567.517    567.191    567.281    567.191
 16.170    572.000    567.449      4.551    567.040    567.359    567.040    567.130    567.040
 16.270    593.000    567.289     25.711    566.884    567.197    566.884    566.975    566.884
 16.370    577.000    567.125      9.875    566.726    567.033    566.726    566.817    566.726
 16.470    589.000    566.959     22.041    566.563    566.866    566.563    566.656    566.563
 16.570    538.000    566.789    -28.789    566.398    566.696    566.398    566.491    566.398
 16.670    569.000    566.617      2.383    566.229    566.524    566.229    566.322    566.229
 16.770    526.000    566.442    -40.442    566.057    566.348    566.057    566.151    566.057
 16.870    557.000    566.264     -9.264    565.881    566.170    565.881    565.976    565.881
 16.970    539.000    566.084    -27.084    565.702    565.988    565.702    565.797    565.702
 17.070    517.000    565.900    -48.900    565.520    565.804    565.520    565.616    565.520
 17.170    562.000    565.714     -3.714    565.335    565.618    565.335    565.432    565.335
 17.270    540.000    565.525    -25.525    565.147    565.428    565.147    565.244    565.147
 17.370    547.000    565.336    -18.336    564.956    565.236    564.956    565.056    564.956
 17.470    499.000    565.148    -66.148    564.761    565.042    564.761    564.867    564.761
 17.570    552.000    564.953    -12.953    564.564    564.846    564.564    564.671    564.564
 17.670    576.000    564.753     11.247    564.364    564.646    564.364    564.471    564.364
 17.770    602.000    564.551     37.449    564.161    564.443    564.161    564.269    564.161
 17.870    504.000    564.346    -60.346    563.955    564.237    563.955    564.064    563.955
 17.970    592.000    564.139     27.861    563.746    564.029    563.746    563.856    563.746
 18.070    575.000    563.930     11.070    563.534    563.819    563.534    563.645    563.534
 18.170    577.000    563.717     13.283    563.320    563.606    563.320    563.431    563.320
 18.270    520.000    563.503    -43.503    563.103    563.390    563.103    563.215    563.103
 18.370    578.703    563.285     15.417    562.883    563.173    562.883    562.996    562.883
 18.470    587.000    563.066     23.934    562.661    562.952    562.661    562.775    562.661
 18.570    556.000    562.844     -6.844    562.436    562.730    562.436    562.551    562.436
 18.670    547.000    562.620    -15.620    562.209    562.505    562.209    562.324    562.209
 18.770    525.893    562.394    -36.501    561.979    562.278    561.979    562.095    561.979
 18.870    559.000    562.166     -3.166    561.747    562.048    561.747    561.864    561.747
 18.970    561.000    561.935     -0.935    561.512    561.817    561.512    561.630    561.512
 19.070    578.000    561.702     16.298    561.275    561.583    561.275    561.394    561.275
 19.170    603.532    561.467     42.064    561.035    561.348    561.035    561.155    561.035
 19.270    597.000    561.231     35.769    560.793    561.110    560.793    560.914    560.793
 19.370    550.399    560.994    -10.596    560.549    560.872    560.549    560.671    560.549
 19.470    545.000    560.754    -15.754    560.303    560.631    560.303    560.426    560.303
 19.570    593.497    560.511     32.986    560.054    560.387    560.054    560.178    560.054
 19.670    566.000    560.267      5.733    559.804    560.142    559.804    559.929    559.804
 19.770    533.000    560.021    -27.021    559.551    559.895    559.551    559.677    559.551
 19.870    533.000    559.774    -26.774    559.296    559.647    559.296    559.423    559.296
 19.970    573.000    559.531     13.469    559.039    559.403    559.039    559.167    559.039
 20.070    545.636    559.297    -13.660    558.780    559.167    558.780    558.909    558.780
 20.170    534.000    559.046    -25.046    558.519    558.915    558.519    558.650    558.519
 20.270    544.000    558.792    -14.792    558.256    558.660    558.256    558.388    558.256
 20.370    606.276    558.536     47.740    557.992    558.404    557.992    558.124    557.992
 20.470    566.717    558.280      8.437    557.725    558.146    557.725    557.859    557.725
 20.570    537.523    558.022    -20.499    557.456    557.886    557.456    557.592    557.456
 20.670    574.000    557.763     16.237    557.186    557.626    557.186    557.323    557.186
 20.770    529.000    557.502    -28.502    556.914    557.364    556.914    557.052    556.914
 20.870    541.000    557.241    -16.241    556.640    557.102    556.640    556.780    556.640
 20.970    557.000    556.979      0.021    556.365    556.838    556.365    556.506    556.365
 21.070    571.000    556.716     14.284    556.088    556.573    556.088    556.230    556.088
 21.170    595.000    556.452     38.548    555.809    556.308    555.809    555.953    555.809
 21.270    528.000    556.187    -28.187    555.529    556.042    555.529    555.674    555.529
 21.370    560.000    555.922      4.078    555.247    555.775    555.247    555.394    555.247
 21.470    561.000    555.657      5.343    554.963    555.508    554.963    555.112    554.963
 21.570    585.924    555.391     30.533    554.678    555.241    554.678    554.829    554.678
 21.670    571.529    555.125     16.404    554.392    554.973    554.392    554.544    554.392
 21.770    579.000    554.861     24.139    554.104    554.706    554.104    554.259    554.104
 21.870    578.000    554.598     23.402    553.815    554.439    553.815    553.974    553.815
 21.970    543.000    554.334    -11.334    553.524    554.173    553.524    553.686    553.524
 22.070    552.000    554.083     -2.083    553.233    553.920    553.233    553.396    553.233
 22.170    544.702    553.858     -9.156    552.939    553.693    552.939    553.105    552.939
 22.270    570.796    553.602     17.194    552.645    553.434    552.645    552.812    552.645
 22.370    569.000    553.359     15.641    552.349    553.190    552.349    552.519    552.349
 22.470    505.740    553.197    -47.457    552.052    553.025    552.052    552.224    552.052
 22.570    557.000    552.954      4.046    551.754    552.780    551.754    551.928    551.754
 22.670    581.000    552.705     28.295    551.455    552.528    551.455    551.631    551.455
 22.770    540.366    552.463    -12.097    551.155    552.284    551.155    551.334    551.155
 22.870    555.000    552.254      2.746    550.853    552.072    550.853    551.035    550.853
 22.970    498.000    552.056    -54.056    550.551    551.872    550.551    550.735    550.551
 23.070    592.276    551.839     40.437    550.247    551.652    550.247    550.434    550.247
 23.170    484.000    551.632    -67.632    549.943    551.442    549.943    550.133    549.943
 23.270    594.000    551.437     42.563    549.637    551.245    549.637    549.830    549.637
 23.370    537.000    551.261    -14.261    549.331    551.066    549.331    549.527    549.331
 23.470    550.000    551.110     -1.110    549.023    550.911    549.023    549.223    549.023
 23.570    528.920    550.991    -22.071    548.715    550.789    548.715    548.918    548.715
 23.670    552.127    550.916      1.211    548.406    550.711    548.406    548.613    548.406
 23.770    574.000    550.901     23.099    548.096    550.693    548.096    548.306    548.096
 23.870    544.000    550.972     -6.972    547.786    550.760    547.786    548.000    547.786
 23.970    578.622    551.173     27.448    547.474    550.957    547.474    547.692    547.474
 24.070    587.000    551.608     35.392    547.162    551.388    547.162    547.384    547.162
 24.170    568.000    552.568     15.432    546.849    552.345    546.849    547.076    546.849
 24.270    564.213    554.873      9.340    546.536    554.647    546.536    546.767    546.536
 24.370    572.000    560.361     11.639    546.222    560.134    546.222    546.458    546.222
 24.470    572.000    571.862      0.138    545.907    571.638    545.907    546.148    545.907
 24.570    618.000    591.363     26.637    545.592    591.148    545.592    545.839    545.592
 24.670    650.000    616.049     33.951    545.276    615.847    545.276    545.528    545.276
 24.770    580.000    635.078    -55.078    544.959    634.884    544.959    545.218    544.959
 24.870    634.000    635.336     -1.336    544.642    635.136    544.642    544.907    544.642
 24.970    643.000    616.365     26.635    544.325    616.145    544.325    544.597    544.325
 25.070    593.000    591.073      1.927    544.007    590.828    544.007    544.286    544.007
 25.170    579.000    570.683      8.317    543.689    570.414    543.689    543.975    543.689
 25.270    549.000    558.331     -9.331    543.370    558.045    543.370    543.665    543.370
 25.370    558.000    552.147      5.853    543.051    551.849    543.051    543.354    543.051
 25.470    544.583    549.261     -4.678    542.731    548.951    542.731    543.044    542.731
 25.570    514.600    547.768    -33.167    542.411    547.447    542.411    542.734    542.411
 25.670    584.057    546.830     37.227    542.091    546.498    542.091    542.424    542.091
 25.770    553.000    546.128      6.872    541.771    545.784    541.771    542.115    541.771
 25.870    536.870    545.567     -8.697    541.450    545.212    541.450    541.807    541.450
 25.970    552.102    545.107      6.994    541.129    544.738    541.129    541.499    541.129
 26.070    574.000    544.729     29.271    540.808    544.345    540.808    541.192    540.808
 26.170    536.000    544.411     -8.411    540.487    544.012    540.487    540.886    540.487
 26.270    569.876    544.142     25.734    540.165    543.726    540.165    540.581    540.165
 26.370    527.202    543.922    -16.720    539.844    543.488    539.844    540.278    539.844
 26.470    530.000    543.752    -13.752    539.522    543.298    539.522    539.976    539.522
 26.570    496.522    543.633    -47.111    539.200    543.158    539.200    539.675    539.200
 26.670    556.000    543.572     12.428    538.878    543.073    538.878    539.377    538.878
 26.770    557.079    543.577     13.502    538.556    543.053    538.556    539.081    538.556
 26.870    560.672    543.681     16.992    538.234    543.127    538.234    538.788    538.234
 26.970    518.202    543.911    -25.709    537.912    543.325    537.912    538.497    537.912
 27.070    553.000    544.219      8.781    537.591    543.598    537.591    538.211    537.591
 27.170    508.788    544.684    -35.897    537.269    544.024    537.269    537.928    537.269
 27.270    573.693    545.366     28.327    536.947    544.662    536.947    537.650    536.947
 27.370    535.000    546.353    -11.353    536.625    545.598    536.625    537.378    536.625
 27.470    547.121    547.803     -0.682    536.304    546.992    536.304    537.113    536.304
 27.570    563.074    550.100     12.974    535.982    549.225    535.982    536.855    535.982
 27.670    578.000    554.563     23.437    535.661    553.613    535.661    536.607    535.661
 27.770    585.293    565.568     19.725    535.340    564.531    535.340    536.370    535.340
 27.870    628.001    593.959     34.042    535.019    592.814    535.019    536.147    535.019
 27.970    680.000    656.856     23.144    534.698    655.576    534.698    535.940    534.698
 28.070    775.758    763.053     12.705    534.378    761.608    534.378    535.754    534.378
 28.170    883.322    885.999     -2.677    534.058    884.367    534.058    535.593    534.058
 28.270    969.000    955.331     13.669    533.738    953.509    533.738    535.465    533.738
 28.370    929.000    917.354     11.646    533.418    915.332    533.418    535.379    533.418
 28.470    766.758    812.797    -46.039    533.099    810.522    533.099    535.348    533.099
 28.570    680.000    722.938    -42.938    532.780    720.314    532.780    535.394    532.780
 28.670    692.040    696.810     -4.771    532.462    693.706    532.462    535.555    532.462
 28.770    722.000    736.082    -14.082    532.143    732.313    532.143    535.893    532.143
 28.870    813.000    804.844      8.156    531.826    800.126    531.826    536.518    531.826
 28.970    844.228    843.945      0.283    531.508    837.829    531.508    537.608    531.508
 29.070    790.000    813.073    -23.073    531.191    804.856    531.191    539.410    531.191
 29.170    681.000    736.219    -55.219    530.875    724.888    530.875    542.219    530.875
 29.270    653.254    660.891     -7.637    530.559    645.168    530.559    546.295    530.559
 29.370    616.749    612.380      4.370    530.244    590.933    530.244    551.697    530.244
 29.470    649.000    590.508     58.492    529.929    562.448    529.929    557.991    529.929
 29.570    541.547    583.896    -42.349    529.614    549.705    529.614    563.803    529.614
 29.670    620.000    581.585     38.415    529.301    544.054    529.301    566.829    529.301
 29.770    578.865    577.482      1.383    528.987    541.102    528.987    565.364    528.987
 29.870    539.000    570.625    -31.625    528.675    539.222    528.675    560.075    528.675
 29.970    604.000    562.743     41.257    528.363    537.899    528.363    553.204    528.363
 30.070    558.000    555.554      2.446    528.051    536.968    528.051    546.635    528.051
 30.170    556.000    549.882      6.118    527.740    536.384    527.740    541.236    527.740
 30.270    561.000    545.968     15.032    527.430    536.228    527.430    537.167    527.430
 30.370    582.000    544.010     37.990    527.121    536.877    527.121    534.249    527.121
