neutron_powder_diffraction_0079
R_wp: 4.456
Temperature (K): 788.812
Counts: 83413.00
Wavelength (Ã…): 2.52098
COMMENTS
Test file for demonstrating the .xyy file format in Reel1.0
END OF HEADER
   tth       Y_obs     Y_calc      Y_res    Background    Phase_1_Nuc    Phase_1_Mag    Phase_2_Nuc    Phase_2_Mag
  9.970    619.000    583.365     35.635    582.258    583.364    582.258    582.258    582.258
 10.070    579.329    584.134     -4.805    582.936    584.133    582.936    582.936    582.936
 10.170    579.386    584.901     -5.515    583.600    584.900    583.600    583.600    583.600
 10.270    614.000    585.669     28.331    584.252    585.668    584.252    584.252    584.252
 10.370    639.428    586.442     52.986    584.891    586.441    584.891    584.891    584.891
 10.470    593.897    587.224      6.673    585.518    587.224    585.518    585.518    585.518
 10.570    600.000    588.022     11.978    586.131    588.021    586.131    586.131    586.131
 10.670    622.650    588.840     33.810    586.733    588.839    586.733    586.733    586.733
 10.770    594.000    589.691      4.309    587.321    589.690    587.321    587.321    587.321
 10.870    625.000    590.619     34.381    587.898    590.618    587.898    587.898    587.898
 10.970    644.000    591.697     52.303    588.462    591.695    588.462    588.462    588.462
 11.070    603.000    592.742     10.258    589.014    592.740    589.014    589.014    589.014
 11.170    640.000    593.889     46.111    589.554    593.887    589.554    589.554    589.554
 11.270    547.069    595.201    -48.131    590.082    595.198    590.082    590.082    590.082
 11.370    643.000    596.760     46.240    590.598    596.756    590.598    590.598    590.598
 11.470    594.000    598.730     -4.730    591.103    598.726    591.103    591.103    591.103
 11.570    600.117    601.498     -1.381    591.596    601.492    591.596    591.596    591.596
 11.670    618.000    605.981     12.019    592.077    605.974    592.077    592.077    592.077
 11.770    625.000    614.080     10.920    592.547    614.068    592.547    592.547    592.547
 11.870    679.000    628.776     50.224    593.005    628.756    593.005    593.005    593.005
 11.970    634.781    652.980    -18.199    593.452    652.947    593.452    593.452    593.452
 12.070    726.262    686.462     39.800    593.888    686.409    593.888    593.888    593.888
 12.170    768.000    721.210     46.790    594.312    721.138    594.312    594.312    594.312
 12.270    739.000    739.105     -0.105    594.726    739.023    594.726    594.726    594.726
 12.370    679.826    726.656    -46.831    595.129    726.581    595.129    595.129    595.129
 12.470    672.000    694.402    -22.402    595.521    694.346    595.521    595.521    595.521
 12.570    681.635    660.847     20.788    595.902    660.810    595.902    595.902    595.902
 12.670    636.000    635.710      0.290    596.272    635.688    596.272    596.272    596.272
 12.770    661.336    620.309     41.028    596.632    620.295    596.632    596.632    596.632
 12.870    572.000    612.072    -40.072    596.981    612.063    596.981    596.981    596.981
 12.970    584.860    607.897    -23.037    597.320    607.892    597.320    597.320    597.320
 13.070    658.257    605.711     52.546    597.649    605.706    597.649    597.649    597.649
 13.170    593.000    604.449    -11.449    597.967    604.446    597.967    597.967    597.967
 13.270    648.444    603.655     44.790    598.276    603.652    598.276    598.276    598.276
 13.370    594.823    603.133     -8.310    598.574    603.131    598.574    598.574    598.574
 13.470    558.666    602.790    -44.124    598.862    602.788    598.862    598.862    598.862
 13.570    593.000    602.573     -9.573    599.141    602.571    599.141    599.141    599.141
 13.670    614.000    602.444     11.556    599.409    602.443    599.409    599.409    599.409
 13.770    595.000    602.382     -7.382    599.668    602.381    599.668    599.668    599.668
 13.870    638.215    602.371     35.844    599.917    602.370    599.917    599.917    599.917
 13.970    583.000    602.392    -19.392    600.157    602.391    600.157    600.157    600.157
 14.070    588.000    602.439    -14.439    600.387    602.438    600.387    600.387    600.387
 14.170    592.754    602.504     -9.750    600.608    602.503    600.608    600.608    600.608
 14.270    587.000    602.582    -15.582    600.819    602.581    600.819    600.819    600.819
 14.370    556.000    602.670    -46.670    601.022    602.670    601.022    601.022    601.022
 14.470    557.929    602.765    -44.836    601.215    602.764    601.215    601.215    601.215
 14.570    593.410    602.864     -9.454    601.399    602.863    601.399    601.399    601.399
 14.670    634.873    602.964     31.909    601.574    602.963    601.574    601.574    601.574
 14.770    577.000    603.070    -26.070    601.740    603.070    601.740    601.740    601.740
 14.870    641.889    603.226     38.663    601.898    603.225    601.898    601.898    601.898
 14.970    586.000    603.354    -17.354    602.046    603.354    602.046    602.046    602.046
 15.070    578.000    603.452    -25.452    602.187    603.452    602.187    602.187    602.187
 15.170    605.000    603.544      1.456    602.318    603.544    602.318    602.318    602.318
 15.270    591.000    603.632    -12.632    602.441    603.632    602.441    602.441    602.441
 15.370    611.036    603.720      7.316    602.556    603.720    602.556    602.556    602.556
 15.470    587.000    603.802    -16.802    602.662    603.802    602.662    602.662    602.662
 15.570    597.000    603.875     -6.875    602.760    603.875    602.760    602.760    602.760
 15.670    588.762    603.944    -15.182    602.850    603.943    602.850    602.850    602.850
 15.770    555.000    604.010    -49.010    602.932    604.010    602.932    602.932    602.932
 15.870    576.626    604.077    -27.450    603.005    604.076    603.005    603.005    603.005
 15.970    573.000    604.133    -31.133    603.071    604.132    603.071    603.071    603.071
 16.070    546.000    604.226    -58.226    603.129    604.226    603.129    603.129    603.129
 16.170    550.000    604.283    -54.283    603.179    604.283    603.179    603.179    603.179
 16.270    638.861    604.317     34.544    603.222    604.316    603.222    603.222    603.222
 16.370    593.000    604.344    -11.344    603.257    604.344    603.257    603.257    603.257
 16.470    605.000    604.385      0.615    603.284    604.385    603.284    603.284    603.284
 16.570    523.000    604.407    -81.407    603.304    604.407    603.304    603.304    603.304
 16.670    543.000    604.415    -61.415    603.316    604.415    603.316    603.316    603.316
 16.770    596.685    604.419     -7.734    603.321    604.419    603.321    603.321    603.321
 16.870    587.000    604.423    -17.423    603.319    604.423    603.319    603.319    603.319
 16.970    596.000    604.412     -8.412    603.309    604.411    603.309    603.309    603.309
 17.070    629.752    604.393     25.359    603.293    604.393    603.293    603.293    603.293
 17.170    548.000    604.368    -56.368    603.269    604.368    603.269    603.269    603.269
 17.270    620.097    604.337     15.760    603.238    604.337    603.238    603.238    603.238
 17.370    590.161    604.299    -14.139    603.201    604.299    603.201    603.201    603.201
 17.470    611.000    604.256      6.744    603.156    604.256    603.156    603.156    603.156
 17.570    560.000    604.207    -44.207    603.105    604.207    603.105    603.105    603.105
 17.670    592.784    604.167    -11.384    603.048    604.167    603.048    603.048    603.048
 17.770    602.919    604.126     -1.207    602.983    604.125    602.983    602.983    602.983
 17.870    606.912    604.089      2.824    602.912    604.088    602.912    602.912    602.912
 17.970    592.000    604.027    -12.027    602.835    604.027    602.835    602.835    602.835
 18.070    574.000    603.951    -29.951    602.751    603.951    602.751    602.751    602.751
 18.170    590.000    603.896    -13.896    602.661    603.896    602.661    602.661    602.661
 18.270    555.372    603.866    -48.494    602.564    603.866    602.564    602.564    602.564
 18.370    563.696    603.783    -40.087    602.462    603.783    602.462    602.462    602.462
 18.470    578.000    603.689    -25.689    602.353    603.689    602.353    602.353    602.353
 18.570    593.000    603.592    -10.592    602.238    603.592    602.238    602.238    602.238
 18.670    648.303    603.499     44.804    602.117    603.499    602.117    602.117    602.117
 18.770    596.000    603.406     -7.406    601.990    603.406    601.990    601.990    601.990
 18.870    570.000    603.316    -33.316    601.858    603.316    601.858    601.858    601.858
 18.970    601.000    603.190     -2.190    601.719    603.190    601.719    601.719    601.719
 19.070    604.000    603.058      0.942    601.575    603.057    601.575    601.575    601.575
 19.170    593.000    602.919     -9.919    601.425    602.919    601.425    601.425    601.425
 19.270    590.000    602.775    -12.775    601.270    602.775    601.270    601.270    601.270
 19.370    567.644    602.631    -34.987    601.109    602.631    601.109    601.109    601.109
 19.470    565.000    602.480    -37.480    600.942    602.480    600.942    600.942    600.942
 19.570    615.658    602.327     13.331    600.770    602.327    600.770    600.770    600.770
 19.670    566.000    602.172    -36.172    600.593    602.172    600.593    600.593    600.593
 19.770    593.346    602.011     -8.665    600.411    602.011    600.411    600.411    600.411
 19.870    592.000    601.839     -9.839    600.223    601.839    600.223    600.223    600.223
 19.970    595.000    601.663     -6.663    600.030    601.663    600.030    600.030    600.030
 20.070    600.000    601.482     -1.482    599.832    601.482    599.832    599.832    599.832
 20.170    616.954    601.297     15.657    599.629    601.297    599.629    599.629    599.629
 20.270    531.000    601.109    -70.109    599.421    601.109    599.421    599.421    599.421
 20.370    621.422    600.918     20.504    599.208    600.918    599.208    599.208    599.208
 20.470    574.000    600.722    -26.722    598.991    600.722    598.991    598.991    598.991
 20.570    532.000    600.522    -68.522    598.768    600.523    598.768    598.768    598.768
 20.670    562.526    600.319    -37.793    598.541    600.319    598.541    598.541    598.541
 20.770    593.000    600.111     -7.111    598.309    600.111    598.309    598.309    598.309
 20.870    565.000    599.899    -34.899    598.073    599.900    598.073    598.073    598.073
 20.970    555.000    599.685    -44.685    597.832    599.685    597.832    597.832    597.832
 21.070    583.000    599.467    -16.467    597.586    599.467    597.586    597.586    597.586
 21.170    589.000    599.246    -10.246    597.337    599.246    597.337    597.337    597.337
 21.270    592.000    599.022     -7.022    597.082    599.023    597.082    597.082    597.082
 21.370    629.463    598.796     30.667    596.824    598.797    596.824    596.824    596.824
 21.470    598.000    598.568     -0.568    596.561    598.568    596.561    596.561    596.561
 21.570    524.000    598.338    -74.338    596.294    598.338    596.294    596.294    596.294
 21.670    614.000    598.106     15.894    596.023    598.106    596.023    596.023    596.023
 21.770    558.000    597.874    -39.874    595.748    597.874    595.748    595.748    595.748
 21.870    644.134    597.639     46.495    595.469    597.639    595.469    595.469    595.469
 21.970    610.000    597.404     12.596    595.186    597.404    595.186    595.186    595.186
 22.070    582.000    597.170    -15.170    594.898    597.171    594.898    594.898    594.898
 22.170    552.000    596.935    -44.935    594.608    596.936    594.608    594.608    594.608
 22.270    569.000    596.701    -27.701    594.313    596.701    594.313    594.313    594.313
 22.370    588.000    596.468     -8.468    594.015    596.468    594.015    594.015    594.015
 22.470    624.000    596.238     27.762    593.712    596.238    593.712    593.712    593.712
 22.570    587.838    596.011     -8.173    593.407    596.011    593.407    593.407    593.407
 22.670    565.100    595.788    -30.688    593.097    595.788    593.097    593.097    593.097
 22.770    596.000    595.571      0.429    592.785    595.572    592.785    592.785    592.785
 22.870    576.000    595.364    -19.364    592.468    595.364    592.468    592.468    592.468
 22.970    648.000    595.165     52.835    592.149    595.165    592.149    592.149    592.149
 23.070    558.000    594.978    -36.978    591.826    594.978    591.826    591.826    591.826
 23.170    584.000    594.807    -10.807    591.499    594.808    591.499    591.499    591.499
 23.270    635.000    594.657     40.343    591.170    594.657    591.170    591.170    591.170
 23.370    567.000    594.532    -27.532    590.837    594.533    590.837    590.837    590.837
 23.470    576.144    594.442    -18.298    590.501    594.443    590.501    590.501    590.501
 23.570    551.310    594.396    -43.085    590.162    594.397    590.162    590.162    590.162
 23.670    559.000    594.408    -35.408    589.820    594.409    589.820    589.820    589.820
 23.770    589.000    594.500     -5.500    589.475    594.502    589.475    589.475    589.475
 23.870    581.198    594.703    -13.506    589.127    594.705    589.127    589.127    589.127
 23.970    570.142    595.064    -24.922    588.777    595.067    588.777    588.777    588.777
 24.070    596.000    595.687      0.313    588.423    595.690    588.423    588.423    588.423
 24.170    580.000    596.783    -16.783    588.066    596.787    588.066    588.066    588.066
 24.270    594.888    598.857     -3.969    587.707    598.862    587.707    587.707    587.707
 24.370    628.054    602.934     25.120    587.345    602.943    587.345    587.345    587.345
 24.470    636.000    610.659     25.341    586.981    610.674    586.981    586.981    586.981
 24.570    642.050    623.817     18.233    586.614    623.841    586.614    586.614    586.614
 24.670    629.000    642.885    -13.885    586.244    642.923    586.244    586.244    586.244
 24.770    655.000    664.637     -9.637    585.872    664.690    585.872    585.872    585.872
 24.870    726.000    680.254     45.746    585.497    680.318    585.497    585.497    585.497
 24.970    633.345    679.917    -46.572    585.120    679.981    585.120    585.120    585.120
 25.070    672.616    663.673      8.943    584.741    663.726    584.741    584.741    584.741
 25.170    620.628    641.366    -20.738    584.359    641.404    584.359    584.359    584.359
 25.270    593.501    621.781    -28.280    583.975    621.805    583.975    583.975    583.975
 25.370    662.074    608.116     53.958    583.589    608.130    583.589    583.589    583.589
 25.470    590.186    599.882     -9.696    583.201    599.891    583.201    583.201    583.201
 25.570    587.407    595.294     -7.887    582.811    595.299    582.811    582.811    582.811
 25.670    626.000    592.714     33.286    582.418    592.718    582.418    582.418    582.418
 25.770    602.912    591.125     11.788    582.024    591.127    582.024    582.024    582.024
 25.870    547.409    590.028    -42.618    581.627    590.030    581.627    581.627    581.627
 25.970    642.768    589.208     53.560    581.229    589.210    581.229    581.229    581.229
 26.070    634.000    588.574     45.426    580.828    588.575    580.828    580.828    580.828
 26.170    589.000    588.078      0.922    580.426    588.079    580.426    580.426    580.426
 26.270    638.000    587.698     50.302    580.022    587.698    580.022    580.022    580.022
 26.370    575.000    587.419    -12.419    579.617    587.420    579.617    579.617    579.617
 26.470    614.000    587.237     26.763    579.209    587.237    579.209    579.209    579.209
 26.570    636.000    587.152     48.848    578.800    587.152    578.800    578.800    578.800
 26.670    632.000    587.171     44.829    578.389    587.171    578.389    578.389    578.389
 26.770    587.818    587.307      0.511    577.977    587.306    577.977    577.977    577.977
 26.870    614.052    587.578     26.475    577.563    587.577    577.563    577.563    577.563
 26.970    650.000    588.013     61.987    577.148    588.012    577.148    577.148    577.148
 27.070    609.000    588.652     20.348    576.731    588.651    576.731    576.731    576.731
 27.170    669.000    589.554     79.446    576.313    589.553    576.313    576.313    576.313
 27.270    637.000    590.802     46.198    575.893    590.800    575.893    575.893    575.893
 27.370    612.497    592.526     19.971    575.472    592.523    575.472    575.472    575.472
 27.470    649.000    594.954     54.046    575.050    594.951    575.050    575.050    575.050
 27.570    656.000    598.585     57.415    574.626    598.580    574.626    574.626    574.626
 27.670    712.000    604.631    107.369    574.201    604.624    574.201    574.201    574.201
 27.770    668.000    615.944     52.056    573.775    615.932    573.775    573.775    573.775
 27.870    606.109    638.091    -31.982    573.348    638.071    573.348    573.348    573.348
 27.970    694.000    679.033     14.967    572.920    678.999    572.920    572.920    572.920
 28.070    752.000    744.954      7.046    572.491    744.903    572.491    572.491    572.491
 28.170    817.000    831.525    -14.525    572.060    831.457    572.060    572.060    572.060
 28.270    962.000    914.049     47.951    571.629    913.975    571.629    571.629    571.629
 28.370    886.665    949.594    -62.928    571.197    949.529    571.197    571.197    571.197
 28.470    945.000    916.622     28.378    570.764    916.574    570.764    570.764    570.764
 28.570    868.439    850.098     18.340    570.330    850.065    570.330    570.330    570.330
 28.670    864.000    797.980     66.020    569.895    797.953    569.895    569.895    569.895
 28.770    747.000    783.898    -36.898    569.459    783.874    569.459    569.459    569.459
 28.870    769.632    805.401    -35.768    569.023    805.379    569.023    569.023    569.023
 28.970    851.000    838.953     12.047    568.586    838.938    568.586    568.586    568.586
 29.070    916.000    849.224     66.776    568.148    849.220    568.148    568.148    568.148
 29.170    787.238    816.456    -29.218    567.709    816.460    567.709    567.709    567.709
 29.270    780.000    757.223     22.777    567.270    757.229    567.270    567.270    567.270
 29.370    724.000    697.915     26.085    566.831    697.920    566.831    566.831    566.831
 29.470    731.000    652.262     78.738    566.390    652.265    566.390    566.390    566.390
 29.570    681.000    622.461     58.539    565.950    622.462    565.950    565.950    565.950
 29.670    683.000    605.011     77.989    565.508    605.010    565.508    565.508    565.508
 29.770    639.000    595.214     43.786    565.067    595.212    565.067    565.067    565.067
 29.870    678.000    589.511     88.489    564.625    589.509    564.625    564.625    564.625
 29.970    672.000    585.898     86.102    564.182    585.896    564.182    564.182    564.182
 30.070    692.000    583.452    108.548    563.739    583.449    563.739    563.739    563.739
 30.170    630.064    581.814     48.250    563.296    581.811    563.296    563.296    563.296
 30.270    653.000    580.924     72.076    562.853    580.920    562.853    562.853    562.853
 30.370    630.000    580.968     49.032    562.409    580.963    562.409    562.409    562.409
