neutron_powder_diffraction_0026
R_wp: 3.728
Temperature (K): 524.085
Counts: 83179.00
Wavelength (Ã…): 2.52098
COMMENTS
Test file for demonstrating the .xyy file format in Reel1.0
END OF HEADER
   tth       Y_obs     Y_calc      Y_res    Background    Phase_1_Nuc    Phase_1_Mag    Phase_2_Nuc    Phase_2_Mag
  9.970    756.000    711.023     44.977    709.405    710.417    710.010    709.405    709.405
 10.070    732.335    710.119     22.216    708.413    709.506    709.025    708.413    708.413
 10.170    708.515    709.230     -0.715    707.425    708.611    708.044    707.425    707.425
 10.270    711.141    708.360      2.781    706.442    707.734    707.067    706.442    706.442
 10.370    752.000    707.510     44.490    705.463    706.877    706.096    705.463    705.463
 10.470    745.919    706.684     39.235    704.489    706.044    705.128    704.489    704.489
 10.570    713.167    705.887      7.281    703.519    705.240    704.165    703.519    703.519
 10.670    733.000    705.123     27.877    702.554    704.469    703.207    702.554    702.554
 10.770    659.000    704.401    -45.401    701.593    703.740    702.253    701.593    701.593
 10.870    769.000    703.731     65.269    700.636    703.062    701.304    700.636    700.636
 10.970    735.525    703.126     32.399    699.684    702.450    700.359    699.684    699.684
 11.070    736.000    702.604     33.396    698.736    701.920    699.418    698.736    698.736
 11.170    755.000    702.193     52.807    697.792    701.501    698.482    697.792    697.792
 11.270    726.922    701.932     24.990    696.853    701.231    697.551    696.853    696.853
 11.370    653.498    701.882    -48.384    695.918    701.173    696.624    695.918    695.918
 11.470    672.428    702.161    -29.732    694.988    701.443    695.702    694.988    694.988
 11.570    697.000    703.020     -6.020    694.062    702.293    694.784    694.062    694.062
 11.670    727.357    705.032     22.324    693.140    704.296    693.871    693.140    693.140
 11.770    702.974    709.389     -6.415    692.223    708.641    692.962    692.223    692.223
 11.870    788.000    718.101     69.899    691.310    717.340    692.057    691.310    691.310
 11.970    765.000    733.587     31.413    690.401    732.807    691.158    690.401    690.401
 12.070    834.000    757.055     76.945    689.497    756.253    690.262    689.497    689.497
 12.170    828.000    785.494     42.506    688.597    784.667    689.372    688.597    688.597
 12.270    795.594    808.579    -12.985    687.701    807.730    688.485    687.701    687.701
 12.370    791.000    812.191    -21.191    686.810    811.330    687.604    686.810    686.810
 12.470    744.000    792.741    -48.741    685.923    791.881    686.727    685.923    685.923
 12.570    714.847    762.565    -47.717    685.040    761.710    685.854    685.040    685.040
 12.670    701.000    734.854    -33.854    684.162    734.004    684.985    684.162    684.162
 12.770    753.000    714.876     38.124    683.288    714.026    684.122    683.288    683.288
 12.870    738.894    702.397     36.496    682.418    701.543    683.262    682.418    682.418
 12.970    663.000    695.116    -32.116    681.553    694.254    682.408    681.553    681.553
 13.070    632.000    690.759    -58.759    680.692    689.889    681.557    680.692    680.692
 13.170    653.000    687.859    -34.859    679.835    686.979    680.712    679.835    679.835
 13.270    659.000    685.674    -26.674    678.983    684.783    679.870    678.983    678.983
 13.370    660.859    683.875    -23.016    678.134    682.974    679.034    678.134    678.134
 13.470    630.000    682.318    -52.318    677.291    681.405    678.201    677.291    677.291
 13.570    683.000    680.926      2.074    676.451    680.002    677.374    676.451    676.451
 13.670    680.000    679.656      0.344    675.616    678.720    676.551    675.616    675.616
 13.770    684.616    678.482      6.134    674.785    677.533    675.732    674.785    674.785
 13.870    655.000    677.375    -22.375    673.958    676.414    674.918    673.958    673.958
 13.970    730.664    676.323     54.342    673.136    675.349    674.108    673.136    673.136
 14.070    680.000    675.315      4.685    672.317    674.328    673.303    672.317    672.317
 14.170    641.198    674.343    -33.145    671.503    673.343    672.503    671.503    671.503
 14.270    663.000    673.402    -10.402    670.694    672.388    671.707    670.694    670.694
 14.370    622.000    672.486    -50.486    669.888    671.458    670.915    669.888    669.888
 14.470    669.000    671.592     -2.592    669.087    670.550    670.128    669.087    669.087
 14.570    645.000    670.718    -25.718    668.290    669.662    669.346    668.290    668.290
 14.670    644.484    669.881    -25.396    667.497    668.809    668.568    667.497    667.497
 14.770    629.000    669.047    -40.047    666.709    667.960    667.795    666.709    666.709
 14.870    638.521    668.217    -29.696    665.925    667.114    667.026    665.925    665.925
 14.970    668.000    667.397      0.603    665.145    666.279    666.262    665.145    665.145
 15.070    669.000    666.589      2.411    664.369    665.454    665.502    664.369    664.369
 15.170    618.155    665.790    -47.635    663.597    664.639    664.747    663.597    663.597
 15.270    635.663    665.001    -29.338    662.830    663.833    663.997    662.830    662.830
 15.370    629.000    664.220    -35.220    662.066    663.035    663.251    662.066    662.066
 15.470    685.542    663.448     22.094    661.307    662.245    662.510    661.307    661.307
 15.570    660.000    662.688     -2.688    660.552    661.467    661.773    660.552    660.552
 15.670    672.000    661.931     10.069    659.802    660.692    661.041    659.802    659.802
 15.770    701.028    661.181     39.846    659.055    659.923    660.313    659.055    659.055
 15.870    641.007    660.438    -19.430    658.313    659.160    659.590    658.313    658.313
 15.970    647.000    659.701    -12.701    657.575    658.404    658.872    657.575    657.575
 16.070    687.105    658.971     28.134    656.841    657.653    658.158    656.841    656.841
 16.170    679.000    658.247     20.753    656.111    656.909    657.449    656.111    656.111
 16.270    652.000    657.529     -5.529    655.385    656.169    656.744    655.385    655.385
 16.370    684.000    656.817     27.183    654.663    655.436    656.044    654.663    654.663
 16.470    626.000    656.111    -30.111    653.946    654.707    655.349    653.946    653.946
 16.570    637.788    655.411    -17.622    653.233    653.984    654.659    653.233    653.233
 16.670    658.000    654.716      3.284    652.523    653.267    653.973    652.523    652.523
 16.770    694.393    654.027     40.365    651.818    652.554    653.292    651.818    651.818
 16.870    631.000    653.344    -22.344    651.117    651.846    652.615    651.117    651.117
 16.970    598.000    652.666    -54.666    650.420    651.143    651.944    650.420    650.420
 17.070    610.000    651.995    -41.995    649.728    650.445    651.277    649.728    649.728
 17.170    656.718    651.333      5.384    649.039    649.757    650.615    649.039    649.039
 17.270    630.000    650.675    -20.675    648.354    649.071    649.957    648.354    648.354
 17.370    636.000    650.022    -14.022    647.674    648.390    649.305    647.674    647.674
 17.470    624.000    649.399    -25.399    646.997    647.738    648.658    646.997    646.997
 17.570    654.000    648.806      5.194    646.325    647.114    648.017    646.325    646.325
 17.670    623.675    648.181    -24.506    645.656    646.458    647.379    645.656    645.656
 17.770    634.000    647.553    -13.553    644.992    645.799    646.746    644.992    644.992
 17.870    633.000    646.925    -13.925    644.332    645.139    646.117    644.332    644.332
 17.970    647.459    646.303      1.157    643.675    644.484    645.494    643.675    643.675
 18.070    639.983    645.685     -5.702    643.023    643.833    644.875    643.023    643.023
 18.170    656.000    645.073     10.927    642.375    643.186    644.262    642.375    642.375
 18.270    618.000    644.467    -26.467    641.731    642.544    643.653    641.731    641.731
 18.370    630.000    643.868    -13.868    641.090    641.908    643.050    641.090    641.090
 18.470    597.000    643.298    -46.298    640.454    641.300    642.452    640.454    640.454
 18.570    592.000    642.714    -50.714    639.822    640.677    641.858    639.822    639.822
 18.670    629.000    642.130    -13.130    639.194    640.053    641.270    639.194    639.194
 18.770    648.520    641.551      6.969    638.569    639.433    640.687    638.569    638.569
 18.870    661.000    640.978     20.022    637.949    638.817    640.110    637.949    637.949
 18.970    662.000    640.410     21.590    637.333    638.206    639.537    637.333    637.333
 19.070    613.000    639.849    -26.849    636.720    637.600    638.970    636.720    636.720
 19.170    632.000    639.298     -7.298    636.112    637.002    638.408    636.112    636.112
 19.270    590.039    638.756    -48.718    635.507    636.412    637.852    635.507    635.507
 19.370    633.000    638.219     -5.219    634.907    635.823    637.303    634.907    634.907
 19.470    625.000    637.742    -12.742    634.310    635.277    636.775    634.310    634.310
 19.570    643.008    637.226      5.782    633.717    634.704    636.240    633.717    633.717
 19.670    638.000    636.702      1.298    633.129    634.124    635.706    633.129    633.129
 19.770    589.410    636.183    -46.773    632.544    633.549    635.178    632.544    632.544
 19.870    679.862    635.670     44.192    631.963    632.977    634.656    631.963    631.963
 19.970    612.000    635.167    -23.167    631.386    632.413    634.139    631.386    631.386
 20.070    633.565    634.691     -1.127    630.812    631.875    633.629    630.812    630.812
 20.170    598.000    634.201    -36.201    630.243    631.320    633.124    630.243    630.243
 20.270    603.000    633.716    -30.716    629.677    630.767    632.626    629.677    629.677
 20.370    661.000    633.247     27.753    629.116    630.222    632.140    629.116    629.116
 20.470    603.395    632.824    -29.428    628.558    629.709    631.672    628.558    628.558
 20.570    626.000    632.384     -6.384    628.004    629.193    631.195    628.004    628.004
 20.670    624.000    631.947     -7.947    627.454    628.678    630.723    627.454    627.454
 20.770    593.000    631.578    -38.578    626.907    628.226    630.259    626.907    626.907
 20.870    589.517    631.150    -41.633    626.365    627.715    629.800    626.365    626.365
 20.970    648.000    630.718     17.282    625.826    627.195    629.348    625.826    625.826
 21.070    635.270    630.294      4.976    625.291    626.681    628.904    625.291    625.291
 21.170    594.000    629.888    -35.888    624.760    626.181    628.467    624.760    624.760
 21.270    634.576    629.521      5.056    624.232    625.714    628.039    624.232    624.232
 21.370    587.264    629.127    -41.863    623.709    625.219    627.617    623.709    623.709
 21.470    602.000    628.742    -26.742    623.189    624.728    627.203    623.189    623.189
 21.570    592.000    628.377    -36.377    622.673    624.251    626.799    622.673    622.673
 21.670    584.000    628.024    -44.024    622.160    623.778    626.407    622.160    622.160
 21.770    629.000    627.672      1.328    621.652    623.305    626.019    621.652    621.652
 21.870    650.000    627.328     22.672    621.147    622.835    625.639    621.147    621.147
 21.970    621.502    626.997     -5.495    620.646    622.374    625.269    620.646    620.646
 22.070    624.000    626.676     -2.676    620.148    621.916    624.908    620.148    620.148
 22.170    623.547    626.369     -2.822    619.654    621.466    624.557    619.654    619.654
 22.270    645.000    626.077     18.923    619.164    621.024    624.217    619.164    619.164
 22.370    575.000    625.798    -50.798    618.678    620.589    623.887    618.678    618.678
 22.470    627.000    625.535      1.465    618.195    620.162    623.568    618.195    618.195
 22.570    613.376    625.289    -11.913    617.716    619.743    623.262    617.716    617.716
 22.670    590.793    625.062    -34.269    617.241    619.336    622.967    617.241    617.241
 22.770    665.926    624.858     41.068    616.769    618.941    622.686    616.769    616.769
 22.870    572.000    624.680    -52.680    616.301    618.562    622.419    616.301    616.301
 22.970    607.698    624.519    -16.821    615.836    618.191    622.165    615.836    615.836
 23.070    630.122    624.385      5.738    615.375    617.835    621.926    615.375    615.375
 23.170    619.000    624.281     -5.281    614.918    617.497    621.702    614.918    614.918
 23.270    622.000    624.211     -2.211    614.464    617.181    621.495    614.464    614.464
 23.370    591.000    624.180    -33.180    614.014    616.890    621.305    614.014    614.014
 23.470    612.000    624.195    -12.195    613.568    616.630    621.134    613.568    613.568
 23.570    640.000    624.265     15.735    613.125    616.407    620.983    613.125    613.125
 23.670    595.415    624.399    -28.984    612.685    616.232    620.853    612.685    612.685
 23.770    584.994    624.612    -39.618    612.249    616.117    620.746    612.249    612.249
 23.870    697.000    624.924     72.076    611.817    616.080    620.662    611.817    611.817
 23.970    648.981    625.364     23.617    611.388    616.151    620.604    611.388    611.388
 24.070    581.616    625.981    -44.365    610.963    616.372    620.574    610.963    610.963
 24.170    660.000    626.861     33.139    610.541    616.831    620.573    610.541    610.541
 24.270    620.000    628.193     -8.193    610.123    617.714    620.605    610.123    610.123
 24.370    633.000    630.397      2.603    609.708    619.438    620.673    609.708    609.708
 24.470    655.000    634.306     20.694    609.297    622.833    620.778    609.297    609.297
 24.570    641.000    641.262     -0.262    608.889    629.240    620.925    608.889    608.889
 24.670    665.000    652.792     12.208    608.485    640.181    621.117    608.485    608.485
 24.770    673.000    669.529      3.471    608.084    656.288    621.358    608.084    608.084
 24.870    669.000    689.328    -20.328    607.687    675.409    621.654    607.687    607.687
 24.970    717.000    705.421     11.579    607.293    690.763    622.010    607.293    607.293
 25.070    712.000    708.771      3.229    606.902    693.302    622.433    606.902    606.902
 25.170    695.000    697.165     -2.165    606.515    680.803    622.930    606.515    606.515
 25.270    652.000    678.482    -26.482    606.131    661.143    623.509    606.131    606.131
 25.370    662.000    661.225      0.775    605.751    642.821    624.180    605.751    605.751
 25.470    636.000    649.001    -13.001    605.374    629.435    624.955    605.374    605.374
 25.570    666.000    641.857     24.143    605.001    621.020    625.846    605.001    605.001
 25.670    608.000    638.399    -30.399    604.630    616.165    626.870    604.630    604.630
 25.770    605.166    637.161    -31.995    604.264    613.384    628.044    604.264    604.264
 25.870    692.000    637.155     54.845    603.900    611.667    629.390    603.900    603.900
 25.970    684.190    637.876     46.314    603.540    610.482    630.935    603.540    603.540
 26.070    594.144    639.115    -44.970    603.183    609.590    632.708    603.183    603.183
 26.170    680.569    640.804     39.765    602.829    608.885    634.748    602.829    602.829
 26.270    637.032    642.945     -5.913    602.479    608.319    637.105    602.479    602.479
 26.370    602.000    645.558    -43.558    602.132    607.861    639.829    602.132    602.132
 26.470    672.000    648.689     23.311    601.789    607.488    642.988    601.789    601.789
 26.570    617.000    652.421    -35.421    601.448    607.194    646.673    601.448    601.448
 26.670    681.000    656.863     24.137    601.111    606.977    650.994    601.111    601.111
 26.770    688.000    662.156     25.844    600.777    606.836    656.094    600.777    600.777
 26.870    673.053    668.490      4.562    600.447    606.777    662.156    600.447    600.447
 26.970    637.126    676.117    -38.992    600.119    606.808    669.424    600.119    600.119
 27.070    734.473    685.379     49.094    599.795    606.944    678.223    599.795    599.795
 27.170    710.616    696.741     13.875    599.474    607.209    688.999    599.474    599.474
 27.270    679.000    710.858    -31.858    599.156    607.633    702.372    599.156    599.156
 27.370    752.000    728.666     23.334    598.842    608.266    719.231    598.842    598.842
 27.470    727.000    751.567    -24.567    598.530    609.178    740.905    598.530    598.530
 27.570    780.000    781.892     -1.892    598.222    610.491    769.604    598.222    598.222
 27.670    789.000    824.581    -35.581    597.917    612.457    810.014    597.917    597.917
 27.770    901.000    893.668      7.332    597.615    615.792    875.445    597.615    597.615
 27.870   1048.000   1031.873     16.127    597.316    622.673   1006.422    597.316    597.316
 27.970   1373.329   1349.974     23.354    597.020    638.732   1308.059    597.020    597.020
 28.070   1876.000   2057.213   -181.213    596.728    674.611   1978.930    596.728    596.728
 28.170   3306.748   3384.230    -77.482    596.438    742.045   3237.971    596.438    596.438
 28.270   5178.000   5313.144   -135.144    596.152    840.168   5068.298    596.152    596.152
 28.370   7098.000   7250.867   -152.867    595.868    938.941   6907.047    595.868    595.868
 28.470   7954.000   8085.352   -131.352    595.588    982.081   7698.448    595.588    595.588
 28.570   7064.013   7201.335   -137.322    595.311    938.859   6857.684    595.311    595.311
 28.670   5475.000   5420.969     54.031    595.037    852.189   5163.829    595.037    595.037
 28.770   3845.920   3944.145    -98.225    594.766    784.859   3754.036    594.766    594.766
 28.870   3360.386   3371.339    -10.953    594.497    769.019   3196.744    594.497    594.497
 28.970   3706.000   3639.331     66.669    594.232    800.848   3432.658    594.232    594.232
 29.070   4292.000   4249.552     42.448    593.970    849.774   3993.832    593.970    593.970
 29.170   4545.508   4520.460     25.048    593.711    871.305   4243.143    593.711    593.711
 29.270   4113.000   4054.129     58.871    593.455    839.106   3808.843    593.455    593.455
 29.370   3087.000   3125.471    -38.471    593.202    773.513   2945.480    593.202    593.202
 29.470   2213.000   2204.203      8.797    592.951    708.244   2089.130    592.951    592.951
 29.570   1501.000   1535.430    -34.430    592.704    660.857   1467.403    592.704    592.704
 29.670   1152.708   1141.914     10.794    592.460    633.020   1101.417    592.460    592.460
 29.770   1012.000    940.359     71.641    592.218    618.828    913.779    592.218    592.218
 29.870    861.856    840.765     21.091    591.980    611.889    820.872    591.980    591.980
 29.970    806.000    786.862     19.138    591.744    608.213    770.403    591.744    591.744
 30.070    790.719    752.783     37.936    591.512    605.977    738.323    591.512    591.512
 30.170    750.292    728.557     21.735    591.282    604.496    715.346    591.282    591.282
 30.270    666.020    710.387    -44.367    591.055    603.540    697.903    591.055    591.055
 30.370    692.291    696.637     -4.346    590.830    603.077    684.391    590.830    590.830
