neutron_powder_diffraction_0092
R_wp: 4.086
Temperature (K): 850.209
Counts: 84234.00
Wavelength (Ã…): 2.52098
COMMENTS
Test file for demonstrating the .xyy file format in Reel1.0
END OF HEADER
   tth       Y_obs     Y_calc      Y_res    Background    Phase_1_Nuc    Phase_1_Mag    Phase_2_Nuc    Phase_2_Mag
  9.970    634.000    548.316     85.684    546.716    547.905    546.716    547.051    546.791
 10.070    591.108    549.050     42.058    547.349    548.638    547.349    547.685    547.424
 10.170    634.000    549.787     84.213    547.968    549.372    547.968    548.306    548.045
 10.270    572.000    550.528     21.472    548.576    550.111    548.576    548.915    548.653
 10.370    563.000    551.278     11.722    549.171    550.859    549.171    549.511    549.249
 10.470    589.000    552.040     36.960    549.754    551.619    549.754    550.096    549.832
 10.570    583.000    552.822     30.178    550.324    552.398    550.324    550.668    550.404
 10.670    606.000    553.630     52.370    550.883    553.204    550.883    551.228    550.963
 10.770    545.000    554.476     -9.476    551.429    554.047    551.429    551.776    551.510
 10.870    584.000    555.372     28.628    551.964    554.941    551.964    552.312    552.046
 10.970    579.000    556.337     22.663    552.487    555.904    552.487    552.836    552.570
 11.070    554.000    557.399     -3.399    552.998    556.963    552.998    553.349    553.082
 11.170    593.000    558.595     34.405    553.498    558.156    553.498    553.850    553.582
 11.270    548.878    559.986    -11.108    553.986    559.545    553.986    554.339    554.071
 11.370    612.000    561.681     50.319    554.463    561.236    554.463    554.818    554.549
 11.470    603.000    563.897     39.103    554.928    563.449    554.928    555.284    555.015
 11.570    581.457    567.111     14.347    555.382    566.659    555.382    555.740    555.470
 11.670    557.236    572.275    -15.039    555.825    571.818    555.825    556.185    555.914
 11.770    641.000    580.983     60.017    556.257    580.518    556.257    556.618    556.347
 11.870    591.298    595.234     -3.936    556.678    594.759    556.678    557.041    556.769
 11.970    663.000    616.388     46.612    557.088    615.899    557.088    557.453    557.180
 12.070    681.000    643.113     37.887    557.488    642.606    557.488    557.854    557.580
 12.170    680.000    668.404     11.596    557.877    667.881    557.877    558.244    557.970
 12.270    707.000    679.077     27.923    558.255    678.545    558.255    558.624    558.349
 12.370    665.000    667.292     -2.292    558.623    666.764    558.623    558.993    558.718
 12.470    609.730    642.005    -32.275    558.980    641.489    558.980    559.352    559.076
 12.570    602.000    616.296    -14.296    559.327    615.793    559.327    559.701    559.424
 12.670    563.633    596.546    -32.913    559.664    596.051    559.664    560.040    559.762
 12.770    551.828    583.678    -31.851    559.990    583.188    559.990    560.368    560.090
 12.870    555.490    576.177    -20.688    560.307    575.689    560.307    560.686    560.408
 12.970    551.042    572.040    -20.998    560.614    571.551    560.614    560.995    560.716
 13.070    577.771    569.728      8.042    560.911    569.238    560.911    561.293    561.014
 13.170    543.000    568.348    -25.348    561.198    567.855    561.198    561.582    561.302
 13.270    550.000    567.459    -17.459    561.475    566.964    561.475    561.861    561.580
 13.370    518.000    566.860    -48.860    561.743    566.363    561.743    562.131    561.849
 13.470    521.000    566.452    -45.452    562.001    565.952    562.001    562.391    562.109
 13.570    560.000    566.172     -6.172    562.250    565.669    562.250    562.642    562.359
 13.670    601.477    565.988     35.488    562.489    565.483    562.489    562.883    562.600
 13.770    529.682    565.895    -36.213    562.719    565.386    562.719    563.115    562.831
 13.870    521.000    565.838    -44.838    562.940    565.326    562.940    563.338    563.053
 13.970    562.000    565.814     -3.814    563.152    565.299    563.152    563.552    563.267
 14.070    560.299    565.818     -5.519    563.355    565.300    563.355    563.757    563.471
 14.170    591.646    565.844     25.803    563.549    565.322    563.549    563.953    563.666
 14.270    536.000    565.885    -29.885    563.734    565.361    563.734    564.140    563.853
 14.370    538.017    565.939    -27.922    563.911    565.411    563.911    564.318    564.031
 14.470    523.506    566.000    -42.494    564.078    565.469    564.078    564.488    564.200
 14.570    578.000    566.067     11.933    564.237    565.532    564.237    564.649    564.360
 14.670    535.816    566.137    -30.321    564.388    565.599    564.388    564.802    564.512
 14.770    574.000    566.209      7.791    564.530    565.667    564.530    564.946    564.656
 14.870    567.000    566.282      0.718    564.664    565.736    564.664    565.082    564.791
 14.970    573.000    566.353      6.647    564.789    565.803    564.789    565.210    564.919
 15.070    562.590    566.423     -3.832    564.907    565.869    564.907    565.329    565.037
 15.170    556.803    566.490     -9.687    565.016    565.932    565.016    565.440    565.148
 15.270    569.000    566.553      2.447    565.117    565.992    565.117    565.544    565.251
 15.370    549.000    566.614    -17.614    565.210    566.048    565.210    565.639    565.346
 15.470    543.171    566.670    -23.499    565.295    566.100    565.295    565.727    565.433
 15.570    598.327    566.721     31.606    565.373    566.147    565.373    565.807    565.513
 15.670    560.000    566.776     -6.776    565.443    566.198    565.443    565.879    565.584
 15.770    542.000    566.897    -24.897    565.505    566.315    565.505    565.944    565.648
 15.870    565.000    566.976     -1.976    565.559    566.389    565.559    566.000    565.705
 15.970    529.182    567.013    -37.831    565.606    566.422    565.606    566.050    565.754
 16.070    546.000    567.044    -21.044    565.646    566.449    565.646    566.092    565.795
 16.170    528.166    567.066    -38.900    565.678    566.465    565.678    566.127    565.830
 16.270    594.217    567.081     27.136    565.703    566.476    565.703    566.155    565.857
 16.370    533.000    567.090    -34.090    565.721    566.480    565.721    566.175    565.877
 16.470    549.000    567.094    -18.094    565.732    566.479    565.732    566.188    565.890
 16.570    507.000    567.092    -60.092    565.736    566.472    565.736    566.195    565.896
 16.670    555.000    567.084    -12.084    565.732    566.459    565.732    566.194    565.895
 16.770    546.000    567.070    -21.070    565.722    566.440    565.722    566.187    565.887
 16.870    564.520    567.052     -2.532    565.705    566.417    565.705    566.173    565.872
 16.970    532.000    567.030    -35.030    565.681    566.390    565.681    566.152    565.851
 17.070    515.000    566.999    -51.999    565.651    566.354    565.651    566.124    565.823
 17.170    550.000    566.963    -16.963    565.614    566.312    565.614    566.090    565.789
 17.270    547.556    566.920    -19.364    565.570    566.264    565.570    566.049    565.748
 17.370    585.000    566.872     18.128    565.520    566.210    565.520    566.002    565.700
 17.470    580.331    566.818     13.513    565.464    566.150    565.464    565.949    565.647
 17.570    579.881    566.759     13.122    565.401    566.085    565.401    565.889    565.587
 17.670    549.000    566.694    -17.694    565.332    566.014    565.332    565.823    565.521
 17.770    574.000    566.625      7.375    565.257    565.939    565.257    565.751    565.449
 17.870    564.000    566.570     -2.570    565.176    565.877    565.176    565.673    565.370
 17.970    611.000    566.548     44.452    565.088    565.849    565.088    565.589    565.286
 18.070    542.000    566.491    -24.491    564.995    565.785    564.995    565.499    565.196
 18.170    554.000    566.410    -12.410    564.896    565.698    564.896    565.404    565.100
 18.270    599.000    566.319     32.681    564.791    565.600    564.791    565.302    564.998
 18.370    545.000    566.218    -21.218    564.680    565.492    564.680    565.195    564.891
 18.470    550.000    566.111    -16.111    564.563    565.378    564.563    565.082    564.778
 18.570    583.000    566.000     17.000    564.441    565.259    564.441    564.963    564.660
 18.670    567.000    565.883      1.117    564.313    565.135    564.313    564.840    564.536
 18.770    563.000    565.762     -2.762    564.180    565.006    564.180    564.710    564.406
 18.870    559.000    565.635     -6.635    564.042    564.872    564.042    564.575    564.271
 18.970    521.000    565.504    -44.504    563.898    564.733    563.898    564.435    564.131
 19.070    554.721    565.369    -10.648    563.748    564.590    563.748    564.290    563.986
 19.170    581.000    565.240     15.760    563.594    564.452    563.594    564.140    563.836
 19.270    563.996    565.097     -1.101    563.434    564.300    563.434    563.984    563.681
 19.370    550.000    564.948    -14.948    563.269    564.142    563.269    563.823    563.520
 19.470    533.197    564.795    -31.598    563.099    563.980    563.099    563.658    563.355
 19.570    589.126    564.637     24.489    562.924    563.813    562.924    563.487    563.185
 19.670    567.000    564.476      2.524    562.744    563.643    562.744    563.312    563.010
 19.770    530.000    564.311    -34.311    562.560    563.468    562.560    563.132    562.830
 19.870    564.000    564.141     -0.141    562.370    563.289    562.370    562.947    562.646
 19.970    516.000    563.968    -47.968    562.176    563.105    562.176    562.758    562.457
 20.070    564.128    563.790      0.338    561.977    562.917    561.977    562.564    562.264
 20.170    520.000    563.610    -43.610    561.774    562.726    561.774    562.366    562.066
 20.270    527.703    563.426    -35.723    561.566    562.531    561.566    562.163    561.864
 20.370    586.239    563.242     22.997    561.353    562.335    561.353    561.956    561.657
 20.470    573.000    563.051      9.949    561.136    562.134    561.136    561.744    561.447
 20.570    589.873    562.858     27.016    560.915    561.928    560.915    561.528    561.232
 20.670    586.394    562.668     23.727    560.690    561.726    560.690    561.309    561.013
 20.770    572.000    562.499      9.501    560.460    561.544    560.460    561.085    560.790
 20.870    534.285    562.333    -28.049    560.226    561.366    560.226    560.856    560.563
 20.970    605.413    562.139     43.274    559.988    561.158    559.988    560.624    560.332
 21.070    577.883    561.974     15.909    559.745    560.979    559.745    560.388    560.097
 21.170    605.000    561.814     43.186    559.499    560.806    559.499    560.149    559.859
 21.270    519.638    561.617    -41.979    559.249    560.594    559.249    559.905    559.617
 21.370    545.000    561.441    -16.441    558.995    560.403    558.995    559.658    559.371
 21.470    597.772    561.234     36.538    558.737    560.180    558.737    559.407    559.122
 21.570    570.000    561.023      8.977    558.475    559.954    558.475    559.152    558.869
 21.670    540.918    560.823    -19.904    558.210    559.736    558.210    558.894    558.613
 21.770    538.000    560.626    -22.626    557.941    559.522    557.941    558.633    558.353
 21.870    588.086    560.411     27.675    557.668    559.290    557.668    558.368    558.090
 21.970    574.694    560.199     14.496    557.392    559.059    557.392    558.099    557.824
 22.070    581.000    559.997     21.003    557.112    558.839    557.112    557.828    557.555
 22.170    530.000    559.785    -29.785    556.829    558.607    556.829    557.553    557.283
 22.270    564.000    559.573      4.427    556.543    558.376    556.543    557.275    557.008
 22.370    550.709    559.366     -8.658    556.253    558.148    556.253    556.994    556.730
 22.470    565.715    559.163      6.551    555.959    557.924    555.959    556.710    556.449
 22.570    581.000    558.964     22.036    555.663    557.702    555.663    556.424    556.165
 22.670    525.000    558.771    -33.771    555.363    557.486    555.363    556.134    555.879
 22.770    538.000    558.596    -20.596    555.061    557.287    555.061    555.841    555.590
 22.870    514.259    558.422    -44.162    554.755    557.087    554.755    555.546    555.299
 22.970    553.495    558.258     -4.763    554.446    556.898    554.446    555.248    555.005
 23.070    591.000    558.111     32.889    554.134    556.724    554.134    554.948    554.709
 23.170    538.000    557.983    -19.983    553.820    556.568    553.820    554.645    554.411
 23.270    580.277    557.879     22.398    553.502    556.436    553.502    554.340    554.110
 23.370    562.840    557.808      5.032    553.182    556.334    553.182    554.032    553.807
 23.470    552.000    557.777     -5.777    552.859    556.271    552.859    553.722    553.503
 23.570    550.000    557.800     -7.800    552.533    556.261    552.533    553.410    553.196
 23.670    537.000    557.892    -20.892    552.204    556.319    552.204    553.095    552.888
 23.770    572.000    558.078     13.922    551.873    556.470    551.873    552.779    552.578
 23.870    544.000    558.397    -14.397    551.540    556.752    551.540    552.460    552.267
 23.970    569.000    558.916     10.084    551.203    557.232    551.203    552.140    551.954
 24.070    519.000    559.772    -40.772    550.865    558.048    550.865    551.818    551.640
 24.170    517.457    561.257    -43.800    550.524    559.491    550.524    551.495    551.324
 24.270    568.243    563.949      4.294    550.180    562.140    550.180    551.169    551.008
 24.370    529.804    568.803    -39.000    549.835    566.951    549.835    550.842    550.690
 24.470    606.000    577.060     28.940    549.487    575.165    549.487    550.514    550.372
 24.570    614.186    589.663     24.523    549.137    587.725    549.137    550.185    550.053
 24.670    650.000    606.122     43.878    548.784    604.141    548.784    549.854    549.733
 24.770    674.841    622.747     52.093    548.430    620.721    548.430    549.522    549.413
 24.870    640.282    631.820      8.462    548.073    629.740    548.073    549.190    549.093
 24.970    637.000    627.237      9.763    547.714    625.091    547.714    548.856    548.773
 25.070    661.540    612.204     49.335    547.354    609.980    547.354    548.522    548.453
 25.170    641.737    594.655     47.082    546.991    592.348    546.991    548.187    548.133
 25.270    628.480    579.876     48.605    546.627    577.484    546.627    547.852    547.815
 25.370    577.000    569.451      7.549    546.261    566.973    546.261    547.516    547.496
 25.470    611.000    562.878     48.122    545.892    560.312    545.892    547.181    547.180
 25.570    536.194    558.963    -22.769    545.523    556.305    545.523    546.846    546.864
 25.670    522.729    556.608    -33.879    545.151    553.854    545.151    546.510    546.550
 25.770    546.000    555.092     -9.092    544.778    552.237    544.778    546.176    546.238
 25.870    541.934    554.027    -12.093    544.403    551.065    544.403    545.842    545.929
 25.970    559.315    553.225      6.090    544.026    550.149    544.026    545.509    545.622
 26.070    547.000    552.599     -5.599    543.648    549.402    543.648    545.178    545.318
 26.170    606.000    552.104     53.896    543.269    548.778    543.269    544.847    545.018
 26.270    529.000    551.714    -22.714    542.888    548.250    542.888    544.519    544.722
 26.370    582.000    551.414     30.586    542.505    547.803    542.505    544.193    544.431
 26.470    506.514    551.196    -44.681    542.122    547.426    542.122    543.869    544.145
 26.570    580.000    551.055     28.945    541.736    547.116    541.736    543.548    543.865
 26.670    509.226    550.993    -41.767    541.350    546.873    541.350    543.231    543.591
 26.770    549.000    551.014     -2.014    540.962    546.698    540.962    542.917    543.324
 26.870    543.000    551.127     -8.127    540.573    546.602    540.573    542.608    543.066
 26.970    589.000    551.347     37.653    540.183    546.596    540.183    542.303    542.816
 27.070    589.000    551.695     37.305    539.792    546.700    539.792    542.004    542.577
 27.170    534.546    552.201    -17.655    539.400    546.944    539.400    541.710    542.348
 27.270    586.000    552.911     33.089    539.007    547.371    539.007    541.423    542.131
 27.370    565.000    553.893     11.107    538.612    548.047    538.612    541.144    541.927
 27.470    618.000    555.264     62.736    538.217    549.088    538.217    540.872    541.737
 27.570    575.000    557.301     17.699    537.821    550.769    537.821    540.610    541.564
 27.670    604.000    560.880     43.120    537.424    553.962    537.424    540.357    541.407
 27.770    564.000    568.825     -4.825    537.025    561.490    537.025    540.114    541.268
 27.870    630.000    588.468     41.532    536.627    580.677    536.627    539.882    541.149
 27.970    627.000    632.947     -5.947    536.227    624.658    536.227    539.663    541.051
 28.070    779.000    714.349     64.651    535.827    705.517    535.827    539.455    540.974
 28.170    829.000    824.909      4.091    535.426    815.499    535.426    539.262    540.921
 28.270    959.874    920.741     39.134    535.024    910.732    535.024    539.081    540.891
 28.370    890.000    942.254    -52.254    534.621    931.633    534.621    538.914    540.884
 28.470    836.144    877.497    -41.353    534.218    866.235    534.218    538.760    540.901
 28.570    838.299    784.110     54.189    533.815    772.163    533.815    538.619    540.938
 28.670    773.000    725.720     47.280    533.411    713.044    533.411    538.488    540.994
 28.770    760.000    726.450     33.550    533.006    713.015    533.006    538.365    541.064
 28.870    740.000    770.746    -30.746    532.601    756.540    532.601    538.247    541.142
 28.970    817.000    817.928     -0.928    532.196    802.958    532.196    538.129    541.221
 29.070    792.000    824.535    -32.535    531.790    808.821    531.790    538.006    541.291
 29.170    799.000    778.580     20.420    531.383    762.151    531.383    537.869    541.339
 29.270    654.000    708.266    -54.266    530.977    691.170    530.977    537.713    541.352
 29.370    673.000    645.527     27.473    530.570    627.836    530.570    537.527    541.316
 29.470    655.000    603.663     51.337    530.163    585.476    530.163    537.304    541.216
 29.570    600.000    580.887     19.113    529.756    562.327    529.756    537.036    541.040
 29.670    611.000    569.916     41.084    529.348    551.123    529.348    536.717    540.777
 29.770    563.176    564.569     -1.393    528.941    545.692    528.941    536.343    540.420
 29.870    572.000    561.503     10.497    528.533    542.694    528.533    535.912    539.965
 29.970    559.899    559.357      0.542    528.125    540.767    528.125    535.426    539.417
 30.070    552.970    557.672     -4.702    527.717    539.440    527.717    534.888    538.781
 30.170    585.167    556.329     28.837    527.309    538.576    527.309    534.306    538.068
 30.270    620.000    555.383     64.617    526.901    538.209    526.901    533.686    537.291
 30.370    536.835    555.113    -18.278    526.493    538.597    526.493    533.037    536.466
