neutron_powder_diffraction_0208
R_wp: 3.950
Temperature (K): 1074.100
Counts: 83738.00
Wavelength (Ã…): 2.52098
COMMENTS
Test file for demonstrating the .xyy file format in Reel1.0
END OF HEADER
   tth       Y_obs     Y_calc      Y_res    Background    Phase_1_Nuc    Phase_1_Mag    Phase_2_Nuc    Phase_2_Mag
  9.970    557.000    567.348    -10.348    566.730    567.327    566.730    566.750    566.730
 10.070    579.000    567.554     11.446    566.883    567.534    566.883    566.903    566.883
 10.170    608.000    567.763     40.237    567.031    567.743    567.031    567.051    567.031
 10.270    563.000    567.977     -4.977    567.172    567.956    567.172    567.192    567.172
 10.370    545.978    568.211    -22.232    567.307    568.190    567.307    567.328    567.307
 10.470    599.000    568.439     30.561    567.437    568.418    567.437    567.457    567.437
 10.570    561.185    568.677     -7.492    567.560    568.656    567.560    567.581    567.560
 10.670    591.000    568.930     22.070    567.678    568.909    567.678    567.698    567.678
 10.770    565.000    569.206     -4.206    567.790    569.185    567.790    567.810    567.790
 10.870    557.000    569.513    -12.513    567.896    569.491    567.896    567.916    567.896
 10.970    596.078    569.862     26.216    567.996    569.840    567.996    568.017    567.996
 11.070    569.354    570.270     -0.916    568.091    570.248    568.091    568.112    568.091
 11.170    579.000    570.762      8.238    568.180    570.739    568.180    568.201    568.180
 11.270    572.443    571.374      1.069    568.263    571.351    568.263    568.285    568.263
 11.370    556.000    572.172    -16.172    568.342    572.148    568.342    568.363    568.342
 11.470    590.977    573.294     17.683    568.414    573.268    568.414    568.437    568.414
 11.570    547.112    575.133    -28.020    568.482    575.103    568.482    568.507    568.482
 11.670    586.578    578.822      7.756    568.543    578.791    568.543    568.569    568.543
 11.770    591.681    587.090      4.591    568.600    587.054    568.600    568.626    568.600
 11.870    611.500    604.455      7.045    568.652    604.409    568.652    568.678    568.652
 11.970    678.014    634.573     43.441    568.698    634.509    568.698    568.724    568.698
 12.070    684.890    673.680     11.210    568.739    673.595    568.739    568.765    568.739
 12.170    662.000    704.598    -42.598    568.775    704.494    568.775    568.801    568.775
 12.270    670.155    705.634    -35.479    568.806    705.530    568.806    568.833    568.806
 12.370    719.109    675.877     43.232    568.832    675.788    568.832    568.860    568.832
 12.470    668.000    636.643     31.357    568.853    636.575    568.853    568.882    568.853
 12.570    572.000    605.888    -33.888    568.869    605.838    568.869    568.898    568.869
 12.670    563.000    587.981    -24.981    568.880    587.941    568.880    568.909    568.880
 12.770    574.228    579.442     -5.214    568.887    579.407    568.887    568.916    568.887
 12.870    606.241    575.676     30.564    568.889    575.643    568.889    568.918    568.889
 12.970    561.000    573.854    -12.854    568.886    573.822    568.886    568.915    568.886
 13.070    530.000    572.778    -42.778    568.878    572.746    568.878    568.908    568.878
 13.170    540.871    572.036    -31.165    568.866    572.005    568.866    568.896    568.866
 13.270    594.918    571.485     23.433    568.850    571.454    568.850    568.880    568.850
 13.370    562.000    571.058     -9.058    568.828    571.027    568.828    568.859    568.828
 13.470    550.000    570.718    -20.718    568.803    570.686    568.803    568.833    568.803
 13.570    539.000    570.439    -31.439    568.773    570.407    568.773    568.804    568.773
 13.670    572.000    570.214      1.786    568.738    570.172    568.738    568.780    568.738
 13.770    562.000    570.013     -8.013    568.699    569.969    568.699    568.743    568.699
 13.870    558.000    569.836    -11.836    568.656    569.791    568.656    568.700    568.656
 13.970    603.438    569.676     33.763    568.609    569.631    568.609    568.653    568.609
 14.070    566.516    569.529     -3.013    568.558    569.485    568.558    568.602    568.558
 14.170    554.000    569.393    -15.393    568.502    569.348    568.502    568.547    568.502
 14.270    531.000    569.265    -38.265    568.442    569.219    568.442    568.487    568.442
 14.370    518.000    569.143    -51.143    568.379    569.096    568.379    568.425    568.379
 14.470    576.000    569.029      6.971    568.311    568.977    568.311    568.362    568.311
 14.570    545.169    568.913    -23.744    568.239    568.860    568.239    568.292    568.239
 14.670    563.000    568.798     -5.798    568.163    568.745    568.163    568.216    568.163
 14.770    571.000    568.684      2.316    568.084    568.630    568.084    568.137    568.084
 14.870    543.000    568.570    -25.570    568.001    568.516    568.001    568.054    568.001
 14.970    537.000    568.456    -31.456    567.913    568.402    567.913    567.967    567.913
 15.070    601.000    568.341     32.659    567.823    568.287    567.823    567.877    567.823
 15.170    610.989    568.228     42.761    567.728    568.173    567.728    567.783    567.728
 15.270    596.618    568.112     28.506    567.630    568.057    567.630    567.685    567.630
 15.370    577.681    567.994      9.688    567.528    567.938    567.528    567.583    567.528
 15.470    545.000    567.873    -22.873    567.423    567.817    567.423    567.478    567.423
 15.570    526.000    567.750    -41.750    567.314    567.694    567.314    567.369    567.314
 15.670    608.475    567.626     40.850    567.201    567.569    567.201    567.257    567.201
 15.770    609.000    567.499     41.501    567.085    567.442    567.085    567.142    567.085
 15.870    549.000    567.369    -18.369    566.966    567.312    566.966    567.023    566.966
 15.970    567.000    567.238     -0.238    566.843    567.180    566.843    566.901    566.843
 16.070    546.000    567.104    -21.104    566.717    567.046    566.717    566.775    566.717
 16.170    563.000    566.967     -3.967    566.588    566.909    566.588    566.646    566.588
 16.270    586.918    566.829     20.090    566.456    566.770    566.456    566.514    566.456
 16.370    551.000    566.687    -15.687    566.320    566.628    566.320    566.379    566.320
 16.470    550.000    566.543    -16.543    566.181    566.484    566.181    566.240    566.181
 16.570    572.000    566.397      5.603    566.039    566.337    566.039    566.099    566.039
 16.670    574.754    566.248      8.506    565.894    566.188    565.894    565.954    565.894
 16.770    563.000    566.097     -3.097    565.746    566.037    565.746    565.806    565.746
 16.870    562.000    565.945     -3.945    565.595    565.884    565.595    565.656    565.595
 16.970    588.076    565.789     22.287    565.441    565.727    565.441    565.502    565.441
 17.070    554.000    565.630    -11.630    565.284    565.568    565.284    565.346    565.284
 17.170    549.000    565.469    -16.469    565.124    565.406    565.124    565.187    565.124
 17.270    554.000    565.307    -11.307    564.961    565.241    564.961    565.027    564.961
 17.370    517.160    565.141    -47.981    564.796    565.074    564.796    564.862    564.796
 17.470    531.983    564.973    -32.990    564.628    564.905    564.628    564.695    564.628
 17.570    611.000    564.802     46.198    564.457    564.733    564.457    564.525    564.457
 17.670    599.428    564.628     34.800    564.283    564.559    564.283    564.352    564.283
 17.770    564.000    564.453     -0.453    564.106    564.383    564.106    564.176    564.106
 17.870    604.353    564.277     40.076    563.927    564.206    563.927    563.998    563.927
 17.970    564.000    564.097     -0.097    563.746    564.026    563.746    563.817    563.746
 18.070    587.000    563.914     23.086    563.562    563.842    563.562    563.633    563.562
 18.170    591.775    563.729     28.046    563.375    563.657    563.375    563.447    563.375
 18.270    569.000    563.541      5.459    563.186    563.469    563.186    563.258    563.186
 18.370    537.740    563.352    -25.612    562.995    563.279    562.995    563.067    562.995
 18.470    602.567    563.160     39.407    562.801    563.087    562.801    562.874    562.801
 18.570    589.000    562.966     26.034    562.604    562.892    562.604    562.678    562.604
 18.670    568.331    562.771      5.561    562.406    562.696    562.406    562.480    562.406
 18.770    528.591    562.573    -33.981    562.205    562.497    562.205    562.280    562.205
 18.870    553.000    562.373     -9.373    562.002    562.297    562.002    562.077    562.002
 18.970    551.000    562.171    -11.171    561.796    562.095    561.796    561.873    561.796
 19.070    585.000    561.967     23.033    561.589    561.890    561.589    561.666    561.589
 19.170    511.806    561.762    -49.956    561.379    561.684    561.379    561.457    561.379
 19.270    526.000    561.555    -35.555    561.167    561.477    561.167    561.246    561.167
 19.370    528.534    561.347    -32.813    560.953    561.267    560.953    561.033    560.953
 19.470    560.000    561.138     -1.138    560.737    561.057    560.737    560.818    560.737
 19.570    601.000    560.927     40.073    560.519    560.845    560.519    560.601    560.519
 19.670    595.542    560.713     34.829    560.299    560.630    560.299    560.382    560.299
 19.770    554.000    560.497     -6.497    560.077    560.413    560.077    560.161    560.077
 19.870    595.539    560.279     35.260    559.854    560.195    559.854    559.938    559.854
 19.970    550.579    560.061     -9.481    559.628    559.976    559.628    559.713    559.628
 20.070    531.804    559.840    -28.037    559.400    559.755    559.400    559.486    559.400
 20.170    550.000    559.619     -9.619    559.171    559.532    559.171    559.258    559.171
 20.270    589.000    559.396     29.604    558.940    559.308    558.940    559.027    558.940
 20.370    528.000    559.172    -31.172    558.707    559.083    558.707    558.795    558.707
 20.470    606.377    558.947     47.429    558.472    558.858    558.472    558.561    558.472
 20.570    540.000    558.734    -18.734    558.236    558.644    558.236    558.326    558.236
 20.670    567.000    558.516      8.484    557.998    558.426    557.998    558.089    557.998
 20.770    574.000    558.289     15.711    557.759    558.197    557.759    557.850    557.759
 20.870    569.528    558.060     11.468    557.517    557.967    557.517    557.611    557.517
 20.970    546.000    557.834    -11.834    557.275    557.736    557.275    557.373    557.275
 21.070    560.000    557.605      2.395    557.030    557.504    557.030    557.131    557.030
 21.170    540.000    557.374    -17.374    556.785    557.271    556.785    556.887    556.785
 21.270    587.926    557.142     30.785    556.537    557.038    556.537    556.641    556.537
 21.370    525.000    556.909    -31.909    556.289    556.805    556.289    556.393    556.289
 21.470    545.000    556.677    -11.677    556.039    556.571    556.039    556.144    556.039
 21.570    513.000    556.444    -43.444    555.787    556.337    555.787    555.894    555.787
 21.670    539.000    556.211    -17.211    555.535    556.103    555.535    555.643    555.535
 21.770    495.000    555.979    -60.979    555.281    555.870    555.281    555.390    555.281
 21.870    563.542    555.747      7.795    555.025    555.637    555.025    555.136    555.025
 21.970    556.000    555.516      0.484    554.769    555.404    554.769    554.881    554.769
 22.070    553.309    555.294     -1.985    554.511    555.181    554.511    554.624    554.511
 22.170    535.000    555.147    -20.147    554.252    555.032    554.252    554.367    554.252
 22.270    536.932    554.941    -18.008    553.991    554.824    553.991    554.108    553.991
 22.370    525.334    554.719    -29.385    553.730    554.601    553.730    553.848    553.730
 22.470    559.000    554.518      4.482    553.468    554.398    553.468    553.587    553.468
 22.570    580.000    554.326     25.674    553.204    554.205    553.204    553.325    553.204
 22.670    516.517    554.115    -37.598    552.940    553.992    552.940    553.062    552.940
 22.770    524.307    553.906    -29.600    552.674    553.782    552.674    552.799    552.674
 22.870    513.967    553.705    -39.738    552.407    553.579    552.407    552.534    552.407
 22.970    532.631    553.515    -20.884    552.140    553.387    552.140    552.268    552.140
 23.070    550.000    553.377     -3.377    551.871    553.248    551.871    552.001    551.871
 23.170    524.000    553.228    -29.228    551.602    553.096    551.602    551.734    551.602
 23.270    535.000    553.076    -18.076    551.331    552.942    551.331    551.466    551.331
 23.370    556.719    552.942      3.777    551.060    552.806    551.060    551.197    551.060
 23.470    541.000    552.836    -11.836    550.788    552.697    550.788    550.927    550.788
 23.570    560.111    552.765      7.346    550.515    552.625    550.515    550.657    550.515
 23.670    540.495    552.743    -12.248    550.242    552.600    550.242    550.386    550.242
 23.770    582.000    552.788     29.212    549.967    552.642    549.967    550.114    549.967
 23.870    589.914    552.928     36.986    549.692    552.781    549.692    549.842    549.692
 23.970    561.873    553.217      8.656    549.416    553.067    549.416    549.569    549.416
 24.070    580.384    553.778     26.607    549.140    553.625    549.140    549.295    549.140
 24.170    603.000    554.966     48.034    548.863    554.811    548.863    549.021    548.863
 24.270    550.000    557.754     -7.754    548.585    557.597    548.585    548.747    548.585
 24.370    584.000    564.211     19.789    548.307    564.055    548.307    548.472    548.307
 24.470    598.000    577.280     20.720    548.028    577.128    548.028    548.199    548.028
 24.570    658.000    598.486     59.514    547.748    598.345    547.748    547.924    547.748
 24.670    653.000    623.705     29.295    547.468    623.578    547.468    547.648    547.468
 24.770    632.000    640.457     -8.457    547.188    640.338    547.188    547.372    547.188
 24.870    589.000    636.365    -47.365    546.907    636.239    546.907    547.096    546.907
 24.970    678.000    614.804     63.196    546.625    614.657    546.625    546.819    546.625
 25.070    624.000    589.659     34.341    546.343    589.490    546.343    546.542    546.343
 25.170    604.000    570.613     33.387    546.061    570.425    546.061    546.265    546.061
 25.270    587.157    559.496     27.662    545.778    559.294    545.778    545.989    545.778
 25.370    555.000    554.003      0.997    545.495    553.791    545.495    545.712    545.495
 25.470    561.000    551.418      9.582    545.212    551.198    545.212    545.435    545.212
 25.570    593.542    550.031     43.510    544.928    549.803    544.928    545.158    544.928
 25.670    557.498    549.145      8.354    544.644    548.908    544.644    544.882    544.644
 25.770    562.000    548.482     13.518    544.360    548.237    544.360    544.606    544.360
 25.870    547.000    547.948     -0.948    544.075    547.694    544.075    544.330    544.075
 25.970    580.000    547.505     32.495    543.790    547.242    543.790    544.055    543.790
 26.070    559.000    547.136     11.864    543.506    546.862    543.506    543.780    543.506
 26.170    567.000    546.829     20.171    543.220    546.544    543.220    543.506    543.220
 26.270    553.000    546.575      6.425    542.935    546.277    542.935    543.233    542.935
 26.370    580.000    546.367     33.633    542.650    546.056    542.650    542.960    542.650
 26.470    536.000    546.202    -10.202    542.364    545.877    542.364    542.689    542.364
 26.570    542.000    546.084     -4.084    542.079    545.744    542.079    542.419    542.079
 26.670    541.000    546.019     -5.019    541.793    545.661    541.793    542.150    541.793
 26.770    562.077    546.013     16.064    541.507    545.637    541.507    541.883    541.507
 26.870    549.591    546.081      3.511    541.221    545.683    541.221    541.618    541.221
 26.970    544.000    546.260     -2.260    540.936    545.839    540.936    541.355    540.936
 27.070    573.000    546.546     26.454    540.650    546.100    540.650    541.095    540.650
 27.170    559.000    546.956     12.044    540.364    546.482    540.364    540.838    540.364
 27.270    545.000    547.560     -2.560    540.078    547.053    540.078    540.584    540.078
 27.370    570.000    548.441     21.559    539.793    547.897    539.793    540.335    539.793
 27.470    538.000    549.740    -11.740    539.507    549.155    539.507    540.090    539.507
 27.570    518.073    551.815    -33.742    539.222    551.183    539.222    539.852    539.222
 27.670    611.000    555.999     55.001    538.937    555.312    538.937    539.620    538.937
 27.770    591.000    566.917     24.083    538.652    566.164    538.652    539.397    538.652
 27.870    636.257    596.573     39.683    538.367    595.739    538.367    539.183    538.367
 27.970    696.000    664.164     31.836    538.082    663.224    538.082    538.983    538.082
 28.070    796.000    778.800     17.200    537.797    777.727    537.797    538.797    537.797
 28.170    951.000    907.904     43.096    537.513    906.685    537.513    538.632    537.513
 28.270    950.672    971.565    -20.894    537.229    970.205    537.229    538.490    537.229
 28.370    974.633    917.053     57.580    536.945    915.556    536.945    538.381    536.945
 28.470    819.021    800.158     18.863    536.662    798.482    536.662    538.313    536.662
 28.570    716.000    710.173      5.827    536.378    708.238    536.378    538.303    536.378
 28.670    698.000    692.779      5.221    536.096    690.482    536.096    538.377    536.096
 28.770    766.000    742.408     23.592    535.813    739.616    535.813    538.585    535.813
 28.870    755.000    816.386    -61.386    535.531    812.882    535.531    539.020    535.531
 28.970    767.000    851.413    -84.413    535.249    846.808    535.249    539.856    535.249
 29.070    777.207    810.305    -33.099    534.968    803.915    534.968    541.370    534.968
 29.170    676.348    726.286    -49.938    534.686    717.051    534.686    543.934    534.686
 29.270    702.877    650.409     52.469    534.406    636.911    534.406    547.911    534.406
 29.370    588.241    605.339    -17.098    534.126    586.027    534.126    553.439    534.126
 29.470    592.857    587.376      5.481    533.846    561.165    533.846    560.055    533.846
 29.570    609.315    583.302     26.013    533.567    550.736    533.567    566.129    533.567
 29.670    624.000    581.789     42.211    533.288    546.224    533.288    568.850    533.288
 29.770    575.000    577.195     -2.195    533.010    543.809    533.010    566.393    533.010
 29.870    617.190    569.659     47.531    532.732    542.231    532.732    560.158    532.732
 29.970    558.243    561.620     -3.377    532.455    541.116    532.455    552.956    532.455
 30.070    563.000    554.802      8.198    532.178    540.344    532.178    546.634    532.178
 30.170    524.000    549.819    -25.819    531.902    539.892    531.902    541.827    531.902
 30.270    577.394    546.714     30.680    531.627    539.861    531.627    538.477    531.627
 30.370    543.000    545.568     -2.568    531.352    540.672    531.352    536.244    531.352
