neutron_powder_diffraction_0146
R_wp: 4.036
Temperature (K): 1074.000
Counts: 83431.00
Wavelength (Ã…): 2.52098
COMMENTS
Test file for demonstrating the .xyy file format in Reel1.0
END OF HEADER
   tth       Y_obs     Y_calc      Y_res    Background    Phase_1_Nuc    Phase_1_Mag    Phase_2_Nuc    Phase_2_Mag
  9.970    640.000    570.080     69.920    569.234    570.013    569.234    569.301    569.234
 10.070    612.495    570.250     42.245    569.336    570.183    569.336    569.404    569.336
 10.170    550.000    570.425    -20.425    569.433    570.357    569.433    569.500    569.433
 10.270    531.833    570.605    -38.772    569.523    570.536    569.523    569.591    569.523
 10.370    566.000    570.794     -4.794    569.608    570.725    569.608    569.676    569.608
 10.470    556.000    570.995    -14.995    569.687    570.926    569.687    569.755    569.687
 10.570    565.125    571.212     -6.087    569.760    571.143    569.760    569.828    569.760
 10.670    554.860    571.452    -16.592    569.827    571.382    569.827    569.896    569.827
 10.770    586.000    571.721     14.279    569.889    571.651    569.889    569.958    569.889
 10.870    554.793    572.030    -17.238    569.945    571.960    569.945    570.015    569.945
 10.970    618.000    572.395     45.605    569.996    572.324    569.996    570.066    569.996
 11.070    542.283    572.835    -30.551    570.041    572.763    570.041    570.111    570.041
 11.170    580.000    573.380      6.620    570.081    573.308    570.081    570.151    570.081
 11.270    612.578    574.080     38.499    570.116    574.007    570.116    570.186    570.116
 11.370    580.000    575.017      4.983    570.145    574.943    570.145    570.216    570.145
 11.470    543.278    576.384    -33.106    570.169    576.309    570.169    570.240    570.169
 11.570    587.000    578.680      8.320    570.187    578.604    570.187    570.259    570.187
 11.670    619.000    583.155     35.845    570.201    583.076    570.201    570.273    570.201
 11.770    609.000    592.321     16.679    570.209    592.236    570.209    570.282    570.209
 11.870    596.829    609.682    -12.853    570.213    609.588    570.213    570.285    570.213
 11.970    601.929    637.369    -35.440    570.211    637.260    570.211    570.284    570.211
 12.070    680.000    671.404      8.596    570.204    671.276    570.204    570.278    570.204
 12.170    696.000    697.531     -1.531    570.193    697.387    570.193    570.267    570.193
 12.270    745.566    698.359     47.207    570.177    698.215    570.177    570.251    570.177
 12.370    595.000    673.160    -78.160    570.156    673.029    570.156    570.230    570.156
 12.470    677.316    639.005     38.310    570.130    638.893    570.130    570.204    570.130
 12.570    609.000    610.748     -1.748    570.099    610.651    570.099    570.174    570.099
 12.670    633.000    592.835     40.165    570.064    592.747    570.064    570.139    570.064
 12.770    563.000    583.310    -20.310    570.024    583.227    570.024    570.100    570.024
 12.870    593.765    578.646     15.119    569.980    578.565    569.980    570.056    569.980
 12.970    565.000    576.254    -11.254    569.931    576.174    569.931    570.007    569.931
 13.070    557.000    574.830    -17.830    569.877    574.751    569.877    569.954    569.877
 13.170    571.000    573.851     -2.851    569.819    573.772    569.819    569.897    569.819
 13.270    564.000    573.117     -9.117    569.757    573.038    569.757    569.835    569.757
 13.370    563.000    572.541     -9.541    569.691    572.462    569.691    569.769    569.691
 13.470    594.735    572.074     22.661    569.620    571.994    569.620    569.698    569.620
 13.570    598.148    571.687     26.461    569.545    571.608    569.545    569.624    569.545
 13.670    601.000    571.356     29.644    569.466    571.277    569.466    569.545    569.466
 13.770    575.000    571.067      3.933    569.383    570.986    569.383    569.462    569.383
 13.870    527.000    570.808    -43.808    569.295    570.728    569.295    569.375    569.295
 13.970    529.000    570.574    -41.574    569.204    570.494    569.204    569.284    569.204
 14.070    577.654    570.359      7.295    569.108    570.278    569.108    569.189    569.108
 14.170    539.000    570.157    -31.157    569.009    570.076    569.009    569.090    569.009
 14.270    569.000    569.966     -0.966    568.906    569.885    568.906    568.987    568.906
 14.370    574.000    569.784      4.216    568.799    569.702    568.799    568.881    568.799
 14.470    632.000    569.609     62.391    568.688    569.525    568.688    568.772    568.688
 14.570    584.000    569.438     14.562    568.573    569.353    568.573    568.658    568.573
 14.670    605.253    569.270     35.983    568.454    569.184    568.454    568.540    568.454
 14.770    512.000    569.104    -57.104    568.332    569.017    568.332    568.418    568.332
 14.870    588.000    568.939     19.061    568.206    568.852    568.206    568.293    568.206
 14.970    558.000    568.775    -10.775    568.077    568.688    568.077    568.164    568.077
 15.070    594.325    568.612     25.714    567.944    568.524    567.944    568.032    567.944
 15.170    538.000    568.448    -30.448    567.808    568.360    567.808    567.896    567.808
 15.270    575.000    568.284      6.716    567.668    568.195    567.668    567.756    567.668
 15.370    556.000    568.119    -12.119    567.524    568.029    567.524    567.613    567.524
 15.470    562.531    567.952     -5.422    567.378    567.863    567.378    567.467    567.378
 15.570    529.519    567.784    -38.265    567.228    567.694    567.228    567.318    567.228
 15.670    547.000    567.615    -20.615    567.074    567.525    567.074    567.165    567.074
 15.770    538.851    567.444    -28.593    566.918    567.353    566.918    567.009    566.918
 15.870    574.757    567.272      7.485    566.758    567.180    566.758    566.849    566.758
 15.970    606.534    567.100     39.435    566.595    567.007    566.595    566.687    566.595
 16.070    525.898    566.924    -41.026    566.429    566.831    566.429    566.521    566.429
 16.170    583.000    566.745     16.255    566.260    566.652    566.260    566.353    566.260
 16.270    586.000    566.565     19.435    566.087    566.471    566.087    566.181    566.087
 16.370    521.607    566.383    -44.776    565.912    566.289    565.912    566.006    565.912
 16.470    581.144    566.199     14.944    565.734    566.104    565.734    565.829    565.734
 16.570    560.000    566.012     -6.012    565.553    565.917    565.553    565.648    565.553
 16.670    591.000    565.823     25.177    565.369    565.727    565.369    565.465    565.369
 16.770    609.809    565.631     44.178    565.182    565.535    565.182    565.278    565.182
 16.870    611.000    565.438     45.562    564.992    565.341    564.992    565.089    564.992
 16.970    560.345    565.242     -4.897    564.800    565.144    564.800    564.897    564.800
 17.070    555.000    565.044    -10.044    564.605    564.946    564.605    564.703    564.605
 17.170    560.000    564.844     -4.844    564.407    564.745    564.407    564.506    564.407
 17.270    569.000    564.642      4.358    564.206    564.542    564.206    564.306    564.206
 17.370    564.000    564.437     -0.437    564.003    564.337    564.003    564.103    564.003
 17.470    559.000    564.230     -5.230    563.797    564.129    563.797    563.898    563.797
 17.570    608.429    564.021     44.408    563.589    563.920    563.589    563.691    563.589
 17.670    559.000    563.810     -4.810    563.378    563.708    563.378    563.480    563.378
 17.770    580.000    563.597     16.403    563.165    563.494    563.165    563.268    563.165
 17.870    549.256    563.381    -14.125    562.949    563.278    562.949    563.053    562.949
 17.970    537.000    563.164    -26.164    562.731    563.060    562.731    562.836    562.731
 18.070    506.000    562.945    -56.945    562.511    562.840    562.511    562.616    562.511
 18.170    543.000    562.724    -19.724    562.288    562.618    562.288    562.394    562.288
 18.270    560.000    562.502     -2.502    562.063    562.395    562.063    562.170    562.063
 18.370    588.000    562.291     25.709    561.836    562.184    561.836    561.943    561.836
 18.470    520.000    562.074    -42.074    561.607    561.966    561.607    561.715    561.607
 18.570    562.341    561.846      0.494    561.375    561.738    561.375    561.484    561.375
 18.670    580.113    561.616     18.497    561.142    561.506    561.142    561.251    561.142
 18.770    533.000    561.384    -28.384    560.906    561.273    560.906    561.016    560.906
 18.870    553.000    561.150     -8.150    560.668    561.039    560.668    560.779    560.668
 18.970    548.000    560.914    -12.914    560.428    560.802    560.428    560.540    560.428
 19.070    533.806    560.677    -26.870    560.186    560.564    560.186    560.299    560.186
 19.170    581.000    560.438     20.562    559.942    560.324    559.942    560.056    559.942
 19.270    566.000    560.197      5.803    559.697    560.082    559.697    559.811    559.697
 19.370    601.000    559.955     41.045    559.449    559.840    559.449    559.565    559.449
 19.470    541.000    559.712    -18.712    559.200    559.595    559.200    559.316    559.200
 19.570    555.741    559.467     -3.726    558.948    559.349    558.948    559.066    558.948
 19.670    612.000    559.220     52.780    558.695    559.102    558.695    558.814    558.695
 19.770    523.000    558.973    -35.973    558.440    558.853    558.440    558.560    558.440
 19.870    532.000    558.724    -26.724    558.184    558.603    558.184    558.304    558.184
 19.970    577.000    558.474     18.526    557.926    558.352    557.926    558.047    557.926
 20.070    553.000    558.222     -5.222    557.666    558.100    557.666    557.788    557.666
 20.170    599.000    557.970     41.030    557.404    557.846    557.404    557.528    557.404
 20.270    559.617    557.725      1.893    557.141    557.600    557.141    557.266    557.141
 20.370    596.155    557.554     38.602    556.876    557.428    556.876    557.002    556.876
 20.470    525.138    557.323    -32.186    556.610    557.196    556.610    556.737    556.610
 20.570    548.000    557.071     -9.071    556.343    556.943    556.343    556.471    556.343
 20.670    535.197    556.819    -21.622    556.074    556.689    556.074    556.203    556.074
 20.770    543.371    556.562    -13.192    555.803    556.431    555.803    555.934    555.803
 20.870    547.000    556.304     -9.304    555.531    556.172    555.531    555.663    555.531
 20.970    583.000    556.046     26.954    555.258    555.913    555.258    555.391    555.258
 21.070    509.000    555.788    -46.788    554.983    555.653    554.983    555.118    554.983
 21.170    558.808    555.529      3.279    554.707    555.393    554.707    554.843    554.707
 21.270    533.000    555.270    -22.270    554.430    555.133    554.430    554.568    554.430
 21.370    551.000    555.011     -4.011    554.152    554.872    554.152    554.291    554.152
 21.470    571.852    554.753     17.099    553.872    554.612    553.872    554.013    553.872
 21.570    531.719    554.494    -22.776    553.591    554.352    553.591    553.733    553.591
 21.670    521.350    554.237    -32.887    553.309    554.093    553.309    553.453    553.309
 21.770    519.000    553.985    -34.985    553.026    553.840    553.026    553.171    553.026
 21.870    573.000    553.776     19.224    552.742    553.629    552.742    552.889    552.742
 21.970    592.000    553.541     38.459    552.457    553.392    552.457    552.606    552.457
 22.070    549.786    553.290     -3.504    552.170    553.140    552.170    552.321    552.170
 22.170    535.000    553.042    -18.042    551.883    552.890    551.883    552.036    551.883
 22.270    552.000    552.815     -0.815    551.595    552.660    551.595    551.749    551.595
 22.370    577.642    552.597     25.045    551.306    552.440    551.306    551.462    551.306
 22.470    546.000    552.359     -6.359    551.015    552.201    551.015    551.174    551.015
 22.570    517.000    552.125    -35.125    550.724    551.964    550.724    550.885    550.724
 22.670    570.517    551.896     18.621    550.433    551.733    550.433    550.596    550.433
 22.770    581.079    551.674     29.406    550.140    551.509    550.140    550.305    550.140
 22.870    496.000    551.460    -55.460    549.846    551.293    549.846    550.014    549.846
 22.970    532.000    551.257    -19.257    549.552    551.088    549.552    549.722    549.552
 23.070    572.000    551.068     20.932    549.257    550.896    549.257    549.430    549.257
 23.170    587.000    550.895     36.105    548.961    550.720    548.961    549.137    548.961
 23.270    511.000    550.744    -39.744    548.665    550.566    548.665    548.843    548.665
 23.370    516.723    550.618    -33.896    548.368    550.438    548.368    548.549    548.368
 23.470    512.203    550.531    -38.328    548.070    550.347    548.070    548.254    548.070
 23.570    580.043    550.486     29.557    547.772    550.299    547.772    547.959    547.772
 23.670    507.000    550.501    -43.501    547.473    550.312    547.473    547.663    547.473
 23.770    543.000    550.602     -7.602    547.173    550.410    547.173    547.367    547.173
 23.870    562.000    550.833     11.167    546.873    550.637    546.873    547.071    546.873
 23.970    580.000    551.253     28.747    546.572    551.054    546.572    546.774    546.572
 24.070    537.364    552.041    -14.677    546.271    551.839    546.271    546.477    546.271
 24.170    568.890    553.644     15.246    545.970    553.439    545.970    546.179    545.970
 24.270    601.458    557.074     44.383    545.668    556.868    545.668    545.882    545.668
 24.370    568.000    564.116      3.884    545.365    563.910    545.365    545.584    545.365
 24.470    578.000    576.838      1.162    545.063    576.636    545.063    545.286    545.063
 24.570    602.000    595.796      6.204    544.759    595.603    544.759    544.988    544.759
 24.670    627.000    617.172      9.828    544.456    616.990    544.456    544.690    544.456
 24.770    650.000    630.953     19.047    544.152    630.776    544.152    544.392    544.152
 24.870    692.000    627.561     64.439    543.848    627.376    543.848    544.093    543.848
 24.970    636.000    609.592     26.408    543.544    609.387    543.544    543.795    543.544
 25.070    619.000    587.888     31.112    543.239    587.662    543.239    543.497    543.239
 25.170    531.000    570.369    -39.369    542.934    570.122    542.934    543.200    542.934
 25.270    527.000    559.145    -32.145    542.629    558.882    542.629    542.902    542.629
 25.370    562.000    552.953      9.047    542.324    552.678    542.324    542.605    542.324
 25.470    535.393    549.754    -14.361    542.019    549.468    542.019    542.308    542.019
 25.570    526.000    547.992    -21.992    541.713    547.696    541.713    542.012    541.713
 25.670    574.000    546.854     27.146    541.408    546.547    541.408    541.716    541.408
 25.770    581.000    546.022     34.978    541.102    545.705    541.102    541.421    541.102
 25.870    580.591    545.369     35.221    540.796    545.040    540.796    541.127    540.796
 25.970    558.133    544.838     13.295    540.490    544.496    540.490    540.833    540.490
 26.070    513.821    544.403    -30.582    540.185    544.049    540.185    540.541    540.185
 26.170    589.000    544.052     44.948    539.879    543.683    539.879    540.249    539.879
 26.270    536.000    543.739     -7.739    539.573    543.354    539.573    539.959    539.573
 26.370    523.493    543.476    -19.983    539.267    543.075    539.267    539.670    539.267
 26.470    551.000    543.266      7.734    538.962    542.846    538.962    539.382    538.962
 26.570    513.966    543.108    -29.142    538.656    542.668    538.656    539.097    538.656
 26.670    568.651    543.003     25.649    538.351    542.540    538.351    538.813    538.351
 26.770    502.849    542.963    -40.114    538.046    542.477    538.046    538.532    538.046
 26.870    567.833    543.000     24.833    537.740    542.487    537.740    538.253    537.740
 26.970    549.000    543.122      5.878    537.436    542.580    537.436    537.977    537.436
 27.070    542.000    543.345     -1.345    537.131    542.770    537.131    537.705    537.131
 27.170    544.000    543.711      0.289    536.826    543.100    536.826    537.437    536.826
 27.270    611.000    544.270     66.730    536.522    543.618    536.522    537.173    536.522
 27.370    606.000    545.095     60.905    536.218    544.397    536.218    536.915    536.218
 27.470    541.000    546.311     -5.311    535.914    545.561    535.914    536.662    535.914
 27.570    503.626    548.290    -44.664    535.610    547.482    535.610    536.417    535.610
 27.670    583.000    552.375     30.625    535.307    551.498    535.307    536.181    535.307
 27.770    545.000    563.259    -18.259    535.004    562.302    535.004    535.955    535.004
 27.870    548.473    593.102    -44.629    534.702    592.046    534.702    535.741    534.702
 27.970    676.781    661.138     15.644    534.400    659.957    534.400    535.543    534.400
 28.070    818.970    776.058     42.911    534.098    774.724    534.098    535.363    534.098
 28.170    941.000    904.742     36.258    533.797    903.236    533.797    535.206    533.797
 28.270    980.000    967.962     12.038    533.496    966.286    533.496    535.078    533.496
 28.370    891.149    914.290    -23.141    533.195    912.437    533.195    534.990    533.195
 28.470    808.000    798.440      9.560    532.895    796.358    532.895    534.956    532.895
 28.570    762.000    708.915     53.085    532.596    706.506    532.596    534.996    532.596
 28.670    704.000    691.207     12.793    532.297    688.350    532.297    535.141    532.297
 28.770    716.916    739.210    -22.293    531.998    735.757    531.998    535.435    531.998
 28.870    835.000    810.532     24.468    531.700    806.287    531.700    535.935    531.700
 28.970    803.000    844.072    -41.072    531.403    838.770    531.403    536.711    531.403
 29.070    777.000    804.281    -27.281    531.106    797.564    531.106    537.838    531.106
 29.170    719.000    722.048     -3.048    530.809    713.492    530.809    539.381    530.809
 29.270    645.000    645.667     -0.667    530.514    634.829    530.514    541.361    530.514
 29.370    561.900    597.346    -35.446    530.219    583.868    530.219    543.700    530.219
 29.470    530.000    574.548    -44.548    529.924    558.361    529.924    546.111    529.924
 29.570    611.441    565.826     45.615    529.630    547.442    529.630    548.013    529.630
 29.670    571.000    562.044      8.956    529.337    542.704    529.337    548.675    529.337
 29.770    539.840    558.867    -19.027    529.045    540.208    529.045    547.702    529.045
 29.870    562.000    555.237      6.763    528.753    538.601    528.753    545.388    528.753
 29.970    567.000    551.457     15.543    528.462    537.476    528.462    542.441    528.462
 30.070    523.072    548.020    -24.948    528.172    536.707    528.172    539.482    528.172
 30.170    581.000    545.243     35.757    527.882    536.277    527.882    536.846    527.882
 30.270    560.800    543.354     17.446    527.593    536.303    527.593    534.642    527.593
 30.370    527.848    542.802    -14.954    527.305    537.243    527.305    532.860    527.305
