neutron_powder_diffraction_0149
R_wp: 3.975
Temperature (K): 1074.000
Counts: 82962.00
Wavelength (Ã…): 2.52098
COMMENTS
Test file for demonstrating the .xyy file format in Reel1.0
END OF HEADER
   tth       Y_obs     Y_calc      Y_res    Background    Phase_1_Nuc    Phase_1_Mag    Phase_2_Nuc    Phase_2_Mag
  9.970    602.000    573.393     28.607    572.620    573.343    572.620    572.670    572.620
 10.070    576.000    573.412      2.588    572.576    573.361    572.576    572.626    572.576
 10.170    592.000    573.436     18.564    572.527    573.384    572.527    572.578    572.527
 10.270    567.165    573.466     -6.301    572.474    573.414    572.474    572.525    572.474
 10.370    526.530    573.506    -46.976    572.417    573.453    572.417    572.469    572.417
 10.470    604.000    573.557     30.443    572.355    573.504    572.355    572.408    572.355
 10.570    570.625    573.624     -2.999    572.288    573.570    572.288    572.342    572.288
 10.670    538.430    573.713    -35.283    572.218    573.659    572.218    572.271    572.218
 10.770    563.466    573.832    -10.365    572.143    573.777    572.143    572.197    572.143
 10.870    557.699    573.988    -16.289    572.064    573.933    572.064    572.118    572.064
 10.970    528.932    574.195    -45.264    571.981    574.140    571.981    572.035    571.981
 11.070    577.000    574.474      2.526    571.894    574.418    571.894    571.948    571.894
 11.170    577.495    574.852      2.643    571.802    574.796    571.802    571.857    571.802
 11.270    604.000    575.373     28.627    571.707    575.316    571.707    571.762    571.707
 11.370    577.000    576.115      0.885    571.608    576.057    571.608    571.663    571.608
 11.470    530.143    577.249    -47.106    571.504    577.191    571.504    571.560    571.504
 11.570    575.000    579.241     -4.241    571.397    579.181    571.397    571.453    571.397
 11.670    592.000    583.309      8.691    571.286    583.247    571.286    571.342    571.286
 11.770    624.000    592.050     31.950    571.171    591.982    571.171    571.227    571.171
 11.870    646.470    609.291     37.180    571.053    609.214    571.053    571.109    571.053
 11.970    606.762    637.607    -30.845    570.930    637.513    570.930    570.987    570.930
 12.070    662.473    673.049    -10.577    570.804    672.936    570.804    570.861    570.804
 12.170    709.077    700.480      8.597    570.675    700.350    570.675    570.732    570.675
 12.270    673.000    701.239    -28.239    570.542    701.109    570.542    570.599    570.542
 12.370    640.000    674.544    -34.544    570.405    674.429    570.405    570.462    570.405
 12.470    629.139    638.719     -9.580    570.264    638.624    570.264    570.322    570.264
 12.570    595.450    609.550    -14.100    570.121    609.470    570.121    570.179    570.121
 12.670    609.000    591.494     17.506    569.973    591.424    569.973    570.032    569.973
 12.770    578.000    582.157     -4.157    569.823    582.092    569.823    569.881    569.823
 12.870    581.030    577.673      3.357    569.669    577.609    569.669    569.728    569.669
 12.970    564.031    575.356    -11.325    569.512    575.294    569.512    569.571    569.512
 13.070    555.000    573.933    -18.933    569.351    573.871    569.351    569.411    569.351
 13.170    548.000    572.917    -24.917    569.187    572.855    569.187    569.247    569.187
 13.270    558.424    572.127    -13.703    569.020    572.065    569.020    569.081    569.020
 13.370    615.980    571.484     44.496    568.850    571.422    568.850    568.911    568.850
 13.470    563.000    570.943     -7.943    568.677    570.881    568.677    568.738    568.677
 13.570    564.000    570.475     -6.475    568.501    570.414    568.501    568.562    568.501
 13.670    569.000    570.062     -1.062    568.322    570.000    568.322    568.383    568.322
 13.770    620.000    569.692     50.308    568.139    569.629    568.139    568.201    568.139
 13.870    568.224    569.354     -1.130    567.954    569.287    567.954    568.020    567.954
 13.970    615.330    569.035     46.295    567.766    568.967    567.766    567.834    567.766
 14.070    597.000    568.733     28.267    567.575    568.665    567.575    567.643    567.575
 14.170    532.000    568.445    -36.445    567.381    568.376    567.381    567.450    567.381
 14.270    568.000    568.167     -0.167    567.185    568.098    567.185    567.253    567.185
 14.370    552.955    567.898    -14.943    566.985    567.829    566.985    567.054    566.985
 14.470    557.154    567.636    -10.482    566.783    567.566    566.783    566.853    566.783
 14.570    557.000    567.378    -10.378    566.579    567.308    566.579    566.648    566.579
 14.670    547.801    567.125    -19.324    566.371    567.055    566.371    566.441    566.371
 14.770    588.000    566.874     21.126    566.161    566.804    566.161    566.232    566.161
 14.870    572.000    566.626      5.374    565.949    566.555    565.949    566.019    565.949
 14.970    561.653    566.379     -4.726    565.734    566.308    565.734    565.805    565.734
 15.070    528.000    566.133    -38.133    565.516    566.061    565.516    565.588    565.516
 15.170    558.000    565.888     -7.888    565.296    565.816    565.296    565.368    565.296
 15.270    557.000    565.643     -8.643    565.073    565.570    565.073    565.146    565.073
 15.370    589.000    565.398     23.602    564.849    565.325    564.849    564.921    564.849
 15.470    557.914    565.153     -7.239    564.621    565.079    564.621    564.695    564.621
 15.570    547.140    564.907    -17.767    564.392    564.833    564.392    564.465    564.392
 15.670    566.352    564.661      1.691    564.160    564.587    564.160    564.234    564.160
 15.770    547.000    564.414    -17.414    563.926    564.339    563.926    564.000    563.926
 15.870    559.000    564.166     -5.166    563.690    564.091    563.690    563.765    563.690
 15.970    529.000    563.917    -34.917    563.451    563.841    563.451    563.527    563.451
 16.070    582.000    563.667     18.333    563.211    563.591    563.211    563.286    563.211
 16.170    533.000    563.416    -30.416    562.968    563.339    562.968    563.044    562.968
 16.270    561.000    563.166     -2.166    562.723    563.089    562.723    562.800    562.723
 16.370    553.000    562.912     -9.912    562.477    562.835    562.477    562.554    562.477
 16.470    571.343    562.658      8.686    562.228    562.580    562.228    562.305    562.228
 16.570    532.741    562.402    -29.661    561.977    562.323    561.977    562.055    561.977
 16.670    586.000    562.144     23.856    561.724    562.066    561.724    561.803    561.724
 16.770    589.563    561.885     27.677    561.470    561.806    561.470    561.549    561.470
 16.870    576.000    561.625     14.375    561.213    561.546    561.213    561.293    561.213
 16.970    529.000    561.364    -32.364    560.955    561.284    560.955    561.035    560.955
 17.070    558.103    561.103     -3.000    560.695    561.022    560.695    560.775    560.695
 17.170    554.000    560.840     -6.840    560.433    560.759    560.433    560.514    560.433
 17.270    558.000    560.574     -2.574    560.169    560.493    560.169    560.251    560.169
 17.370    562.101    560.308      1.793    559.904    560.226    559.904    559.986    559.904
 17.470    559.986    560.040     -0.054    559.637    559.957    559.637    559.720    559.637
 17.570    520.000    559.771    -39.771    559.369    559.688    559.369    559.452    559.369
 17.670    564.000    559.501      4.499    559.098    559.417    559.098    559.182    559.098
 17.770    532.000    559.229    -27.229    558.827    559.145    558.827    558.911    558.827
 17.870    563.000    558.957      4.043    558.553    558.872    558.553    558.638    558.553
 17.970    515.418    558.683    -43.265    558.278    558.598    558.278    558.364    558.278
 18.070    594.000    558.408     35.592    558.002    558.322    558.002    558.088    558.002
 18.170    548.445    558.131     -9.687    557.724    558.045    557.724    557.811    557.724
 18.270    592.000    557.854     34.146    557.445    557.767    557.445    557.532    557.445
 18.370    583.000    557.576     25.424    557.164    557.488    557.164    557.252    557.164
 18.470    601.000    557.296     43.704    556.882    557.208    556.882    556.971    556.882
 18.570    577.000    557.017     19.983    556.599    556.928    556.599    556.688    556.599
 18.670    602.992    556.749     46.242    556.315    556.659    556.315    556.404    556.315
 18.770    547.000    556.477     -9.477    556.029    556.386    556.029    556.119    556.029
 18.870    513.358    556.195    -42.837    555.742    556.103    555.742    555.833    555.742
 18.970    520.979    555.912    -34.933    555.453    555.818    555.453    555.547    555.453
 19.070    496.000    555.628    -59.628    555.164    555.533    555.164    555.259    555.164
 19.170    515.558    555.342    -39.784    554.873    555.246    554.873    554.969    554.873
 19.270    565.000    555.055      9.945    554.581    554.959    554.581    554.678    554.581
 19.370    558.000    554.768      3.232    554.288    554.670    554.288    554.386    554.288
 19.470    526.564    554.480    -27.915    553.994    554.381    553.994    554.093    553.994
 19.570    512.000    554.191    -42.191    553.699    554.092    553.699    553.798    553.699
 19.670    535.000    553.902    -18.902    553.403    553.802    553.403    553.503    553.403
 19.770    518.286    553.612    -35.325    553.106    553.511    553.106    553.207    553.106
 19.870    519.713    553.321    -33.608    552.808    553.219    552.808    552.910    552.808
 19.970    535.000    553.030    -18.030    552.509    552.928    552.509    552.612    552.509
 20.070    560.866    552.739      8.128    552.210    552.635    552.210    552.313    552.210
 20.170    556.433    552.447      3.986    551.909    552.342    551.909    552.013    551.909
 20.270    560.000    552.155      7.845    551.607    552.049    551.607    551.713    551.607
 20.370    523.000    551.862    -28.862    551.305    551.756    551.305    551.411    551.305
 20.470    542.000    551.570     -9.570    551.002    551.462    551.002    551.109    551.002
 20.570    530.000    551.277    -21.277    550.698    551.169    550.698    550.806    550.698
 20.670    542.110    550.984     -8.874    550.393    550.875    550.393    550.503    550.393
 20.770    557.000    550.692      6.308    550.088    550.581    550.088    550.198    550.088
 20.870    528.182    550.410    -22.228    549.782    550.299    549.782    549.894    549.782
 20.970    574.000    550.208     23.792    549.475    550.096    549.475    549.588    549.475
 21.070    519.000    549.939    -30.939    549.168    549.825    549.168    549.282    549.168
 21.170    531.000    549.648    -18.648    548.860    549.534    548.860    548.975    548.860
 21.270    551.000    549.358      1.642    548.551    549.242    548.551    548.668    548.551
 21.370    593.146    549.067     44.079    548.242    548.950    548.242    548.360    548.242
 21.470    545.000    548.778     -3.778    547.933    548.659    547.933    548.051    547.933
 21.570    516.226    548.489    -32.264    547.623    548.370    547.623    547.743    547.623
 21.670    559.248    548.202     11.046    547.312    548.081    547.312    547.433    547.312
 21.770    550.000    547.916      2.084    547.001    547.794    547.001    547.124    547.001
 21.870    563.250    547.632     15.618    546.689    547.508    546.689    546.813    546.689
 21.970    549.000    547.354      1.646    546.377    547.228    546.377    546.503    546.377
 22.070    574.000    547.121     26.879    546.065    546.994    546.065    546.192    546.065
 22.170    563.000    546.883     16.117    545.752    546.754    545.752    545.881    545.752
 22.270    579.000    546.638     32.362    545.439    546.507    545.439    545.570    545.439
 22.370    516.499    546.370    -29.871    545.126    546.238    545.126    545.258    545.126
 22.470    561.000    546.105     14.895    544.812    545.971    544.812    544.946    544.812
 22.570    558.000    545.845     12.155    544.498    545.710    544.498    544.634    544.498
 22.670    563.354    545.591     17.763    544.184    545.453    544.184    544.322    544.184
 22.770    553.000    545.343      7.657    543.870    545.204    543.870    544.009    543.870
 22.870    535.000    545.104    -10.104    543.555    544.963    543.555    543.697    543.555
 22.970    547.987    544.876      3.112    543.240    544.732    543.240    543.384    543.240
 23.070    535.000    544.660     -9.660    542.925    544.514    542.925    543.071    542.925
 23.170    580.000    544.460     35.540    542.610    544.313    542.610    542.758    542.610
 23.270    536.697    544.280     -7.583    542.295    544.130    542.295    542.445    542.295
 23.370    532.000    544.126    -12.126    541.979    543.974    541.979    542.132    541.979
 23.470    548.000    544.004      3.996    541.664    543.849    541.664    541.820    541.664
 23.570    558.000    543.926     14.074    541.349    543.768    541.349    541.507    541.349
 23.670    542.000    543.904     -1.904    541.033    543.745    541.033    541.194    541.033
 23.770    552.000    543.963      8.037    540.718    543.800    540.718    540.882    540.718
 23.870    524.000    544.135    -20.135    540.402    543.969    540.402    540.569    540.402
 23.970    578.759    544.487     34.271    540.087    544.319    540.087    540.257    540.087
 24.070    579.354    545.181     34.173    539.771    545.011    539.771    539.945    539.771
 24.170    579.915    546.646     33.269    539.456    546.473    539.456    539.633    539.456
 24.270    522.000    549.872    -27.872    539.141    549.698    539.141    539.322    539.141
 24.370    510.266    556.737    -46.471    538.826    556.564    538.826    539.010    538.826
 24.470    530.000    569.526    -39.526    538.511    569.358    538.511    538.699    538.511
 24.570    601.000    589.005     11.995    538.196    588.847    538.196    538.389    538.196
 24.670    559.867    611.251    -51.384    537.881    611.105    537.881    538.079    537.881
 24.770    581.000    625.718    -44.718    537.567    625.579    537.567    537.769    537.567
 24.870    593.731    622.174    -28.443    537.253    622.027    537.253    537.460    537.253
 24.970    574.571    603.364    -28.793    536.939    603.198    536.939    537.151    536.939
 25.070    593.000    580.833     12.167    536.625    580.646    536.625    536.843    536.625
 25.170    548.000    562.925    -14.925    536.312    562.719    536.312    536.536    536.312
 25.270    591.000    551.719     39.281    535.998    551.498    535.998    536.229    535.998
 25.370    563.334    545.707     17.627    535.686    545.475    535.686    535.923    535.686
 25.470    557.000    542.653     14.347    535.373    542.412    535.373    535.618    535.373
 25.570    528.000    540.984    -12.984    535.061    540.733    535.061    535.314    535.061
 25.670    522.048    539.920    -17.872    534.749    539.661    534.749    535.010    534.749
 25.770    580.000    539.162     40.838    534.438    538.894    534.438    534.708    534.438
 25.870    575.000    538.566     36.434    534.127    538.288    534.127    534.406    534.127
 25.970    511.412    538.058    -26.646    533.816    537.769    533.816    534.106    533.816
 26.070    558.512    537.632     20.880    533.506    537.331    533.506    533.807    533.506
 26.170    524.756    537.274    -12.519    533.196    536.962    533.196    533.509    533.196
 26.270    551.893    536.976     14.918    532.887    536.650    532.887    533.213    532.887
 26.370    562.682    536.731     25.951    532.578    536.391    532.578    532.919    532.578
 26.470    554.000    536.549     17.451    532.270    536.193    532.270    532.626    532.270
 26.570    545.000    536.431      8.569    531.962    536.058    531.962    532.335    531.962
 26.670    505.000    536.348    -31.348    531.655    535.957    531.655    532.047    531.655
 26.770    531.050    536.327     -5.277    531.348    535.915    531.348    531.760    531.348
 26.870    563.000    536.382     26.618    531.042    535.948    531.042    531.477    531.042
 26.970    561.000    536.530     24.470    530.737    536.070    530.737    531.196    530.737
 27.070    565.000    536.793     28.207    530.432    536.305    530.432    530.919    530.432
 27.170    517.000    537.211    -20.211    530.128    536.692    530.128    530.646    530.128
 27.270    511.000    537.830    -26.830    529.824    537.275    529.824    530.377    529.824
 27.370    578.705    538.742     39.964    529.521    538.148    529.521    530.114    529.521
 27.470    504.000    540.086    -36.086    529.219    539.447    529.219    529.856    529.219
 27.570    553.000    542.245     10.755    528.917    541.556    528.917    529.604    528.917
 27.670    544.000    546.611     -2.611    528.616    545.863    528.616    529.361    528.616
 27.770    536.000    557.884    -21.884    528.316    557.065    528.316    529.127    528.316
 27.870    570.501    587.941    -17.440    528.017    587.035    528.017    528.905    528.017
 27.970    703.961    655.138     48.822    527.718    654.121    527.718    528.696    527.718
 28.070    774.000    767.379      6.621    527.420    766.223    527.420    528.504    527.420
 28.170    863.000    892.649    -29.649    527.123    891.340    527.123    528.333    527.123
 28.270    930.000    954.326    -24.326    526.826    952.868    526.826    528.188    526.826
 28.370    934.000    902.188     31.812    526.531    900.581    526.531    528.077    526.531
 28.470    794.163    789.719      4.443    526.236    787.919    526.236    528.011    526.236
 28.570    642.000    702.601    -60.601    525.942    700.521    525.942    528.011    525.942
 28.670    646.153    684.859    -38.706    525.649    682.389    525.649    528.105    525.649
 28.770    781.280    731.091     50.189    525.357    728.084    525.357    528.344    525.357
 28.870    759.000    800.448    -41.448    525.065    796.696    525.065    528.804    525.065
 28.970    767.000    833.102    -66.102    524.775    828.288    524.775    529.590    524.775
 29.070    796.000    793.917      2.083    524.485    787.580    524.485    530.834    524.485
 29.170    660.161    713.425    -53.264    524.197    704.964    524.197    532.670    524.197
 29.270    669.000    639.027     29.973    523.909    627.755    523.909    535.189    523.909
 29.370    606.000    592.335     13.665    523.622    577.610    523.622    538.350    523.622
 29.470    592.375    570.821     21.554    523.336    552.344    523.336    541.813    523.336
 29.570    621.000    563.087     57.913    523.051    541.403    523.051    544.733    523.051
 29.670    532.946    559.712    -26.766    522.767    536.585    522.767    545.891    522.767
 29.770    585.000    556.113     28.887    522.484    534.022    522.484    544.573    522.484
 29.870    580.000    551.483     28.517    522.203    532.367    522.203    541.316    522.203
 29.970    598.000    546.612     51.388    521.922    531.210    521.922    537.321    521.922
 30.070    512.777    542.293    -29.516    521.642    530.421    521.642    533.512    521.642
 30.170    550.000    538.923     11.077    521.363    529.978    521.363    530.306    521.363
 30.270    558.000    536.703     21.297    521.085    529.999    521.085    527.787    521.085
 30.370    490.824    536.012    -45.188    520.808    530.936    520.808    525.879    520.808
