neutron_powder_diffraction_0080
R_wp: 4.643
Temperature (K): 794.037
Counts: 83509.00
Wavelength (Ã…): 2.52098
COMMENTS
Test file for demonstrating the .xyy file format in Reel1.0
END OF HEADER
   tth       Y_obs     Y_calc      Y_res    Background    Phase_1_Nuc    Phase_1_Mag    Phase_2_Nuc    Phase_2_Mag
  9.970    640.000    584.643     55.357    583.542    584.643    583.542    583.542    583.542
 10.070    633.572    585.359     48.213    584.169    585.358    584.169    584.169    584.169
 10.170    645.000    586.074     58.926    584.783    586.074    584.783    584.783    584.783
 10.270    663.000    586.792     76.208    585.385    586.791    585.385    585.385    585.385
 10.370    560.006    587.516    -27.510    585.974    587.515    585.974    585.974    585.974
 10.470    596.596    588.252      8.345    586.551    588.251    586.551    586.551    586.551
 10.570    640.000    589.001     50.999    587.116    589.000    587.116    587.116    587.116
 10.670    600.837    589.770     11.067    587.668    589.769    587.668    587.668    587.668
 10.770    535.426    590.575    -55.150    588.209    590.574    588.209    588.209    588.209
 10.870    610.000    591.472     18.528    588.737    591.470    588.737    588.737    588.737
 10.970    650.697    592.481     58.216    589.254    592.480    589.254    589.254    589.254
 11.070    624.000    593.477     30.523    589.759    593.475    589.759    589.759    589.759
 11.170    543.501    594.577    -51.077    590.252    594.575    590.252    590.252    590.252
 11.270    592.000    595.843     -3.843    590.733    595.841    590.733    590.733    590.733
 11.370    614.582    597.357     17.225    591.203    597.354    591.203    591.203    591.203
 11.470    642.270    599.283     42.987    591.661    599.279    591.661    591.661    591.661
 11.570    626.000    602.009     23.991    592.108    602.003    592.108    592.108    592.108
 11.670    646.000    606.458     39.542    592.544    606.451    592.544    592.544    592.544
 11.770    649.000    614.553     34.447    592.969    614.541    592.969    592.969    592.969
 11.870    700.000    629.327     70.673    593.382    629.307    593.382    593.382    593.382
 11.970    717.000    653.745     63.255    593.785    653.713    593.785    593.785    593.785
 12.070    721.000    687.564     33.436    594.176    687.513    594.176    594.176    594.176
 12.170    685.946    722.603    -36.657    594.557    722.533    594.557    594.557    594.557
 12.270    729.000    740.407    -11.407    594.927    740.327    594.927    594.927    594.927
 12.370    760.934    727.386     33.547    595.287    727.314    595.287    595.287    595.287
 12.470    654.000    694.541    -40.541    595.636    694.487    595.636    595.636    595.636
 12.570    643.000    660.670    -17.670    595.974    660.635    595.974    595.974    595.974
 12.670    613.331    635.448    -22.117    596.302    635.427    596.302    596.302    596.302
 12.770    595.000    620.065    -25.065    596.620    620.052    596.620    596.620    596.620
 12.870    666.818    611.847     54.971    596.928    611.839    596.928    596.928    596.928
 12.970    587.000    607.685    -20.685    597.226    607.680    597.226    597.226    597.226
 13.070    597.000    605.487     -8.487    597.513    605.483    597.513    597.513    597.513
 13.170    619.642    604.200     15.442    597.791    604.196    597.791    597.791    597.791
 13.270    659.308    603.381     55.927    598.059    603.379    598.059    598.059    598.059
 13.370    548.000    602.845    -54.845    598.317    602.843    598.317    598.317    598.317
 13.470    643.240    602.468     40.772    598.565    602.466    598.565    598.565    598.565
 13.570    560.023    602.213    -42.190    598.804    602.211    598.804    598.804    598.804
 13.670    584.000    602.047    -18.047    599.033    602.046    599.033    599.033    599.033
 13.770    571.627    601.947    -30.320    599.253    601.946    599.253    599.253    599.253
 13.870    649.000    601.895     47.105    599.463    601.894    599.463    599.463    599.463
 13.970    600.115    601.882     -1.767    599.664    601.881    599.664    599.664    599.664
 14.070    615.000    601.891     13.109    599.857    601.890    599.857    599.857    599.857
 14.170    633.782    601.919     31.863    600.039    601.918    600.039    600.039    600.039
 14.270    553.795    601.960    -48.166    600.213    601.960    600.213    600.213    600.213
 14.370    555.000    602.012    -47.012    600.378    602.011    600.378    600.378    600.378
 14.470    607.000    602.070      4.930    600.535    602.069    600.535    600.535    600.535
 14.570    639.593    602.132     37.461    600.682    602.131    600.682    600.682    600.682
 14.670    549.469    602.196    -52.726    600.821    602.195    600.821    600.821    600.821
 14.770    642.931    602.261     40.670    600.951    602.260    600.951    600.951    600.951
 14.870    580.000    602.325    -22.325    601.072    602.324    601.072    601.072    601.072
 14.970    572.000    602.392    -30.392    601.185    602.392    601.185    601.185    601.185
 15.070    556.495    602.508    -46.013    601.290    602.508    601.290    601.290    601.290
 15.170    564.206    602.592    -38.385    601.386    602.591    601.386    601.386    601.386
 15.270    569.000    602.649    -33.649    601.475    602.648    601.475    601.475    601.475
 15.370    606.000    602.698      3.302    601.555    602.697    601.555    601.555    601.555
 15.470    565.000    602.742    -37.742    601.627    602.742    601.627    601.627    601.627
 15.570    569.000    602.781    -33.781    601.691    602.781    601.691    601.691    601.691
 15.670    576.000    602.815    -26.815    601.747    602.815    601.747    601.747    601.747
 15.770    641.048    602.844     38.204    601.795    602.843    601.795    601.795    601.795
 15.870    565.000    602.872    -37.872    601.835    602.871    601.835    601.835    601.835
 15.970    595.000    602.898     -7.898    601.868    602.897    601.868    601.868    601.868
 16.070    612.064    602.918      9.146    601.893    602.918    601.893    601.893    601.893
 16.170    545.000    602.924    -57.924    601.911    602.924    601.911    601.911    601.911
 16.270    577.756    602.928    -25.172    601.921    602.928    601.921    601.921    601.921
 16.370    580.000    602.972    -22.972    601.924    602.972    601.924    601.924    601.924
 16.470    597.000    602.976     -5.976    601.920    602.976    601.920    601.920    601.920
 16.570    624.981    602.959     22.022    601.908    602.959    601.908    601.908    601.908
 16.670    592.000    602.934    -10.934    601.889    602.934    601.889    601.889    601.889
 16.770    574.164    602.903    -28.740    601.863    602.903    601.863    601.863    601.863
 16.870    562.146    602.866    -40.720    601.830    602.866    601.830    601.830    601.830
 16.970    606.000    602.826      3.174    601.790    602.826    601.790    601.790    601.790
 17.070    578.330    602.806    -24.476    601.743    602.806    601.743    601.743    601.743
 17.170    573.000    602.765    -29.765    601.690    602.765    601.690    601.690    601.690
 17.270    614.000    602.705     11.295    601.629    602.705    601.629    601.629    601.629
 17.370    629.008    602.638     26.369    601.562    602.638    601.562    601.562    601.562
 17.470    619.000    602.565     16.435    601.489    602.565    601.489    601.489    601.489
 17.570    606.000    602.486      3.514    601.409    602.486    601.409    601.409    601.409
 17.670    571.000    602.402    -31.402    601.322    602.401    601.322    601.322    601.322
 17.770    599.000    602.312     -3.312    601.229    602.312    601.229    601.229    601.229
 17.870    571.000    602.233    -31.233    601.130    602.233    601.130    601.130    601.130
 17.970    583.000    602.149    -19.149    601.024    602.149    601.024    601.024    601.024
 18.070    577.627    602.073    -24.446    600.913    602.073    600.913    600.913    600.913
 18.170    553.000    601.971    -48.971    600.795    601.971    600.795    600.795    600.795
 18.270    566.332    601.858    -35.526    600.671    601.858    600.671    600.671    600.671
 18.370    609.483    601.755      7.728    600.541    601.755    600.541    600.541    600.541
 18.470    594.000    601.634     -7.634    600.405    601.634    600.405    600.405    600.405
 18.570    622.000    601.563     20.437    600.264    601.562    600.264    600.264    600.264
 18.670    554.000    601.442    -47.442    600.116    601.442    600.116    600.116    600.116
 18.770    579.000    601.322    -22.322    599.963    601.322    599.963    599.963    599.963
 18.870    585.220    601.174    -15.954    599.805    601.174    599.805    599.805    599.805
 18.970    580.000    601.021    -21.021    599.640    601.021    599.640    599.640    599.640
 19.070    574.000    600.884    -26.884    599.471    600.884    599.471    599.471    599.471
 19.170    547.906    600.747    -52.841    599.295    600.747    599.295    599.295    599.295
 19.270    573.000    600.584    -27.584    599.115    600.584    599.115    599.115    599.115
 19.370    551.000    600.412    -49.412    598.929    600.412    598.929    598.929    598.929
 19.470    609.000    600.234      8.766    598.738    600.234    598.738    598.738    598.738
 19.570    570.425    600.051    -29.626    598.541    600.051    598.541    598.541    598.541
 19.670    585.000    599.870    -14.870    598.340    599.870    598.340    598.340    598.340
 19.770    560.000    599.682    -39.682    598.133    599.682    598.133    598.133    598.133
 19.870    581.006    599.490    -18.484    597.922    599.490    597.922    597.922    597.922
 19.970    593.000    599.294     -6.294    597.705    599.294    597.705    597.705    597.705
 20.070    594.093    599.093     -5.000    597.484    599.093    597.484    597.484    597.484
 20.170    573.000    598.887    -25.887    597.258    598.887    597.258    597.258    597.258
 20.270    560.000    598.675    -38.675    597.027    598.675    597.027    597.027    597.027
 20.370    570.000    598.460    -28.460    596.791    598.460    596.791    596.791    596.791
 20.470    590.000    598.240     -8.240    596.551    598.240    596.551    596.551    596.551
 20.570    546.000    598.016    -52.016    596.306    598.016    596.306    596.306    596.306
 20.670    601.000    597.791      3.209    596.056    597.791    596.056    596.056    596.056
 20.770    558.000    597.561    -39.561    595.803    597.561    595.803    595.803    595.803
 20.870    547.741    597.329    -49.588    595.544    597.329    595.544    595.544    595.544
 20.970    556.566    597.093    -40.527    595.282    597.093    595.282    595.282    595.282
 21.070    603.000    596.853      6.147    595.015    596.853    595.015    595.015    595.015
 21.170    562.000    596.610    -34.610    594.744    596.610    594.744    594.744    594.744
 21.270    599.000    596.365      2.635    594.469    596.366    594.469    594.469    594.469
 21.370    544.000    596.118    -52.118    594.189    596.118    594.189    594.189    594.189
 21.470    600.000    595.869      4.131    593.906    595.869    593.906    593.906    593.906
 21.570    617.000    595.618     21.382    593.618    595.618    593.618    593.618    593.618
 21.670    599.903    595.365      4.538    593.327    595.365    593.327    593.327    593.327
 21.770    580.000    595.111    -15.111    593.032    595.111    593.032    593.032    593.032
 21.870    584.000    594.855    -10.855    592.733    594.856    592.733    592.733    592.733
 21.970    594.000    594.600     -0.600    592.430    594.600    592.430    592.430    592.430
 22.070    652.097    594.344     57.754    592.123    594.344    592.123    592.123    592.123
 22.170    632.000    594.089     37.911    591.813    594.089    591.813    591.813    591.813
 22.270    635.108    593.836     41.272    591.500    593.836    591.500    591.500    591.500
 22.370    608.000    593.584     14.416    591.182    593.584    591.182    591.182    591.182
 22.470    579.000    593.334    -14.334    590.861    593.334    590.861    590.861    590.861
 22.570    547.000    593.088    -46.088    590.537    593.088    590.537    590.537    590.537
 22.670    585.585    592.846     -7.260    590.209    592.846    590.209    590.209    590.209
 22.770    553.000    592.610    -39.610    589.879    592.610    589.879    589.879    589.879
 22.870    578.000    592.382    -14.382    589.544    592.382    589.544    589.544    589.544
 22.970    592.000    592.165     -0.165    589.207    592.165    589.207    589.207    589.207
 23.070    545.000    591.959    -46.959    588.866    591.960    588.866    588.866    588.866
 23.170    592.000    591.770      0.230    588.522    591.770    588.522    588.522    588.522
 23.270    607.000    591.600     15.400    588.175    591.601    588.175    588.175    588.175
 23.370    571.617    591.457    -19.841    587.826    591.458    587.826    587.826    587.826
 23.470    595.000    591.349      3.651    587.473    591.350    587.473    587.473    587.473
 23.570    625.000    591.284     33.716    587.117    591.285    587.117    587.117    587.117
 23.670    613.000    591.278     21.722    586.758    591.280    586.758    586.758    586.758
 23.770    630.254    591.352     38.903    586.397    591.353    586.397    586.397    586.397
 23.870    568.000    591.536    -23.536    586.033    591.538    586.033    586.033    586.033
 23.970    622.139    591.882     30.257    585.666    591.884    585.666    585.666    585.666
 24.070    641.497    592.489     49.008    585.296    592.492    585.296    585.296    585.296
 24.170    588.927    593.571     -4.644    584.924    593.575    584.924    584.924    584.924
 24.270    631.243    595.641     35.602    584.549    595.647    584.549    584.549    584.549
 24.370    659.000    599.747     59.253    584.172    599.757    584.172    584.172    584.172
 24.470    660.000    607.578     52.422    583.792    607.593    583.792    583.792    583.792
 24.570    619.000    620.964     -1.964    583.410    620.989    583.410    583.410    583.410
 24.670    657.000    640.373     16.627    583.025    640.412    583.025    583.025    583.025
 24.770    673.539    662.425     11.114    582.638    662.481    582.638    582.638    582.638
 24.870    698.000    677.984     20.016    582.249    678.051    582.249    582.249    582.249
 24.970    706.000    677.123     28.877    581.858    677.190    581.858    581.858    581.858
 25.070    664.000    660.290      3.710    581.464    660.345    581.464    581.464    581.464
 25.170    674.000    637.641     36.359    581.068    637.680    581.068    581.068    581.068
 25.270    647.000    617.967     29.033    580.670    617.992    580.670    580.670    580.670
 25.370    649.000    604.357     44.643    580.270    604.372    580.270    580.270    580.270
 25.470    548.974    596.216    -47.241    579.868    596.225    579.868    579.868    579.868
 25.570    623.000    591.696     31.304    579.464    591.702    579.464    579.464    579.464
 25.670    567.318    589.149    -21.831    579.059    589.153    579.059    579.059    579.059
 25.770    672.000    587.568     84.432    578.651    587.571    578.651    578.651    578.651
 25.870    594.000    586.465      7.535    578.241    586.467    578.241    578.241    578.241
 25.970    626.000    585.634     40.366    577.830    585.636    577.830    577.830    577.830
 26.070    600.000    584.984     15.016    577.417    584.985    577.417    577.417    577.417
 26.170    605.000    584.471     20.529    577.002    584.472    577.002    577.002    577.002
 26.270    602.000    584.071     17.929    576.586    584.072    576.586    576.586    576.586
 26.370    588.000    583.771      4.229    576.168    583.771    576.168    576.168    576.168
 26.470    619.000    583.565     35.435    575.748    583.565    575.748    575.748    575.748
 26.570    639.000    583.454     55.546    575.327    583.454    575.327    575.327    575.327
 26.670    626.011    583.444     42.566    574.904    583.444    574.904    574.904    574.904
 26.770    640.000    583.548     56.452    574.480    583.548    574.480    574.480    574.480
 26.870    606.000    583.784     22.216    574.055    583.783    574.055    574.055    574.055
 26.970    633.000    584.179     48.821    573.628    584.178    573.628    573.628    573.628
 27.070    621.000    584.773     36.227    573.200    584.772    573.200    573.200    573.200
 27.170    639.276    585.622     53.654    572.771    585.621    572.771    572.771    572.771
 27.270    605.000    586.808     18.192    572.340    586.806    572.340    572.340    572.340
 27.370    638.000    588.457     49.543    571.908    588.455    571.908    571.908    571.908
 27.470    642.000    590.793     51.207    571.475    590.790    571.475    571.475    571.475
 27.570    647.714    594.306     53.408    571.041    594.301    571.041    571.041    571.041
 27.670    701.000    600.209    100.791    570.606    600.202    570.606    570.606    570.606
 27.770    687.000    611.391     75.609    570.169    611.380    570.169    570.169    570.169
 27.870    620.196    633.561    -13.365    569.732    633.542    569.732    569.732    569.732
 27.970    678.393    674.939      3.454    569.294    674.906    569.294    569.294    569.294
 28.070    750.121    741.894      8.227    568.854    741.843    568.854    568.854    568.854
 28.170    777.520    829.754    -52.234    568.414    829.686    568.414    568.414    568.414
 28.270    902.000    912.763    -10.763    567.973    912.689    567.973    567.973    567.973
 28.370    945.000    947.262     -2.262    567.532    947.199    567.532    567.532    567.532
 28.470    910.285    912.432     -2.147    567.089    912.387    567.089    567.089    567.089
 28.570    830.786    844.458    -13.672    566.646    844.426    566.646    566.646    566.646
 28.670    789.829    792.034     -2.205    566.202    792.009    566.202    566.202    566.202
 28.770    797.000    778.874     18.126    565.757    778.852    565.757    565.757    565.757
 28.870    764.136    801.859    -37.723    565.312    801.839    565.312    565.312    565.312
 28.970    825.000    836.352    -11.352    564.866    836.339    564.866    564.866    564.866
 29.070    888.000    846.361     41.639    564.420    846.360    564.420    564.420    564.420
 29.170    887.000    812.530     74.470    563.973    812.537    563.973    563.973    563.973
 29.270    821.000    752.240     68.760    563.525    752.248    563.525    563.525    563.525
 29.370    751.226    692.326     58.900    563.077    692.332    563.077    563.077    563.077
 29.470    663.000    646.586     16.414    562.629    646.589    562.629    562.629    562.629
 29.570    655.000    617.039     37.961    562.180    617.040    562.180    562.180    562.180
 29.670    616.514    599.936     16.578    561.731    599.936    561.731    561.731    561.731
 29.770    697.000    590.426    106.574    561.282    590.424    561.282    561.282    561.282
 29.870    681.000    584.914     96.086    560.832    584.912    560.832    560.832    560.832
 29.970    599.475    581.419     18.056    560.382    581.417    560.382    560.382    560.382
 30.070    541.183    579.047    -37.864    559.932    579.044    559.932    559.932    559.932
 30.170    623.000    577.455     45.545    559.481    577.452    559.481    559.481    559.481
 30.270    641.000    576.590     64.410    559.031    576.586    559.031    559.031    559.031
 30.370    654.000    576.645     77.355    558.580    576.641    558.580    558.580    558.580
