neutron_powder_diffraction_0059
R_wp: 4.051
Temperature (K): 692.540
Counts: 84022.00
Wavelength (Ã…): 2.52098
COMMENTS
Test file for demonstrating the .xyy file format in Reel1.0
END OF HEADER
   tth       Y_obs     Y_calc      Y_res    Background    Phase_1_Nuc    Phase_1_Mag    Phase_2_Nuc    Phase_2_Mag
  9.970    699.000    647.868     51.132    646.656    647.579    646.944    646.656    646.656
 10.070    688.000    647.653     40.347    646.363    647.360    646.655    646.363    646.363
 10.170    666.000    647.443     18.557    646.068    647.148    646.363    646.068    646.068
 10.270    653.838    647.243      6.595    645.769    646.944    646.067    645.769    645.769
 10.370    702.167    647.054     55.112    645.466    646.752    645.768    645.466    645.466
 10.470    677.708    646.880     30.828    645.161    646.575    645.465    645.161    645.161
 10.570    643.000    646.725     -3.725    644.852    646.417    645.160    644.852    644.852
 10.670    669.000    646.595     22.405    644.540    646.283    644.851    644.540    644.540
 10.770    625.845    646.496    -20.651    644.225    646.180    644.540    644.225    644.225
 10.870    656.000    646.438      9.562    643.907    646.119    644.225    643.907    643.907
 10.970    706.000    646.435     59.565    643.586    646.112    643.907    643.586    643.586
 11.070    592.628    646.508    -53.880    643.261    646.181    643.587    643.261    643.261
 11.170    635.000    646.677    -11.677    642.934    646.346    643.263    642.934    642.934
 11.270    677.000    646.984     30.016    642.604    646.648    642.937    642.604    642.604
 11.370    643.000    647.491     -4.491    642.271    647.152    642.608    642.271    642.271
 11.470    634.654    648.321    -13.666    641.935    647.977    642.276    641.935    641.935
 11.570    667.000    649.755     17.245    641.597    649.406    641.942    641.597    641.597
 11.670    665.273    652.510     12.763    641.255    652.155    641.604    641.255    641.255
 11.770    663.000    658.219      4.781    640.911    657.856    641.264    640.911    640.911
 11.870    736.000    669.820     66.180    640.565    669.447    640.922    640.565    640.565
 11.970    685.329    690.504     -5.175    640.215    690.115    640.577    640.215    640.215
 12.070    770.000    721.151     48.849    639.864    720.741    640.229    639.864    639.864
 12.170    787.988    755.597     32.391    639.509    755.163    639.879    639.509    639.509
 12.270    816.944    777.457     39.487    639.152    777.006    639.527    639.152    639.152
 12.370    708.081    771.206    -63.125    638.793    770.754    639.172    638.793    638.793
 12.470    751.000    741.765      9.235    638.431    741.324    638.815    638.431    638.431
 12.570    722.000    706.957     15.043    638.067    706.531    638.455    638.067    638.067
 12.670    678.000    679.230     -1.230    637.700    678.814    638.094    637.700    637.700
 12.770    692.295    661.607     30.688    637.332    661.196    637.730    637.332    637.332
 12.870    669.000    651.892     17.108    636.961    651.481    637.364    636.961    636.961
 12.970    635.000    646.788    -11.788    636.587    646.375    636.996    636.587    636.587
 13.070    593.151    643.916    -50.766    636.212    643.499    636.625    636.212    636.212
 13.170    581.000    642.049    -61.049    635.834    641.627    636.253    635.834    635.834
 13.270    654.296    640.673     13.623    635.455    640.245    635.879    635.455    635.455
 13.370    641.000    639.548      1.452    635.073    639.116    635.503    635.073    635.073
 13.470    586.000    638.597    -52.597    634.689    638.159    635.125    634.689    634.689
 13.570    634.000    637.769     -3.769    634.303    637.326    634.745    634.303    634.303
 13.670    591.458    637.031    -45.573    633.915    636.582    634.363    633.915    633.915
 13.770    609.000    636.359    -27.359    633.526    635.905    633.979    633.526    633.526
 13.870    654.000    635.738     18.262    633.134    635.278    633.594    633.134    633.134
 13.970    626.000    635.156     -9.156    632.741    634.689    633.206    632.741    632.741
 14.070    663.000    634.604     28.396    632.346    634.131    632.817    632.346    632.346
 14.170    634.194    634.076      0.119    631.949    633.596    632.427    631.949    631.949
 14.270    670.444    633.566     36.878    631.550    633.081    632.035    631.550    631.550
 14.370    676.892    633.072     43.819    631.149    632.580    631.641    631.149    631.149
 14.470    602.000    632.590    -30.590    630.747    632.091    631.246    630.747    630.747
 14.570    618.000    632.118    -14.118    630.344    631.612    630.849    630.344    630.344
 14.670    580.000    631.655    -51.655    629.938    631.141    630.451    629.938    629.938
 14.770    684.119    631.198     52.922    629.531    630.677    630.052    629.531    629.531
 14.870    629.000    630.746     -1.746    629.123    630.218    629.651    629.123    629.123
 14.970    589.000    630.300    -41.300    628.713    629.764    629.248    628.713    628.713
 15.070    619.921    629.861     -9.940    628.302    629.318    628.845    628.302    628.302
 15.170    613.000    629.426    -16.426    627.889    628.874    628.440    627.889    627.889
 15.270    618.000    628.989    -10.989    627.475    628.429    628.034    627.475    627.475
 15.370    559.000    628.554    -69.554    627.059    627.986    627.627    627.059    627.059
 15.470    657.000    628.121     28.879    626.643    627.545    627.219    626.643    626.643
 15.570    626.000    627.691     -1.691    626.224    627.106    626.809    626.224    626.224
 15.670    612.977    627.275    -14.298    625.805    626.681    626.399    625.805    625.805
 15.770    619.000    626.862     -7.862    625.384    626.258    625.988    625.384    625.384
 15.870    607.446    626.438    -18.992    624.963    625.826    625.575    624.963    624.963
 15.970    631.000    626.013      4.987    624.540    625.391    625.162    624.540    624.540
 16.070    603.000    625.586    -22.586    624.116    624.954    624.748    624.116    624.116
 16.170    587.560    625.160    -37.600    623.691    624.518    624.333    623.691    623.691
 16.270    610.606    624.734    -14.128    623.264    624.082    623.917    623.264    623.264
 16.370    571.000    624.309    -53.309    622.837    623.646    623.500    622.837    622.837
 16.470    639.307    623.884     15.423    622.409    623.210    623.083    622.409    622.409
 16.570    645.049    623.459     21.590    621.980    622.774    622.665    621.980    621.980
 16.670    639.000    623.034     15.966    621.550    622.338    622.246    621.550    621.550
 16.770    670.892    622.610     48.283    621.119    621.902    621.827    621.119    621.119
 16.870    614.339    622.191     -7.852    620.687    621.471    621.407    620.687    620.687
 16.970    580.000    621.824    -41.824    620.254    621.091    620.986    620.254    620.254
 17.070    604.000    621.422    -17.422    619.821    620.677    620.565    619.821    619.821
 17.170    568.181    621.000    -52.819    619.386    620.242    620.144    619.386    619.386
 17.270    635.000    620.577     14.423    618.951    619.806    619.722    618.951    618.951
 17.370    595.000    620.159    -25.159    618.515    619.374    619.300    618.515    618.515
 17.470    619.375    619.758     -0.383    618.079    618.958    618.879    618.079    618.079
 17.570    597.000    619.399    -22.399    617.642    618.576    618.465    617.642    617.642
 17.670    597.000    618.984    -21.984    617.204    618.145    618.043    617.204    617.204
 17.770    581.000    618.562    -37.562    616.766    617.709    617.619    616.766    616.766
 17.870    615.000    618.141     -3.141    616.327    617.272    617.196    616.327    616.327
 17.970    622.000    617.721      4.279    615.887    616.835    616.773    615.887    615.887
 18.070    632.730    617.300     15.429    615.447    616.398    616.349    615.447    615.447
 18.170    647.374    616.881     30.493    615.007    615.962    615.926    615.007    615.007
 18.270    658.626    616.461     42.164    614.566    615.525    615.502    614.566    614.566
 18.370    576.000    616.042    -40.042    614.124    615.088    615.079    614.124    614.124
 18.470    565.874    615.624    -49.750    613.683    614.651    614.655    613.683    613.683
 18.570    655.032    615.209     39.823    613.240    614.217    614.232    613.240    613.240
 18.670    592.988    614.802    -21.814    612.798    613.791    613.810    612.798    612.798
 18.770    607.000    614.390     -7.390    612.355    613.358    613.387    612.355    612.355
 18.870    603.625    613.976    -10.351    611.912    612.923    612.965    611.912    611.912
 18.970    630.463    613.561     16.901    611.469    612.487    612.543    611.469    611.469
 19.070    569.000    613.147    -44.147    611.025    612.051    612.121    611.025    611.025
 19.170    611.000    612.734     -1.734    610.581    611.615    611.700    610.581    610.581
 19.270    619.000    612.322      6.678    610.137    611.179    611.280    610.137    610.137
 19.370    584.000    611.911    -27.911    609.693    610.744    610.860    609.693    609.693
 19.470    666.229    611.503     54.726    609.248    610.311    610.441    609.248    609.248
 19.570    630.796    611.113     19.683    608.804    609.894    610.023    608.804    608.804
 19.670    613.000    610.745      2.255    608.359    609.498    609.606    608.359    608.359
 19.770    591.399    610.350    -18.951    607.915    609.075    609.190    607.915    607.915
 19.870    631.367    609.956     21.411    607.470    608.648    608.778    607.470    607.470
 19.970    575.000    609.560    -34.560    607.025    608.222    608.363    607.025    607.025
 20.070    566.000    609.189    -43.189    606.581    607.820    607.950    606.581    606.581
 20.170    568.000    608.803    -40.803    606.136    607.402    607.537    606.136    606.136
 20.270    658.858    608.457     50.401    605.692    607.023    607.126    605.692    605.692
 20.370    598.000    608.082    -10.082    605.247    606.614    606.716    605.247    605.247
 20.470    611.000    607.694      3.306    604.803    606.190    606.307    604.803    604.803
 20.570    595.174    607.321    -12.147    604.359    605.781    605.899    604.359    604.359
 20.670    605.000    606.944     -1.944    603.915    605.365    605.493    603.915    603.915
 20.770    617.632    606.598     11.034    603.471    604.979    605.089    603.471    603.471
 20.870    603.334    606.220     -2.886    603.027    604.560    604.687    603.027    603.027
 20.970    587.000    605.850    -18.850    602.584    604.145    604.288    602.584    602.584
 21.070    610.237    605.485      4.752    602.140    603.734    603.892    602.140    602.140
 21.170    613.000    605.113      7.887    601.697    603.316    603.495    601.697    601.697
 21.270    562.000    604.744    -42.744    601.255    602.898    603.100    601.255    601.255
 21.370    603.000    604.378     -1.378    600.812    602.483    602.708    600.812    600.812
 21.470    614.000    604.017      9.983    600.370    602.069    602.318    600.370    600.370
 21.570    592.000    603.662    -11.662    599.929    601.660    601.931    599.929    599.929
 21.670    567.000    603.311    -36.311    599.488    601.253    601.547    599.488    599.488
 21.770    651.705    602.964     48.741    599.047    600.846    601.165    599.047    599.047
 21.870    589.412    602.623    -13.211    598.606    600.443    600.786    598.606    598.606
 21.970    616.000    602.288     13.712    598.166    600.044    600.411    598.166    598.166
 22.070    621.000    601.959     19.041    597.727    599.647    600.039    597.727    597.727
 22.170    612.000    601.636     10.364    597.288    599.254    599.671    597.288    597.288
 22.270    587.000    601.321    -14.321    596.849    598.865    599.306    596.849    596.849
 22.370    587.000    601.015    -14.015    596.411    598.481    598.946    596.411    596.411
 22.470    602.000    600.718      1.282    595.974    598.102    598.590    595.974    595.974
 22.570    592.388    600.431     -8.043    595.537    597.730    598.239    595.537    595.537
 22.670    612.933    600.158     12.775    595.101    597.367    597.892    595.101    595.101
 22.770    604.000    599.896      4.104    594.665    597.010    597.551    594.665    594.665
 22.870    594.000    599.648     -5.648    594.230    596.663    597.215    594.230    594.230
 22.970    563.000    599.416    -36.416    593.796    596.327    596.886    593.796    593.796
 23.070    609.000    599.204      9.796    593.362    596.005    596.562    593.362    593.362
 23.170    548.147    599.014    -50.867    592.929    595.698    596.246    592.929    592.929
 23.270    583.000    598.851    -15.851    592.497    595.412    595.937    592.497    592.497
 23.370    646.212    598.719     47.494    592.065    595.149    595.636    592.065    592.065
 23.470    653.000    598.623     54.377    591.635    594.916    595.343    591.635    591.635
 23.570    598.000    598.574     -0.574    591.205    594.721    595.059    591.205    591.205
 23.670    585.000    598.583    -13.583    590.775    594.575    594.784    590.775    590.775
 23.770    648.000    598.664     49.336    590.347    594.492    594.520    590.347    590.347
 23.870    621.000    598.843     22.157    589.919    594.496    594.268    589.919    589.919
 23.970    611.000    599.153     11.847    589.492    594.620    594.028    589.492    589.492
 24.070    604.000    599.657      4.343    589.066    594.925    593.801    589.066    589.066
 24.170    618.000    600.494     17.506    588.641    595.550    593.588    588.641    588.641
 24.270    620.000    601.989     18.011    588.217    596.819    593.391    588.217    588.217
 24.370    587.000    604.869    -17.869    587.794    599.458    593.211    587.794    587.794
 24.470    641.000    610.479     30.521    587.372    604.811    593.051    587.372    587.372
 24.570    679.000    620.638     58.362    586.950    614.696    592.910    586.950    586.950
 24.670    686.000    636.676     49.324    586.530    630.442    592.793    586.530    586.530
 24.770    629.480    657.521    -28.041    586.110    650.976    592.700    586.110    586.110
 24.870    678.000    677.388      0.612    585.692    670.503    592.635    585.692    585.692
 24.970    719.000    685.718     33.282    585.274    678.457    592.601    585.274    585.274
 25.070    716.572    676.241     40.331    584.858    668.556    592.601    584.858    584.858
 25.170    657.000    656.004      0.996    584.442    647.849    592.641    584.442    584.442
 25.270    684.631    635.500     49.131    584.028    626.835    592.722    584.028    584.028
 25.370    605.000    620.106    -15.106    583.615    610.888    592.850    583.615    583.615
 25.470    587.658    610.604    -22.946    583.203    600.784    593.033    583.203    583.203
 25.570    653.000    605.558     47.442    582.792    595.079    593.277    582.792    582.792
 25.670    613.000    603.163      9.837    582.382    591.958    593.590    582.382    582.382
 25.770    581.603    602.140    -20.537    581.973    590.131    593.984    581.973    581.973
 25.870    633.000    601.820     31.180    581.565    588.918    594.469    581.565    581.565
 25.970    678.000    601.921     76.079    581.159    588.020    595.061    581.159    581.159
 26.070    633.885    602.338     31.547    580.753    587.315    595.778    580.753    580.753
 26.170    650.000    603.038     46.962    580.349    586.748    596.640    580.349    580.349
 26.270    664.000    604.013     59.987    579.946    586.289    597.670    579.946    579.946
 26.370    623.000    605.282     17.718    579.544    585.923    598.903    579.544    579.544
 26.470    619.000    606.876     12.124    579.144    585.641    600.378    579.144    579.144
 26.570    654.292    608.844     45.448    578.745    585.442    602.146    578.745    578.745
 26.670    571.395    611.253    -39.857    578.347    585.328    604.270    578.347    578.347
 26.770    631.000    614.192     16.808    577.950    585.305    606.835    577.950    577.950
 26.870    654.000    617.783     36.217    577.554    585.386    609.949    577.554    577.554
 26.970    648.000    622.191     25.809    577.160    585.591    613.757    577.160    577.160
 27.070    651.655    627.640     24.015    576.767    585.946    618.458    576.767    576.767
 27.170    657.000    634.443     22.557    576.376    586.491    624.324    576.376    576.376
 27.270    624.663    643.044    -18.381    575.986    587.283    631.742    575.986    575.986
 27.370    625.569    654.101    -28.532    575.597    588.407    641.285    575.597    575.597
 27.470    693.215    668.689     24.527    575.210    590.000    653.890    575.210    575.210
 27.570    715.000    688.953     26.047    574.823    592.340    671.426    574.823    574.823
 27.670    752.000    720.268     31.732    574.439    596.112    698.579    574.439    574.439
 27.770    752.000    776.986    -24.986    574.056    603.149    747.867    574.056    574.056
 27.870    855.000    892.690    -37.690    573.674    617.728    848.586    573.674    573.674
 27.970   1194.601   1127.230     67.371    573.293    647.471   1052.955    573.293    573.293
 28.070   1481.621   1548.490    -66.869    572.914    701.030   1420.201    572.914    572.914
 28.170   2111.000   2169.335    -58.335    572.537    780.077   1961.533    572.537    572.537
 28.270   2757.823   2855.965    -98.143    572.161    867.676   2560.137    572.161    572.161
 28.370   3380.519   3290.184     90.335    571.786    923.551   2938.158    571.786    571.786
 28.470   3129.077   3196.680    -67.603    571.413    913.115   2854.863    571.413    571.413
 28.570   2669.000   2696.620    -27.620    571.041    852.624   2415.042    571.041    571.041
 28.670   2042.000   2157.079   -115.079    570.671    790.092   1937.700    570.671    570.671
 28.770   1858.806   1846.951     11.855    570.302    761.023   1656.257    570.302    570.302
 28.870   1882.804   1826.890     55.914    569.935    773.095   1623.730    569.935    569.935
 28.970   1929.987   1985.638    -55.650    569.570    808.968   1746.238    569.570    569.570
 29.070   2165.665   2107.045     58.620    569.206    834.007   1842.283    569.206    569.206
 29.170   2109.703   2011.262     98.441    568.843    818.988   1761.215    568.843    568.843
 29.270   1633.000   1715.686    -82.686    568.482    768.107   1516.185    568.482    568.482
 29.370   1360.249   1365.891     -5.642    568.123    707.348   1226.775    568.123    568.123
 29.470   1060.000   1075.872    -15.872    567.765    656.874    986.839    567.765    567.765
 29.570    935.000    881.683     53.317    567.409    623.086    826.051    567.409    567.409
 29.670    776.000    769.215      6.785    567.054    603.556    732.737    567.054    567.054
 29.770    681.734    708.749    -27.015    566.701    593.105    682.357    566.701    566.701
 29.870    748.000    675.614     72.386    566.350    587.431    654.540    566.350    566.350
 29.970    632.213    655.524    -23.311    566.000    584.053    637.475    566.000    566.000
 30.070    630.896    641.862    -10.966    565.652    581.837    625.679    565.652    565.652
 30.170    579.157    631.894    -52.737    565.306    580.339    616.861    565.306    565.306
 30.270    614.313    624.511    -10.198    564.961    579.432    610.039    564.961    564.961
 30.370    678.000    619.352     58.648    564.618    579.202    604.766    564.618    564.618
