neutron_powder_diffraction_0207
R_wp: 4.097
Temperature (K): 1074.100
Counts: 84042.00
Wavelength (Ã…): 2.52098
COMMENTS
Test file for demonstrating the .xyy file format in Reel1.0
END OF HEADER
   tth       Y_obs     Y_calc      Y_res    Background    Phase_1_Nuc    Phase_1_Mag    Phase_2_Nuc    Phase_2_Mag
  9.970    624.000    573.645     50.355    573.031    573.618    573.031    573.058    573.031
 10.070    603.322    573.664     29.658    572.997    573.637    572.997    573.024    572.997
 10.170    581.000    573.686      7.314    572.959    573.658    572.959    572.986    572.959
 10.270    596.000    573.713     22.287    572.916    573.685    572.916    572.943    572.916
 10.370    534.390    573.746    -39.357    572.869    573.719    572.869    572.897    572.869
 10.470    629.000    573.790     55.210    572.818    573.762    572.818    572.845    572.818
 10.570    587.000    573.847     13.153    572.763    573.819    572.763    572.790    572.763
 10.670    552.203    573.921    -21.718    572.703    573.893    572.703    572.730    572.703
 10.770    601.000    574.020     26.980    572.639    573.992    572.639    572.667    572.639
 10.870    582.000    574.166      7.834    572.571    574.138    572.571    572.599    572.571
 10.970    603.000    574.343     28.657    572.499    574.314    572.499    572.527    572.499
 11.070    607.000    574.576     32.424    572.423    574.547    572.423    572.451    572.423
 11.170    534.381    574.893    -40.513    572.343    574.864    572.343    572.371    572.343
 11.270    595.000    575.332     19.668    572.259    575.301    572.259    572.288    572.259
 11.370    572.000    575.955     -3.955    572.171    575.923    572.171    572.201    572.171
 11.470    619.368    576.899     42.469    572.080    576.866    572.080    572.110    572.080
 11.570    645.000    578.551     66.449    571.984    578.516    571.984    572.015    571.984
 11.670    637.000    582.026     54.974    571.885    581.990    571.885    571.916    571.885
 11.770    604.000    589.977     14.023    571.782    589.936    571.782    571.813    571.782
 11.870    614.000    606.770      7.230    571.676    606.720    571.676    571.707    571.676
 11.970    652.698    635.901     16.796    571.565    635.834    571.565    571.597    571.565
 12.070    683.000    673.686      9.314    571.452    673.598    571.452    571.483    571.452
 12.170    687.662    703.492    -15.830    571.334    703.387    571.334    571.366    571.334
 12.270    746.000    704.344     41.656    571.213    704.239    571.213    571.245    571.213
 12.370    608.000    675.362    -67.362    571.089    675.271    571.089    571.122    571.089
 12.470    624.000    637.166    -13.166    570.961    637.086    570.961    571.006    570.961
 12.570    572.000    607.120    -35.120    570.830    607.054    570.830    570.876    570.830
 12.670    564.547    589.499    -24.952    570.696    589.442    570.696    570.743    570.696
 12.770    591.000    580.981     10.019    570.558    580.928    570.558    570.605    570.558
 12.870    539.262    577.128    -37.866    570.417    577.077    570.417    570.464    570.417
 12.970    612.000    575.187     36.813    570.273    575.136    570.273    570.320    570.273
 13.070    538.716    573.984    -35.269    570.125    573.934    570.125    570.173    570.125
 13.170    550.000    573.114    -23.114    569.975    573.064    569.975    570.023    569.975
 13.270    521.000    572.433    -51.433    569.821    572.383    569.821    569.870    569.821
 13.370    566.000    571.883     -5.883    569.664    571.827    569.664    569.719    569.664
 13.470    550.000    571.413    -21.413    569.504    571.357    569.504    569.560    569.504
 13.570    564.321    571.004     -6.683    569.342    570.948    569.342    569.398    569.342
 13.670    607.000    570.641     36.359    569.176    570.584    569.176    569.232    569.176
 13.770    614.619    570.311     44.308    569.007    570.254    569.007    569.064    569.007
 13.870    541.000    570.006    -29.006    568.836    569.949    568.836    568.893    568.836
 13.970    593.742    569.721     24.022    568.661    569.663    568.661    568.719    568.661
 14.070    545.912    569.450    -23.538    568.484    569.392    568.484    568.542    568.484
 14.170    570.000    569.190      0.810    568.304    569.132    568.304    568.362    568.304
 14.270    603.674    568.940     34.734    568.122    568.881    568.122    568.180    568.122
 14.370    569.000    568.696      0.304    567.936    568.637    567.936    567.995    567.936
 14.470    592.493    568.457     24.036    567.748    568.398    567.748    567.807    567.748
 14.570    574.000    568.222      5.778    567.558    568.163    567.558    567.617    567.558
 14.670    572.000    567.990      4.010    567.365    567.930    567.365    567.424    567.365
 14.770    538.000    567.760    -29.760    567.169    567.700    567.169    567.229    567.169
 14.870    585.000    567.532     17.468    566.971    567.471    566.971    567.031    566.971
 14.970    548.000    567.304    -19.304    566.770    567.244    566.770    566.831    566.770
 15.070    592.116    567.077     25.039    566.567    567.016    566.567    566.628    566.567
 15.170    540.000    566.851    -26.851    566.362    566.789    566.362    566.423    566.362
 15.270    530.465    566.624    -36.159    566.154    566.562    566.154    566.215    566.154
 15.370    568.000    566.397      1.603    565.944    566.335    565.944    566.005    565.944
 15.470    565.000    566.169     -1.169    565.731    566.107    565.731    565.793    565.731
 15.570    559.000    565.944     -6.944    565.516    565.881    565.516    565.579    565.516
 15.670    550.000    565.717    -15.717    565.299    565.653    565.299    565.363    565.299
 15.770    597.626    565.489     32.137    565.080    565.422    565.080    565.147    565.080
 15.870    553.000    565.258    -12.258    564.859    565.191    564.859    564.927    564.859
 15.970    586.000    565.027     20.973    564.636    564.958    564.636    564.704    564.636
 16.070    598.000    564.794     33.206    564.410    564.724    564.410    564.479    564.410
 16.170    582.000    564.559     17.441    564.183    564.489    564.183    564.252    564.183
 16.270    531.793    564.323    -32.531    563.953    564.253    563.953    564.024    563.953
 16.370    519.317    564.086    -44.769    563.721    564.015    563.721    563.793    563.721
 16.470    563.046    563.848     -0.802    563.488    563.776    563.488    563.560    563.488
 16.570    576.000    563.608     12.392    563.252    563.535    563.252    563.325    563.252
 16.670    565.000    563.366      1.634    563.015    563.294    563.015    563.088    563.015
 16.770    588.000    563.124     24.876    562.776    563.050    562.776    562.849    562.776
 16.870    604.000    562.880     41.120    562.535    562.806    562.535    562.609    562.535
 16.970    532.235    562.634    -30.399    562.292    562.560    562.292    562.366    562.292
 17.070    593.000    562.388     30.612    562.048    562.313    562.048    562.122    562.048
 17.170    556.000    562.139     -6.139    561.801    562.064    561.801    561.876    561.801
 17.270    530.000    561.890    -31.890    561.553    561.814    561.553    561.629    561.553
 17.370    507.000    561.639    -54.639    561.304    561.563    561.304    561.380    561.304
 17.470    517.000    561.387    -44.387    561.052    561.311    561.052    561.129    561.052
 17.570    608.000    561.135     46.865    560.800    561.058    560.800    560.877    560.800
 17.670    572.000    560.882     11.118    560.545    560.804    560.545    560.623    560.545
 17.770    541.000    560.626    -19.626    560.289    560.548    560.289    560.367    560.289
 17.870    606.354    560.369     45.985    560.032    560.290    560.032    560.110    560.032
 17.970    561.000    560.111      0.889    559.773    560.032    559.773    559.852    559.773
 18.070    547.000    559.853    -12.853    559.512    559.772    559.512    559.594    559.512
 18.170    550.268    559.593     -9.325    559.250    559.511    559.250    559.333    559.250
 18.270    545.000    559.333    -14.333    558.987    559.250    558.987    559.070    558.987
 18.370    537.000    559.071    -22.071    558.723    558.987    558.723    558.806    558.723
 18.470    533.839    558.807    -24.968    558.457    558.723    558.457    558.541    558.457
 18.570    536.783    558.543    -21.760    558.189    558.458    558.189    558.274    558.189
 18.670    571.000    558.277     12.723    557.921    558.191    557.921    558.006    557.921
 18.770    512.868    558.010    -45.142    557.651    557.924    557.651    557.737    557.651
 18.870    525.000    557.742    -32.742    557.380    557.655    557.380    557.467    557.380
 18.970    559.000    557.473      1.527    557.108    557.386    557.108    557.196    557.108
 19.070    544.000    557.203    -13.203    556.835    557.115    556.835    556.923    556.835
 19.170    528.522    556.933    -28.411    556.560    556.844    556.560    556.649    556.560
 19.270    518.721    556.661    -37.940    556.285    556.572    556.285    556.374    556.285
 19.370    583.000    556.389     26.611    556.008    556.299    556.008    556.099    556.008
 19.470    504.000    556.117    -52.117    555.731    556.025    555.731    555.822    555.731
 19.570    546.000    555.844     -9.844    555.452    555.752    555.452    555.544    555.452
 19.670    491.000    555.571    -64.571    555.172    555.478    555.172    555.265    555.172
 19.770    553.000    555.296     -2.296    554.892    555.202    554.892    554.986    554.892
 19.870    546.000    555.025     -9.025    554.610    554.926    554.610    554.709    554.610
 19.970    529.000    554.752    -25.752    554.328    554.650    554.328    554.430    554.328
 20.070    539.000    554.476    -15.476    554.044    554.372    554.044    554.147    554.044
 20.170    551.249    554.199     -2.950    553.760    554.095    553.760    553.864    553.760
 20.270    576.000    553.922     22.078    553.475    553.817    553.475    553.580    553.475
 20.370    579.400    553.644     25.756    553.189    553.538    553.189    553.295    553.189
 20.470    556.312    553.366      2.946    552.902    553.259    552.902    553.009    552.902
 20.570    567.000    553.088     13.912    552.615    552.980    552.615    552.723    552.615
 20.670    552.000    552.810     -0.810    552.327    552.701    552.327    552.436    552.327
 20.770    587.000    552.531     34.469    552.038    552.421    552.038    552.148    552.038
 20.870    550.580    552.254     -1.674    551.749    552.143    551.749    551.860    551.749
 20.970    593.134    551.989     41.145    551.459    551.876    551.459    551.571    551.459
 21.070    517.000    551.720    -34.720    551.168    551.607    551.168    551.281    551.168
 21.170    558.000    551.443      6.557    550.876    551.328    550.876    550.991    550.876
 21.270    570.000    551.166     18.834    550.584    551.050    550.584    550.700    550.584
 21.370    516.746    550.889    -34.142    550.292    550.771    550.292    550.409    550.292
 21.470    568.000    550.612     17.388    549.999    550.494    549.999    550.117    549.999
 21.570    583.000    550.337     32.663    549.705    550.217    549.705    549.825    549.705
 21.670    507.544    550.062    -42.518    549.411    549.941    549.411    549.533    549.411
 21.770    566.210    549.788     16.422    549.117    549.666    549.117    549.240    549.117
 21.870    575.357    549.516     25.841    548.822    549.392    548.822    548.946    548.822
 21.970    568.329    549.245     19.084    548.527    549.119    548.527    548.652    548.527
 22.070    557.000    548.976      8.024    548.231    548.849    548.231    548.358    548.231
 22.170    548.380    548.709     -0.329    547.935    548.580    547.935    548.064    547.935
 22.270    507.146    548.444    -41.299    547.639    548.314    547.639    547.769    547.639
 22.370    516.000    548.183    -32.183    547.342    548.051    547.342    547.474    547.342
 22.470    510.477    547.925    -37.448    547.045    547.791    547.045    547.179    547.045
 22.570    550.000    547.671      2.329    546.747    547.535    546.747    546.883    546.747
 22.670    545.559    547.422     -1.863    546.450    547.284    546.450    546.588    546.450
 22.770    547.000    547.186     -0.186    546.152    547.047    546.152    546.292    546.152
 22.870    582.013    547.026     34.987    545.854    546.884    545.854    545.996    545.854
 22.970    539.000    546.820     -7.820    545.556    546.676    545.556    545.700    545.556
 23.070    589.612    546.623     42.989    545.258    546.477    545.258    545.404    545.258
 23.170    556.241    546.444      9.797    544.959    546.296    544.959    545.108    544.959
 23.270    545.000    546.260     -1.260    544.661    546.110    544.661    544.812    544.661
 23.370    554.000    546.095      7.905    544.362    545.943    544.362    544.515    544.362
 23.470    543.000    545.963     -2.963    544.063    545.808    544.063    544.219    544.063
 23.570    561.000    545.907     15.093    543.764    545.749    543.764    543.923    543.764
 23.670    551.000    545.873      5.127    543.466    545.710    543.466    543.629    543.466
 23.770    584.000    545.888     38.112    543.167    545.722    543.167    543.334    543.167
 23.870    539.000    545.996     -6.996    542.868    545.827    542.868    543.039    542.868
 23.970    502.000    546.250    -44.250    542.569    546.078    542.569    542.743    542.569
 24.070    567.000    546.772     20.228    542.270    546.597    542.270    542.448    542.270
 24.170    525.000    547.908    -22.908    541.972    547.731    541.972    542.153    541.972
 24.270    534.000    550.607    -16.607    541.673    550.427    541.673    541.858    541.673
 24.370    558.000    556.886      1.114    541.374    556.707    541.374    541.563    541.374
 24.470    582.000    569.599     12.401    541.076    569.426    541.076    541.269    541.076
 24.570    580.940    590.223     -9.284    540.778    590.061    540.778    540.975    540.778
 24.670    599.000    614.747    -15.747    540.480    614.598    540.480    540.682    540.480
 24.770    622.700    631.028     -8.328    540.182    630.886    540.182    540.389    540.182
 24.870    679.000    627.018     51.982    539.884    626.868    539.884    540.096    539.884
 24.970    608.839    606.003      2.836    539.587    605.833    539.587    539.804    539.587
 25.070    587.899    581.494      6.405    539.289    581.301    539.289    539.512    539.289
 25.170    610.147    562.911     47.236    538.992    562.698    538.992    539.222    538.992
 25.270    548.000    552.039     -4.039    538.696    551.812    538.696    538.931    538.696
 25.370    574.401    546.639     27.762    538.399    546.401    538.399    538.642    538.399
 25.470    504.207    544.057    -39.849    538.103    543.810    538.103    538.353    538.103
 25.570    501.000    542.662    -41.662    537.807    542.406    537.807    538.066    537.807
 25.670    537.000    541.746     -4.746    537.512    541.481    537.512    537.779    537.512
 25.770    569.814    541.056     28.758    537.217    540.782    537.217    537.493    537.217
 25.870    603.000    540.502     62.498    536.922    540.217    536.922    537.208    536.922
 25.970    492.334    540.050    -47.716    536.628    539.754    536.628    536.924    536.628
 26.070    560.000    539.679     20.321    536.334    539.372    536.334    536.642    536.334
 26.170    547.000    539.354      7.646    536.041    539.034    536.041    536.361    536.041
 26.270    583.784    539.090     44.694    535.748    538.757    535.748    536.081    535.748
 26.370    514.000    538.864    -24.864    535.455    538.517    535.455    535.803    535.455
 26.470    588.000    538.672     49.328    535.163    538.309    535.163    535.527    535.163
 26.570    598.000    538.520     59.480    534.871    538.139    534.871    535.253    534.871
 26.670    521.000    538.417    -17.417    534.580    538.017    534.580    534.981    534.580
 26.770    539.000    538.367      0.633    534.290    537.946    534.290    534.711    534.290
 26.870    508.411    538.380    -29.969    534.000    537.935    534.000    534.445    534.000
 26.970    555.000    538.471     16.529    533.711    538.000    533.711    534.181    533.711
 27.070    509.000    538.655    -29.655    533.422    538.156    533.422    533.921    533.422
 27.170    567.000    538.965     28.035    533.134    538.434    533.134    533.664    533.134
 27.270    540.000    539.445      0.555    532.846    538.877    532.846    533.413    532.846
 27.370    504.059    540.163    -36.103    532.559    539.555    532.559    533.166    532.559
 27.470    577.206    541.260     35.946    532.273    540.606    532.273    532.926    532.273
 27.570    532.000    543.019    -11.019    531.987    542.312    531.987    532.692    531.987
 27.670    578.000    546.594     31.406    531.702    545.827    531.702    532.467    531.702
 27.770    579.000    556.389     22.611    531.418    555.549    531.418    532.252    531.418
 27.870    597.000    584.598     12.402    531.134    583.668    531.134    532.048    531.134
 27.970    678.000    651.986     26.014    530.851    650.940    530.851    531.859    530.851
 28.070    748.000    769.846    -21.846    530.569    768.654    530.569    531.688    530.569
 28.170    956.000    904.549     51.451    530.288    903.195    530.288    531.538    530.288
 28.270    980.000    971.011      8.989    530.007    969.500    530.007    531.417    530.007
 28.370    923.000    913.245      9.755    529.727    911.579    529.727    531.331    529.727
 28.470    815.000    789.892     25.108    529.448    788.025    529.448    531.292    529.448
 28.570    641.000    695.665    -54.665    529.170    693.507    529.170    531.319    529.170
 28.670    715.000    678.344     36.656    528.892    675.782    528.892    531.440    528.892
 28.770    706.972    731.249    -24.277    528.616    728.131    528.616    531.713    528.616
 28.870    770.141    809.373    -39.231    528.340    805.459    528.340    532.240    528.340
 28.970    820.000    846.582    -26.582    528.065    841.449    528.065    533.201    528.065
 29.070    817.415    804.363     13.053    527.791    797.294    527.791    534.873    527.791
 29.170    683.277    717.711    -34.434    527.517    707.636    527.517    537.606    527.517
 29.270    620.000    640.299    -20.299    527.245    625.825    527.245    541.727    527.245
 29.370    621.625    595.473     26.151    526.974    575.117    526.974    547.332    526.974
 29.470    595.000    578.447     16.553    526.703    551.218    526.703    553.931    526.703
 29.570    567.142    575.097     -7.955    526.433    541.615    526.433    559.915    526.433
 29.670    553.729    574.005    -20.277    526.165    537.593    526.165    562.575    526.165
 29.770    588.000    569.749     18.251    525.897    535.462    525.897    560.183    525.897
 29.870    549.000    562.502    -13.502    525.630    534.068    525.630    554.063    525.630
 29.970    547.000    554.624     -7.624    525.364    533.074    525.364    546.913    525.364
 30.070    511.468    547.838    -36.370    525.100    532.385    525.100    540.550    525.100
 30.170    614.000    542.779     71.221    524.836    531.984    524.836    535.629    524.836
 30.270    550.458    539.520     10.937    524.573    531.959    524.573    532.132    524.573
 30.370    535.000    538.164     -3.164    524.311    532.714    524.311    529.759    524.311
