neutron_powder_diffraction_0095
R_wp: 4.088
Temperature (K): 864.214
Counts: 83721.00
Wavelength (Ã…): 2.52098
COMMENTS
Test file for demonstrating the .xyy file format in Reel1.0
END OF HEADER
   tth       Y_obs     Y_calc      Y_res    Background    Phase_1_Nuc    Phase_1_Mag    Phase_2_Nuc    Phase_2_Mag
  9.970    589.000    549.647     39.353    548.359    549.439    548.359    548.567    548.359
 10.070    506.730    550.286    -43.556    548.906    550.077    548.906    549.114    548.906
 10.170    564.000    550.926     13.074    549.441    550.716    549.441    549.651    549.441
 10.270    595.894    551.571     44.323    549.965    551.360    549.965    550.176    549.965
 10.370    571.000    552.223     18.777    550.478    552.011    550.478    550.690    550.478
 10.470    543.000    552.887     -9.887    550.980    552.674    550.980    551.192    550.980
 10.570    592.000    553.568     38.432    551.471    553.354    551.471    551.684    551.471
 10.670    589.000    554.274     34.726    551.951    554.058    551.951    552.165    551.951
 10.770    511.404    555.013    -43.609    552.420    554.797    552.420    552.634    552.420
 10.870    514.235    555.799    -41.564    552.878    555.582    552.878    553.094    552.878
 10.970    559.829    556.649      3.179    553.325    556.431    553.325    553.542    553.325
 11.070    609.000    557.588     51.412    553.762    557.368    553.762    553.980    553.762
 11.170    597.000    558.650     38.350    554.188    558.430    554.188    554.407    554.188
 11.270    549.759    559.891    -10.132    554.604    559.669    554.604    554.824    554.604
 11.370    622.000    561.406     60.594    555.010    561.183    555.010    555.230    555.010
 11.470    574.000    563.396     10.604    555.405    563.170    555.405    555.627    555.405
 11.570    570.000    566.313      3.687    555.790    566.085    555.790    556.013    555.790
 11.670    596.205    571.136     25.068    556.165    570.905    556.165    556.389    556.165
 11.770    650.000    579.647     70.353    556.530    579.410    556.530    556.755    556.530
 11.870    601.000    594.259      6.741    556.886    594.013    556.886    557.111    556.886
 11.970    634.000    616.795     17.205    557.231    616.536    557.231    557.457    557.231
 12.070    681.000    645.912     35.088    557.566    645.636    557.566    557.793    557.566
 12.170    692.000    673.579     18.421    557.892    673.286    557.892    558.120    557.892
 12.270    646.520    684.742    -38.222    558.208    684.443    558.208    558.438    558.208
 12.370    696.272    670.793     25.480    558.515    670.500    558.515    558.745    558.515
 12.470    635.609    642.457     -6.848    558.812    642.179    558.812    559.044    558.812
 12.570    596.000    614.545    -18.545    559.100    614.282    559.100    559.333    559.100
 12.670    572.000    593.885    -21.885    559.379    593.633    559.379    559.613    559.379
 12.770    563.000    581.048    -18.048    559.649    580.802    559.649    559.883    559.649
 12.870    556.000    573.943    -17.943    559.909    573.700    559.909    560.145    559.909
 12.970    548.000    570.183    -22.183    560.161    569.941    560.161    560.397    560.161
 13.070    577.000    568.116      8.884    560.403    567.874    560.403    560.641    560.403
 13.170    531.000    566.868    -35.868    560.637    566.626    560.637    560.876    560.637
 13.270    499.000    566.047    -67.047    560.862    565.805    560.862    561.102    560.862
 13.370    534.097    565.481    -31.384    561.078    565.238    561.078    561.319    561.078
 13.470    518.000    565.083    -47.083    561.285    564.839    561.285    561.528    561.285
 13.570    555.000    564.804     -9.804    561.484    564.559    561.484    561.728    561.484
 13.670    588.626    564.611     24.014    561.675    564.365    561.675    561.919    561.675
 13.770    583.000    564.481     18.519    561.857    564.234    561.857    562.103    561.857
 13.870    566.000    564.398      1.602    562.031    564.150    562.031    562.278    562.031
 13.970    522.000    564.349    -42.349    562.196    564.100    562.196    562.445    562.196
 14.070    531.000    564.326    -33.326    562.354    564.076    562.354    562.603    562.354
 14.170    578.000    564.325     13.675    562.503    564.073    562.503    562.754    562.503
 14.270    549.000    564.336    -15.336    562.645    564.084    562.645    562.897    562.645
 14.370    571.197    564.357      6.840    562.778    564.104    562.778    563.031    562.778
 14.470    537.000    564.386    -27.386    562.904    564.131    562.904    563.158    562.904
 14.570    548.000    564.419    -16.419    563.021    564.163    563.021    563.277    563.021
 14.670    591.354    564.455     26.899    563.132    564.198    563.132    563.389    563.132
 14.770    521.000    564.493    -43.493    563.234    564.234    563.234    563.492    563.234
 14.870    539.000    564.533    -25.533    563.329    564.273    563.329    563.589    563.329
 14.970    598.000    564.594     33.406    563.416    564.333    563.416    563.677    563.416
 15.070    598.387    564.634     33.753    563.496    564.371    563.496    563.759    563.496
 15.170    532.566    564.670    -32.104    563.569    564.406    563.569    563.833    563.569
 15.270    556.000    564.702     -8.702    563.635    564.436    563.635    563.900    563.635
 15.370    588.293    564.729     23.564    563.693    564.462    563.693    563.959    563.693
 15.470    596.000    564.766     31.234    563.744    564.497    563.744    564.012    563.744
 15.570    562.000    564.894     -2.894    563.788    564.625    563.788    564.058    563.788
 15.670    517.866    564.920    -47.054    563.825    564.649    563.825    564.096    563.825
 15.770    537.000    564.930    -27.930    563.855    564.658    563.855    564.128    563.855
 15.870    559.000    564.936     -5.936    563.879    564.661    563.879    564.153    563.879
 15.970    583.000    564.936     18.064    563.895    564.660    563.895    564.171    563.895
 16.070    573.000    564.932      8.068    563.905    564.655    563.905    564.182    563.905
 16.170    559.000    564.922     -5.922    563.908    564.643    563.908    564.187    563.908
 16.270    533.256    564.908    -31.652    563.905    564.627    563.905    564.185    563.905
 16.370    516.000    564.888    -48.888    563.895    564.606    563.895    564.177    563.895
 16.470    523.000    564.863    -41.863    563.879    564.579    563.879    564.163    563.879
 16.570    546.000    564.833    -18.833    563.856    564.547    563.856    564.142    563.856
 16.670    543.000    564.797    -21.797    563.827    564.510    563.827    564.114    563.827
 16.770    505.000    564.756    -59.756    563.792    564.467    563.792    564.081    563.792
 16.870    520.000    564.710    -44.710    563.751    564.420    563.751    564.042    563.751
 16.970    561.000    564.659     -3.659    563.704    564.366    563.704    563.996    563.704
 17.070    546.000    564.602    -18.602    563.650    564.308    563.650    563.944    563.650
 17.170    614.000    564.540     49.460    563.591    564.244    563.591    563.887    563.591
 17.270    586.660    564.473     22.186    563.526    564.176    563.526    563.824    563.526
 17.370    514.000    564.404    -50.404    563.455    564.105    563.455    563.755    563.455
 17.470    553.000    564.331    -11.331    563.378    564.030    563.378    563.680    563.378
 17.570    540.000    564.252    -24.252    563.296    563.948    563.296    563.599    563.296
 17.670    549.059    564.167    -15.107    563.207    563.861    563.207    563.513    563.207
 17.770    532.000    564.074    -32.074    563.114    563.767    563.114    563.421    563.114
 17.870    540.000    563.977    -23.977    563.015    563.667    563.015    563.324    563.015
 17.970    608.983    563.874     45.109    562.910    563.563    562.910    563.222    562.910
 18.070    574.000    563.767     10.233    562.800    563.453    562.800    563.114    562.800
 18.170    589.000    563.655     25.345    562.685    563.339    562.685    563.001    562.685
 18.270    538.000    563.540    -25.540    562.564    563.222    562.564    562.882    562.564
 18.370    551.000    563.446    -12.446    562.438    563.125    562.438    562.759    562.438
 18.470    517.000    563.365    -46.365    562.308    563.043    562.308    562.630    562.308
 18.570    591.000    563.239     27.761    562.172    562.914    562.172    562.497    562.172
 18.670    578.000    563.104     14.896    562.031    562.777    562.031    562.358    562.031
 18.770    582.774    562.965     19.809    561.885    562.635    561.885    562.215    561.885
 18.870    585.429    562.821     22.608    561.734    562.489    561.734    562.066    561.734
 18.970    517.952    562.673    -44.721    561.579    562.338    561.579    561.913    561.579
 19.070    581.318    562.520     18.798    561.418    562.183    561.418    561.755    561.418
 19.170    548.000    562.365    -14.365    561.253    562.025    561.253    561.593    561.253
 19.270    564.000    562.214      1.786    561.084    561.872    561.084    561.426    561.084
 19.370    571.222    562.053      9.168    560.909    561.708    560.909    561.254    560.909
 19.470    542.000    561.898    -19.898    560.730    561.550    560.730    561.078    560.730
 19.570    517.000    561.739    -44.739    560.547    561.389    560.547    560.898    560.547
 19.670    559.000    561.564     -2.564    560.359    561.211    560.359    560.713    560.359
 19.770    523.000    561.384    -38.384    560.167    561.028    560.167    560.524    560.167
 19.870    577.000    561.202     15.798    559.971    560.843    559.971    560.331    559.971
 19.970    575.000    561.027     13.973    559.771    560.665    559.771    560.133    559.771
 20.070    522.668    560.838    -38.170    559.566    560.472    559.566    559.931    559.566
 20.170    562.000    560.643      1.357    559.357    560.275    559.357    559.726    559.357
 20.270    542.552    560.446    -17.894    559.144    560.074    559.144    559.516    559.144
 20.370    534.348    560.247    -25.898    558.927    559.872    558.927    559.302    558.927
 20.470    577.762    560.060     17.702    558.706    559.682    558.706    559.085    558.706
 20.570    575.000    559.886     15.114    558.481    559.504    558.481    558.864    558.481
 20.670    580.000    559.680     20.320    558.253    559.294    558.253    558.638    558.253
 20.770    565.000    559.468      5.532    558.020    559.079    558.020    558.410    558.020
 20.870    562.000    559.253      2.747    557.784    558.860    557.784    558.177    557.784
 20.970    547.000    559.036    -12.036    557.544    558.639    557.544    557.941    557.544
 21.070    520.465    558.817    -38.352    557.301    558.416    557.301    557.702    557.301
 21.170    590.000    558.595     31.405    557.053    558.191    557.053    557.459    557.053
 21.270    590.756    558.373     32.383    556.803    557.964    556.803    557.212    556.803
 21.370    555.000    558.159     -3.159    556.549    557.746    556.549    556.962    556.549
 21.470    515.770    557.965    -42.195    556.291    557.547    556.291    556.709    556.291
 21.570    545.000    557.756    -12.756    556.030    557.333    556.030    556.453    556.030
 21.670    531.000    557.574    -26.574    555.766    557.147    555.766    556.193    555.766
 21.770    593.272    557.379     35.893    555.499    556.947    555.499    555.931    555.499
 21.870    599.577    557.168     42.408    555.228    556.732    555.228    555.665    555.228
 21.970    571.031    556.955     14.076    554.954    556.513    554.954    555.396    554.954
 22.070    572.000    556.756     15.244    554.677    556.309    554.677    555.124    554.677
 22.170    540.600    556.531    -15.931    554.397    556.079    554.397    554.850    554.397
 22.270    543.178    556.306    -13.128    554.114    555.848    554.114    554.572    554.114
 22.370    555.000    556.089     -1.089    553.828    555.625    553.828    554.292    553.828
 22.470    542.768    555.883    -13.114    553.539    555.413    553.539    554.009    553.539
 22.570    541.007    555.673    -14.666    553.247    555.197    553.247    553.723    553.247
 22.670    545.000    555.474    -10.474    552.953    554.992    552.953    553.435    552.953
 22.770    564.000    555.273      8.727    552.655    554.785    552.655    553.144    552.655
 22.870    586.000    555.078     30.922    552.355    554.583    552.355    552.851    552.355
 22.970    562.000    554.894      7.106    552.053    554.392    552.053    552.555    552.053
 23.070    553.000    554.725     -1.725    551.747    554.216    551.747    552.257    551.747
 23.170    560.000    554.572      5.428    551.439    554.056    551.439    551.957    551.439
 23.270    517.332    554.441    -37.109    551.129    553.917    551.129    551.654    551.129
 23.370    591.000    554.338     36.662    550.816    553.806    550.816    551.349    550.816
 23.470    515.259    554.271    -39.013    550.500    553.731    550.500    551.042    550.500
 23.570    557.000    554.253      2.747    550.183    553.704    550.183    550.733    550.183
 23.670    554.000    554.298     -0.298    549.862    553.740    549.862    550.422    549.862
 23.770    559.584    554.429      5.155    549.540    553.862    549.540    550.109    549.540
 23.870    525.098    554.682    -29.584    549.215    554.106    549.215    549.795    549.215
 23.970    552.000    555.122     -3.122    548.888    554.535    548.888    549.478    548.888
 24.070    583.000    555.864     27.136    548.559    555.267    548.559    549.160    548.559
 24.170    582.000    557.184     24.816    548.228    556.577    548.228    548.840    548.228
 24.270    533.413    559.681    -26.268    547.895    559.064    547.895    548.519    547.895
 24.370    583.000    564.445     18.555    547.560    563.819    547.560    548.196    547.560
 24.470    561.588    572.991    -11.403    547.222    572.358    547.222    547.871    547.222
 24.570    629.240    586.586     42.654    546.883    585.950    546.883    547.546    546.883
 24.670    656.000    604.792     51.208    546.542    604.155    546.542    547.219    546.542
 24.770    634.000    623.286     10.714    546.199    622.648    546.199    546.891    546.199
 24.870    599.000    632.867    -33.867    545.854    632.219    545.854    546.562    545.854
 24.970    680.000    626.580     53.420    545.508    625.911    545.508    546.232    545.508
 25.070    632.000    609.056     22.944    545.159    608.358    545.159    545.902    545.159
 25.170    633.723    589.720     44.003    544.809    588.989    544.809    545.570    544.809
 25.270    531.170    574.198    -43.028    544.458    573.437    544.458    545.238    544.458
 25.370    519.000    563.801    -44.801    544.105    563.012    544.105    544.906    544.105
 25.470    527.585    557.587    -30.002    543.750    556.771    543.750    544.573    543.750
 25.570    522.000    554.035    -32.035    543.393    553.193    543.393    544.240    543.393
 25.670    596.000    551.924     44.076    543.036    551.057    543.036    543.907    543.036
 25.770    533.505    550.540    -17.035    542.676    549.645    542.676    543.574    542.676
 25.870    535.119    549.532    -14.413    542.316    548.608    542.316    543.242    542.316
 25.970    570.000    548.746     21.254    541.954    547.792    541.954    542.910    541.954
 26.070    563.214    548.112     15.102    541.590    547.125    541.590    542.579    541.590
 26.170    561.000    547.591     13.409    541.226    546.570    541.226    542.248    541.226
 26.270    503.845    547.162    -43.317    540.860    546.104    540.860    541.919    540.860
 26.370    564.000    546.812     17.188    540.493    545.713    540.493    541.592    540.493
 26.470    522.220    546.533    -24.312    540.125    545.392    540.125    541.266    540.125
 26.570    581.000    546.323     34.677    539.755    545.136    539.755    540.943    539.755
 26.670    586.861    546.184     40.677    539.385    544.947    539.385    540.622    539.385
 26.770    562.182    546.120     16.062    539.013    544.829    539.013    540.304    539.013
 26.870    510.338    546.142    -35.804    538.640    544.793    538.640    539.990    538.640
 26.970    564.654    546.266     18.389    538.267    544.853    538.267    539.680    538.267
 27.070    560.964    546.514     14.450    537.892    545.032    537.892    539.375    537.892
 27.170    503.620    546.919    -43.299    537.517    545.361    537.517    539.075    537.517
 27.270    532.733    547.532    -14.799    537.141    545.891    537.141    538.781    537.141
 27.370    563.000    548.426     14.574    536.764    546.694    536.764    538.494    536.764
 27.470    514.693    549.734    -35.042    536.386    547.903    536.386    538.215    536.386
 27.570    577.928    551.777     26.152    536.007    549.836    536.007    537.946    536.007
 27.670    559.000    555.553      3.447    535.627    553.492    535.627    537.686    535.627
 27.770    566.000    564.176      1.824    535.247    561.979    535.247    537.438    535.247
 27.870    563.267    585.355    -22.088    534.867    583.004    534.867    537.203    534.867
 27.970    607.667    632.160    -24.493    534.485    629.632    534.485    536.982    534.485
 28.070    756.156    715.400     40.756    534.103    712.671    534.103    536.778    534.103
 28.170    856.853    825.168     31.685    533.720    822.222    533.720    536.590    533.720
 28.270    922.000    916.470      5.530    533.337    913.306    533.337    536.422    533.337
 28.370    940.000    932.221      7.779    532.954    928.841    532.954    536.275    532.954
 28.470    849.000    865.379    -16.379    532.570    861.766    532.570    536.150    532.570
 28.570    809.292    774.106     35.185    532.185    770.227    532.185    536.048    532.185
 28.670    745.349    719.187     26.162    531.800    715.004    531.800    535.969    531.800
 28.770    696.000    722.546    -26.546    531.415    718.032    531.415    535.912    531.415
 28.870    822.282    767.637     54.645    531.029    762.774    531.029    535.875    531.029
 28.970    809.066    813.013     -3.947    530.643    807.793    530.643    535.854    530.643
 29.070    797.000    815.755    -18.755    530.257    810.176    530.257    535.841    530.257
 29.170    766.000    766.531     -0.531    529.871    760.588    529.871    535.828    529.871
 29.270    703.835    694.828      9.007    529.484    688.527    529.484    535.800    529.484
 29.370    644.561    632.015     12.546    529.097    625.382    529.097    535.741    529.097
 29.470    655.000    590.513     64.487    528.710    583.595    528.710    535.635    528.710
 29.570    612.000    568.021     43.979    528.323    560.884    528.323    535.463    528.323
 29.670    517.230    557.158    -39.928    527.936    549.884    527.936    535.211    527.936
 29.770    592.000    551.831     40.169    527.549    544.512    527.549    534.868    527.549
 29.870    614.000    548.787     65.213    527.162    541.518    527.162    534.431    527.162
 29.970    635.000    546.712     88.288    526.774    539.582    526.774    533.904    526.774
 30.070    534.000    545.159    -11.159    526.387    538.248    526.387    533.298    526.387
 30.170    524.939    544.013    -19.074    526.000    537.383    526.000    532.629    526.000
 30.270    527.194    543.329    -16.136    525.613    537.027    525.613    531.914    525.613
 30.370    584.000    543.400     40.600    525.226    537.452    525.226    531.171    525.226
