neutron_powder_diffraction_0075
R_wp: 4.410
Temperature (K): 769.491
Counts: 83326.00
Wavelength (Ã…): 2.52098
COMMENTS
Test file for demonstrating the .xyy file format in Reel1.0
END OF HEADER
   tth       Y_obs     Y_calc      Y_res    Background    Phase_1_Nuc    Phase_1_Mag    Phase_2_Nuc    Phase_2_Mag
  9.970    698.000    602.300     95.700    601.233    602.300    601.233    601.233    601.233
 10.070    571.752    603.156    -31.403    602.003    603.155    602.003    602.003    602.003
 10.170    706.000    604.008    101.992    602.759    604.008    602.759    602.759    602.759
 10.270    637.204    604.861     32.344    603.500    604.860    603.500    603.500    603.500
 10.370    621.701    605.716     15.984    604.227    605.716    604.227    604.227    604.227
 10.470    645.000    606.581     38.419    604.940    606.580    604.940    604.940    604.940
 10.570    644.000    607.456     36.544    605.638    607.456    605.638    605.638    605.638
 10.670    657.000    608.349     48.651    606.322    608.348    606.322    606.322    606.322
 10.770    673.000    609.268     63.732    606.993    609.267    606.993    606.993    606.993
 10.870    679.000    610.226     68.774    607.649    610.225    607.649    607.649    607.649
 10.970    659.000    611.238     47.762    608.292    611.237    608.292    608.292    608.292
 11.070    610.000    612.326     -2.326    608.921    612.325    608.921    608.921    608.921
 11.170    623.837    613.532     10.305    609.536    613.530    609.536    609.536    609.536
 11.270    619.000    614.987      4.013    610.138    614.984    610.138    610.138    610.138
 11.370    592.013    616.630    -24.617    610.727    616.627    610.727    610.727    610.727
 11.470    650.000    618.603     31.397    611.303    618.599    611.303    611.303    611.303
 11.570    622.326    621.313      1.013    611.865    621.308    611.865    611.865    611.865
 11.670    671.329    625.647     45.683    612.414    625.640    612.414    612.414    612.414
 11.770    630.000    633.505     -3.505    612.951    633.494    612.951    612.951    612.951
 11.870    702.000    648.028     53.972    613.474    648.009    613.474    613.474    613.474
 11.970    684.847    672.488     12.359    613.985    672.456    613.985    613.985    613.985
 12.070    725.000    707.029     17.971    614.484    706.978    614.484    614.484    614.484
 12.170    766.000    743.648     22.352    614.970    743.577    614.970    614.970    614.970
 12.270    744.000    763.528    -19.528    615.443    763.447    615.443    615.443    615.443
 12.370    752.000    751.884      0.116    615.904    751.810    615.904    615.904    615.904
 12.470    776.000    718.783     57.217    616.353    718.727    616.353    616.353    616.353
 12.570    659.000    683.689    -24.689    616.790    683.653    616.790    616.790    616.790
 12.670    616.000    657.355    -41.355    617.215    657.333    617.215    617.215    617.215
 12.770    638.155    641.357     -3.202    617.628    641.344    617.628    617.628    617.628
 12.870    650.114    632.932     17.182    618.029    632.924    618.029    618.029    618.029
 12.970    627.357    628.772     -1.415    618.418    628.767    618.418    618.418    618.418
 13.070    582.804    626.655    -43.851    618.796    626.651    618.796    618.796    618.796
 13.170    626.861    625.492      1.369    619.162    625.488    619.162    619.162    619.162
 13.270    584.576    624.766    -40.190    619.517    624.764    619.517    619.517    619.517
 13.370    646.000    624.306     21.694    619.861    624.304    619.861    619.861    619.861
 13.470    662.793    624.021     38.772    620.193    624.020    620.193    620.193    620.193
 13.570    596.000    623.858    -27.858    620.515    623.857    620.515    620.515    620.515
 13.670    638.000    623.781     14.219    620.825    623.780    620.825    620.825    620.825
 13.770    676.189    623.767     52.422    621.124    623.766    621.124    621.124    621.124
 13.870    668.574    623.798     44.776    621.413    623.797    621.413    621.413    621.413
 13.970    555.000    623.863    -68.863    621.691    623.862    621.691    621.691    621.691
 14.070    596.000    623.951    -27.951    621.958    623.950    621.958    621.958    621.958
 14.170    645.000    624.056     20.944    622.215    624.055    622.215    622.215    622.215
 14.270    617.000    624.173     -7.173    622.461    624.173    622.461    622.461    622.461
 14.370    589.000    624.299    -35.299    622.697    624.298    622.697    622.697    622.697
 14.470    641.190    624.431     16.758    622.922    624.431    622.922    622.922    622.922
 14.570    650.256    624.567     25.689    623.138    624.566    623.138    623.138    623.138
 14.670    652.212    624.700     27.512    623.343    624.700    623.343    623.343    623.343
 14.770    600.542    624.832    -24.290    623.538    624.832    623.538    623.538    623.538
 14.870    620.000    624.962     -4.962    623.724    624.961    623.724    623.724    623.724
 14.970    598.000    625.088    -27.088    623.899    625.088    623.899    623.899    623.899
 15.070    642.843    625.215     17.628    624.065    625.214    624.065    624.065    624.065
 15.170    615.436    625.375     -9.940    624.221    625.375    624.221    624.221    624.221
 15.270    569.000    625.531    -56.531    624.368    625.531    624.368    624.368    624.368
 15.370    606.000    625.642    -19.642    624.505    625.642    624.505    624.505    624.505
 15.470    579.046    625.743    -46.698    624.633    625.743    624.633    624.633    624.633
 15.570    593.000    625.841    -32.841    624.752    625.841    624.752    624.752    624.752
 15.670    617.000    625.934     -8.934    624.862    625.934    624.862    624.862    624.862
 15.770    582.000    626.016    -44.016    624.962    626.016    624.962    624.962    624.962
 15.870    616.923    626.090     -9.168    625.053    626.090    625.053    625.053    625.053
 15.970    640.234    626.158     14.076    625.136    626.158    625.136    625.136    625.136
 16.070    623.294    626.222     -2.929    625.209    626.222    625.209    625.209    625.209
 16.170    629.737    626.318      3.419    625.274    626.317    625.274    625.274    625.274
 16.270    669.000    626.392     42.608    625.330    626.392    625.330    625.330    625.330
 16.370    642.782    626.445     16.337    625.378    626.444    625.378    625.378    625.378
 16.470    558.000    626.480    -68.480    625.417    626.480    625.417    625.417    625.417
 16.570    567.000    626.504    -59.504    625.448    626.504    625.448    625.448    625.448
 16.670    568.000    626.522    -58.522    625.470    626.522    625.470    625.470    625.470
 16.770    612.484    626.542    -14.058    625.484    626.542    625.484    625.484    625.484
 16.870    571.000    626.564    -55.564    625.490    626.564    625.490    625.490    625.490
 16.970    626.000    626.561     -0.561    625.488    626.561    625.488    625.488    625.488
 17.070    608.000    626.549    -18.549    625.478    626.549    625.478    625.478    625.478
 17.170    596.047    626.530    -30.484    625.460    626.530    625.460    625.460    625.460
 17.270    615.000    626.506    -11.506    625.434    626.505    625.434    625.434    625.434
 17.370    602.000    626.485    -24.485    625.400    626.485    625.400    625.400    625.400
 17.470    587.000    626.445    -39.445    625.359    626.445    625.359    625.359    625.359
 17.570    647.000    626.398     20.602    625.310    626.398    625.310    625.310    625.310
 17.670    571.623    626.344    -54.720    625.254    626.344    625.254    625.254    625.254
 17.770    569.000    626.283    -57.283    625.190    626.283    625.190    625.190    625.190
 17.870    605.425    626.216    -20.790    625.119    626.216    625.119    625.119    625.119
 17.970    586.372    626.153    -39.781    625.040    626.153    625.040    625.040    625.040
 18.070    668.473    626.113     42.360    624.955    626.113    624.955    624.955    624.955
 18.170    589.000    626.044    -37.044    624.862    626.044    624.862    624.862    624.862
 18.270    558.000    625.956    -67.956    624.762    625.956    624.762    624.762    624.762
 18.370    639.609    625.857     13.752    624.655    625.857    624.655    624.655    624.655
 18.470    597.000    625.750    -28.750    624.541    625.750    624.541    624.541    624.541
 18.570    586.164    625.643    -39.479    624.421    625.643    624.421    624.421    624.421
 18.670    595.000    625.591    -30.591    624.294    625.591    624.294    624.294    624.294
 18.770    598.000    625.511    -27.511    624.160    625.511    624.160    624.160    624.160
 18.870    642.957    625.384     17.573    624.019    625.384    624.019    624.019    624.019
 18.970    577.953    625.247    -47.293    623.872    625.247    623.872    623.872    623.872
 19.070    581.482    625.105    -43.622    623.719    625.105    623.719    623.719    623.719
 19.170    586.000    624.969    -38.969    623.559    624.969    623.559    623.559    623.559
 19.270    600.753    624.835    -24.083    623.393    624.835    623.393    623.393    623.393
 19.370    596.729    624.717    -27.988    623.221    624.717    623.221    623.221    623.221
 19.470    583.996    624.557    -40.560    623.042    624.557    623.042    623.042    623.042
 19.570    590.000    624.386    -34.386    622.858    624.386    622.858    622.858    622.858
 19.670    638.185    624.211     13.974    622.667    624.211    622.667    622.667    622.667
 19.770    603.000    624.035    -21.035    622.471    624.035    622.471    622.471    622.471
 19.870    646.803    623.852     22.951    622.268    623.852    622.268    622.268    622.268
 19.970    569.000    623.664    -54.664    622.060    623.664    622.060    622.060    622.060
 20.070    636.903    623.468     13.435    621.847    623.468    621.847    621.847    621.847
 20.170    604.000    623.273    -19.273    621.627    623.273    621.627    621.627    621.627
 20.270    630.619    623.070      7.549    621.402    623.070    621.402    621.402    621.402
 20.370    603.000    622.860    -19.860    621.172    622.860    621.172    621.172    621.172
 20.470    632.435    622.644      9.791    620.936    622.644    620.936    620.936    620.936
 20.570    594.000    622.426    -28.426    620.694    622.426    620.694    620.694    620.694
 20.670    629.000    622.204      6.796    620.448    622.204    620.448    620.448    620.448
 20.770    592.000    621.977    -29.977    620.196    621.977    620.196    620.196    620.196
 20.870    608.000    621.744    -13.744    619.939    621.744    619.939    619.939    619.939
 20.970    603.000    621.508    -18.508    619.677    621.508    619.677    619.677    619.677
 21.070    647.783    621.269     26.514    619.410    621.269    619.410    619.410    619.410
 21.170    629.254    621.028      8.227    619.138    621.028    619.138    619.138    619.138
 21.270    569.375    620.781    -51.407    618.861    620.781    618.861    618.861    618.861
 21.370    660.811    620.532     40.279    618.579    620.532    618.579    618.579    618.579
 21.470    595.315    620.279    -24.964    618.292    620.279    618.292    618.292    618.292
 21.570    610.000    620.024    -10.024    618.001    620.024    618.001    618.001    618.001
 21.670    639.362    619.767     19.595    617.705    619.767    617.705    617.705    617.705
 21.770    605.000    619.508    -14.508    617.405    619.508    617.405    617.405    617.405
 21.870    592.753    619.247    -26.494    617.100    619.247    617.100    617.100    617.100
 21.970    633.000    618.985     14.015    616.790    618.985    616.790    616.790    616.790
 22.070    594.440    618.721    -24.282    616.477    618.722    616.477    616.477    616.477
 22.170    582.000    618.458    -36.458    616.159    618.458    616.159    616.159    616.159
 22.270    602.000    618.194    -16.194    615.836    618.195    615.836    615.836    615.836
 22.370    627.000    617.932      9.068    615.510    617.932    615.510    615.510    615.510
 22.470    622.000    617.673      4.327    615.179    617.673    615.179    615.179    615.179
 22.570    636.000    617.415     18.585    614.844    617.416    614.844    614.844    614.844
 22.670    595.000    617.161    -22.161    614.506    617.161    614.506    614.506    614.506
 22.770    602.826    616.912    -14.086    614.163    616.912    614.163    614.163    614.163
 22.870    652.712    616.669     36.042    613.817    616.670    613.817    613.817    613.817
 22.970    608.000    616.436     -8.436    613.466    616.436    613.466    613.466    613.466
 23.070    593.000    616.214    -23.214    613.112    616.214    613.112    613.112    613.112
 23.170    667.109    616.007     51.101    612.754    616.008    612.754    612.754    612.754
 23.270    652.546    615.819     36.727    612.393    615.820    612.393    612.393    612.393
 23.370    588.000    615.655    -27.655    612.028    615.656    612.028    612.028    612.028
 23.470    662.593    615.523     47.071    611.659    615.524    611.659    611.659    611.659
 23.570    603.000    615.432    -12.432    611.287    615.433    611.287    611.287    611.287
 23.670    601.858    615.396    -13.538    610.912    615.398    610.912    610.912    610.912
 23.770    636.000    615.435     20.565    610.533    615.436    610.533    610.533    610.533
 23.870    630.000    615.576     14.424    610.151    615.578    610.151    610.151    610.151
 23.970    590.000    615.866    -25.866    609.766    615.869    609.766    609.766    609.766
 24.070    672.067    616.395     55.672    609.377    616.398    609.377    609.377    609.377
 24.170    624.000    617.354      6.646    608.986    617.358    608.986    608.986    608.986
 24.270    688.000    619.213     68.787    608.591    619.219    608.591    608.591    608.591
 24.370    657.112    622.954     34.158    608.194    622.963    608.194    608.194    608.194
 24.470    679.558    630.242     49.316    607.793    630.256    607.793    607.793    607.793
 24.570    624.838    643.048    -18.210    607.389    643.072    607.389    607.389    607.389
 24.670    670.412    662.193      8.218    606.983    662.231    606.983    606.983    606.983
 24.770    703.382    684.849     18.533    606.574    684.903    606.574    606.574    606.574
 24.870    718.201    702.336     15.865    606.162    702.403    606.162    606.162    606.162
 24.970    683.000    703.889    -20.889    605.747    703.958    605.747    605.747    605.747
 25.070    656.000    688.024    -32.024    605.330    688.082    605.330    605.330    605.330
 25.170    719.470    664.750     54.719    604.910    664.791    604.910    604.910    604.910
 25.270    634.299    643.908     -9.609    604.488    643.934    604.488    604.488    604.488
 25.370    648.000    629.302     18.698    604.063    629.317    604.063    604.063    604.063
 25.470    584.689    620.547    -35.858    603.636    620.556    603.636    603.636    603.636
 25.570    608.000    615.726     -7.726    603.206    615.732    603.206    603.206    603.206
 25.670    623.477    613.048     10.430    602.774    613.052    602.774    602.774    602.774
 25.770    646.000    611.407     34.593    602.340    611.410    602.340    602.340    602.340
 25.870    681.000    610.270     70.730    601.904    610.273    601.904    601.904    601.904
 25.970    616.484    609.414      7.070    601.465    609.416    601.465    601.465    601.465
 26.070    655.000    608.743     46.257    601.025    608.744    601.025    601.025    601.025
 26.170    669.000    608.212     60.788    600.582    608.213    600.582    600.582    600.582
 26.270    654.000    607.795     46.205    600.137    607.796    600.137    600.137    600.137
 26.370    676.000    607.480     68.520    599.690    607.480    599.690    599.690    599.690
 26.470    596.645    607.261    -10.616    599.242    607.261    599.242    599.242    599.242
 26.570    650.000    607.139     42.861    598.791    607.139    598.791    598.791    598.791
 26.670    662.000    607.120     54.880    598.339    607.120    598.339    598.339    598.339
 26.770    657.000    607.217     49.783    597.885    607.217    597.885    597.885    597.885
 26.870    662.000    607.450     54.550    597.429    607.449    597.429    597.429    597.429
 26.970    688.000    607.845     80.155    596.971    607.844    596.971    596.971    596.971
 27.070    605.674    608.444     -2.769    596.512    608.443    596.512    596.512    596.512
 27.170    663.000    609.303     53.697    596.051    609.301    596.051    596.051    596.051
 27.270    600.389    610.504    -10.115    595.589    610.502    595.589    595.589    595.589
 27.370    568.039    612.173    -44.134    595.125    612.170    595.125    595.125    595.125
 27.470    561.546    614.525    -52.979    594.660    614.522    594.660    594.660    594.660
 27.570    688.000    618.016     69.984    594.193    618.012    594.193    594.193    594.193
 27.670    766.000    623.756    142.244    593.725    623.749    593.725    593.725    593.725
 27.770    617.916    634.418    -16.502    593.256    634.407    593.256    593.256    593.256
 27.870    665.862    655.414     10.448    592.785    655.395    592.785    592.785    592.785
 27.970    638.958    694.865    -55.907    592.313    694.833    592.313    592.313    592.313
 28.070    813.000    759.769     53.231    591.840    759.719    591.840    591.840    591.840
 28.170    899.000    847.349     51.651    591.366    847.283    591.366    591.366    591.366
 28.270    961.000    934.356     26.644    590.891    934.284    590.891    590.891    590.891
 28.370   1023.000    975.917     47.083    590.415    975.855    590.415    590.415    590.415
 28.470    909.960    945.394    -35.434    589.937    945.348    589.937    589.937    589.937
 28.570    836.121    876.980    -40.860    589.459    876.947    589.459    589.459    589.459
 28.670    887.000    821.274     65.726    588.980    821.249    588.980    588.980    588.980
 28.770    888.000    804.384     83.616    588.499    804.361    588.499    588.499    588.499
 28.870    819.554    825.578     -6.025    588.019    825.558    588.019    588.019    588.019
 28.970    953.000    862.006     90.994    587.537    861.994    587.537    587.537    587.537
 29.070   1007.000    876.339    130.661    587.054    876.338    587.054    587.054    587.054
 29.170    951.000    845.073    105.927    586.571    845.080    586.571    586.571    586.571
 29.270    746.626    784.383    -37.758    586.087    784.392    586.087    586.087    586.087
 29.370    851.000    722.523    128.477    585.602    722.530    585.602    585.602    585.602
 29.470    713.000    674.558     38.442    585.117    674.562    585.117    585.117    585.117
 29.570    642.405    643.166     -0.761    584.631    643.167    584.631    584.631    584.631
 29.670    728.000    624.796    103.204    584.145    624.795    584.145    584.145    584.145
 29.770    727.000    614.506    112.494    583.658    614.505    583.658    583.658    583.658
 29.870    573.857    608.525    -34.669    583.171    608.524    583.171    583.171    583.171
 29.970    714.000    604.729    109.271    582.683    604.727    582.683    582.683    582.683
 30.070    657.000    602.139     54.861    582.195    602.137    582.195    582.195    582.195
 30.170    610.249    600.372      9.878    581.707    600.369    581.707    581.707    581.707
 30.270    718.000    599.348    118.652    581.218    599.344    581.218    581.218    581.218
 30.370    657.000    599.235     57.765    580.729    599.230    580.729    580.729    580.729
