neutron_powder_diffraction_0209
R_wp: 3.978
Temperature (K): 1074.000
Counts: 83163.00
Wavelength (Ã…): 2.52098
COMMENTS
Test file for demonstrating the .xyy file format in Reel1.0
END OF HEADER
   tth       Y_obs     Y_calc      Y_res    Background    Phase_1_Nuc    Phase_1_Mag    Phase_2_Nuc    Phase_2_Mag
  9.970    615.000    586.003     28.997    585.414    585.982    585.414    585.434    585.414
 10.070    600.555    585.878     14.677    585.239    585.857    585.239    585.259    585.239
 10.170    594.000    585.758      8.242    585.060    585.738    585.060    585.081    585.060
 10.270    582.000    585.661     -3.661    584.879    585.639    584.879    584.900    584.879
 10.370    602.000    585.557     16.443    584.694    585.536    584.694    584.715    584.694
 10.470    608.080    585.461     22.619    584.507    585.439    584.507    584.528    584.507
 10.570    578.000    585.379     -7.379    584.317    585.356    584.317    584.339    584.317
 10.670    555.830    585.317    -29.486    584.124    585.291    584.124    584.149    584.124
 10.770    621.943    585.276     36.667    583.928    585.250    583.928    583.953    583.928
 10.870    569.000    585.267    -16.267    583.729    585.240    583.729    583.754    583.729
 10.970    578.000    585.300     -7.300    583.527    585.273    583.527    583.553    583.527
 11.070    610.000    585.392     24.608    583.323    585.365    583.323    583.349    583.323
 11.170    572.978    585.565    -12.587    583.116    585.538    583.116    583.142    583.116
 11.270    586.000    585.855      0.145    582.906    585.828    582.906    582.932    582.906
 11.370    545.879    586.322    -40.443    582.694    586.294    582.694    582.720    582.694
 11.470    629.000    587.095     41.905    582.479    587.066    582.479    582.505    582.479
 11.570    600.000    588.539     11.461    582.261    588.510    582.261    582.288    582.261
 11.670    620.407    591.768     28.640    582.041    591.736    582.041    582.068    582.041
 11.770    654.000    599.558     54.442    581.819    599.521    581.819    581.845    581.819
 11.870    657.000    616.725     40.275    581.594    616.678    581.594    581.622    581.594
 11.970    664.000    647.405     16.595    581.366    647.340    581.366    581.395    581.366
 12.070    718.000    687.915     30.085    581.136    687.828    581.136    581.165    581.136
 12.170    752.804    720.127     32.677    580.904    720.021    580.904    580.933    580.904
 12.270    728.000    720.957      7.043    580.669    720.851    580.669    580.699    580.669
 12.370    697.000    689.428      7.572    580.432    689.339    580.432    580.462    580.432
 12.470    639.899    648.226     -8.327    580.193    648.159    580.193    580.223    580.193
 12.570    576.105    616.322    -40.217    579.952    616.272    579.952    579.982    579.952
 12.670    608.000    598.053      9.947    579.708    598.013    579.708    579.738    579.708
 12.770    555.000    589.455    -34.455    579.462    589.420    579.462    579.493    579.462
 12.870    560.000    585.624    -25.624    579.214    585.589    579.214    579.246    579.214
 12.970    559.288    583.674    -24.386    578.964    583.630    578.964    579.006    578.964
 13.070    564.599    582.417    -17.818    578.712    582.372    578.712    578.755    578.712
 13.170    581.791    581.474      0.317    578.458    581.429    578.458    578.501    578.458
 13.270    571.000    580.713     -9.713    578.201    580.668    578.201    578.245    578.201
 13.370    540.743    580.073    -39.329    577.943    580.027    577.943    577.988    577.943
 13.470    585.979    579.515      6.464    577.683    579.469    577.683    577.728    577.683
 13.570    658.000    579.018     78.982    577.421    578.972    577.421    577.466    577.421
 13.670    554.244    578.564    -24.320    577.157    578.518    577.157    577.202    577.157
 13.770    560.000    578.145    -18.145    576.891    578.098    576.891    576.937    576.891
 13.870    585.236    577.755      7.481    576.623    577.703    576.623    576.674    576.623
 13.970    552.619    577.380    -24.761    576.353    577.327    576.353    576.406    576.353
 14.070    540.016    577.019    -37.003    576.082    576.966    576.082    576.135    576.082
 14.170    561.000    576.670    -15.670    575.809    576.617    575.809    575.862    575.809
 14.270    609.364    576.331     33.033    575.534    576.277    575.534    575.587    575.534
 14.370    584.000    575.998      8.002    575.257    575.944    575.257    575.311    575.257
 14.470    558.956    575.672    -16.716    574.979    575.617    574.979    575.033    574.979
 14.570    555.000    575.350    -20.350    574.699    575.295    574.699    574.753    574.699
 14.670    561.000    575.031    -14.031    574.417    574.977    574.417    574.472    574.417
 14.770    559.763    574.716    -14.953    574.134    574.661    574.134    574.189    574.134
 14.870    603.000    574.403     28.597    573.850    574.347    573.850    573.905    573.850
 14.970    558.000    574.091    -16.091    573.564    574.035    573.564    573.619    573.564
 15.070    580.000    573.781      6.219    573.276    573.725    573.276    573.332    573.276
 15.170    541.591    573.475    -31.884    572.987    573.419    572.987    573.043    572.987
 15.270    528.000    573.168    -45.168    572.696    573.112    572.696    572.753    572.696
 15.370    572.000    572.860     -0.860    572.404    572.803    572.404    572.461    572.404
 15.470    560.000    572.553    -12.553    572.111    572.496    572.111    572.168    572.111
 15.570    562.949    572.245     -9.297    571.816    572.188    571.816    571.873    571.816
 15.670    580.035    571.938      8.097    571.520    571.880    571.520    571.578    571.520
 15.770    557.000    571.630    -14.630    571.222    571.572    571.222    571.281    571.222
 15.870    594.047    571.322     22.725    570.924    571.264    570.924    570.982    570.924
 15.970    535.124    571.014    -35.890    570.624    570.955    570.624    570.683    570.624
 16.070    561.000    570.706     -9.706    570.323    570.646    570.323    570.382    570.323
 16.170    543.000    570.397    -27.397    570.020    570.337    570.020    570.080    570.020
 16.270    589.000    570.088     18.912    569.717    570.027    569.717    569.777    569.717
 16.370    588.000    569.781     18.219    569.412    569.717    569.412    569.476    569.412
 16.470    595.000    569.471     25.529    569.106    569.406    569.106    569.170    569.106
 16.570    551.099    569.161    -18.062    568.799    569.095    568.799    568.865    568.799
 16.670    551.000    568.850    -17.850    568.491    568.783    568.491    568.557    568.491
 16.770    545.000    568.538    -23.538    568.182    568.471    568.182    568.249    568.182
 16.870    566.218    568.227     -2.008    567.872    568.159    567.872    567.940    567.872
 16.970    550.468    567.915    -17.447    567.561    567.847    567.561    567.629    567.561
 17.070    590.000    567.602     22.398    567.249    567.533    567.249    567.317    567.249
 17.170    542.579    567.287    -24.709    566.936    567.218    566.936    567.005    566.936
 17.270    537.556    566.973    -29.416    566.622    566.903    566.622    566.691    566.622
 17.370    545.134    566.657    -21.523    566.307    566.587    566.307    566.377    566.307
 17.470    588.276    566.341     21.935    565.992    566.271    565.992    566.062    565.992
 17.570    579.000    566.025     12.975    565.675    565.954    565.675    565.746    565.675
 17.670    569.000    565.708      3.292    565.358    565.636    565.358    565.429    565.358
 17.770    507.000    565.390    -58.390    565.040    565.318    565.040    565.111    565.040
 17.870    559.456    565.072     -5.617    564.721    565.000    564.721    564.793    564.721
 17.970    542.000    564.756    -22.756    564.401    564.683    564.401    564.474    564.401
 18.070    565.000    564.438      0.562    564.081    564.365    564.081    564.154    564.081
 18.170    521.000    564.119    -43.119    563.759    564.045    563.759    563.833    563.759
 18.270    558.000    563.799     -5.799    563.438    563.724    563.438    563.512    563.438
 18.370    527.000    563.479    -36.479    563.115    563.404    563.115    563.190    563.115
 18.470    550.379    563.158    -12.780    562.792    563.083    562.792    562.868    562.792
 18.570    538.230    562.838    -24.608    562.468    562.761    562.468    562.545    562.468
 18.670    555.000    562.518     -7.518    562.144    562.439    562.144    562.222    562.144
 18.770    584.131    562.196     21.934    561.819    562.117    561.819    561.898    561.819
 18.870    557.000    561.875     -4.875    561.494    561.795    561.494    561.573    561.494
 18.970    533.464    561.552    -28.089    561.168    561.472    561.168    561.248    561.168
 19.070    568.000    561.230      6.770    560.841    561.149    560.841    560.922    560.841
 19.170    535.389    560.908    -25.519    560.514    560.826    560.514    560.596    560.514
 19.270    509.000    560.586    -51.586    560.187    560.503    560.187    560.269    560.187
 19.370    540.000    560.263    -20.263    559.859    560.180    559.859    559.942    559.859
 19.470    526.000    559.940    -33.940    559.531    559.856    559.531    559.615    559.531
 19.570    518.742    559.617    -40.875    559.202    559.533    559.202    559.287    559.202
 19.670    573.000    559.294     13.706    558.873    559.209    558.873    558.958    558.873
 19.770    523.507    558.972    -35.464    558.544    558.886    558.544    558.630    558.544
 19.870    557.000    558.649     -1.649    558.214    558.562    558.214    558.301    558.214
 19.970    524.890    558.327    -33.437    557.884    558.239    557.884    557.972    557.884
 20.070    529.000    558.005    -29.005    557.554    557.917    557.554    557.642    557.554
 20.170    598.165    557.683     40.482    557.223    557.593    557.223    557.313    557.223
 20.270    565.000    557.365      7.635    556.892    557.270    556.892    556.987    556.892
 20.370    612.000    557.044     54.956    556.561    556.947    556.561    556.659    556.561
 20.470    523.000    556.724    -33.724    556.230    556.625    556.230    556.328    556.230
 20.570    541.000    556.415    -15.415    555.899    556.316    555.899    555.998    555.899
 20.670    590.298    556.104     34.194    555.567    556.004    555.567    555.667    555.567
 20.770    558.013    555.785      2.228    555.235    555.684    555.235    555.336    555.235
 20.870    570.000    555.465     14.535    554.903    555.363    554.903    555.006    554.903
 20.970    552.000    555.146     -3.146    554.571    555.042    554.571    554.675    554.571
 21.070    596.000    554.827     41.173    554.239    554.723    554.239    554.344    554.239
 21.170    587.902    554.510     33.392    553.907    554.404    553.907    554.013    553.907
 21.270    557.000    554.193      2.807    553.575    554.086    553.575    553.681    553.575
 21.370    570.842    553.877     16.965    553.243    553.769    553.243    553.350    553.243
 21.470    582.000    553.562     28.438    552.910    553.453    552.910    553.019    552.910
 21.570    553.000    553.249     -0.249    552.578    553.139    552.578    552.688    552.578
 21.670    523.000    552.937    -29.937    552.246    552.825    552.246    552.357    552.246
 21.770    592.000    552.626     39.374    551.914    552.514    551.914    552.026    551.914
 21.870    585.000    552.326     32.674    551.581    552.212    551.581    551.696    551.581
 21.970    573.000    552.105     20.895    551.249    551.990    551.249    551.365    551.249
 22.070    559.000    551.844      7.156    550.917    551.727    550.917    551.034    550.917
 22.170    536.000    551.572    -15.572    550.585    551.454    550.585    550.704    550.585
 22.270    570.000    551.277     18.723    550.254    551.157    550.254    550.374    550.254
 22.370    512.000    550.982    -38.982    549.922    550.861    549.922    550.044    549.922
 22.470    543.000    550.691     -7.691    549.591    550.568    549.591    549.714    549.591
 22.570    587.000    550.405     36.595    549.259    550.280    549.259    549.384    549.259
 22.670    578.250    550.124     28.126    548.928    549.998    548.928    549.055    548.928
 22.770    501.000    549.849    -48.849    548.598    549.721    548.598    548.726    548.598
 22.870    541.000    549.587     -8.587    548.267    549.456    548.267    548.398    548.267
 22.970    581.632    549.373     32.259    547.937    549.241    547.937    548.069    547.937
 23.070    572.000    549.146     22.854    547.607    549.012    547.607    547.741    547.607
 23.170    565.000    548.917     16.083    547.277    548.781    547.277    547.414    547.277
 23.270    567.000    548.700     18.300    546.947    548.562    546.947    547.086    546.947
 23.370    563.000    548.504     14.496    546.618    548.364    546.618    546.759    546.618
 23.470    589.480    548.335     41.144    546.289    548.192    546.289    546.433    546.289
 23.570    545.000    548.202     -3.202    545.961    548.056    545.961    546.107    545.961
 23.670    558.000    548.115      9.885    545.633    547.967    545.633    545.781    545.633
 23.770    567.000    548.094     18.906    545.305    547.943    545.305    545.456    545.305
 23.870    558.000    548.164      9.836    544.978    548.011    544.978    545.132    544.978
 23.970    538.000    548.378    -10.378    544.651    548.221    544.651    544.810    544.651
 24.070    565.625    548.848     16.778    544.324    548.687    544.324    544.488    544.324
 24.170    539.000    549.912    -10.912    543.998    549.749    543.998    544.165    543.998
 24.270    550.000    552.536     -2.536    543.673    552.371    543.673    543.843    543.673
 24.370    558.000    558.854     -0.854    543.347    558.690    543.347    543.521    543.347
 24.470    577.000    572.024      4.976    543.023    571.866    543.023    543.201    543.023
 24.570    559.278    593.829    -34.551    542.699    593.683    542.699    542.880    542.699
 24.670    640.000    620.056     19.944    542.375    619.925    542.375    542.561    542.375
 24.770    681.268    637.561     43.707    542.052    637.439    542.052    542.243    542.052
 24.870    598.000    633.252    -35.252    541.729    633.123    541.729    541.925    541.729
 24.970    612.000    610.695      1.305    541.407    610.544    541.407    541.608    541.407
 25.070    625.000    584.565     40.435    541.086    584.390    541.086    541.292    541.086
 25.170    583.000    565.024     17.976    540.765    564.829    540.765    540.977    540.765
 25.270    544.767    553.850     -9.084    540.445    553.641    540.445    540.663    540.445
 25.370    531.600    548.449    -16.848    540.125    548.229    540.125    540.349    540.125
 25.470    600.000    545.945     54.055    539.806    545.717    539.806    540.037    539.806
 25.570    565.000    544.597     20.403    539.488    544.361    539.488    539.726    539.488
 25.670    535.000    543.704     -8.704    539.170    543.460    539.170    539.417    539.170
 25.770    554.615    543.032     11.583    538.853    542.778    538.853    539.108    538.853
 25.870    562.000    542.493     19.507    538.537    542.230    538.537    538.801    538.537
 25.970    571.000    542.053     28.947    538.222    541.780    538.222    538.495    538.222
 26.070    516.573    541.681    -25.108    537.907    541.398    537.907    538.191    537.907
 26.170    564.000    541.369     22.631    537.592    541.074    537.592    537.888    537.592
 26.270    582.000    541.108     40.892    537.279    540.801    537.279    537.587    537.279
 26.370    556.000    540.896     15.104    536.966    540.575    536.966    537.288    536.966
 26.470    540.000    540.733     -0.733    536.654    540.397    536.654    536.990    536.654
 26.570    565.000    540.622     24.378    536.343    540.270    536.343    536.695    536.343
 26.670    541.000    540.568      0.432    536.033    540.198    536.033    536.403    536.033
 26.770    510.808    540.582    -29.775    535.723    540.193    535.723    536.113    535.723
 26.870    514.000    540.701    -26.701    535.415    540.289    535.415    535.825    535.415
 26.970    570.566    540.913     29.653    535.107    540.478    535.107    535.541    535.107
 27.070    523.322    541.228    -17.905    534.799    540.766    534.799    535.261    534.799
 27.170    590.000    541.703     48.297    534.493    541.212    534.493    534.984    534.493
 27.270    580.000    542.398     37.602    534.188    541.873    534.188    534.712    534.188
 27.370    548.000    543.402      4.598    533.883    542.840    533.883    534.445    533.883
 27.470    502.223    544.879    -42.656    533.580    544.273    533.580    534.183    533.580
 27.570    536.000    547.243    -11.243    533.277    546.589    533.277    533.929    533.277
 27.670    561.000    551.930      9.070    532.975    551.219    532.975    533.682    532.975
 27.770    555.000    563.747     -8.747    532.674    562.967    532.674    533.445    532.674
 27.870    650.000    594.583     55.417    532.374    593.719    532.374    533.220    532.374
 27.970    686.000    662.516     23.484    532.075    661.543    532.075    533.008    532.075
 28.070    803.000    775.227     27.773    531.777    774.121    531.777    532.812    531.777
 28.170    849.072    900.911    -51.839    531.480    899.655    531.480    532.638    531.480
 28.270    980.000    962.924     17.076    531.183    961.523    531.183    532.489    531.183
 28.370    883.780    910.481    -26.701    530.888    908.935    530.888    532.374    530.888
 28.470    848.000    797.625     50.375    530.594    795.891    530.594    532.303    530.594
 28.570    697.979    710.278    -12.298    530.301    708.275    530.301    532.292    530.301
 28.670    696.408    692.796      3.612    530.008    690.419    530.008    532.370    530.008
 28.770    712.128    740.534    -28.406    529.717    737.645    529.717    532.587    529.717
 28.870    811.000    812.349     -1.349    529.427    808.723    529.427    533.041    529.427
 28.970    898.407    846.281     52.127    529.138    841.519    529.138    533.903    529.138
 29.070    794.443    805.593    -11.150    528.850    799.013    528.850    535.443    528.850
 29.170    703.000    722.705    -19.705    528.562    713.270    528.562    538.011    528.562
 29.270    624.000    647.394    -23.394    528.276    633.740    528.276    541.939    528.276
 29.370    625.000    601.908     23.092    527.992    582.564    527.992    547.338    527.992
 29.470    589.000    583.061      5.939    527.708    557.026    527.708    553.741    527.708
 29.570    613.000    578.189     34.811    527.425    546.032    527.425    559.578    527.425
 29.670    574.542    576.205     -1.663    527.143    541.171    527.143    562.173    527.143
 29.770    614.000    571.499     42.501    526.863    538.551    526.863    559.806    526.863
 29.870    594.853    564.055     30.799    526.583    536.839    526.583    553.795    526.583
 29.970    569.000    556.140     12.860    526.305    535.632    526.305    546.810    526.305
 30.070    554.000    549.396      4.604    526.028    534.795    526.028    540.627    526.028
 30.170    539.866    544.428     -4.562    525.752    534.302    525.752    535.876    525.752
 30.270    573.000    541.302     31.698    525.477    534.253    525.477    532.523    525.477
 30.370    529.081    540.140    -11.058    525.203    535.078    525.203    530.261    525.203
