neutron_powder_diffraction_0245
R_wp: 4.115
Temperature (K): 970.326
Counts: 83703.00
Wavelength (Ã…): 2.52098
COMMENTS
Test file for demonstrating the .xyy file format in Reel1.0
END OF HEADER
   tth       Y_obs     Y_calc      Y_res    Background    Phase_1_Nuc    Phase_1_Mag    Phase_2_Nuc    Phase_2_Mag
  9.970    587.073    560.189     26.883    559.577    560.167    559.577    559.599    559.577
 10.070    612.000    560.449     51.551    559.787    560.426    559.787    559.809    559.787
 10.170    590.000    560.709     29.291    559.990    560.686    559.990    560.012    559.990
 10.270    582.000    560.971     21.029    560.186    560.948    560.186    560.208    560.186
 10.370    560.000    561.237     -1.237    560.375    561.213    560.375    560.398    560.375
 10.470    601.264    561.508     39.755    560.557    561.485    560.557    560.580    560.557
 10.570    516.638    561.789    -45.151    560.733    561.766    560.733    560.756    560.733
 10.670    603.000    562.084     40.916    560.902    562.060    560.902    560.925    560.902
 10.770    539.000    562.397    -23.397    561.064    562.373    561.064    561.087    561.064
 10.870    532.288    562.738    -30.450    561.219    562.713    561.219    561.243    561.219
 10.970    606.000    563.115     42.885    561.368    563.090    561.368    561.392    561.368
 11.070    605.000    563.544     41.456    561.511    563.520    561.511    561.535    561.511
 11.170    548.835    564.048    -15.213    561.647    564.022    561.647    561.671    561.647
 11.270    539.000    564.659    -25.659    561.777    564.632    561.777    561.802    561.777
 11.370    574.547    565.434      9.113    561.901    565.403    561.901    561.929    561.901
 11.470    575.222    566.481      8.742    562.018    566.450    562.018    562.047    562.018
 11.570    541.000    568.113    -27.113    562.129    568.081    562.129    562.158    562.129
 11.670    542.938    571.257    -28.319    562.234    571.222    562.234    562.263    562.234
 11.770    562.925    578.286    -15.361    562.333    578.248    562.333    562.362    562.333
 11.870    636.000    593.568     42.432    562.426    593.521    562.426    562.455    562.426
 11.970    569.574    621.541    -51.967    562.513    621.479    562.513    562.542    562.513
 12.070    671.000    660.536     10.464    562.594    660.451    562.594    562.623    562.594
 12.170    684.000    695.672    -11.672    562.669    695.568    562.669    562.699    562.669
 12.270    645.000    703.539    -58.539    562.738    703.430    562.738    562.768    562.738
 12.370    642.000    677.031    -35.031    562.802    676.936    562.802    562.832    562.802
 12.470    609.697    636.625    -26.928    562.860    636.552    562.860    562.892    562.860
 12.570    588.000    603.279    -15.279    562.912    603.224    562.912    562.945    562.912
 12.670    599.000    583.422     15.578    562.959    583.377    562.959    562.992    562.959
 12.770    569.000    573.961     -4.961    563.000    573.922    563.000    563.033    563.000
 12.870    584.000    569.903     14.097    563.036    569.866    563.036    563.069    563.036
 12.970    563.000    568.026     -5.026    563.067    567.990    563.067    563.100    563.067
 13.070    584.000    566.963     17.037    563.092    566.927    563.092    563.125    563.092
 13.170    514.000    566.250    -52.250    563.111    566.214    563.111    563.145    563.111
 13.270    522.000    565.733    -43.733    563.126    565.697    563.126    563.160    563.126
 13.370    541.000    565.338    -24.338    563.135    565.303    563.135    563.169    563.135
 13.470    598.304    565.031     33.274    563.139    564.995    563.139    563.174    563.139
 13.570    544.000    564.787    -20.787    563.138    564.747    563.138    563.177    563.138
 13.670    532.514    564.592    -32.078    563.133    564.543    563.133    563.181    563.133
 13.770    576.000    564.421     11.579    563.122    564.372    563.122    563.171    563.122
 13.870    552.000    564.273    -12.273    563.106    564.223    563.106    563.155    563.106
 13.970    569.057    564.142      4.914    563.085    564.092    563.085    563.135    563.085
 14.070    557.451    564.024     -6.573    563.059    563.973    563.059    563.110    563.059
 14.170    575.000    563.915     11.085    563.029    563.864    563.029    563.079    563.029
 14.270    531.000    563.813    -32.813    562.994    563.762    562.994    563.045    562.994
 14.370    593.000    563.718     29.282    562.954    563.665    562.954    563.006    562.954
 14.470    564.344    563.628      0.716    562.910    563.574    562.910    562.964    562.910
 14.570    588.000    563.541     24.459    562.861    563.482    562.861    562.920    562.861
 14.670    589.000    563.450     25.550    562.808    563.390    562.808    562.867    562.808
 14.770    583.000    563.359     19.641    562.750    563.298    562.750    562.810    562.750
 14.870    503.000    563.267    -60.267    562.687    563.206    562.687    562.748    562.687
 14.970    599.000    563.174     35.826    562.620    563.113    562.620    562.681    562.620
 15.070    531.000    563.080    -32.080    562.549    563.019    562.549    562.610    562.549
 15.170    510.000    562.984    -52.984    562.474    562.922    562.474    562.535    562.474
 15.270    554.000    562.886     -8.886    562.394    562.824    562.394    562.456    562.394
 15.370    554.386    562.786     -8.400    562.311    562.724    562.311    562.373    562.311
 15.470    517.781    562.684    -44.903    562.223    562.621    562.223    562.285    562.223
 15.570    545.000    562.579    -17.579    562.131    562.516    562.131    562.194    562.131
 15.670    564.000    562.471      1.529    562.034    562.407    562.034    562.098    562.034
 15.770    528.000    562.360    -34.360    561.934    562.297    561.934    561.998    561.934
 15.870    537.000    562.247    -25.247    561.830    562.183    561.830    561.895    561.830
 15.970    553.000    562.131     -9.131    561.723    562.066    561.723    561.787    561.723
 16.070    519.439    562.012    -42.573    561.611    561.947    561.611    561.676    561.611
 16.170    568.000    561.890      6.110    561.495    561.824    561.495    561.561    561.495
 16.270    563.000    561.764      1.236    561.376    561.698    561.376    561.442    561.376
 16.370    554.000    561.636     -7.636    561.253    561.570    561.253    561.319    561.253
 16.470    509.000    561.505    -52.505    561.126    561.438    561.126    561.193    561.126
 16.570    586.000    561.370     24.630    560.996    561.303    560.996    561.063    560.996
 16.670    533.000    561.233    -28.233    560.862    561.165    560.862    560.929    560.862
 16.770    582.000    561.093     20.907    560.724    561.025    560.724    560.792    560.724
 16.870    559.000    560.950     -1.950    560.583    560.881    560.583    560.652    560.583
 16.970    568.000    560.805      7.195    560.439    560.736    560.439    560.508    560.439
 17.070    588.000    560.656     27.344    560.291    560.587    560.291    560.361    560.291
 17.170    542.000    560.506    -18.506    560.140    560.434    560.140    560.212    560.140
 17.270    591.632    560.352     31.280    559.985    560.278    559.985    560.059    559.985
 17.370    604.468    560.194     44.274    559.827    560.119    559.827    559.902    559.827
 17.470    533.000    560.034    -27.034    559.666    559.957    559.666    559.742    559.666
 17.570    551.000    559.870     -8.870    559.502    559.793    559.502    559.579    559.502
 17.670    543.000    559.704    -16.704    559.335    559.626    559.335    559.413    559.335
 17.770    559.000    559.534     -0.534    559.164    559.455    559.164    559.243    559.164
 17.870    533.000    559.362    -26.362    558.991    559.282    558.991    559.070    558.991
 17.970    573.000    559.187     13.813    558.814    559.107    558.814    558.894    558.814
 18.070    488.000    559.009    -71.009    558.635    558.928    558.635    558.715    558.635
 18.170    547.000    558.828    -11.828    558.452    558.747    558.452    558.533    558.452
 18.270    592.346    558.645     33.700    558.267    558.564    558.267    558.349    558.267
 18.370    588.927    558.459     30.468    558.079    558.377    558.079    558.161    558.079
 18.470    533.000    558.271    -25.271    557.888    558.188    557.888    557.971    557.888
 18.570    563.939    558.082      5.857    557.694    557.998    557.694    557.778    557.694
 18.670    503.000    557.889    -54.889    557.498    557.805    557.498    557.582    557.498
 18.770    545.000    557.693    -12.693    557.298    557.609    557.298    557.383    557.298
 18.870    552.000    557.495     -5.495    557.097    557.410    557.097    557.182    557.097
 18.970    515.715    557.295    -41.580    556.892    557.209    556.892    556.978    556.892
 19.070    557.000    557.092     -0.092    556.685    557.005    556.685    556.772    556.685
 19.170    520.000    556.887    -36.887    556.475    556.800    556.475    556.563    556.475
 19.270    541.935    556.683    -14.749    556.263    556.594    556.263    556.353    556.263
 19.370    553.964    556.494     -2.530    556.049    556.403    556.049    556.140    556.049
 19.470    518.000    556.287    -38.287    555.832    556.196    555.832    555.924    555.832
 19.570    513.000    556.075    -43.075    555.613    555.982    555.613    555.705    555.613
 19.670    544.000    555.860    -11.860    555.391    555.766    555.391    555.484    555.391
 19.770    558.293    555.642      2.650    555.167    555.548    555.167    555.261    555.167
 19.870    523.000    555.423    -32.423    554.941    555.329    554.941    555.036    554.941
 19.970    553.000    555.203     -2.203    554.712    555.107    554.712    554.808    554.712
 20.070    516.148    554.980    -38.832    554.482    554.883    554.482    554.578    554.482
 20.170    555.000    554.756      0.244    554.249    554.658    554.249    554.346    554.249
 20.270    585.420    554.530     30.890    554.014    554.431    554.014    554.112    554.014
 20.370    584.000    554.302     29.698    553.777    554.203    553.777    553.876    553.777
 20.470    550.000    554.073     -4.073    553.538    553.973    553.538    553.638    553.538
 20.570    530.706    553.842    -23.137    553.297    553.741    553.297    553.398    553.297
 20.670    517.094    553.610    -36.516    553.054    553.508    553.054    553.156    553.054
 20.770    539.000    553.377    -14.377    552.809    553.274    552.809    552.912    552.809
 20.870    587.029    553.143     33.886    552.562    553.038    552.562    552.667    552.562
 20.970    542.000    552.913    -10.913    552.314    552.802    552.314    552.424    552.314
 21.070    524.130    552.678    -28.548    552.063    552.564    552.063    552.177    552.063
 21.170    503.043    552.441    -49.397    551.811    552.325    551.811    551.926    551.811
 21.270    557.000    552.202      4.798    551.557    552.086    551.557    551.673    551.557
 21.370    519.000    551.963    -32.963    551.301    551.846    551.301    551.418    551.301
 21.470    538.000    551.725    -13.725    551.043    551.606    551.043    551.162    551.043
 21.570    595.573    551.488     44.085    550.784    551.368    550.784    550.904    550.784
 21.670    568.150    551.251     16.899    550.523    551.130    550.523    550.645    550.523
 21.770    522.154    551.014    -28.860    550.261    550.891    550.261    550.384    550.261
 21.870    574.000    550.779     23.221    549.997    550.655    549.997    550.122    549.997
 21.970    546.000    550.586     -4.586    549.732    550.460    549.732    549.858    549.732
 22.070    581.000    550.353     30.647    549.465    550.226    549.465    549.592    549.465
 22.170    590.920    550.119     40.801    549.197    549.990    549.197    549.326    549.197
 22.270    519.000    549.919    -30.919    548.927    549.788    548.927    549.057    548.927
 22.370    567.656    549.758     17.898    548.656    549.626    548.656    548.788    548.656
 22.470    538.000    549.534    -11.534    548.383    549.400    548.383    548.517    548.383
 22.570    566.000    549.321     16.679    548.109    549.185    548.109    548.245    548.109
 22.670    567.000    549.145     17.855    547.834    549.008    547.834    547.972    547.834
 22.770    551.000    548.931      2.069    547.558    548.791    547.558    547.698    547.558
 22.870    554.000    548.717      5.283    547.280    548.575    547.280    547.422    547.280
 22.970    526.000    548.510    -22.510    547.001    548.366    547.001    547.145    547.001
 23.070    562.000    548.312     13.688    546.721    548.167    546.721    546.867    546.721
 23.170    587.922    548.126     39.795    546.440    547.978    546.440    546.588    546.440
 23.270    568.885    547.955     20.930    546.158    547.804    546.158    546.309    546.158
 23.370    573.000    547.802     25.198    545.874    547.649    545.874    546.028    545.874
 23.470    543.000    547.673     -4.673    545.590    547.518    545.590    545.746    545.590
 23.570    518.000    547.576    -29.576    545.305    547.418    545.305    545.463    545.305
 23.670    566.000    547.522     18.478    545.018    547.361    545.018    545.180    545.018
 23.770    551.000    547.526      3.474    544.731    547.363    544.731    544.895    544.731
 23.870    565.000    547.613     17.387    544.443    547.447    544.443    544.610    544.443
 23.970    552.000    547.826      4.174    544.154    547.658    544.154    544.324    544.154
 24.070    539.160    548.257     -9.097    543.864    548.086    543.864    544.037    543.864
 24.170    591.574    549.166     42.408    543.573    548.992    543.573    543.750    543.573
 24.270    610.000    551.270     58.730    543.281    551.094    543.281    543.462    543.281
 24.370    588.000    556.206     31.794    542.989    556.029    542.989    543.174    542.989
 24.470    590.000    566.621     23.379    542.695    566.445    542.695    542.887    542.695
 24.570    618.000    584.728     33.272    542.401    584.560    542.401    542.598    542.401
 24.670    677.000    608.793     68.207    542.107    608.639    542.107    542.308    542.107
 24.770    605.000    629.639    -24.639    541.811    629.495    541.811    542.018    541.811
 24.870    641.208    633.855      7.353    541.516    633.709    541.516    541.727    541.516
 24.970    666.513    617.607     48.906    541.219    617.445    541.219    541.436    541.219
 25.070    625.000    592.525     32.475    540.922    592.339    540.922    541.144    540.922
 25.170    559.849    570.928    -11.079    540.624    570.721    540.624    540.852    540.624
 25.270    553.000    557.199     -4.199    540.326    556.975    540.326    540.561    540.326
 25.370    568.000    550.094     17.906    540.027    549.858    540.027    540.269    540.027
 25.470    550.000    546.740      3.260    539.728    546.494    539.728    539.977    539.728
 25.570    582.748    545.059     37.689    539.428    544.805    539.428    539.685    539.428
 25.670    516.000    544.055    -28.055    539.128    543.792    539.128    539.393    539.128
 25.770    581.367    543.339     38.028    538.828    543.066    538.828    539.101    538.828
 25.870    537.000    542.776     -5.776    538.527    542.494    538.527    538.810    538.527
 25.970    528.666    542.317    -13.651    538.225    542.024    538.225    538.519    538.225
 26.070    522.800    541.935    -19.135    537.924    541.631    537.924    538.229    537.924
 26.170    567.000    541.619     25.381    537.622    541.302    537.622    537.939    537.622
 26.270    521.000    541.359    -20.359    537.320    541.029    537.320    537.650    537.320
 26.370    530.183    541.151    -10.968    537.017    540.807    537.017    537.362    537.017
 26.470    502.952    540.998    -38.046    536.715    540.638    536.715    537.075    536.715
 26.570    539.426    540.932     -1.506    536.412    540.555    536.412    536.789    536.412
 26.670    566.000    540.899     25.101    536.109    540.504    536.109    536.504    536.109
 26.770    554.088    540.920     13.168    535.806    540.504    535.806    536.221    535.806
 26.870    517.000    541.020    -24.020    535.502    540.581    535.502    535.941    535.502
 26.970    584.000    541.224     42.776    535.199    540.760    535.199    535.662    535.199
 27.070    550.000    541.546      8.454    534.895    541.054    534.895    535.386    534.895
 27.170    532.000    542.028    -10.028    534.592    541.505    534.592    535.113    534.592
 27.270    554.408    542.741     11.667    534.288    542.184    534.288    534.844    534.288
 27.370    556.000    543.760     12.240    533.984    543.163    533.984    534.580    533.984
 27.470    530.000    545.215    -15.215    533.681    544.574    533.681    534.320    533.681
 27.570    601.000    547.497     53.503    533.377    546.804    533.377    534.067    533.377
 27.670    562.000    551.828     10.172    533.074    551.077    533.074    533.821    533.074
 27.770    595.000    562.123     32.877    532.770    561.302    532.770    533.583    532.770
 27.870    597.024    588.063      8.962    532.467    587.155    532.467    533.357    532.467
 27.970    659.000    645.002     13.998    532.163    643.985    532.163    533.143    532.163
 28.070    704.000    741.938    -37.938    531.860    740.787    531.860    532.945    531.860
 28.170    829.000    857.894    -28.894    531.557    856.591    531.557    532.768    531.557
 28.270    887.223    931.466    -44.242    531.254    930.010    531.254    532.616    531.254
 28.370    969.180    908.829     60.350    530.952    907.220    530.952    532.496    530.952
 28.470    799.000    816.459    -17.459    530.649    814.657    530.649    532.420    530.649
 28.570    707.000    727.734    -20.734    530.347    725.665    530.347    532.402    530.347
 28.670    716.212    693.928     22.284    530.045    691.491    530.045    532.468    530.045
 28.770    716.000    722.415     -6.415    529.744    719.473    529.744    532.663    529.744
 28.870    797.000    783.667     13.333    529.443    780.006    529.443    533.077    529.443
 28.970    877.647    824.491     53.156    529.142    819.743    529.142    533.870    529.142
 29.070    837.152    803.896     33.255    528.841    797.420    528.841    535.315    528.841
 29.170    699.795    736.070    -36.275    528.541    726.828    528.541    537.792    528.541
 29.270    628.293    663.692    -35.399    528.241    650.227    528.241    541.716    528.241
 29.370    583.332    614.079    -30.748    527.941    594.689    527.941    547.339    527.941
 29.470    582.000    590.498     -8.498    527.642    563.759    527.642    554.384    527.642
 29.570    614.000    583.432     30.568    527.344    549.282    527.344    561.493    527.344
 29.670    626.187    581.720     44.467    527.046    542.801    527.046    565.963    527.046
 29.770    611.459    578.056     33.403    526.748    539.522    526.748    565.280    526.748
 29.870    604.004    570.751     33.254    526.451    537.508    526.451    559.692    526.451
 29.970    562.000    561.855      0.145    526.154    536.120    526.154    551.888    526.154
 30.070    568.000    553.693     14.307    525.858    535.151    525.858    544.399    525.858
 30.170    539.000    547.393     -8.393    525.562    534.544    525.562    538.409    525.562
 30.270    543.533    543.208      0.325    525.267    534.373    525.267    534.100    525.267
 30.370    573.000    541.193     31.807    524.973    534.975    524.973    531.187    524.973
