neutron_powder_diffraction_0077
R_wp: 4.595
Temperature (K): 778.853
Counts: 82693.00
Wavelength (Ã…): 2.52098
COMMENTS
Test file for demonstrating the .xyy file format in Reel1.0
END OF HEADER
   tth       Y_obs     Y_calc      Y_res    Background    Phase_1_Nuc    Phase_1_Mag    Phase_2_Nuc    Phase_2_Mag
  9.970    646.000    595.506     50.494    594.498    595.506    594.498    594.498    594.498
 10.070    563.967    596.305    -32.338    595.217    596.304    595.217    595.217    595.217
 10.170    620.000    597.100     22.900    595.922    597.100    595.922    595.922    595.922
 10.270    647.000    597.896     49.104    596.613    597.895    596.613    596.613    596.613
 10.370    660.000    598.694     61.306    597.291    598.693    597.291    597.291    597.291
 10.470    628.000    599.498     28.502    597.955    599.497    597.955    597.955    597.955
 10.570    591.474    600.313     -8.839    598.606    600.312    598.606    598.606    598.606
 10.670    666.000    601.145     64.855    599.244    601.144    599.244    599.244    599.244
 10.770    650.000    602.016     47.984    599.868    602.015    599.868    599.868    599.868
 10.870    624.730    603.047     21.683    600.479    603.046    600.479    600.479    600.479
 10.970    598.000    604.020     -6.020    601.077    604.018    601.077    601.077    601.077
 11.070    615.000    605.040      9.960    601.662    605.038    601.662    601.662    601.662
 11.170    654.000    606.159     47.841    602.235    606.157    602.235    602.235    602.235
 11.270    549.505    607.422    -57.917    602.794    607.420    602.794    602.794    602.794
 11.370    656.344    608.903     47.440    603.341    608.900    603.341    603.341    603.341
 11.470    611.253    610.740      0.513    603.876    610.736    603.876    603.876    603.876
 11.570    662.000    613.261     48.739    604.398    613.257    604.398    604.398    604.398
 11.670    655.000    617.321     37.679    604.908    617.314    604.908    604.908    604.908
 11.770    628.966    624.886      4.079    605.405    624.876    605.405    605.405    605.405
 11.870    689.000    639.436     49.564    605.890    639.417    605.890    605.890    605.890
 11.970    726.104    664.855     61.249    606.364    664.822    606.364    606.364    606.364
 12.070    642.112    701.664    -59.552    606.825    701.611    606.825    606.825    606.825
 12.170    762.000    741.139     20.861    607.275    741.064    607.275    607.275    607.275
 12.270    777.496    762.253     15.243    607.712    762.166    607.712    607.712    607.712
 12.370    732.000    748.655    -16.655    608.138    748.577    608.138    608.138    608.138
 12.470    662.000    712.296    -50.296    608.553    712.238    608.553    608.553    608.553
 12.570    694.071    674.859     19.213    608.956    674.822    608.956    608.956    608.956
 12.670    641.000    647.677     -6.677    609.348    647.656    609.348    609.348    609.348
 12.770    596.000    631.829    -35.829    609.728    631.816    609.728    609.728    609.728
 12.870    654.000    623.841     30.159    610.097    623.833    610.097    610.097    610.097
 12.970    587.000    620.027    -33.027    610.455    620.022    610.455    610.455    610.455
 13.070    636.000    618.103     17.897    610.803    618.099    610.803    610.803    610.803
 13.170    653.095    617.012     36.082    611.139    617.009    611.139    611.139    611.139
 13.270    589.000    616.336    -27.336    611.464    616.334    611.464    611.464    611.464
 13.370    650.329    615.906     34.424    611.779    615.904    611.779    611.779    611.779
 13.470    560.000    615.637    -55.637    612.083    615.635    612.083    612.083    612.083
 13.570    605.000    615.481    -10.481    612.376    615.479    612.376    612.376    612.376
 13.670    596.016    615.405    -19.389    612.659    615.404    612.659    612.659    612.659
 13.770    615.890    615.389      0.501    612.932    615.388    612.932    612.932    612.932
 13.870    574.000    615.422    -41.422    613.194    615.421    613.194    613.194    613.194
 13.970    546.000    615.501    -69.501    613.446    615.500    613.446    613.446    613.446
 14.070    580.000    615.579    -35.579    613.688    615.579    613.688    613.688    613.688
 14.170    573.158    615.671    -42.513    613.920    615.671    613.920    613.920    613.920
 14.270    604.000    615.774    -11.774    614.143    615.774    614.143    614.143    614.143
 14.370    632.008    615.884     16.124    614.355    615.884    614.355    614.355    614.355
 14.470    604.000    615.999    -11.999    614.557    615.998    614.557    614.557    614.557
 14.570    624.000    616.119      7.881    614.750    616.118    614.750    614.750    614.750
 14.670    634.533    616.237     18.295    614.933    616.237    614.933    614.933    614.933
 14.770    592.000    616.353    -24.353    615.107    616.352    615.107    615.107    615.107
 14.870    604.000    616.466    -12.466    615.272    616.466    615.272    615.272    615.272
 14.970    543.000    616.580    -73.580    615.427    616.580    615.427    615.427    615.427
 15.070    576.000    616.734    -40.734    615.572    616.733    615.572    615.572    615.572
 15.170    627.000    616.872     10.128    615.709    616.872    615.709    615.709    615.709
 15.270    600.000    616.972    -16.972    615.837    616.972    615.837    615.837    615.837
 15.370    588.000    617.068    -29.068    615.955    617.067    615.955    615.955    615.955
 15.470    599.460    617.201    -17.741    616.065    617.200    616.065    616.065    616.065
 15.570    592.694    617.304    -24.610    616.166    617.304    616.166    616.166    616.166
 15.670    626.000    617.379      8.621    616.258    617.379    616.258    616.258    616.258
 15.770    639.000    617.446     21.554    616.341    617.445    616.341    616.341    616.341
 15.870    598.000    617.506    -19.506    616.416    617.506    616.416    616.416    616.416
 15.970    573.000    617.559    -44.559    616.482    617.559    616.482    616.482    616.482
 16.070    659.489    617.606     41.883    616.540    617.605    616.540    616.540    616.540
 16.170    587.000    617.645    -30.645    616.590    617.645    616.590    616.590    616.590
 16.270    609.000    617.678     -8.678    616.631    617.678    616.631    616.631    616.631
 16.370    630.616    617.704     12.912    616.664    617.704    616.664    616.664    616.664
 16.470    598.000    617.722    -19.722    616.689    617.722    616.689    616.689    616.689
 16.570    574.575    617.734    -43.160    616.706    617.734    616.706    616.706    616.706
 16.670    602.000    617.745    -15.745    616.716    617.744    616.716    616.716    616.716
 16.770    653.931    617.759     36.172    616.717    617.759    616.717    616.717    616.717
 16.870    602.000    617.752    -15.752    616.710    617.752    616.710    616.710    616.710
 16.970    675.226    617.736     57.490    616.696    617.736    616.696    616.696    616.696
 17.070    572.580    617.715    -45.135    616.674    617.715    616.674    616.674    616.674
 17.170    582.000    617.685    -35.685    616.645    617.685    616.645    616.645    616.645
 17.270    622.000    617.649      4.351    616.608    617.649    616.608    616.608    616.608
 17.370    589.000    617.608    -28.608    616.564    617.608    616.564    616.564    616.564
 17.470    568.259    617.569    -49.311    616.512    617.569    616.512    616.512    616.512
 17.570    610.079    617.517     -7.438    616.453    617.517    616.453    616.453    616.453
 17.670    655.183    617.489     37.694    616.387    617.489    616.387    616.387    616.387
 17.770    568.147    617.453    -49.306    616.314    617.453    616.314    616.314    616.314
 17.870    558.000    617.380    -59.380    616.234    617.380    616.234    616.234    616.234
 17.970    612.000    617.298     -5.298    616.146    617.298    616.146    616.146    616.146
 18.070    612.000    617.217     -5.217    616.052    617.217    616.052    616.052    616.052
 18.170    626.000    617.144      8.856    615.952    617.143    615.952    615.952    615.952
 18.270    599.000    617.066    -18.066    615.844    617.066    615.844    615.844    615.844
 18.370    624.806    616.960      7.846    615.730    616.960    615.730    615.730    615.730
 18.470    611.000    616.847     -5.847    615.609    616.847    615.609    615.609    615.609
 18.570    585.187    616.733    -31.546    615.482    616.733    615.482    615.482    615.482
 18.670    634.000    616.661     17.339    615.348    616.660    615.348    615.348    615.348
 18.770    588.746    616.550    -27.805    615.208    616.550    615.208    615.208    615.208
 18.870    629.731    616.435     13.296    615.061    616.435    615.061    615.061    615.061
 18.970    601.000    616.300    -15.300    614.909    616.300    614.909    614.909    614.909
 19.070    598.000    616.169    -18.169    614.750    616.169    614.750    614.750    614.750
 19.170    615.000    616.027     -1.027    614.585    616.027    614.585    614.585    614.585
 19.270    621.413    615.869      5.544    614.414    615.869    614.414    614.414    614.414
 19.370    570.886    615.719    -44.833    614.237    615.719    614.237    614.237    614.237
 19.470    587.000    615.586    -28.586    614.054    615.586    614.054    614.054    614.054
 19.570    585.000    615.414    -30.414    613.866    615.414    613.866    613.866    613.866
 19.670    588.000    615.234    -27.234    613.671    615.234    613.671    613.671    613.671
 19.770    595.000    615.049    -20.049    613.471    615.049    613.471    613.471    613.471
 19.870    589.000    614.859    -25.859    613.266    614.859    613.266    613.266    613.266
 19.970    571.429    614.665    -43.236    613.055    614.665    613.055    613.055    613.055
 20.070    595.116    614.470    -19.354    612.838    614.470    612.838    612.838    612.838
 20.170    546.000    614.275    -68.275    612.616    614.275    612.616    612.616    612.616
 20.270    605.000    614.070     -9.070    612.388    614.070    612.388    612.388    612.388
 20.370    591.000    613.857    -22.857    612.156    613.857    612.156    612.156    612.156
 20.470    602.000    613.641    -11.641    611.918    613.641    611.918    611.918    611.918
 20.570    559.076    613.420    -54.345    611.675    613.420    611.675    611.675    611.675
 20.670    658.612    613.198     45.414    611.426    613.198    611.426    611.426    611.426
 20.770    576.889    612.969    -36.080    611.173    612.969    611.173    611.173    611.173
 20.870    625.000    612.739     12.261    610.915    612.739    610.915    610.915    610.915
 20.970    601.000    612.503    -11.503    610.652    612.503    610.652    610.652    610.652
 21.070    645.000    612.264     32.736    610.384    612.264    610.384    610.384    610.384
 21.170    560.578    612.020    -51.442    610.111    612.020    610.111    610.111    610.111
 21.270    587.766    611.773    -24.007    609.834    611.773    609.834    609.834    609.834
 21.370    597.261    611.523    -14.262    609.552    611.523    609.552    609.552    609.552
 21.470    584.000    611.270    -27.270    609.265    611.271    609.265    609.265    609.265
 21.570    581.000    611.015    -30.015    608.974    611.015    608.974    608.974    608.974
 21.670    622.547    610.758     11.789    608.679    610.758    608.679    608.679    608.679
 21.770    650.795    610.498     40.297    608.379    610.498    608.379    608.379    608.379
 21.870    578.025    610.237    -32.212    608.074    610.237    608.074    608.074    608.074
 21.970    598.000    609.975    -11.975    607.766    609.975    607.766    607.766    607.766
 22.070    589.000    609.712    -20.712    607.453    609.712    607.453    607.453    607.453
 22.170    599.000    609.450    -10.450    607.136    609.450    607.136    607.136    607.136
 22.270    604.627    609.187     -4.561    606.815    609.187    606.815    606.815    606.815
 22.370    633.000    608.925     24.075    606.489    608.925    606.489    606.489    606.489
 22.470    584.000    608.664    -24.664    606.160    608.664    606.160    606.160    606.160
 22.570    561.652    608.405    -46.753    605.827    608.406    605.827    605.827    605.827
 22.670    631.661    608.150     23.511    605.490    608.151    605.490    605.490    605.490
 22.770    617.000    607.900      9.100    605.150    607.901    605.150    605.150    605.150
 22.870    617.000    607.659      9.341    604.805    607.659    604.805    604.805    604.805
 22.970    608.000    607.424      0.576    604.457    607.425    604.457    604.457    604.457
 23.070    580.000    607.199    -27.199    604.105    607.200    604.105    604.105    604.105
 23.170    573.000    606.988    -33.988    603.750    606.989    603.750    603.750    603.750
 23.270    662.000    606.794     55.206    603.391    606.795    603.391    603.391    603.391
 23.370    645.000    606.623     38.377    603.028    606.624    603.028    603.028    603.028
 23.470    624.000    606.482     17.518    602.662    606.483    602.662    602.662    602.662
 23.570    599.000    606.380     -7.380    602.293    606.381    602.293    602.293    602.293
 23.670    560.000    606.332    -46.332    601.921    606.334    601.921    601.921    601.921
 23.770    565.000    606.357    -41.357    601.545    606.358    601.545    601.545    601.545
 23.870    608.000    606.476      1.524    601.166    606.477    601.166    601.166    601.166
 23.970    588.478    606.730    -18.252    600.784    606.732    600.784    600.784    600.784
 24.070    626.000    607.202     18.798    600.399    607.205    600.399    600.399    600.399
 24.170    619.000    608.073     10.927    600.011    608.077    600.011    600.011    600.011
 24.270    658.000    609.792     48.208    599.619    609.797    599.619    599.619    599.619
 24.370    612.081    613.383     -1.302    599.225    613.391    599.225    599.225    599.225
 24.470    628.507    620.711      7.796    598.828    620.725    598.828    598.828    598.828
 24.570    652.384    634.118     18.266    598.428    634.141    598.428    598.428    598.428
 24.670    702.105    654.726     47.379    598.026    654.764    598.026    598.026    598.026
 24.770    656.000    679.387    -23.387    597.620    679.443    597.620    597.620    597.620
 24.870    658.000    698.104    -40.104    597.212    698.173    597.212    597.212    597.212
 24.970    700.000    698.839      1.161    596.802    698.909    596.802    596.802    596.802
 25.070    689.000    680.737      8.263    596.389    680.795    596.389    596.389    596.389
 25.170    647.000    655.428     -8.428    595.973    655.468    595.973    595.973    595.973
 25.270    665.999    633.592     32.408    595.555    633.616    595.555    595.555    595.555
 25.370    623.000    618.936      4.064    595.134    618.949    595.134    595.134    595.134
 25.470    667.152    610.572     56.580    594.711    610.580    594.711    594.711    594.711
 25.570    653.161    606.168     46.993    594.286    606.173    594.286    594.286    594.286
 25.670    685.000    603.780     81.220    593.858    603.784    593.858    593.858    593.858
 25.770    656.684    602.316     54.368    593.428    602.319    593.428    593.428    593.428
 25.870    632.000    601.294     30.706    592.996    601.296    592.996    592.996    592.996
 25.970    662.000    600.523     61.477    592.562    600.524    592.562    592.562    592.562
 26.070    598.395    599.923     -1.528    592.126    599.924    592.126    592.126    592.126
 26.170    622.000    599.456     22.544    591.688    599.456    591.688    591.688    591.688
 26.270    656.000    599.100     56.900    591.247    599.100    591.247    591.247    591.247
 26.370    627.000    598.844     28.156    590.805    598.844    590.805    590.805    590.805
 26.470    603.111    598.686      4.425    590.361    598.686    590.361    590.361    590.361
 26.570    621.000    598.627     22.373    589.915    598.627    589.915    589.915    589.915
 26.670    647.000    598.677     48.323    589.467    598.676    589.467    589.467    589.467
 26.770    670.000    598.849     71.151    589.018    598.849    589.018    589.018    589.018
 26.870    690.000    599.167     90.833    588.566    599.166    588.566    588.566    588.566
 26.970    566.036    599.661    -33.625    588.114    599.659    588.114    588.114    588.114
 27.070    658.000    600.375     57.625    587.659    600.374    587.659    587.659    587.659
 27.170    668.000    601.374     66.626    587.203    601.372    587.203    587.203    587.203
 27.270    617.000    602.748     14.252    586.745    602.746    586.745    586.745    586.745
 27.370    677.000    604.638     72.362    586.286    604.635    586.286    586.286    586.286
 27.470    687.000    607.294     79.706    585.825    607.290    585.825    585.825    585.825
 27.570    704.000    611.245     92.755    585.363    611.240    585.363    585.363    585.363
 27.670    587.953    617.753    -29.800    584.900    617.746    584.900    584.900    584.900
 27.770    708.000    629.678     78.322    584.435    629.665    584.435    584.435    584.435
 27.870    690.000    652.434     37.566    583.969    652.413    583.969    583.969    583.969
 27.970    754.000    693.584     60.416    583.502    693.550    583.502    583.502    583.502
 28.070    789.000    758.948     30.052    583.034    758.896    583.034    583.034    583.034
 28.170    900.173    844.638     55.535    582.564    844.569    582.564    582.564    582.564
 28.270    978.248    927.494     50.754    582.093    927.419    582.093    582.093    582.093
 28.370    915.216    965.398    -50.182    581.621    965.332    581.621    581.621    581.621
 28.470    995.000    935.360     59.640    581.149    935.310    581.149    581.149    581.149
 28.570    923.000    870.580     52.420    580.675    870.544    580.675    580.675    580.675
 28.670    858.000    818.424     39.576    580.200    818.395    580.200    580.200    580.200
 28.770    892.000    802.879     89.121    579.724    802.854    579.724    579.724    579.724
 28.870    848.000    822.745     25.255    579.248    822.722    579.248    579.248    579.248
 28.970    983.000    855.889    127.111    578.770    855.874    578.770    578.770    578.770
 29.070    802.518    866.988    -64.470    578.292    866.984    578.292    578.292    578.292
 29.170    837.595    834.815      2.779    577.813    834.819    577.813    577.813    577.813
 29.270    853.000    775.198     77.802    577.333    775.204    577.333    577.333    577.333
 29.370    817.000    714.801    102.199    576.853    714.806    576.853    576.853    576.853
 29.470    697.447    667.749     29.698    576.372    667.751    576.372    576.372    576.372
 29.570    658.105    636.567     21.538    575.890    636.567    575.890    575.890    575.890
 29.670    692.000    617.991     74.009    575.408    617.990    575.408    575.408    575.408
 29.770    687.000    607.394     79.606    574.925    607.392    574.925    574.925    574.925
 29.870    687.000    601.158     85.842    574.442    601.156    574.442    574.442    574.442
 29.970    691.000    597.186     93.814    573.958    597.183    573.958    573.958    573.958
 30.070    691.000    594.482     96.518    573.474    594.479    573.474    573.474    573.474
 30.170    555.575    592.647    -37.072    572.990    592.644    572.990    572.990    572.990
 30.270    544.160    591.601    -47.441    572.505    591.597    572.505    572.505    572.505
 30.370    650.000    591.519     58.481    572.020    591.514    572.020    572.020    572.020
