neutron_powder_diffraction_0068
R_wp: 4.594
Temperature (K): 732.484
Counts: 83741.00
Wavelength (Ã…): 2.52098
COMMENTS
Test file for demonstrating the .xyy file format in Reel1.0
END OF HEADER
   tth       Y_obs     Y_calc      Y_res    Background    Phase_1_Nuc    Phase_1_Mag    Phase_2_Nuc    Phase_2_Mag
  9.970    606.000    623.839    -17.839    622.886    623.746    622.978    622.886    622.886
 10.070    706.000    624.427     81.573    623.406    624.333    623.500    623.406    623.406
 10.170    667.000    625.012     41.988    623.915    624.918    624.010    623.915    623.915
 10.270    617.246    625.597     -8.351    624.413    625.502    624.508    624.413    624.413
 10.370    657.000    626.186     30.814    624.899    626.089    624.995    624.899    624.899
 10.470    687.779    626.780     61.000    625.373    626.682    625.470    625.373    625.373
 10.570    667.000    627.381     39.619    625.836    627.282    625.934    625.836    625.836
 10.670    635.320    628.000      7.320    626.287    627.900    626.387    626.287    626.287
 10.770    665.000    628.635     36.365    626.727    628.534    626.828    626.727    626.727
 10.870    638.000    629.311      8.689    627.156    629.208    627.258    627.156    627.156
 10.970    656.000    630.131     25.869    627.574    630.027    627.677    627.574    627.574
 11.070    649.000    630.955     18.045    627.981    630.850    628.085    627.981    627.981
 11.170    675.098    631.809     43.289    628.378    631.702    628.483    628.378    628.378
 11.270    676.604    632.778     43.826    628.763    632.670    628.869    628.763    628.763
 11.370    659.639    633.924     25.714    629.138    633.814    629.245    629.138    629.138
 11.470    575.546    635.355    -59.809    629.502    635.243    629.611    629.502    629.502
 11.570    693.091    637.322     55.770    629.855    637.207    629.965    629.855    629.855
 11.670    687.000    640.522     46.478    630.198    640.405    630.310    630.198    630.198
 11.770    700.000    646.729     53.271    630.531    646.608    630.644    630.531    630.531
 11.870    642.664    659.449    -16.785    630.853    659.319    630.968    630.853    630.853
 11.970    728.000    683.176     44.824    631.166    683.032    631.281    631.166    631.166
 12.070    788.000    719.516     68.484    631.468    719.350    631.585    631.468    631.468
 12.170    708.000    760.594    -52.594    631.760    760.403    631.878    631.760    631.760
 12.270    766.000    785.229    -19.229    632.042    785.023    632.162    632.042    632.042
 12.370    783.695    774.823      8.872    632.315    774.622    632.436    632.315    632.315
 12.470    714.000    738.693    -24.693    632.577    738.510    632.700    632.577    632.577
 12.570    692.000    699.496     -7.496    632.830    699.335    632.955    632.830    632.830
 12.670    652.000    670.742    -18.742    633.074    670.595    633.200    633.074    633.074
 12.770    638.000    654.205    -16.205    633.308    654.066    633.435    633.308    633.308
 12.870    701.621    646.113     55.508    633.532    645.978    633.661    633.532    633.532
 12.970    628.000    642.377    -14.377    633.747    642.242    633.878    633.747    633.747
 13.070    633.000    640.536     -7.536    633.953    640.400    634.085    633.953    633.953
 13.170    661.697    639.475     22.222    634.150    639.339    634.284    634.150    634.150
 13.270    580.290    638.783    -58.492    634.337    638.645    634.473    634.337    634.337
 13.370    681.350    638.309     43.041    634.516    638.169    634.654    634.516    634.516
 13.470    619.000    637.980    -18.980    634.686    637.839    634.825    634.686    634.686
 13.570    688.056    637.751     50.305    634.846    637.608    634.988    634.846    634.846
 13.670    592.000    637.593    -45.593    634.998    637.449    635.141    634.998    634.998
 13.770    588.000    637.487    -49.487    635.142    637.341    635.287    635.142    635.142
 13.870    622.378    637.418    -15.039    635.276    637.270    635.423    635.276    635.276
 13.970    652.282    637.376     14.906    635.403    637.226    635.551    635.403    635.403
 14.070    647.667    637.353     10.314    635.520    637.201    635.671    635.520    635.520
 14.170    614.000    637.344    -23.344    635.630    637.190    635.783    635.630    635.630
 14.270    624.000    637.345    -13.345    635.731    637.189    635.886    635.731    635.731
 14.370    594.983    637.353    -42.370    635.823    637.195    635.981    635.823    635.823
 14.470    581.723    637.364    -55.641    635.908    637.204    636.068    635.908    635.908
 14.570    621.000    637.378    -16.378    635.985    637.216    636.147    635.985    635.985
 14.670    608.000    637.392    -29.392    636.053    637.228    636.217    636.053    636.053
 14.770    598.000    637.406    -39.406    636.114    637.239    636.281    636.114    636.114
 14.870    681.000    637.420     43.580    636.167    637.250    636.336    636.167    636.167
 14.970    638.471    637.459      1.012    636.212    637.286    636.385    636.212    636.212
 15.070    581.000    637.532    -56.532    636.249    637.355    636.426    636.249    636.249
 15.170    681.500    637.608     43.893    636.279    637.427    636.459    636.279    636.279
 15.270    587.000    637.614    -50.614    636.301    637.431    636.484    636.301    636.301
 15.370    626.000    637.609    -11.609    636.316    637.424    636.501    636.316    636.316
 15.470    584.141    637.606    -53.465    636.323    637.417    636.512    636.323    636.323
 15.570    593.206    637.592    -44.386    636.323    637.401    636.514    636.323    636.323
 15.670    648.150    637.574     10.576    636.316    637.380    636.510    636.316    636.316
 15.770    594.000    637.562    -43.562    636.302    637.365    636.499    636.302    636.302
 15.870    601.000    637.548    -36.548    636.280    637.348    636.480    636.280    636.280
 15.970    634.000    637.514     -3.514    636.252    637.311    636.455    636.252    636.252
 16.070    638.000    637.474      0.526    636.216    637.267    636.423    636.216    636.216
 16.170    662.000    637.428     24.572    636.174    637.219    636.384    636.174    636.174
 16.270    677.000    637.376     39.624    636.125    637.163    636.338    636.125    636.125
 16.370    656.000    637.318     18.682    636.069    637.102    636.285    636.069    636.069
 16.470    659.102    637.256     21.846    636.006    637.036    636.226    636.006    636.006
 16.570    623.204    637.199    -13.995    635.937    636.976    636.160    635.937    635.937
 16.670    614.000    637.126    -23.126    635.862    636.899    636.088    635.862    635.862
 16.770    683.000    637.045     45.955    635.779    636.815    636.010    635.779    635.779
 16.870    648.175    636.959     11.216    635.691    636.725    635.925    635.691    635.691
 16.970    646.000    636.868      9.132    635.596    636.629    635.834    635.596    635.596
 17.070    591.000    636.771    -45.771    635.495    636.529    635.737    635.495    635.495
 17.170    600.124    636.676    -36.552    635.387    636.429    635.634    635.387    635.387
 17.270    603.000    636.574    -33.574    635.274    636.323    635.525    635.274    635.274
 17.370    658.791    636.461     22.331    635.154    636.205    635.410    635.154    635.154
 17.470    608.000    636.342    -28.342    635.029    636.082    635.289    635.029    635.029
 17.570    599.316    636.219    -36.903    634.897    635.954    635.162    634.897    634.897
 17.670    608.000    636.098    -28.098    634.760    635.829    635.029    634.760    634.760
 17.770    572.000    635.993    -63.993    634.617    635.719    634.891    634.617    634.617
 17.870    584.643    635.885    -51.242    634.468    635.606    634.747    634.468    634.468
 17.970    620.927    635.760    -14.832    634.314    635.475    634.598    634.314    634.314
 18.070    596.177    635.613    -39.436    634.153    635.323    634.444    634.153    634.153
 18.170    594.000    635.462    -41.462    633.988    635.166    634.284    633.988    633.988
 18.270    576.000    635.307    -59.307    633.817    635.005    634.119    633.817    633.817
 18.370    638.000    635.146      2.854    633.640    634.838    633.948    633.640    633.640
 18.470    658.650    634.980     23.670    633.458    634.666    633.772    633.458    633.458
 18.570    631.000    634.809     -3.809    633.271    634.489    633.591    633.271    633.271
 18.670    604.000    634.660    -30.660    633.079    634.332    633.406    633.079    633.079
 18.770    615.000    634.530    -19.530    632.881    634.196    633.215    632.881    632.881
 18.870    685.000    634.351     50.649    632.679    634.010    633.020    632.679    632.679
 18.970    631.168    634.183     -3.015    632.471    633.835    632.819    632.471    632.471
 19.070    624.000    633.993     -9.993    632.259    633.638    632.614    632.259    632.259
 19.170    614.000    633.798    -19.798    632.041    633.435    632.404    632.041    632.041
 19.270    659.000    633.625     25.375    631.819    633.255    632.189    631.819    631.819
 19.370    599.000    633.437    -34.437    631.592    633.060    631.970    631.592    631.592
 19.470    642.158    633.228      8.930    631.360    632.842    631.746    631.360    631.360
 19.570    681.025    633.016     48.010    631.124    632.621    631.518    631.124    631.124
 19.670    607.000    632.817    -25.817    630.883    632.414    631.286    630.883    630.883
 19.770    622.449    632.605    -10.156    630.637    632.193    631.049    630.637    630.637
 19.870    634.324    632.382      1.942    630.387    631.960    630.808    630.387    630.387
 19.970    562.000    632.156    -70.156    630.132    631.725    630.564    630.132    630.132
 20.070    604.000    631.924    -27.924    629.873    631.482    630.315    629.873    629.873
 20.170    613.000    631.688    -18.688    629.610    631.236    630.062    629.610    629.610
 20.270    583.540    631.449    -47.909    629.343    630.987    629.805    629.343    629.343
 20.370    603.000    631.207    -28.207    629.071    630.734    629.544    629.071    629.071
 20.470    567.000    630.963    -63.963    628.795    630.479    629.280    628.795    628.795
 20.570    545.000    630.718    -85.718    628.516    630.221    629.012    628.516    628.516
 20.670    648.085    630.468     17.618    628.232    629.959    628.740    628.232    628.232
 20.770    590.000    630.215    -40.215    627.944    629.693    628.465    627.944    627.944
 20.870    666.041    629.960     36.082    627.652    629.425    628.187    627.652    627.652
 20.970    618.000    629.705    -11.705    627.357    629.156    627.905    627.357    627.357
 21.070    621.230    629.446     -8.216    627.057    628.884    627.620    627.057    627.057
 21.170    596.480    629.187    -32.707    626.754    628.609    627.332    626.754    626.754
 21.270    626.000    628.924     -2.924    626.447    628.331    627.040    626.447    626.447
 21.370    607.000    628.659    -21.659    626.137    628.050    626.746    626.137    626.137
 21.470    585.000    628.395    -43.395    625.823    627.769    626.449    625.823    625.823
 21.570    571.000    628.129    -57.129    625.505    627.486    626.149    625.505    625.505
 21.670    634.000    627.862      6.138    625.184    627.200    625.846    625.184    625.184
 21.770    593.864    627.594    -33.730    624.860    626.913    625.541    624.860    624.860
 21.870    658.967    627.326     31.641    624.532    626.625    625.233    624.532    624.532
 21.970    642.424    627.058     15.365    624.201    626.337    624.923    624.201    624.201
 22.070    646.000    626.791     19.209    623.866    626.048    624.610    623.866    623.866
 22.170    643.000    626.526     16.474    623.529    625.759    624.296    623.529    623.529
 22.270    574.000    626.261    -52.261    623.188    625.471    623.979    623.188    623.188
 22.370    619.000    625.999     -6.999    622.844    625.184    623.660    622.844    622.844
 22.470    629.515    625.741      3.774    622.497    624.899    623.339    622.497    622.497
 22.570    615.444    625.487    -10.043    622.148    624.617    623.017    622.148    622.148
 22.670    616.000    625.237     -9.237    621.795    624.338    622.693    621.795    621.795
 22.770    625.000    624.993      0.007    621.439    624.064    622.368    621.439    621.439
 22.870    588.000    624.756    -36.756    621.080    623.795    622.042    621.080    621.080
 22.970    615.000    624.528     -9.528    620.719    623.533    621.714    620.719    620.719
 23.070    633.000    624.313      8.687    620.355    623.282    621.386    620.355    620.355
 23.170    595.874    624.111    -28.236    619.988    623.043    621.057    619.988    619.988
 23.270    675.000    623.926     51.074    619.618    622.818    620.727    619.618    619.618
 23.370    601.000    623.763    -22.763    619.246    622.613    620.397    619.246    619.246
 23.470    616.000    623.628     -7.628    618.872    622.433    620.067    618.872    618.872
 23.570    609.000    623.530    -14.530    618.494    622.288    619.737    618.494    618.494
 23.670    642.000    623.479     18.521    618.115    622.186    619.408    618.115    618.115
 23.770    632.000    623.493      8.507    617.733    622.148    619.080    617.733    617.733
 23.870    649.183    623.586     25.597    617.348    622.184    618.752    617.348    617.348
 23.970    592.899    623.794    -30.895    616.961    622.331    618.426    616.961    616.961
 24.070    594.000    624.178    -30.178    616.572    622.651    618.101    616.572    616.572
 24.170    639.882    624.873     15.009    616.181    623.278    617.779    616.181    616.181
 24.270    580.579    626.224    -45.645    615.788    624.556    617.459    615.788    615.788
 24.370    616.000    629.065    -13.065    615.392    627.320    617.144    615.392    615.392
 24.470    632.000    635.055     -3.055    614.995    633.229    616.831    614.995    614.995
 24.570    684.000    646.577     37.423    614.595    644.668    616.523    614.595    614.595
 24.670    716.542    665.362     51.180    614.193    663.369    616.219    614.193    614.193
 24.770    671.819    689.612    -17.793    613.789    687.529    615.922    613.789    613.789
 24.870    697.000    711.043    -14.043    613.384    708.861    615.631    613.384    613.384
 24.970    731.000    716.913     14.087    612.976    714.611    615.349    612.976    612.976
 25.070    695.000    702.311     -7.311    612.567    699.863    615.075    612.567    612.567
 25.170    686.000    677.504      8.496    612.156    674.891    614.811    612.156    612.156
 25.270    685.074    654.639     30.434    611.743    651.849    614.560    611.743    611.743
 25.370    585.391    638.868    -53.477    611.329    635.890    614.322    611.329    611.329
 25.470    645.000    629.909     15.091    610.913    626.730    614.100    610.913    610.913
 25.570    689.000    625.403     63.597    610.495    622.007    613.896    610.495    610.495
 25.670    588.904    623.186    -34.282    610.076    619.551    613.713    610.076    610.076
 25.770    666.000    622.006     43.994    609.655    618.109    613.554    609.655    609.655
 25.870    675.668    621.315     54.353    609.232    617.126    613.424    609.232    609.232
 25.970    593.967    620.907    -26.941    608.809    616.391    613.327    608.809    608.809
 26.070    708.000    620.704     87.296    608.383    615.820    613.268    608.383    608.383
 26.170    638.000    620.675     17.325    607.957    615.377    613.256    607.957    607.957
 26.270    701.000    620.807     80.193    607.529    615.039    613.298    607.529    607.529
 26.370    584.609    621.101    -36.492    607.100    614.796    613.405    607.100    607.100
 26.470    672.000    621.566     50.434    606.669    614.646    613.590    606.669    606.669
 26.570    707.000    622.223     84.777    606.238    614.590    613.870    606.238    606.238
 26.670    641.668    623.099     18.569    605.805    614.636    614.267    605.805    605.805
 26.770    612.992    624.237    -11.245    605.371    614.800    614.808    605.371    605.371
 26.870    647.000    625.693     21.307    604.936    615.100    615.529    604.936    604.936
 26.970    666.000    627.545     38.455    604.500    615.566    616.478    604.500    604.500
 27.070    647.899    629.900     17.999    604.063    616.240    617.721    604.063    604.063
 27.170    702.000    632.906     69.094    603.625    617.180    619.349    603.625    603.625
 27.270    758.000    636.777    121.223    603.186    618.470    621.491    603.186    603.186
 27.370    667.814    641.840     25.974    602.746    620.238    624.344    602.746    602.746
 27.470    645.360    648.662     -3.301    602.306    622.708    628.254    602.306    602.306
 27.570    770.000    658.420    111.580    601.864    626.343    633.936    601.864    601.864
 27.670    699.155    673.829     25.325    601.422    632.203    643.039    601.422    601.422
 27.770    790.000    700.905     89.095    600.979    642.642    659.228    600.979    600.979
 27.870    698.410    750.903    -52.493    600.535    662.056    689.358    600.535    600.535
 27.970    927.000    839.688     87.312    600.091    696.645    743.093    600.091    600.091
 28.070    929.595    980.504    -50.909    599.645    751.594    828.491    599.645    599.645
 28.170   1140.445   1168.570    -28.126    599.200    825.074    942.606    599.200    599.200
 28.270   1334.080   1360.149    -26.069    598.753    900.103   1058.694    598.753    598.753
 28.370   1352.000   1465.629   -113.629    598.307    941.895   1121.948    598.307    598.307
 28.470   1372.000   1421.524    -49.524    597.859    926.015   1093.318    597.859    597.859
 28.570   1279.883   1280.941     -1.058    597.412    873.717   1004.620    597.412    597.412
 28.670   1072.000   1145.075    -73.075    596.963    825.176    916.862    596.963    596.963
 28.770   1102.000   1075.786     26.214    596.515    805.028    867.270    596.515    596.515
 28.870   1165.000   1082.056     82.944    596.066    816.419    861.696    596.066    596.066
 28.970   1162.000   1129.082     32.918    595.616    843.611    881.081    595.616    595.616
 29.070   1187.000   1152.106     34.894    595.167    857.081    890.197    595.167    595.167
 29.170   1104.000   1102.865      1.135    594.717    834.878    862.727    594.717    594.717
 29.270   1094.000    997.596     96.404    594.267    785.365    806.530    594.267    594.267
 29.370    884.705    882.629      2.076    593.816    730.942    745.534    593.816    593.816
 29.470    902.000    788.220    113.780    593.366    686.177    695.431    593.366    593.366
 29.570    796.000    722.808     73.192    592.915    655.161    660.577    592.915    592.915
 29.670    705.259    682.307     22.952    592.465    635.978    638.802    592.465    592.465
 29.770    622.604    658.602    -35.998    592.014    624.779    625.840    592.014    592.014
 29.870    736.000    644.567     91.433    591.563    618.184    617.947    591.563    591.563
 29.970    582.373    635.676    -53.303    591.112    614.050    612.738    591.112    591.112
 30.070    568.391    629.592    -61.201    590.661    611.282    608.970    590.661    590.661
 30.170    574.771    625.263    -50.492    590.210    609.411    606.061    590.210    590.210
 30.270    739.000    622.296    116.704    589.760    608.307    603.745    589.760    589.760
 30.370    573.844    620.703    -46.860    589.309    608.095    601.913    589.309    589.309
