neutron_powder_diffraction_0039
R_wp: 3.916
Temperature (K): 588.243
Counts: 84074.00
Wavelength (Ã…): 2.52098
COMMENTS
Test file for demonstrating the .xyy file format in Reel1.0
END OF HEADER
   tth       Y_obs     Y_calc      Y_res    Background    Phase_1_Nuc    Phase_1_Mag    Phase_2_Nuc    Phase_2_Mag
  9.970    661.384    697.966    -36.582    696.481    697.502    696.945    696.481    696.481
 10.070    724.000    697.055     26.945    695.483    696.587    695.951    695.483    695.483
 10.170    661.954    696.161    -34.206    694.489    695.687    694.962    694.489    694.489
 10.270    680.000    695.284    -15.284    693.500    694.805    693.978    693.500    693.500
 10.370    711.000    694.429     16.571    692.515    693.945    692.999    692.515    692.515
 10.470    686.000    693.598     -7.598    691.535    693.109    692.024    691.535    691.535
 10.570    733.000    692.797     40.203    690.559    692.302    691.053    690.559    690.559
 10.670    696.000    692.030      3.970    689.588    691.530    690.088    689.588    689.588
 10.770    726.000    691.307     34.693    688.622    690.801    689.127    688.622    688.622
 10.870    721.000    690.636     30.364    687.660    690.124    688.170    687.660    687.660
 10.970    686.567    690.033     -3.466    686.702    689.515    687.219    686.702    686.702
 11.070    741.569    689.516     52.053    685.750    688.993    686.272    685.750    685.750
 11.170    719.000    689.114     29.886    684.801    688.584    685.329    684.801    684.801
 11.270    749.000    688.867     60.133    683.857    688.331    684.391    683.857    683.857
 11.370    743.000    688.843     54.157    682.918    688.300    683.458    682.918    682.918
 11.470    699.000    689.170      9.830    681.983    688.620    682.530    681.983    681.983
 11.570    736.000    690.127     45.873    681.053    689.570    681.606    681.053    681.053
 11.670    758.000    692.347     65.653    680.127    691.782    680.686    680.127    680.127
 11.770    756.000    697.102     58.898    679.206    696.528    679.771    679.206    679.206
 11.870    760.279    706.447     53.832    678.289    705.860    678.861    678.289    678.289
 11.970    787.000    722.677     64.323    677.377    722.073    677.956    677.377    677.377
 12.070    745.321    746.583     -1.262    676.469    745.959    677.055    676.469    676.469
 12.170    864.000    774.399     89.601    675.566    773.751    676.159    675.566    675.566
 12.270    804.000    795.046      8.954    674.667    794.379    675.267    674.667    674.667
 12.370    752.165    795.344    -43.178    673.773    794.669    674.380    673.773    673.773
 12.470    760.000    774.350    -14.350    672.883    773.679    673.498    672.883    672.883
 12.570    773.377    744.775     28.601    671.997    744.113    672.620    671.997    671.997
 12.670    728.000    718.439      9.561    671.116    717.783    671.746    671.116    671.116
 12.770    660.000    699.708    -39.708    670.240    699.054    670.877    670.240    670.240
 12.870    685.550    688.052     -2.502    669.368    687.396    670.013    669.368    669.368
 12.970    631.380    681.210    -49.830    668.500    680.550    669.154    668.500    668.500
 13.070    640.000    677.072    -37.072    667.636    676.405    668.299    667.636    667.636
 13.170    613.000    674.392    -61.392    666.778    673.717    667.448    666.778    666.778
 13.270    644.000    672.271    -28.271    665.923    671.589    666.602    665.923    665.923
 13.370    710.087    670.500     39.587    665.073    669.810    665.761    665.073    665.073
 13.470    646.862    668.959    -22.097    664.227    668.261    664.924    664.227    664.227
 13.570    624.000    667.579    -43.579    663.386    666.871    664.092    663.386    663.386
 13.670    688.167    666.315     21.852    662.549    665.599    663.264    662.549    662.549
 13.770    611.000    665.141    -54.141    661.717    664.415    662.441    661.717    661.717
 13.870    679.000    664.037     14.963    660.888    663.301    661.623    660.888    660.888
 13.970    681.000    662.989     18.011    660.065    662.243    660.809    660.065    660.065
 14.070    673.000    661.981     11.019    659.245    661.226    659.999    659.245    659.245
 14.170    673.263    661.008     12.254    658.430    660.243    659.194    658.430    658.430
 14.270    642.701    660.065    -17.364    657.619    659.289    658.394    657.619    657.619
 14.370    637.000    659.147    -22.147    656.813    658.361    657.598    656.813    656.813
 14.470    611.695    658.252    -46.558    656.011    657.455    656.807    656.011    656.011
 14.570    654.000    657.375     -3.375    655.213    656.567    656.021    655.213    655.213
 14.670    643.706    656.522    -12.816    654.419    655.702    655.239    654.419    654.419
 14.770    613.976    655.695    -41.718    653.630    654.863    654.462    653.630    653.630
 14.870    616.438    654.862    -38.424    652.845    654.018    653.689    652.845    652.845
 14.970    661.000    654.039      6.961    652.065    653.183    652.920    652.065    652.065
 15.070    600.000    653.227    -53.227    651.289    652.359    652.156    651.289    651.289
 15.170    634.000    652.425    -18.425    650.517    651.544    651.397    650.517    650.517
 15.270    637.000    651.631    -14.631    649.749    650.738    650.642    649.749    649.749
 15.370    656.574    650.847      5.728    648.986    649.940    649.892    648.986    648.986
 15.470    641.000    650.070     -9.070    648.226    649.150    649.146    648.226    648.226
 15.570    639.000    649.302    -10.302    647.471    648.367    648.405    647.471    647.471
 15.670    617.000    648.540    -31.540    646.721    647.592    647.669    646.721    646.721
 15.770    603.000    647.786    -44.786    645.974    646.823    646.937    645.974    645.974
 15.870    680.719    647.038     33.680    645.232    646.061    646.209    645.232    645.232
 15.970    641.000    646.299     -5.299    644.494    645.306    645.487    644.494    644.494
 16.070    616.821    645.568    -28.747    643.760    644.560    644.768    643.760    643.760
 16.170    675.206    644.840     30.366    643.031    643.816    644.055    643.031    643.031
 16.270    620.000    644.118    -24.118    642.305    643.077    643.346    642.305    642.305
 16.370    622.000    643.401    -21.401    641.584    642.344    642.641    641.584    641.584
 16.470    621.000    642.690    -21.690    640.867    641.616    641.941    640.867    640.867
 16.570    598.000    641.985    -43.985    640.154    640.893    641.246    640.154    640.154
 16.670    604.000    641.286    -37.286    639.445    640.176    640.555    639.445    639.445
 16.770    604.000    640.592    -36.592    638.741    639.464    639.869    638.741    638.741
 16.870    654.385    639.904     14.481    638.041    638.757    639.187    638.041    638.041
 16.970    626.000    639.221    -13.221    637.344    638.055    638.511    637.344    637.344
 17.070    661.000    638.546     22.454    636.652    637.360    637.838    636.652    636.652
 17.170    662.042    637.879     24.162    635.964    636.673    637.171    635.964    635.964
 17.270    641.000    637.213      3.787    635.280    635.985    636.508    635.280    635.280
 17.370    637.000    636.552      0.448    634.601    635.303    635.849    634.601    634.601
 17.470    589.311    635.895    -46.585    633.925    634.624    635.196    633.925    633.925
 17.570    604.807    635.244    -30.438    633.253    633.951    634.547    633.253    633.253
 17.670    637.000    634.605      2.395    632.586    633.288    633.903    632.586    632.586
 17.770    639.000    634.024      4.976    631.923    632.682    633.265    631.923    631.923
 17.870    608.787    633.408    -24.621    631.263    632.041    632.630    631.263    631.263
 17.970    671.000    632.791     38.209    630.608    631.399    632.001    630.608    630.608
 18.070    659.000    632.170     26.830    629.957    630.751    631.375    629.957    629.957
 18.170    611.266    631.551    -20.285    629.310    630.106    630.755    629.310    629.310
 18.270    616.311    630.937    -14.626    628.667    629.465    630.139    628.667    628.667
 18.370    634.000    630.329      3.671    628.028    628.828    629.528    628.028    628.028
 18.470    618.164    629.726    -11.561    627.393    628.196    628.922    627.393    627.393
 18.570    646.000    629.135     16.865    626.761    627.575    628.321    626.761    626.761
 18.670    623.000    628.566     -5.566    626.134    626.975    627.725    626.134    626.134
 18.770    595.000    627.981    -32.981    625.511    626.359    627.133    625.511    625.511
 18.870    666.000    627.399     38.601    624.892    625.744    626.547    624.892    624.892
 18.970    657.000    626.823     30.177    624.277    625.134    625.965    624.277    624.277
 19.070    575.000    626.252    -51.252    623.666    624.529    625.389    623.666    623.666
 19.170    667.000    625.686     41.314    623.059    623.927    624.818    623.059    623.059
 19.270    581.570    625.127    -43.557    622.456    623.332    624.251    622.456    622.456
 19.370    619.000    624.585     -5.585    621.856    622.751    623.690    621.856    621.856
 19.470    616.000    624.037     -8.037    621.261    622.164    623.134    621.261    621.261
 19.570    611.000    623.496    -12.496    620.670    621.582    622.584    620.670    620.670
 19.670    627.098    622.982      4.116    620.082    621.020    622.044    620.082    620.082
 19.770    603.000    622.498    -19.498    619.498    620.481    621.516    619.498    619.498
 19.870    622.000    621.978      0.022    618.919    619.914    620.982    618.919    618.919
 19.970    600.683    621.459    -20.776    618.343    619.349    620.453    618.343    618.343
 20.070    659.907    620.946     38.961    617.771    618.788    619.929    617.771    617.771
 20.170    637.000    620.440     16.560    617.203    618.232    619.411    617.203    617.203
 20.270    568.000    619.946    -51.946    616.639    617.686    618.898    616.639    616.639
 20.370    658.346    619.474     38.872    616.078    617.160    618.392    616.078    616.078
 20.470    598.000    618.989    -20.989    615.522    616.620    617.891    615.522    615.522
 20.570    639.000    618.511     20.489    614.969    616.083    617.397    614.969    614.969
 20.670    635.054    618.068     16.986    614.420    615.568    616.920    614.420    614.420
 20.770    603.000    617.625    -14.625    613.875    615.059    616.441    613.875    613.875
 20.870    598.799    617.210    -18.412    613.334    614.579    615.966    613.334    613.334
 20.970    596.000    616.806    -20.806    612.796    614.107    615.496    612.796    612.796
 21.070    614.000    616.389     -2.389    612.263    613.621    615.031    612.263    612.263
 21.170    600.243    615.960    -15.717    611.733    613.119    614.574    611.733    611.733
 21.270    594.550    615.536    -20.986    611.206    612.620    614.123    611.206    611.206
 21.370    559.000    615.152    -56.152    610.684    612.157    613.680    610.684    610.684
 21.470    615.000    614.752      0.248    610.165    611.675    613.243    610.165    610.165
 21.570    600.943    614.350    -13.407    609.650    611.188    612.813    609.650    609.650
 21.670    637.720    613.958     23.762    609.139    610.707    612.390    609.139    609.139
 21.770    568.621    613.585    -44.964    608.632    610.238    611.979    608.632    608.632
 21.870    570.000    613.224    -43.224    608.128    609.780    611.573    608.128    608.128
 21.970    633.000    612.872     20.128    607.628    609.326    611.174    607.628    607.628
 22.070    577.000    612.526    -35.526    607.132    608.875    610.783    607.132    607.132
 22.170    594.273    612.187    -17.914    606.639    608.426    610.400    606.639    606.639
 22.270    565.000    611.860    -46.860    606.150    607.984    610.026    606.150    606.150
 22.370    646.000    611.547     34.453    605.664    607.550    609.661    605.664    605.664
 22.470    642.000    611.248     30.752    605.183    607.124    609.306    605.183    605.183
 22.570    658.694    610.964     47.730    604.705    606.708    608.961    604.705    604.705
 22.670    619.530    610.698      8.831    604.230    606.303    608.626    604.230    604.230
 22.770    607.000    610.451     -3.451    603.759    605.909    608.301    603.759    603.759
 22.870    580.866    610.223    -29.357    603.292    605.527    607.988    603.292    603.292
 22.970    623.000    610.018     12.982    602.828    605.160    607.687    602.828    602.828
 23.070    600.175    609.843     -9.668    602.368    604.813    607.399    602.368    602.368
 23.170    634.000    609.694     24.306    601.912    604.483    607.123    601.912    601.912
 23.270    621.982    609.573     12.409    601.459    604.172    606.861    601.459    601.459
 23.370    635.000    609.490     25.510    601.009    603.887    606.612    601.009    601.009
 23.470    655.082    609.450     45.632    600.564    603.635    606.379    600.564    600.564
 23.570    601.000    609.462     -8.462    600.121    603.422    606.162    600.121    600.121
 23.670    615.000    609.538      5.462    599.683    603.259    605.962    599.683    599.683
 23.770    598.000    609.693    -11.693    599.247    603.161    605.780    599.247    599.247
 23.870    610.000    609.948      0.052    598.816    603.147    605.618    598.816    598.816
 23.970    630.000    610.337     19.663    598.387    603.248    605.478    598.387    598.387
 24.070    642.702    610.911     31.791    597.963    603.517    605.359    597.963    597.963
 24.170    580.000    611.775    -31.775    597.541    604.056    605.263    597.541    597.541
 24.270    649.488    613.161     36.327    597.123    605.094    605.194    597.123    597.123
 24.370    600.000    615.567    -15.567    596.709    607.129    605.153    596.709    596.709
 24.470    632.000    619.944     12.056    596.298    611.110    605.142    596.298    596.298
 24.570    609.000    627.708    -18.708    595.891    618.449    605.164    595.891    595.891
 24.670    654.000    640.246     13.754    595.486    630.534    605.222    595.486    595.486
 24.770    693.000    657.675     35.325    595.086    647.477    605.320    595.086    595.086
 24.870    678.000    676.834      1.166    594.689    666.110    605.461    594.689    594.689
 24.970    720.388    689.871     30.517    594.295    678.574    605.650    594.295    594.295
 25.070    731.839    688.828     43.011    593.904    676.898    605.891    593.904    593.904
 25.170    687.000    674.747     12.253    593.517    662.120    606.191    593.517    593.517
 25.270    703.000    656.153     46.847    593.133    642.764    606.556    593.133    593.133
 25.370    678.148    640.109     38.039    592.753    625.890    606.994    592.753    592.753
 25.470    675.250    629.113     46.137    592.376    613.988    607.514    592.376    592.376
 25.570    665.758    622.755     43.003    592.002    606.639    608.126    592.002    592.002
 25.670    631.000    619.608     11.392    591.631    602.401    608.843    591.631    591.631
 25.770    682.000    618.340     63.660    591.264    599.928    609.679    591.264    591.264
 25.870    640.000    618.108     21.892    590.900    598.359    610.652    590.900    590.900
 25.970    625.000    618.490      6.510    590.540    597.250    611.781    590.540    590.540
 26.070    663.401    619.311     44.090    590.183    596.402    613.092    590.183    590.183
 26.170    597.000    620.512    -23.512    589.828    595.726    614.615    589.828    589.828
 26.270    623.133    622.085      1.048    589.478    595.176    616.386    589.478    589.478
 26.370    628.000    624.049      3.951    589.130    594.727    618.451    589.130    589.130
 26.470    640.000    626.446     13.554    588.786    594.365    620.865    588.786    588.786
 26.570    596.000    629.338    -33.338    588.445    594.080    623.700    588.445    588.445
 26.670    665.000    632.815     32.185    588.107    593.871    627.047    588.107    588.107
 26.770    672.000    636.992     35.008    587.772    593.741    631.020    587.772    587.772
 26.870    669.894    642.022     27.872    587.440    593.692    635.767    587.440    587.440
 26.970    637.000    648.112    -11.112    587.112    593.731    641.488    587.112    587.112
 27.070    632.000    655.549    -23.549    586.787    593.876    648.454    586.787    586.787
 27.170    654.000    664.728    -10.728    586.465    594.153    657.033    586.465    586.465
 27.270    702.000    676.202     25.798    586.146    594.595    667.744    586.146    586.146
 27.370    679.000    690.772    -11.772    585.830    595.253    681.338    585.830    585.830
 27.470    718.000    709.667      8.333    585.517    596.208    698.963    585.517    585.517
 27.570    770.000    735.066     34.934    585.208    597.598    722.659    585.208    585.208
 27.670    788.053    772.133     15.920    584.901    599.753    757.256    584.901    584.901
 27.770    870.000    836.343     33.657    584.598    603.661    817.239    584.598    584.598
 27.870    966.000    973.340     -7.340    584.297    612.221    945.333    584.297    584.297
 27.970   1263.000   1291.624    -28.624    584.000    632.321   1243.122    584.000    584.000
 28.070   1880.000   1971.295    -91.295    583.706    675.396   1879.245    583.706    583.706
 28.170   2942.000   3164.611   -222.611    583.415    751.126   2996.302    583.415    583.415
 28.270   4896.103   4753.859    142.244    583.126    852.098   4484.117    583.126    583.126
 28.370   6118.000   6140.441    -22.441    582.841    940.467   5782.106    582.841    582.841
 28.470   6643.000   6487.098    155.902    582.559    963.416   6105.833    582.559    582.559
 28.570   5794.000   5573.213    220.787    582.280    907.634   5247.733    582.280    582.280
 28.670   4128.122   4162.119    -33.997    582.004    822.890   3921.222    582.004    582.004
 28.770   3236.000   3128.399    107.601    581.730    766.539   2943.560    581.730    581.730
 28.870   2729.000   2831.907   -102.907    581.460    762.615   2650.666    581.460    581.460
 28.970   3083.000   3128.223    -45.223    581.193    800.219   2909.107    581.193    581.193
 29.070   3608.000   3568.103     39.897    580.928    844.219   3304.817    580.928    580.928
 29.170   3596.628   3648.490    -51.862    580.667    853.312   3375.997    580.667    580.667
 29.270   3210.000   3179.105     30.895    580.408    812.199   2947.542    580.408    580.408
 29.370   2395.000   2426.234    -31.234    580.153    745.331   2261.264    580.153    580.153
 29.470   1649.646   1730.442    -80.796    579.900    683.393   1627.092    579.900    579.900
 29.570   1208.000   1246.944    -38.944    579.650    640.359   1186.315    579.650    579.650
 29.670   1038.000    971.106     66.894    579.403    615.855    934.693    579.403    579.403
 29.770    835.000    832.096      2.904    579.159    603.569    807.703    579.159    579.159
 29.870    833.000    763.115     69.885    578.917    597.541    744.499    578.917    578.917
 29.970    668.873    724.970    -56.097    578.679    594.282    709.370    578.679    578.679
 30.070    798.000    700.338     97.662    578.443    592.263    686.519    578.443    578.443
 30.170    717.000    682.652     34.348    578.210    590.922    669.940    578.210    578.210
 30.270    651.902    669.390    -17.488    577.980    590.075    657.293    577.980    577.980
 30.370    664.000    659.476      4.524    577.752    589.717    647.508    577.752    577.752
