neutron_powder_diffraction_0045
R_wp: 3.760
Temperature (K): 617.993
Counts: 83691.00
Wavelength (Ã…): 2.52098
COMMENTS
Test file for demonstrating the .xyy file format in Reel1.0
END OF HEADER
   tth       Y_obs     Y_calc      Y_res    Background    Phase_1_Nuc    Phase_1_Mag    Phase_2_Nuc    Phase_2_Mag
  9.970    719.114    682.104     37.010    680.615    681.662    681.056    680.615    680.615
 10.070    716.953    681.493     35.460    679.915    681.047    680.361    679.915    679.915
 10.170    681.084    680.896      0.188    679.216    680.445    679.667    679.216    679.216
 10.270    727.054    680.314     46.740    678.519    679.858    678.974    678.519    678.519
 10.370    657.462    679.750    -22.287    677.822    679.289    678.282    677.822    677.822
 10.470    722.000    679.207     42.793    677.126    678.741    677.591    677.126    677.126
 10.570    684.000    678.691      5.309    676.432    678.220    676.902    676.432    676.432
 10.670    692.000    678.208     13.792    675.738    677.731    676.213    675.738    675.738
 10.770    708.000    677.765     30.235    675.045    677.283    675.526    675.045    675.045
 10.870    708.000    677.373     30.627    674.354    676.886    674.840    674.354    674.354
 10.970    724.000    677.047     46.953    673.664    676.554    674.155    673.664    673.664
 11.070    693.000    676.807     16.193    672.974    676.308    673.471    672.974    672.974
 11.170    733.000    676.682     56.318    672.286    676.178    672.789    672.286    672.286
 11.270    699.000    676.715     22.285    671.599    676.205    672.107    671.599    671.599
 11.370    690.000    676.977     13.023    670.913    676.460    671.427    670.913    670.913
 11.470    638.690    677.604    -38.914    670.229    677.080    670.749    670.229    670.229
 11.570    715.127    678.896     36.231    669.545    678.365    670.071    669.545    669.545
 11.670    689.000    681.527      7.473    668.863    680.988    669.395    668.863    668.863
 11.770    791.000    686.833    104.167    668.182    686.285    668.721    668.182    668.182
 11.870    783.000    696.943     86.057    667.502    696.382    668.047    667.502    667.502
 11.970    784.000    714.146     69.854    666.824    713.568    667.375    666.824    666.824
 12.070    731.000    739.053     -8.053    666.147    738.455    666.704    666.147    666.147
 12.170    800.000    767.436     32.564    665.471    766.814    666.035    665.471    665.471
 12.270    823.661    787.582     36.079    664.796    786.942    665.367    664.796    664.796
 12.370    790.000    786.492      3.508    664.123    785.845    664.701    664.123    664.123
 12.470    767.000    764.503      2.497    663.451    763.861    664.036    663.451    663.451
 12.570    731.000    734.787     -3.787    662.780    734.154    663.373    662.780    662.780
 12.670    683.000    708.787    -25.787    662.111    708.161    662.711    662.111    662.111
 12.770    648.000    690.517    -42.517    661.444    689.894    662.051    661.444    661.444
 12.870    685.000    679.273      5.727    660.777    678.648    661.392    660.777    660.777
 12.970    702.749    672.752     29.997    660.112    672.123    660.735    660.112    660.112
 13.070    636.000    668.853    -32.853    659.449    668.218    660.079    659.449    659.449
 13.170    707.000    666.262     40.738    658.787    665.619    659.425    658.787    658.787
 13.270    639.000    664.331    -25.331    658.126    663.682    658.773    658.126    658.126
 13.370    637.000    662.850    -25.850    657.467    662.192    658.122    657.467    657.467
 13.470    635.000    661.549    -26.549    656.810    660.883    657.474    656.810    656.810
 13.570    639.000    660.356    -21.356    656.154    659.682    656.826    656.154    656.154
 13.670    634.565    659.273    -24.708    655.499    658.591    656.181    655.499    655.499
 13.770    632.000    658.276    -26.276    654.847    657.585    655.537    654.847    654.847
 13.870    679.557    657.345     22.212    654.195    656.645    654.895    654.195    654.195
 13.970    612.000    656.466    -44.466    653.545    655.756    654.254    653.545    653.545
 14.070    620.000    655.628    -35.628    652.897    654.909    653.616    652.897    652.897
 14.170    641.034    654.838    -13.804    652.251    654.109    652.979    652.251    652.251
 14.270    614.000    654.074    -40.074    651.606    653.334    652.344    651.606    651.606
 14.370    592.000    653.320    -61.320    650.962    652.570    651.711    650.962    650.962
 14.470    666.082    652.584     13.498    650.321    651.824    651.080    650.321    650.321
 14.570    626.000    651.862    -25.862    649.681    651.092    650.451    649.681    649.681
 14.670    610.172    651.154    -40.982    649.042    650.373    649.823    649.042    649.042
 14.770    682.670    650.458     32.212    648.406    649.666    649.198    648.406    648.406
 14.870    596.000    649.772    -53.772    647.771    648.968    648.574    647.771    647.771
 14.970    651.000    649.096      1.904    647.138    648.280    647.952    647.138    647.138
 15.070    651.000    648.427      2.573    646.506    647.600    647.333    646.506    646.506
 15.170    642.000    647.766     -5.766    645.876    646.927    646.715    645.876    645.876
 15.270    600.000    647.112    -47.112    645.248    646.260    646.099    645.248    645.248
 15.370    665.000    646.464     18.536    644.622    645.599    645.486    644.622    644.622
 15.470    654.000    645.821      8.179    643.998    644.944    644.874    643.998    643.998
 15.570    622.000    645.184    -23.184    643.375    644.293    644.265    643.375    643.375
 15.670    617.000    644.552    -27.552    642.754    643.648    643.657    642.754    642.754
 15.770    619.000    643.929    -24.929    642.135    643.011    643.052    642.135    642.135
 15.870    646.093    643.306      2.787    641.518    642.374    642.449    641.518    641.518
 15.970    639.000    642.687     -3.687    640.902    641.740    641.848    640.902    640.902
 16.070    658.000    642.071     15.929    640.289    641.110    641.249    640.289    640.289
 16.170    624.000    641.460    -17.460    639.677    640.484    640.653    639.677    639.677
 16.270    629.000    640.852    -11.852    639.067    639.861    640.059    639.067    639.067
 16.370    645.000    640.248      4.752    638.459    639.241    639.467    638.459    638.459
 16.470    644.000    639.648      4.352    637.853    638.624    638.877    637.853    637.853
 16.570    668.454    639.051     29.403    637.249    638.010    638.289    637.249    637.249
 16.670    623.000    638.462    -15.462    636.647    637.404    637.704    636.647    636.647
 16.770    590.000    637.875    -47.875    636.046    636.799    637.122    636.046    636.046
 16.870    599.287    637.288    -38.001    635.448    636.194    636.541    635.448    635.448
 16.970    621.000    636.704    -15.704    634.851    635.592    635.963    634.851    634.851
 17.070    623.000    636.124    -13.124    634.257    634.993    635.388    634.257    634.257
 17.170    624.000    635.561    -11.561    633.664    634.409    634.815    633.664    633.664
 17.270    653.000    635.052     17.948    633.074    633.880    634.246    633.074    633.074
 17.370    615.000    634.487    -19.487    632.485    633.295    633.677    632.485    632.485
 17.470    673.448    633.921     39.527    631.898    632.707    633.112    631.898    631.898
 17.570    623.000    633.364    -10.364    631.314    632.128    632.549    631.314    631.314
 17.670    652.920    632.810     20.110    630.731    631.552    631.989    630.731    630.731
 17.770    580.000    632.252    -52.252    630.151    630.972    631.431    630.151    630.151
 17.870    618.000    631.697    -13.697    629.572    630.394    630.876    629.572    629.572
 17.970    623.000    631.146     -8.146    628.996    629.818    630.323    628.996    628.996
 18.070    641.000    630.600     10.400    628.421    629.247    629.774    628.421    628.421
 18.170    592.312    630.078    -37.766    627.849    628.700    629.227    627.849    627.849
 18.270    629.000    629.544     -0.544    627.279    628.139    628.683    627.279    627.279
 18.370    590.451    629.006    -38.554    626.710    627.575    628.141    626.710    626.710
 18.470    634.444    628.470      5.973    626.144    627.012    627.603    626.144    626.144
 18.570    592.000    627.939    -35.939    625.580    626.451    627.068    625.580    625.580
 18.670    617.000    627.411    -10.411    625.018    625.894    626.535    625.018    625.018
 18.770    631.163    626.890      4.273    624.459    625.343    626.006    624.459    624.459
 18.870    593.000    626.377    -33.377    623.901    624.798    625.479    623.901    623.901
 18.970    645.647    625.860     19.787    623.345    624.249    624.956    623.345    623.345
 19.070    587.666    625.346    -37.679    622.792    623.702    624.436    622.792    622.792
 19.170    597.000    624.838    -27.838    622.240    623.159    623.919    622.240    622.240
 19.270    587.000    624.367    -37.367    621.691    622.645    623.414    621.691    621.691
 19.370    600.000    623.900    -23.900    621.144    622.134    622.911    621.144    621.144
 19.470    603.000    623.405    -20.405    620.600    621.599    622.405    620.600    620.600
 19.570    636.000    622.910     13.090    620.057    621.065    621.901    620.057    620.057
 19.670    603.000    622.419    -19.419    619.516    620.534    621.401    619.516    619.516
 19.770    639.000    621.932     17.068    618.978    620.006    620.904    618.978    618.978
 19.870    586.393    621.449    -35.056    618.442    619.480    620.411    618.442    618.442
 19.970    628.000    620.973      7.027    617.908    618.959    619.922    617.908    617.908
 20.070    612.000    620.516     -8.516    617.376    618.456    619.437    617.376    617.376
 20.170    622.370    620.064      2.305    616.847    617.953    618.958    616.847    616.847
 20.270    649.837    619.637     30.200    616.320    617.466    618.491    616.320    616.320
 20.370    587.000    619.195    -32.195    615.795    616.971    618.019    615.795    615.795
 20.470    607.264    618.801    -11.537    615.272    616.523    617.550    615.272    615.272
 20.570    622.335    618.368      3.967    614.751    616.034    617.085    614.751    614.751
 20.670    590.000    617.948    -27.948    614.233    615.557    616.624    614.233    614.233
 20.770    634.000    617.514     16.486    613.717    615.064    616.167    613.717    613.717
 20.870    574.000    617.104    -43.104    613.203    614.592    615.716    613.203    613.203
 20.970    569.000    616.722    -47.722    612.692    614.145    615.269    612.692    612.692
 21.070    628.607    616.305     12.302    612.183    613.661    614.826    612.183    612.183
 21.170    637.676    615.890     21.787    611.676    613.177    614.389    611.676    611.676
 21.270    579.622    615.485    -35.862    611.171    612.698    613.957    611.171    611.171
 21.370    624.000    615.092      8.908    610.669    612.228    613.533    610.669    610.669
 21.470    599.000    614.713    -15.713    610.168    611.770    613.111    610.168    610.168
 21.570    603.000    614.331    -11.331    609.671    611.308    612.694    609.671    609.671
 21.670    615.000    613.955      1.045    609.175    610.846    612.284    609.175    609.175
 21.770    565.774    613.584    -47.810    608.682    610.387    611.879    608.682    608.682
 21.870    636.663    613.221     23.441    608.191    609.932    611.481    608.191    608.191
 21.970    591.005    612.868    -21.863    607.703    609.482    611.089    607.703    607.703
 22.070    601.577    612.525    -10.948    607.216    609.038    610.703    607.216    607.216
 22.170    622.000    612.192      9.808    606.732    608.600    610.325    606.732    606.732
 22.270    658.008    611.870     46.138    606.251    608.167    609.954    606.251    606.251
 22.370    640.000    611.560     28.440    605.772    607.741    609.590    605.772    605.772
 22.470    643.243    611.263     31.981    605.295    607.323    609.235    605.295    605.295
 22.570    600.087    610.982    -10.895    604.820    606.915    608.887    604.820    604.820
 22.670    649.128    610.716     38.412    604.348    606.515    608.549    604.348    604.348
 22.770    609.000    610.474     -1.474    603.878    606.131    608.222    603.878    603.878
 22.870    602.000    610.245     -8.245    603.411    605.753    607.902    603.411    603.411
 22.970    651.208    610.035     41.173    602.945    605.388    607.593    602.945    602.945
 23.070    587.000    609.849    -22.849    602.483    605.037    607.294    602.483    602.483
 23.170    631.000    609.690     21.310    602.022    604.705    607.007    602.022    602.022
 23.270    583.754    609.562    -25.808    601.564    604.395    606.731    601.564    601.564
 23.370    656.057    609.471     46.586    601.109    604.111    606.469    601.109    601.109
 23.470    570.000    609.423    -39.423    600.655    603.859    606.220    600.655    600.655
 23.570    645.000    609.429     35.571    600.204    603.648    605.986    600.204    600.204
 23.670    602.421    609.498     -7.076    599.756    603.487    605.767    599.756    599.756
 23.770    586.000    609.647    -23.647    599.310    603.393    605.565    599.310    599.310
 23.870    636.000    609.899     26.101    598.866    603.386    605.380    598.866    598.866
 23.970    650.000    610.288     39.712    598.425    603.499    605.215    598.425    598.425
 24.070    589.000    610.871    -21.871    597.986    603.790    605.070    597.986    597.986
 24.170    583.000    611.764    -28.764    597.549    604.370    604.947    597.549    597.549
 24.270    616.000    613.221      2.779    597.115    605.492    604.848    597.115    597.115
 24.370    666.000    615.791     50.209    596.683    607.705    604.775    596.683    596.683
 24.470    637.000    620.501     16.499    596.254    612.033    604.731    596.254    596.254
 24.570    612.402    628.828    -16.425    595.827    619.951    604.719    595.827    595.827
 24.670    658.000    642.120     15.880    595.403    632.808    604.739    595.403    595.403
 24.770    628.542    660.244    -31.702    594.980    650.464    604.797    594.980    594.980
 24.870    760.000    679.475     80.525    594.561    669.190    604.897    594.561    594.561
 24.970    692.000    691.264      0.736    594.143    680.426    605.041    594.143    594.143
 25.070    639.662    688.031    -48.369    593.729    676.581    605.236    593.729    593.729
 25.170    713.000    672.475     40.525    593.316    660.350    605.486    593.316    593.316
 25.270    623.095    653.621    -30.526    592.906    640.759    605.800    592.906    592.906
 25.370    686.000    637.955     48.045    592.499    624.291    606.183    592.499    592.499
 25.470    587.107    627.459    -40.352    592.093    612.919    606.644    592.093    592.093
 25.570    608.000    621.479    -13.479    591.691    605.981    607.195    591.691    591.691
 25.670    628.000    618.534      9.466    591.290    601.982    607.847    591.290    591.290
 25.770    649.768    617.339     32.429    590.892    599.621    608.613    590.892    590.892
 25.870    661.000    617.106     43.894    590.497    598.092    609.512    590.497    590.497
 25.970    574.890    617.451    -42.561    590.104    596.993    610.563    590.104    590.104
 26.070    629.000    618.218     10.782    589.713    596.141    611.790    589.713    589.713
 26.170    641.000    619.355     21.645    589.325    595.457    613.223    589.325    589.325
 26.270    640.000    620.856     19.144    588.939    594.896    614.898    588.939    588.939
 26.370    654.000    622.743     31.257    588.556    594.437    616.860    588.556    588.556
 26.470    650.487    625.060     25.427    588.175    594.067    619.166    588.175    588.175
 26.570    642.000    627.862     14.138    587.797    593.775    621.881    587.797    587.797
 26.670    640.000    631.239      8.761    587.421    593.561    625.095    587.421    587.421
 26.770    612.000    635.313    -23.313    587.047    593.432    628.924    587.047    587.047
 26.870    683.521    640.230     43.291    586.676    593.387    633.515    586.676    586.676
 26.970    594.673    646.204    -51.531    586.307    593.439    639.067    586.307    586.307
 27.070    705.000    653.522     51.478    585.941    593.609    645.848    585.941    585.941
 27.170    670.550    662.579      7.971    585.577    593.924    654.225    585.577    585.577
 27.270    628.403    673.935    -45.532    585.215    594.424    664.717    585.215    585.215
 27.370    691.000    688.402      2.598    584.856    595.169    678.078    584.856    584.856
 27.470    692.544    707.243    -14.698    584.500    596.250    695.479    584.500    584.500
 27.570    675.000    732.771    -57.771    584.146    597.836    719.063    584.146    584.146
 27.670    788.606    770.607     18.000    583.794    600.335    754.041    583.794    583.794
 27.770    816.144    837.208    -21.065    583.445    604.937    815.674    583.445    583.445
 27.870    997.000    978.228     18.772    583.098    614.936    946.309    583.098    583.098
 27.970   1234.000   1293.897    -59.897    582.754    637.559   1238.921    582.754    582.754
 28.070   1963.751   1934.504     29.247    582.412    683.646   1832.940    582.412    582.412
 28.170   2890.000   3001.346   -111.346    582.072    760.519   2822.365    582.072    582.072
 28.270   4255.000   4346.391    -91.391    581.735    857.575   4069.868    581.735    581.735
 28.370   5500.026   5427.583     72.443    581.400    935.906   5072.449    581.400    581.400
 28.470   5605.926   5583.287     22.639    581.068    948.177   5215.815    581.068    581.068
 28.570   4814.000   4749.140     64.860    580.738    890.468   4439.295    580.738    580.738
 28.670   3629.000   3595.896     33.104    580.411    812.415   3363.877    580.411    580.411
 28.770   2732.000   2799.897    -67.897    580.086    764.390   2615.565    580.086    580.086
 28.870   2550.000   2606.249    -56.249    579.763    764.817   2421.119    579.763    579.763
 28.970   2890.000   2865.765     24.235    579.443    800.792   2644.334    579.443    579.443
 29.070   3260.000   3193.698     66.302    579.125    838.015   2934.801    579.125    579.125
 29.170   3309.000   3192.135    116.865    578.810    839.657   2931.401    578.810    578.810
 29.270   2674.574   2754.798    -80.224    578.497    796.542   2536.931    578.497    578.497
 29.370   2027.628   2118.359    -90.731    578.186    733.030   1963.681    578.186    578.186
 29.470   1462.000   1547.200    -85.200    577.878    675.905   1449.289    577.878    577.878
 29.570   1113.241   1152.830    -39.589    577.572    636.460   1094.009    577.572    577.572
 29.670    963.000    925.472     37.528    577.269    613.754    889.020    577.269    577.269
 29.770    889.000    807.940     81.060    576.968    602.064    782.859    576.968    576.968
 29.870    787.000    747.575     39.425    576.669    596.115    728.136    576.669    576.669
 29.970    729.000    713.193     15.807    576.373    592.792    696.776    576.373    576.373
 30.070    696.364    690.646      5.717    576.079    590.694    676.032    576.079    576.079
 30.170    725.573    674.378     51.195    575.788    589.293    660.873    575.788    575.788
 30.270    629.383    662.195    -32.812    575.499    588.421    649.271    575.499    575.499
 30.370    701.000    653.189     47.811    575.213    588.099    640.299    575.213    575.213
