neutron_powder_diffraction_0242
R_wp: 4.185
Temperature (K): 987.857
Counts: 84209.00
Wavelength (Ã…): 2.52098
COMMENTS
Test file for demonstrating the .xyy file format in Reel1.0
END OF HEADER
   tth       Y_obs     Y_calc      Y_res    Background    Phase_1_Nuc    Phase_1_Mag    Phase_2_Nuc    Phase_2_Mag
  9.970    652.000    573.703     78.297    573.062    573.667    573.062    573.097    573.062
 10.070    557.202    573.833    -16.631    573.131    573.796    573.131    573.167    573.131
 10.170    614.000    573.957     40.043    573.194    573.920    573.194    573.231    573.194
 10.270    606.000    574.089     31.911    573.252    574.046    573.252    573.294    573.252
 10.370    580.000    574.229      5.771    573.303    574.178    573.303    573.354    573.303
 10.470    577.249    574.370      2.879    573.350    574.318    573.350    573.401    573.350
 10.570    617.000    574.522     42.478    573.390    574.469    573.390    573.442    573.390
 10.670    604.000    574.689     29.311    573.425    574.636    573.425    573.477    573.425
 10.770    603.000    574.878     28.122    573.455    574.825    573.455    573.507    573.455
 10.870    589.000    575.096     13.904    573.479    575.043    573.479    573.531    573.479
 10.970    530.000    575.355    -45.355    573.498    575.302    573.498    573.550    573.498
 11.070    547.605    575.671    -28.065    573.511    575.617    573.511    573.564    573.511
 11.170    538.858    576.066    -37.208    573.519    576.011    573.519    573.572    573.519
 11.270    567.000    576.578     -9.578    573.522    576.520    573.522    573.578    573.522
 11.370    598.000    577.264     20.736    573.519    577.201    573.519    573.580    573.519
 11.470    620.000    578.243     41.757    573.512    578.179    573.512    573.573    573.512
 11.570    636.000    579.855     56.145    573.499    579.790    573.499    573.561    573.499
 11.670    583.182    583.079      0.103    573.482    583.012    573.482    573.543    573.482
 11.770    587.409    590.328     -2.918    573.459    590.256    573.459    573.521    573.459
 11.870    594.740    605.837    -11.097    573.431    605.757    573.431    573.494    573.431
 11.970    638.000    633.614      4.386    573.399    633.518    573.399    573.462    573.399
 12.070    672.000    671.494      0.506    573.362    671.376    573.362    573.425    573.362
 12.170    661.346    704.651    -43.304    573.319    704.514    573.319    573.383    573.319
 12.270    696.000    710.868    -14.868    573.273    710.727    573.273    573.336    573.273
 12.370    668.000    684.469    -16.469    573.221    684.343    573.221    573.285    573.221
 12.470    693.050    645.329     47.721    573.165    645.224    573.165    573.229    573.165
 12.570    608.000    613.094     -5.094    573.104    613.007    573.104    573.169    573.104
 12.670    549.365    593.692    -44.327    573.039    593.616    573.039    573.104    573.039
 12.770    602.000    584.232     17.768    572.969    584.161    572.969    573.035    572.969
 12.870    559.000    580.024    -21.024    572.895    579.952    572.895    572.964    572.895
 12.970    553.000    577.988    -24.988    572.816    577.915    572.816    572.886    572.816
 13.070    593.000    576.781     16.219    572.733    576.707    572.733    572.805    572.733
 13.170    560.000    575.935    -15.935    572.646    575.862    572.646    572.718    572.646
 13.270    536.402    575.291    -38.889    572.555    575.217    572.555    572.627    572.555
 13.370    548.000    574.777    -26.777    572.459    574.703    572.459    572.531    572.459
 13.470    574.000    574.354     -0.354    572.359    574.279    572.359    572.432    572.359
 13.570    595.549    573.994     21.554    572.255    573.919    572.255    572.329    572.255
 13.670    619.338    573.681     45.657    572.147    573.606    572.147    572.221    572.147
 13.770    549.000    573.402    -24.402    572.035    573.326    572.035    572.109    572.035
 13.870    543.000    573.148    -30.148    571.919    573.072    571.919    571.994    571.919
 13.970    608.000    572.913     35.087    571.798    572.837    571.798    571.874    571.798
 14.070    544.000    572.693    -28.693    571.675    572.617    571.675    571.750    571.675
 14.170    558.000    572.483    -14.483    571.547    572.407    571.547    571.623    571.547
 14.270    543.000    572.282    -29.282    571.415    572.205    571.415    571.492    571.415
 14.370    535.000    572.087    -37.087    571.280    572.009    571.280    571.357    571.280
 14.470    555.000    571.896    -16.896    571.141    571.818    571.141    571.218    571.141
 14.570    562.000    571.709     -9.709    570.998    571.631    570.998    571.076    570.998
 14.670    550.000    571.526    -21.526    570.852    571.447    570.852    570.930    570.852
 14.770    543.200    571.342    -28.141    570.702    571.263    570.702    570.781    570.702
 14.870    587.963    571.159     16.804    570.548    571.079    570.548    570.628    570.548
 14.970    559.000    570.976    -11.976    570.391    570.896    570.391    570.471    570.391
 15.070    540.000    570.792    -30.792    570.231    570.712    570.231    570.311    570.231
 15.170    560.000    570.607    -10.607    570.067    570.526    570.067    570.148    570.067
 15.270    501.000    570.421    -69.421    569.900    570.339    569.900    569.981    569.900
 15.370    571.000    570.233      0.767    569.730    570.151    569.730    569.811    569.730
 15.470    557.231    570.046    -12.815    569.556    569.962    569.556    569.640    569.556
 15.570    530.000    569.855    -39.855    569.379    569.771    569.379    569.463    569.379
 15.670    555.000    569.663    -14.663    569.199    569.578    569.199    569.284    569.199
 15.770    606.999    569.469     37.530    569.015    569.383    569.015    569.101    569.015
 15.870    585.296    569.273     16.023    568.829    569.187    568.829    568.915    568.829
 15.970    532.016    569.074    -37.059    568.639    568.988    568.639    568.726    568.639
 16.070    553.000    568.874    -15.874    568.447    568.787    568.447    568.534    568.447
 16.170    531.000    568.672    -37.672    568.251    568.584    568.251    568.339    568.251
 16.270    510.000    568.467    -58.467    568.053    568.379    568.053    568.141    568.053
 16.370    546.000    568.260    -22.260    567.851    568.171    567.851    567.940    567.851
 16.470    520.929    568.051    -47.122    567.647    567.962    567.647    567.736    567.647
 16.570    548.000    567.840    -19.840    567.440    567.750    567.440    567.530    567.440
 16.670    560.000    567.626     -7.626    567.230    567.536    567.230    567.320    567.230
 16.770    583.000    567.410     15.590    567.017    567.319    567.017    567.108    567.017
 16.870    593.802    567.192     26.610    566.802    567.101    566.802    566.893    566.802
 16.970    557.000    566.972     -9.972    566.584    566.880    566.584    566.676    566.584
 17.070    585.000    566.749     18.251    566.363    566.657    566.363    566.456    566.363
 17.170    552.000    566.525    -14.525    566.140    566.432    566.140    566.233    566.140
 17.270    528.552    566.299    -37.747    565.914    566.205    565.914    566.008    565.914
 17.370    539.384    566.072    -26.687    565.686    565.977    565.686    565.780    565.686
 17.470    555.000    565.841    -10.841    565.455    565.746    565.455    565.550    565.455
 17.570    535.459    565.608    -30.149    565.222    565.512    565.222    565.318    565.222
 17.670    556.000    565.373     -9.373    564.986    565.276    564.986    565.083    564.986
 17.770    559.756    565.135     -5.379    564.748    565.038    564.748    564.845    564.748
 17.870    550.000    564.896    -14.896    564.508    564.798    564.508    564.606    564.508
 17.970    592.000    564.661     27.339    564.265    564.556    564.265    564.371    564.265
 18.070    559.183    564.419     -5.236    564.020    564.312    564.020    564.127    564.020
 18.170    519.000    564.173    -45.173    563.773    564.066    563.773    563.881    563.773
 18.270    586.000    563.926     22.074    563.524    563.818    563.524    563.632    563.524
 18.370    536.035    563.677    -27.642    563.272    563.568    563.272    563.381    563.272
 18.470    516.282    563.426    -47.144    563.019    563.316    563.019    563.129    563.019
 18.570    598.145    563.174     34.972    562.763    563.063    562.763    562.874    562.763
 18.670    589.172    562.919     26.253    562.505    562.807    562.505    562.617    562.505
 18.770    545.029    562.663    -17.634    562.245    562.550    562.245    562.358    562.245
 18.870    587.190    562.405     24.785    561.984    562.292    561.984    562.097    561.984
 18.970    607.000    562.147     44.853    561.720    562.033    561.720    561.834    561.720
 19.070    538.814    561.887    -23.072    561.455    561.771    561.455    561.570    561.455
 19.170    562.000    561.624      0.376    561.187    561.508    561.187    561.303    561.187
 19.270    577.000    561.360     15.640    560.918    561.243    560.918    561.035    560.918
 19.370    595.000    561.094     33.906    560.647    560.976    560.647    560.765    560.647
 19.470    552.000    560.827     -8.827    560.374    560.708    560.374    560.493    560.374
 19.570    540.000    560.559    -20.559    560.100    560.439    560.100    560.219    560.100
 19.670    588.741    560.289     28.452    559.823    560.168    559.823    559.944    559.823
 19.770    545.000    560.021    -15.021    559.545    559.899    559.545    559.667    559.545
 19.870    570.000    559.769     10.231    559.266    559.646    559.266    559.389    559.266
 19.970    539.112    559.497    -20.385    558.985    559.373    558.985    559.109    558.985
 20.070    512.341    559.223    -46.882    558.702    559.098    558.702    558.827    558.702
 20.170    568.000    558.947      9.053    558.418    558.821    558.418    558.544    558.418
 20.270    558.000    558.670     -0.670    558.132    558.543    558.132    558.259    558.132
 20.370    543.000    558.393    -15.393    557.845    558.264    557.845    557.973    557.845
 20.470    546.587    558.114    -11.527    557.556    557.984    557.556    557.686    557.556
 20.570    561.000    557.835      3.165    557.266    557.704    557.266    557.397    557.266
 20.670    554.661    557.554     -2.894    556.975    557.422    556.975    557.107    556.975
 20.770    577.442    557.273     20.168    556.682    557.140    556.682    556.816    556.682
 20.870    536.000    556.992    -20.992    556.388    556.857    556.388    556.523    556.388
 20.970    600.193    556.710     43.483    556.093    556.574    556.093    556.229    556.093
 21.070    585.608    556.427     29.181    555.796    556.290    555.796    555.934    555.796
 21.170    560.000    556.145      3.855    555.498    556.005    555.498    555.637    555.498
 21.270    522.439    555.862    -33.423    555.199    555.721    555.199    555.340    555.199
 21.370    580.898    555.578     25.319    554.899    555.436    554.899    555.041    554.899
 21.470    569.000    555.295     13.705    554.598    555.152    554.598    554.741    554.598
 21.570    551.000    555.013     -4.013    554.295    554.867    554.295    554.440    554.295
 21.670    556.000    554.730      1.270    553.992    554.583    553.992    554.139    553.992
 21.770    577.000    554.448     22.552    553.687    554.299    553.687    553.836    553.687
 21.870    521.000    554.167    -33.167    553.382    554.016    553.382    553.532    553.382
 21.970    552.848    553.887     -1.039    553.075    553.734    553.075    553.227    553.075
 22.070    574.871    553.609     21.262    552.767    553.454    552.767    552.922    552.767
 22.170    516.869    553.345    -36.476    552.459    553.185    552.459    552.619    552.459
 22.270    550.000    553.121     -3.121    552.150    552.959    552.150    552.312    552.150
 22.370    598.801    552.916     45.886    551.840    552.752    551.840    552.004    551.840
 22.470    564.000    552.690     11.310    551.529    552.524    551.529    551.695    551.529
 22.570    565.373    552.428     12.944    551.217    552.260    551.217    551.385    551.217
 22.670    578.000    552.169     25.831    550.904    551.998    550.904    551.075    550.904
 22.770    541.000    551.936    -10.936    550.591    551.763    550.591    550.764    550.591
 22.870    581.218    551.731     29.487    550.277    551.556    550.277    550.452    550.277
 22.970    539.000    551.495    -12.495    549.962    551.317    549.962    550.140    549.962
 23.070    531.906    551.264    -19.358    549.646    551.083    549.646    549.827    549.646
 23.170    517.915    551.045    -33.130    549.330    550.862    549.330    549.514    549.330
 23.270    567.000    550.842     16.158    549.013    550.656    549.013    549.200    549.013
 23.370    524.078    550.659    -26.582    548.696    550.470    548.696    548.886    548.696
 23.470    581.171    550.502     30.669    548.378    550.310    548.378    548.571    548.378
 23.570    598.000    550.379     47.621    548.060    550.183    548.060    548.256    548.060
 23.670    543.867    550.300     -6.433    547.741    550.102    547.741    547.940    547.741
 23.770    587.000    550.284     36.716    547.421    550.082    547.421    547.624    547.421
 23.870    505.622    550.355    -44.733    547.101    550.150    547.101    547.308    547.101
 23.970    542.181    550.558     -8.377    546.781    550.349    546.781    546.992    546.781
 24.070    536.000    550.995    -14.995    546.460    550.783    546.460    546.675    546.460
 24.170    590.000    551.943     38.057    546.139    551.727    546.139    546.358    546.139
 24.270    559.588    554.159      5.429    545.817    553.940    545.817    546.041    545.817
 24.370    597.000    559.332     37.668    545.495    559.112    545.495    545.724    545.495
 24.470    578.841    570.099      8.742    545.173    569.883    545.173    545.407    545.173
 24.570    602.132    588.496     13.636    544.851    588.287    544.851    545.089    544.851
 24.670    648.000    612.389     35.611    544.528    612.193    544.528    544.772    544.528
 24.770    677.385    632.165     45.221    544.205    631.977    544.205    544.455    544.205
 24.870    629.701    634.760     -5.060    543.882    634.569    543.882    544.138    543.882
 24.970    631.000    617.694     13.306    543.558    617.484    543.558    543.821    543.558
 25.070    574.135    592.895    -18.760    543.234    592.660    543.234    543.504    543.234
 25.170    569.000    572.024     -3.024    542.911    571.767    542.911    543.188    542.911
 25.270    569.905    558.909     10.997    542.587    558.634    542.587    542.872    542.587
 25.370    560.000    552.123      7.877    542.263    551.835    542.263    542.556    542.263
 25.470    569.000    548.894     20.106    541.939    548.595    541.939    542.241    541.939
 25.570    562.000    547.242     14.758    541.614    546.932    541.614    541.926    541.614
 25.670    537.060    546.205     -9.145    541.290    545.885    541.290    541.612    541.290
 25.770    581.536    545.450     36.086    540.966    545.119    540.966    541.299    540.966
 25.870    583.000    544.851     38.149    540.642    544.508    540.642    540.986    540.642
 25.970    540.105    544.363     -4.258    540.318    544.007    540.318    540.675    540.318
 26.070    551.000    543.957      7.043    539.994    543.587    539.994    540.364    539.994
 26.170    505.000    543.612    -38.612    539.669    543.227    539.669    540.055    539.669
 26.270    543.000    543.322     -0.322    539.346    542.921    539.346    539.747    539.346
 26.370    546.000    543.083      2.917    539.022    542.665    539.022    539.440    539.022
 26.470    562.000    542.895     19.105    538.698    542.457    538.698    539.136    538.698
 26.570    612.000    542.764     69.236    538.374    542.306    538.374    538.833    538.374
 26.670    548.495    542.747      5.748    538.051    542.266    538.051    538.532    538.051
 26.770    559.000    542.741     16.259    537.728    542.235    537.728    538.234    537.728
 26.870    540.003    542.802     -2.799    537.405    542.269    537.405    537.938    537.405
 26.970    576.000    542.957     33.043    537.082    542.393    537.082    537.646    537.082
 27.070    533.000    543.232    -10.232    536.760    542.633    536.760    537.357    536.760
 27.170    508.094    543.666    -35.572    536.437    543.030    536.437    537.073    536.437
 27.270    542.407    544.301     -1.894    536.116    543.623    536.116    536.793    536.116
 27.370    586.757    545.226     41.530    535.794    544.500    535.794    536.519    535.794
 27.470    589.000    546.605     42.395    535.473    545.825    535.473    536.251    535.473
 27.570    550.592    548.769      1.823    535.152    547.927    535.152    535.991    535.152
 27.670    583.635    552.927     30.708    534.831    552.013    534.831    535.741    534.831
 27.770    524.000    563.157    -39.157    534.511    562.159    534.511    535.501    534.511
 27.870    645.000    589.851     55.149    534.191    588.750    534.191    535.275    534.191
 27.970    677.000    649.878     27.122    533.872    648.648    533.872    535.064    533.872
 28.070    776.585    753.110     23.475    533.553    751.720    533.553    534.874    533.553
 28.170    910.000    875.781     34.219    533.235    874.211    533.235    534.708    533.235
 28.270    937.000    950.190    -13.190    532.917    948.436    532.917    534.573    532.917
 28.370    991.000    920.256     70.744    532.600    918.312    532.600    534.478    532.600
 28.470    835.000    819.194     15.806    532.283    817.012    532.283    534.435    532.283
 28.570    684.437    726.604    -42.167    531.966    724.093    531.966    534.465    531.966
 28.670    691.926    694.749     -2.823    531.651    691.785    531.651    534.602    531.651
 28.770    728.000    728.539     -0.539    531.335    724.949    531.335    534.903    531.335
 28.870    842.440    794.650     47.789    531.021    790.171    531.021    535.473    531.021
 28.970    867.000    836.085     30.915    530.707    830.291    530.707    536.481    530.707
 29.070    803.029    811.285     -8.256    530.393    803.503    530.393    538.174    530.393
 29.170    690.887    738.674    -47.787    530.081    727.910    530.081    540.854    530.081
 29.270    669.275    663.824      5.451    529.769    648.800    529.769    544.803    529.769
 29.370    602.000    613.805    -11.805    529.457    593.145    529.457    550.124    529.457
 29.470    651.000    590.395     60.605    529.147    563.100    529.147    556.443    529.147
 29.570    598.000    583.084     14.916    528.837    549.440    528.837    562.479    528.837
 29.670    607.000    580.848     26.152    528.527    543.421    528.527    565.952    528.527
 29.770    547.973    577.120    -29.147    528.219    540.362    528.219    564.974    528.219
 29.870    552.676    570.493    -17.816    527.911    538.461    527.911    559.940    527.911
 29.970    537.631    562.585    -24.955    527.604    537.139    527.604    553.047    527.604
 30.070    553.999    555.242     -1.243    527.298    536.214    527.298    546.323    527.298
 30.170    526.622    549.406    -22.784    526.992    535.639    526.992    540.757    526.992
 30.270    567.766    545.365     22.401    526.688    535.491    526.688    536.559    526.688
 30.370    576.000    543.308     32.692    526.384    536.128    526.384    533.560    526.384
