neutron_powder_diffraction_0141
R_wp: 4.114
Temperature (K): 1074.000
Counts: 83688.00
Wavelength (Ã…): 2.52098
COMMENTS
Test file for demonstrating the .xyy file format in Reel1.0
END OF HEADER
   tth       Y_obs     Y_calc      Y_res    Background    Phase_1_Nuc    Phase_1_Mag    Phase_2_Nuc    Phase_2_Mag
  9.970    583.238    581.313      1.925    580.487    581.264    580.487    580.536    580.487
 10.070    581.000    581.283     -0.283    580.390    581.233    580.390    580.439    580.390
 10.170    579.418    581.258     -1.840    580.288    581.208    580.288    580.337    580.288
 10.270    559.672    581.242    -21.570    580.182    581.192    580.182    580.231    580.182
 10.370    603.000    581.238     21.762    580.072    581.188    580.072    580.122    580.072
 10.470    546.846    581.245    -34.399    579.958    581.195    579.958    580.008    579.958
 10.570    573.000    581.271     -8.271    579.841    581.220    579.841    579.891    579.841
 10.670    622.000    581.320     40.680    579.719    581.269    579.719    579.769    579.719
 10.770    568.074    581.401    -13.327    579.594    581.349    579.594    579.644    579.594
 10.870    603.000    581.523     21.477    579.465    581.471    579.465    579.516    579.465
 10.970    585.101    581.702      3.399    579.332    581.650    579.332    579.383    579.332
 11.070    528.000    581.958    -53.958    579.196    581.905    579.196    579.247    579.196
 11.170    614.455    582.320     32.135    579.055    582.267    579.055    579.107    579.055
 11.270    610.000    582.837     27.163    578.912    582.783    578.912    578.963    578.912
 11.370    562.000    583.592    -21.592    578.764    583.537    578.764    578.816    578.764
 11.470    635.000    584.774     50.226    578.614    584.718    578.614    578.666    578.614
 11.570    614.000    586.885     27.115    578.459    586.828    578.459    578.512    578.459
 11.670    644.000    591.211     52.789    578.302    591.151    578.302    578.354    578.302
 11.770    607.000    600.402      6.598    578.141    600.336    578.141    578.193    578.141
 11.870    639.215    618.242     20.973    577.976    618.167    577.976    578.029    577.976
 11.970    628.000    647.129    -19.129    577.808    647.037    577.808    577.862    577.808
 12.070    645.653    682.918    -37.265    577.637    682.806    577.637    577.691    577.637
 12.170    697.000    710.439    -13.439    577.463    710.311    577.463    577.517    577.463
 12.270    757.094    711.155     45.939    577.286    711.026    577.286    577.340    577.286
 12.370    661.245    684.292    -23.047    577.105    684.178    577.105    577.159    577.105
 12.470    614.680    648.048    -33.367    576.921    647.953    576.921    576.976    576.921
 12.570    636.000    618.227     17.773    576.734    618.149    576.734    576.789    576.734
 12.670    578.920    599.480    -20.559    576.545    599.412    576.545    576.600    576.545
 12.770    609.000    589.595     19.405    576.352    589.529    576.352    576.411    576.352
 12.870    601.000    584.755     16.245    576.156    584.690    576.156    576.216    576.156
 12.970    624.945    582.225     42.720    575.957    582.161    575.957    576.018    575.957
 13.070    584.621    580.664      3.956    575.756    580.601    575.756    575.817    575.756
 13.170    606.124    579.545     26.579    575.551    579.482    575.551    575.612    575.551
 13.270    571.000    578.674     -7.674    575.344    578.610    575.344    575.406    575.344
 13.370    585.014    577.958      7.056    575.134    577.895    575.134    575.196    575.134
 13.470    564.000    577.352    -13.352    574.921    577.288    574.921    574.983    574.921
 13.570    589.000    576.824     12.176    574.706    576.760    574.706    574.768    574.706
 13.670    537.000    576.354    -39.354    574.488    576.290    574.488    574.550    574.488
 13.770    566.930    575.928     -8.999    574.267    575.864    574.267    574.330    574.267
 13.870    589.000    575.535     13.465    574.043    575.471    574.043    574.107    574.043
 13.970    566.226    575.168     -8.942    573.818    575.103    573.818    573.881    573.818
 14.070    577.000    574.820      2.180    573.589    574.755    573.589    573.653    573.589
 14.170    555.152    574.488    -19.336    573.358    574.423    573.358    573.423    573.358
 14.270    537.000    574.168    -37.168    573.125    574.102    573.125    573.190    573.125
 14.370    530.831    573.857    -43.026    572.889    573.792    572.889    572.954    572.889
 14.470    573.092    573.554     -0.462    572.651    573.488    572.651    572.717    572.651
 14.570    571.000    573.257     -2.257    572.411    573.191    572.411    572.477    572.411
 14.670    581.000    572.965      8.035    572.168    572.899    572.168    572.234    572.168
 14.770    572.000    572.676     -0.676    571.923    572.610    571.923    571.990    571.923
 14.870    537.327    572.391    -35.063    571.676    572.324    571.676    571.743    571.676
 14.970    593.126    572.107     21.019    571.427    572.040    571.427    571.494    571.427
 15.070    527.000    571.825    -44.825    571.175    571.757    571.175    571.243    571.175
 15.170    567.000    571.544     -4.544    570.921    571.476    570.921    570.989    570.921
 15.270    616.248    571.264     44.984    570.666    571.196    570.666    570.734    570.666
 15.370    622.000    570.985     51.015    570.408    570.916    570.408    570.476    570.408
 15.470    566.000    570.706     -4.706    570.148    570.636    570.148    570.217    570.148
 15.570    540.000    570.429    -30.429    569.886    570.359    569.886    569.956    569.886
 15.670    556.000    570.150    -14.150    569.622    570.080    569.622    569.692    569.622
 15.770    530.691    569.870    -39.179    569.357    569.800    569.357    569.427    569.357
 15.870    597.910    569.591     28.320    569.089    569.520    569.089    569.160    569.089
 15.970    603.320    569.311     34.009    568.819    569.240    568.819    568.890    568.819
 16.070    554.744    569.029    -14.285    568.548    568.958    568.548    568.620    568.548
 16.170    520.513    568.747    -48.234    568.275    568.675    568.275    568.347    568.275
 16.270    511.000    568.464    -57.464    568.000    568.391    568.000    568.072    568.000
 16.370    524.369    568.180    -43.810    567.724    568.107    567.724    567.796    567.724
 16.470    608.442    567.895     40.547    567.445    567.821    567.445    567.518    567.445
 16.570    516.000    567.609    -51.609    567.165    567.535    567.165    567.239    567.165
 16.670    602.000    567.322     34.678    566.884    567.248    566.884    566.958    566.884
 16.770    539.470    567.034    -27.564    566.600    566.960    566.600    566.675    566.600
 16.870    551.000    566.746    -15.746    566.316    566.671    566.316    566.391    566.316
 16.970    586.000    566.456     19.544    566.029    566.381    566.029    566.105    566.029
 17.070    541.000    566.166    -25.166    565.741    566.090    565.741    565.817    565.741
 17.170    534.000    565.874    -31.874    565.452    565.798    565.452    565.528    565.452
 17.270    569.000    565.581      3.419    565.161    565.504    565.161    565.238    565.161
 17.370    503.000    565.287    -62.287    564.869    565.210    564.869    564.946    564.869
 17.470    581.000    564.993     16.007    564.575    564.915    564.575    564.653    564.575
 17.570    602.384    564.697     37.687    564.280    564.619    564.280    564.359    564.280
 17.670    553.000    564.402    -11.402    563.984    564.323    563.984    564.063    563.984
 17.770    545.886    564.119    -18.233    563.687    564.039    563.687    563.766    563.687
 17.870    570.000    563.831      6.169    563.388    563.751    563.388    563.468    563.388
 17.970    584.000    563.533     20.467    563.088    563.452    563.088    563.168    563.088
 18.070    594.000    563.233     30.767    562.786    563.151    562.786    562.868    562.786
 18.170    592.000    562.933     29.067    562.484    562.850    562.484    562.567    562.484
 18.270    575.014    562.632     12.381    562.180    562.548    562.180    562.265    562.180
 18.370    573.056    562.330     10.726    561.875    562.245    561.875    561.961    561.875
 18.470    541.000    562.027    -21.027    561.569    561.941    561.569    561.655    561.569
 18.570    550.000    561.723    -11.723    561.262    561.636    561.262    561.349    561.262
 18.670    534.000    561.418    -27.418    560.954    561.331    560.954    561.041    560.954
 18.770    519.000    561.112    -42.112    560.645    561.024    560.645    560.733    560.645
 18.870    548.389    560.807    -12.418    560.335    560.719    560.335    560.424    560.335
 18.970    590.790    560.503     30.287    560.024    560.414    560.024    560.113    560.024
 19.070    572.000    560.196     11.804    559.712    560.107    559.712    559.802    559.712
 19.170    516.000    559.888    -43.888    559.399    559.798    559.399    559.490    559.399
 19.270    594.000    559.580     34.420    559.086    559.489    559.086    559.177    559.086
 19.370    537.000    559.271    -22.271    558.771    559.179    558.771    558.863    558.771
 19.470    540.000    558.962    -18.962    558.456    558.869    558.456    558.548    558.456
 19.570    509.126    558.652    -49.526    558.139    558.559    558.139    558.233    558.139
 19.670    579.988    558.342     21.646    557.822    558.248    557.822    557.917    557.822
 19.770    553.000    558.034     -5.034    557.505    557.939    557.505    557.600    557.505
 19.870    557.000    557.727     -0.727    557.186    557.631    557.186    557.282    557.186
 19.970    592.000    557.425     34.575    556.867    557.328    556.867    556.964    556.867
 20.070    548.000    557.199     -9.199    556.547    557.102    556.547    556.645    556.547
 20.170    527.919    556.910    -28.991    556.227    556.812    556.227    556.325    556.227
 20.270    586.000    556.601     29.399    555.905    556.501    555.905    556.005    555.905
 20.370    539.969    556.290    -16.321    555.584    556.190    555.584    555.684    555.584
 20.470    595.795    555.979     39.816    555.261    555.878    555.261    555.363    555.261
 20.570    565.000    555.668      9.332    554.939    555.566    554.939    555.041    554.939
 20.670    519.000    555.357    -36.357    554.615    555.254    554.615    554.718    554.615
 20.770    575.801    555.047     20.753    554.291    554.943    554.291    554.395    554.291
 20.870    563.541    554.739      8.803    553.967    554.634    553.967    554.072    553.967
 20.970    574.373    554.429     19.943    553.642    554.323    553.642    553.748    553.642
 21.070    552.000    554.121     -2.121    553.317    554.014    553.317    553.424    553.317
 21.170    524.000    553.813    -29.813    552.991    553.705    552.991    553.100    552.991
 21.270    518.007    553.506    -35.499    552.665    553.396    552.665    552.775    552.665
 21.370    569.181    553.199     15.982    552.339    553.089    552.339    552.450    552.339
 21.470    563.153    552.894     10.259    552.012    552.782    552.012    552.124    552.012
 21.570    538.000    552.594    -14.594    551.685    552.481    551.685    551.798    551.685
 21.670    551.000    552.339     -1.339    551.358    552.224    551.358    551.472    551.358
 21.770    572.000    552.059     19.941    551.030    551.943    551.030    551.146    551.030
 21.870    562.000    551.782     10.218    550.702    551.665    550.702    550.820    550.702
 21.970    576.000    551.513     24.487    550.374    551.395    550.374    550.493    550.374
 22.070    535.000    551.222    -16.222    550.046    551.103    550.046    550.166    550.046
 22.170    503.000    550.932    -47.932    549.718    550.811    549.718    549.839    549.718
 22.270    529.982    550.646    -20.664    549.389    550.523    549.389    549.512    549.389
 22.370    593.000    550.363     42.637    549.060    550.239    549.060    549.185    549.060
 22.470    538.000    550.086    -12.086    548.732    549.960    548.732    548.858    548.732
 22.570    542.000    549.814     -7.814    548.403    549.686    548.403    548.531    548.403
 22.670    518.000    549.548    -31.548    548.074    549.419    548.074    548.204    548.074
 22.770    561.972    549.291     12.682    547.745    549.160    547.745    547.876    547.745
 22.870    528.000    549.043    -21.043    547.416    548.910    547.416    547.549    547.416
 22.970    506.426    548.807    -42.381    547.087    548.672    547.087    547.222    547.087
 23.070    531.000    548.584    -17.584    546.758    548.447    546.758    546.895    546.758
 23.170    525.272    548.379    -23.107    546.429    548.240    546.429    546.568    546.429
 23.270    590.068    548.197     41.871    546.100    548.056    546.100    546.242    546.100
 23.370    512.574    548.052    -35.478    545.771    547.909    545.771    545.915    545.771
 23.470    507.000    547.949    -40.949    545.442    547.803    545.442    545.589    545.442
 23.570    563.000    547.878     15.122    545.113    547.730    545.113    545.263    545.113
 23.670    534.256    547.875    -13.620    544.785    547.725    544.785    544.937    544.785
 23.770    569.000    547.953     21.047    544.457    547.800    544.457    544.611    544.457
 23.870    525.000    548.153    -23.153    544.128    547.998    544.128    544.286    544.128
 23.970    564.000    548.553     15.447    543.800    548.395    543.800    543.961    543.800
 24.070    533.725    549.336    -15.611    543.473    549.176    543.473    543.636    543.473
 24.170    559.000    550.970      8.030    543.145    550.808    543.145    543.312    543.145
 24.270    514.222    554.514    -40.292    542.818    554.351    542.818    542.988    542.818
 24.370    591.000    561.819     29.181    542.491    561.658    542.491    542.665    542.491
 24.470    549.272    575.015    -25.744    542.164    574.860    542.164    542.342    542.164
 24.570    593.000    594.545     -1.545    541.838    594.400    541.838    542.019    541.838
 24.670    589.000    616.414    -27.414    541.511    616.281    541.511    541.698    541.511
 24.770    590.838    630.462    -39.624    541.186    630.334    541.186    541.376    541.186
 24.870    607.685    627.002    -19.317    540.860    626.868    540.860    541.056    540.860
 24.970    652.822    608.621     44.202    540.535    608.468    540.535    540.736    540.535
 25.070    573.000    586.301    -13.301    540.211    586.127    540.211    540.416    540.211
 25.170    602.000    568.190     33.810    539.887    567.998    539.887    540.098    539.887
 25.270    536.059    556.543    -20.484    539.563    556.337    539.563    539.780    539.563
 25.370    547.000    550.132     -3.132    539.239    549.915    539.239    539.463    539.239
 25.470    604.000    546.813     57.187    538.917    546.586    538.917    539.147    538.917
 25.570    560.000    544.980     15.020    538.594    544.745    538.594    538.832    538.594
 25.670    584.000    543.813     40.187    538.272    543.570    538.272    538.518    538.272
 25.770    558.000    542.965     15.035    537.951    542.713    537.951    538.205    537.951
 25.870    592.955    542.308     50.647    537.630    542.047    537.630    537.893    537.630
 25.970    553.131    541.787     11.344    537.310    541.515    537.310    537.583    537.310
 26.070    558.368    541.334     17.034    536.990    541.051    536.990    537.274    536.990
 26.170    541.000    540.951      0.049    536.671    540.657    536.671    536.966    536.671
 26.270    541.000    540.630      0.370    536.353    540.323    536.353    536.660    536.353
 26.370    522.882    540.365    -17.483    536.035    540.045    536.035    536.355    536.035
 26.470    578.000    540.158     37.842    535.717    539.824    535.717    536.052    535.717
 26.570    542.000    540.004      1.996    535.401    539.653    535.401    535.752    535.401
 26.670    492.907    539.917    -47.010    535.085    539.549    535.085    535.453    535.085
 26.770    529.000    539.895    -10.895    534.770    539.507    534.770    535.157    534.770
 26.870    527.000    539.940    -12.940    534.455    539.531    534.455    534.864    534.455
 26.970    582.106    540.077     42.029    534.141    539.644    534.141    534.573    534.141
 27.070    553.000    540.332     12.668    533.828    539.873    533.828    534.286    533.828
 27.170    535.000    540.744     -5.744    533.515    540.256    533.515    534.003    533.515
 27.270    542.636    541.366      1.270    533.204    540.845    533.204    533.724    533.204
 27.370    506.000    542.267    -36.267    532.893    541.709    532.893    533.450    532.893
 27.470    563.000    543.605     19.395    532.583    543.005    532.583    533.181    532.583
 27.570    548.000    545.782      2.218    532.273    545.134    532.273    532.919    532.273
 27.670    551.000    550.215      0.785    531.965    549.511    531.965    532.665    531.965
 27.770    540.953    561.637    -20.684    531.657    560.868    531.657    532.419    531.657
 27.870    602.000    591.754     10.246    531.350    590.902    531.350    532.184    531.350
 27.970    704.933    658.277     46.656    531.044    657.320    531.044    531.962    531.044
 28.070    814.000    768.345     45.655    530.739    767.258    530.739    531.756    530.739
 28.170    896.000    890.442      5.558    530.435    889.210    530.435    531.570    530.435
 28.270    919.000    950.440    -31.440    530.131    949.068    530.131    531.408    530.131
 28.370    895.962    900.021     -4.059    529.829    898.512    529.829    531.278    529.829
 28.470    755.000    790.891    -35.891    529.527    789.202    529.527    531.191    529.527
 28.570    705.000    706.105     -1.105    529.226    704.154    529.226    531.165    529.226
 28.670    653.000    688.737    -35.737    528.927    686.421    528.927    531.229    528.927
 28.770    779.000    733.745     45.255    528.628    730.928    528.628    531.426    528.628
 28.870    761.000    801.250    -40.250    528.330    797.744    528.330    531.823    528.330
 28.970    844.579    832.883     11.696    528.033    828.408    528.033    532.510    528.033
 29.070    786.000    794.399     -8.399    527.737    788.554    527.737    533.594    527.737
 29.170    717.000    715.289      1.711    527.442    707.562    527.442    535.182    527.442
 29.270    683.513    641.630     41.883    527.149    631.447    527.149    537.341    527.149
 29.370    617.000    594.732     22.268    526.856    581.568    526.856    540.023    526.856
 29.470    570.580    572.511     -1.930    526.564    556.146    526.564    542.930    526.564
 29.570    588.000    564.087     23.913    526.273    545.014    526.273    545.345    526.273
 29.670    583.000    560.372     22.628    525.984    540.090    525.984    546.265    525.984
 29.770    552.000    556.894     -4.894    525.695    537.479    525.695    545.109    525.695
 29.870    559.000    552.709      6.291    525.408    535.801    525.408    542.314    525.408
 29.970    550.000    548.377      1.623    525.121    534.633    525.121    538.864    525.121
 30.070    538.000    544.545     -6.545    524.836    533.839    524.836    535.540    524.836
 30.170    536.064    541.556     -5.492    524.552    533.402    524.552    532.704    524.552
 30.270    609.000    539.620     69.380    524.268    533.445    524.268    530.440    524.268
 30.370    529.156    539.153     -9.997    523.986    534.440    523.986    528.696    523.986
