neutron_powder_diffraction_0204
R_wp: 3.972
Temperature (K): 1074.000
Counts: 84258.00
Wavelength (Ã…): 2.52098
COMMENTS
Test file for demonstrating the .xyy file format in Reel1.0
END OF HEADER
   tth       Y_obs     Y_calc      Y_res    Background    Phase_1_Nuc    Phase_1_Mag    Phase_2_Nuc    Phase_2_Mag
  9.970    585.000    573.865     11.135    573.239    573.839    573.239    573.265    573.239
 10.070    587.000    573.907     13.093    573.229    573.880    573.229    573.256    573.229
 10.170    529.602    573.951    -44.349    573.215    573.924    573.215    573.242    573.215
 10.270    558.000    574.000    -16.000    573.197    573.973    573.197    573.223    573.197
 10.370    551.479    574.056    -22.577    573.173    574.028    573.173    573.201    573.173
 10.470    550.442    574.121    -23.679    573.146    574.092    573.146    573.175    573.146
 10.570    538.000    574.198    -36.198    573.114    574.168    573.114    573.143    573.114
 10.670    608.000    574.292     33.708    573.077    574.262    573.077    573.107    573.077
 10.770    574.000    574.408     -0.408    573.036    574.377    573.036    573.067    573.036
 10.870    578.000    574.554      3.446    572.991    574.523    572.991    573.022    572.991
 10.970    599.000    574.743     24.257    572.942    574.711    572.942    572.974    572.942
 11.070    616.000    574.999     41.001    572.888    574.956    572.888    572.930    572.888
 11.170    551.000    575.327    -24.327    572.831    575.282    572.831    572.874    572.831
 11.270    534.000    575.770    -41.770    572.769    575.724    572.769    572.813    572.769
 11.370    577.000    576.390      0.610    572.703    576.344    572.703    572.747    572.703
 11.470    633.000    577.317     55.683    572.633    577.271    572.633    572.677    572.633
 11.570    598.000    578.921     19.079    572.559    578.874    572.559    572.604    572.559
 11.670    628.000    582.314     45.686    572.482    582.264    572.482    572.526    572.482
 11.770    551.394    590.255    -38.861    572.400    590.200    572.400    572.444    572.400
 11.870    624.444    607.494     16.950    572.314    607.430    572.314    572.359    572.314
 11.970    694.000    638.081     55.919    572.225    637.999    572.225    572.270    572.225
 12.070    742.000    678.344     63.656    572.132    678.235    572.132    572.182    572.132
 12.170    713.964    710.353      3.611    572.035    710.224    572.035    572.086    572.035
 12.270    699.908    711.306    -11.397    571.934    711.176    571.934    571.986    571.934
 12.370    670.000    680.238    -10.238    571.830    680.125    571.830    571.882    571.830
 12.470    658.000    639.562     18.438    571.722    639.472    571.722    571.774    571.722
 12.570    567.925    608.030    -40.105    571.610    607.957    571.610    571.663    571.610
 12.670    616.000    589.961     26.039    571.495    589.898    571.495    571.548    571.495
 12.770    580.351    581.483     -1.131    571.377    581.424    571.377    571.430    571.377
 12.870    547.000    577.755    -30.755    571.255    577.698    571.255    571.308    571.255
 12.970    618.794    575.903     42.891    571.129    575.847    571.129    571.183    571.129
 13.070    583.000    574.759      8.241    571.001    574.703    571.001    571.055    571.001
 13.170    587.000    573.932     13.068    570.868    573.876    570.868    570.923    570.868
 13.270    571.000    573.287     -2.287    570.733    573.231    570.733    570.788    570.733
 13.370    521.000    572.761    -51.761    570.594    572.705    570.594    570.649    570.594
 13.470    541.742    572.319    -30.578    570.452    572.263    570.452    570.508    570.452
 13.570    533.000    571.937    -38.937    570.307    571.880    570.307    570.363    570.307
 13.670    524.371    571.598    -47.227    570.159    571.541    570.159    570.215    570.159
 13.770    587.000    571.291     15.709    570.008    571.234    570.008    570.064    570.008
 13.870    574.000    571.008      2.992    569.853    570.951    569.853    569.910    569.853
 13.970    572.000    570.744      1.256    569.696    570.686    569.696    569.754    569.696
 14.070    591.000    570.496     20.504    569.536    570.436    569.536    569.596    569.536
 14.170    573.000    570.257      2.743    569.372    570.196    569.372    569.433    569.372
 14.270    614.428    570.026     44.402    569.206    569.964    569.206    569.268    569.206
 14.370    586.000    569.801     16.199    569.037    569.738    569.037    569.099    569.037
 14.470    586.446    569.580     16.866    568.865    569.517    568.865    568.928    568.865
 14.570    601.042    569.363     31.679    568.690    569.299    568.690    568.754    568.690
 14.670    572.000    569.149      2.851    568.512    569.085    568.512    568.577    568.512
 14.770    541.000    568.939    -27.939    568.332    568.874    568.332    568.397    568.332
 14.870    558.000    568.729    -10.729    568.149    568.664    568.149    568.214    568.149
 14.970    544.000    568.518    -24.518    567.963    568.452    567.963    568.028    567.963
 15.070    547.000    568.307    -21.307    567.775    568.241    567.775    567.841    567.775
 15.170    534.871    568.096    -33.225    567.584    568.030    567.584    567.650    567.584
 15.270    566.000    567.885     -1.885    567.390    567.818    567.390    567.457    567.390
 15.370    584.000    567.673     16.327    567.194    567.606    567.194    567.261    567.194
 15.470    553.000    567.460    -14.460    566.996    567.393    566.996    567.063    566.996
 15.570    549.000    567.247    -18.247    566.795    567.179    566.795    566.863    566.795
 15.670    489.000    567.032    -78.032    566.592    566.964    566.592    566.660    566.592
 15.770    583.592    566.816     16.776    566.386    566.747    566.386    566.454    566.386
 15.870    573.000    566.599      6.401    566.178    566.530    566.178    566.246    566.178
 15.970    542.436    566.380    -23.944    565.967    566.311    565.967    566.036    565.967
 16.070    545.440    566.160    -20.720    565.754    566.090    565.754    565.824    565.754
 16.170    572.421    565.939      6.483    565.540    565.869    565.540    565.610    565.540
 16.270    537.054    565.716    -28.662    565.322    565.645    565.322    565.393    565.322
 16.370    537.311    565.492    -28.181    565.103    565.421    565.103    565.174    565.103
 16.470    554.000    565.266    -11.266    564.881    565.194    564.881    564.953    564.881
 16.570    521.215    565.040    -43.824    564.658    564.966    564.658    564.731    564.658
 16.670    587.000    564.811     22.189    564.432    564.737    564.432    564.506    564.432
 16.770    543.965    564.580    -20.616    564.204    564.506    564.204    564.279    564.204
 16.870    572.000    564.348      7.652    563.975    564.273    563.975    564.049    563.975
 16.970    541.000    564.115    -23.115    563.743    564.039    563.743    563.818    563.743
 17.070    546.000    563.879    -17.879    563.509    563.803    563.509    563.585    563.509
 17.170    600.201    563.644     36.557    563.273    563.567    563.273    563.350    563.273
 17.270    548.895    563.407    -14.512    563.036    563.330    563.036    563.113    563.036
 17.370    551.000    563.168    -12.168    562.796    563.090    562.796    562.874    562.796
 17.470    536.000    562.927    -26.927    562.555    562.848    562.555    562.633    562.555
 17.570    586.378    562.684     23.694    562.312    562.605    562.312    562.391    562.312
 17.670    565.345    562.442      2.903    562.067    562.363    562.067    562.146    562.067
 17.770    545.742    562.197    -16.455    561.821    562.117    561.821    561.901    561.821
 17.870    549.000    561.950    -12.950    561.573    561.870    561.573    561.653    561.573
 17.970    516.540    561.701    -45.161    561.323    561.621    561.323    561.404    561.323
 18.070    565.000    561.452      3.548    561.071    561.370    561.071    561.153    561.071
 18.170    549.000    561.201    -12.201    560.818    561.119    560.818    560.900    560.818
 18.270    587.000    560.948     26.052    560.563    560.865    560.563    560.646    560.563
 18.370    547.000    560.694    -13.694    560.307    560.611    560.307    560.390    560.307
 18.470    529.163    560.439    -31.276    560.049    560.356    560.049    560.133    560.049
 18.570    530.624    560.184    -29.560    559.790    560.099    559.790    559.875    559.790
 18.670    602.000    559.930     42.070    559.529    559.841    559.529    559.619    559.529
 18.770    587.799    559.674     28.124    559.267    559.582    559.267    559.359    559.267
 18.870    558.000    559.415     -1.415    559.003    559.322    559.003    559.096    559.003
 18.970    570.000    559.154     10.846    558.738    559.060    558.738    558.832    558.738
 19.070    532.000    558.892    -26.892    558.472    558.798    558.472    558.566    558.472
 19.170    594.517    558.630     35.888    558.204    558.534    558.204    558.299    558.204
 19.270    562.239    558.366      3.873    557.935    558.270    557.935    558.031    557.935
 19.370    594.378    558.101     36.277    557.665    558.004    557.665    557.762    557.665
 19.470    591.000    557.835     33.165    557.393    557.738    557.393    557.491    557.393
 19.570    547.987    557.569     -9.582    557.121    557.470    557.121    557.219    557.121
 19.670    546.000    557.301    -11.301    556.847    557.202    556.847    556.946    556.847
 19.770    544.000    557.033    -13.033    556.572    556.933    556.572    556.672    556.572
 19.870    519.000    556.764    -37.764    556.295    556.663    556.295    556.396    556.295
 19.970    597.216    556.495     40.721    556.018    556.393    556.018    556.120    556.018
 20.070    528.000    556.224    -28.224    555.740    556.122    555.740    555.843    555.740
 20.170    566.971    555.953     11.018    555.460    555.850    555.460    555.564    555.460
 20.270    558.000    555.682      2.318    555.180    555.577    555.180    555.285    555.180
 20.370    558.000    555.411      2.589    554.899    555.306    554.899    555.004    554.899
 20.470    590.506    555.153     35.353    554.616    555.047    554.616    554.723    554.616
 20.570    560.000    554.891      5.109    554.333    554.784    554.333    554.441    554.333
 20.670    537.133    554.619    -17.487    554.049    554.511    554.049    554.157    554.049
 20.770    517.000    554.346    -37.346    553.764    554.237    553.764    553.873    553.764
 20.870    533.000    554.073    -21.073    553.478    553.962    553.478    553.588    553.478
 20.970    593.371    553.800     39.571    553.191    553.688    553.191    553.303    553.191
 21.070    531.000    553.526    -22.526    552.903    553.413    552.903    553.016    552.903
 21.170    545.000    553.253     -8.253    552.615    553.139    552.615    552.729    552.615
 21.270    608.000    552.980     55.020    552.325    552.864    552.325    552.441    552.325
 21.370    519.000    552.707    -33.707    552.036    552.590    552.036    552.152    552.036
 21.470    570.745    552.445     18.300    551.745    552.327    551.745    551.863    551.745
 21.570    550.000    552.284     -2.284    551.454    552.164    551.454    551.573    551.454
 21.670    551.000    552.065     -1.065    551.162    551.945    551.162    551.282    551.162
 21.770    565.000    551.800     13.200    550.869    551.678    550.869    550.991    550.869
 21.870    546.000    551.532     -5.532    550.576    551.408    550.576    550.699    550.576
 21.970    571.000    551.265     19.735    550.282    551.140    550.282    550.407    550.282
 22.070    552.000    551.000      1.000    549.987    550.873    549.987    550.114    549.987
 22.170    538.000    550.737    -12.737    549.692    550.608    549.692    549.821    549.692
 22.270    552.000    550.480      1.520    549.397    550.350    549.397    549.527    549.397
 22.370    523.000    550.268    -27.268    549.101    550.137    549.101    549.233    549.101
 22.470    588.000    550.032     37.968    548.804    549.899    548.804    548.938    548.804
 22.570    559.000    549.784      9.216    548.507    549.648    548.507    548.643    548.507
 22.670    535.000    549.540    -14.540    548.210    549.400    548.210    548.350    548.210
 22.770    528.919    549.301    -20.382    547.912    549.158    547.912    548.055    547.912
 22.870    550.000    549.067      0.933    547.614    548.923    547.614    547.759    547.614
 22.970    522.824    548.843    -26.019    547.315    548.696    547.315    547.462    547.315
 23.070    596.421    548.630     47.791    547.017    548.482    547.017    547.166    547.017
 23.170    585.614    548.432     37.182    546.717    548.281    546.717    546.869    546.717
 23.270    533.890    548.247    -14.357    546.418    548.093    546.418    546.572    546.418
 23.370    568.891    548.081     20.810    546.118    547.926    546.118    546.274    546.118
 23.470    523.000    547.942    -24.942    545.818    547.784    545.818    545.977    545.818
 23.570    574.000    547.838     26.162    545.518    547.677    545.518    545.679    545.518
 23.670    550.610    547.780      2.830    545.217    547.616    545.217    545.382    545.217
 23.770    587.885    547.786     40.099    544.917    547.620    544.917    545.084    544.917
 23.870    544.000    547.884     -3.884    544.616    547.714    544.616    544.786    544.616
 23.970    568.000    548.121     19.879    544.315    547.948    544.315    544.489    544.315
 24.070    513.000    548.610    -35.610    544.014    548.435    544.014    544.191    544.014
 24.170    555.000    549.685      5.315    543.712    549.508    543.712    543.893    543.712
 24.270    526.898    552.295    -25.396    543.411    552.115    543.411    543.596    543.411
 24.370    557.000    558.576     -1.576    543.110    558.398    543.110    543.298    543.110
 24.470    559.000    571.718    -12.718    542.808    571.545    542.808    543.001    542.808
 24.570    594.000    593.568      0.432    542.507    593.406    542.507    542.704    542.507
 24.670    618.000    619.951     -1.951    542.205    619.804    542.205    542.407    542.205
 24.770    603.754    637.632    -33.878    541.904    637.493    541.904    542.111    541.904
 24.870    651.000    633.329     17.671    541.602    633.182    541.602    541.814    541.602
 24.970    584.000    610.681    -26.681    541.301    610.513    541.301    541.518    541.301
 25.070    641.000    584.498     56.502    541.000    584.305    541.000    541.223    541.000
 25.170    558.000    564.997     -6.997    540.698    564.784    540.698    540.928    540.698
 25.270    589.000    553.896     35.104    540.397    553.668    540.397    540.633    540.397
 25.370    534.170    548.569    -14.399    540.096    548.330    540.096    540.339    540.096
 25.470    553.000    546.098      6.902    539.795    545.851    539.795    540.046    539.795
 25.570    534.900    544.782     -9.883    539.495    544.526    539.495    539.753    539.495
 25.670    545.077    543.922      1.155    539.194    543.656    539.194    539.461    539.194
 25.770    554.000    543.278     10.722    538.894    543.003    538.894    539.170    538.894
 25.870    547.211    542.768      4.444    538.594    542.482    538.594    538.880    538.594
 25.970    588.000    542.352     45.648    538.294    542.056    538.294    538.590    538.294
 26.070    544.000    542.009      1.991    537.994    541.702    537.994    538.302    537.994
 26.170    557.000    541.731     15.269    537.695    541.411    537.695    538.015    537.695
 26.270    533.345    541.532     -8.187    537.396    541.199    537.396    537.730    537.396
 26.370    549.000    541.382      7.618    537.097    541.033    537.097    537.446    537.097
 26.470    555.871    541.261     14.610    536.799    540.897    536.799    537.163    536.799
 26.570    559.507    541.195     18.312    536.501    540.813    536.501    536.882    536.501
 26.670    533.595    541.189     -7.594    536.203    540.788    536.203    536.604    536.203
 26.770    580.594    541.255     39.339    535.905    540.832    535.905    536.328    535.905
 26.870    536.035    541.407     -5.371    535.608    540.961    535.608    536.054    535.608
 26.970    556.000    541.669     14.331    535.312    541.197    535.312    535.783    535.312
 27.070    549.292    542.072      7.220    535.016    541.572    535.016    535.515    535.016
 27.170    569.000    542.660     26.340    534.720    542.127    534.720    535.252    534.720
 27.270    532.000    543.503    -11.503    534.425    542.933    534.425    534.992    534.425
 27.370    589.034    544.665     44.369    534.130    544.056    534.130    534.738    534.130
 27.470    545.950    546.350     -0.399    533.835    545.693    533.835    534.490    533.835
 27.570    562.000    549.026     12.974    533.541    548.317    533.541    534.248    533.541
 27.670    537.000    554.263    -17.263    533.248    553.492    533.248    534.015    533.248
 27.770    563.000    566.976     -3.976    532.955    566.132    532.955    533.791    532.955
 27.870    634.728    598.698     36.030    532.663    597.763    532.663    533.579    532.663
 27.970    682.000    666.146     15.854    532.371    665.095    532.371    533.381    532.371
 28.070    801.000    775.365     25.635    532.080    774.172    532.080    533.200    532.080
 28.170    917.227    895.768     21.459    531.790    894.416    531.790    533.042    531.790
 28.270    963.584    955.218      8.366    531.500    953.709    531.500    532.911    531.500
 28.370    943.200    905.869     37.331    531.210    904.201    531.210    532.815    531.210
 28.470    821.680    799.068     22.612    530.922    797.195    530.922    532.767    530.922
 28.570    689.000    715.853    -26.853    530.634    713.689    530.634    532.784    530.634
 28.670    730.912    698.222     32.690    530.346    695.656    530.346    532.897    530.346
 28.770    711.000    742.240    -31.240    530.060    739.118    530.060    533.162    530.060
 28.870    752.967    809.316    -56.349    529.774    805.397    529.774    533.679    529.774
 28.970    806.000    840.906    -34.906    529.488    835.781    529.488    534.614    529.488
 29.070    746.000    802.014    -56.014    529.204    795.019    529.204    536.210    529.204
 29.170    701.000    722.902    -21.902    528.920    713.076    528.920    538.758    528.920
 29.270    650.000    650.182     -0.182    528.637    636.311    528.637    542.516    528.637
 29.370    652.000    605.005     46.995    528.354    585.830    528.354    547.534    528.354
 29.470    608.000    585.084     22.916    528.073    559.806    528.073    553.350    528.073
 29.570    550.033    578.935    -28.902    527.792    548.177    527.792    558.548    527.792
 29.670    655.000    576.196     78.804    527.512    542.893    527.512    560.813    527.512
 29.770    611.624    571.492     40.132    527.233    540.030    527.233    558.693    527.233
 29.870    569.000    564.514      4.486    526.954    538.170    526.954    553.296    526.954
 29.970    539.769    557.112    -17.343    526.677    536.865    526.677    546.922    526.677
 30.070    528.407    550.730    -22.323    526.400    535.966    526.400    541.162    526.400
 30.170    530.760    545.938    -15.178    526.124    535.442    526.124    536.618    526.124
 30.270    576.000    542.868     33.132    525.849    535.404    525.849    533.310    525.849
 30.370    546.000    541.731      4.269    525.575    536.297    525.575    531.005    525.575
