neutron_powder_diffraction_0220
R_wp: 3.940
Temperature (K): 1074.000
Counts: 83515.00
Wavelength (Ã…): 2.52098
COMMENTS
Test file for demonstrating the .xyy file format in Reel1.0
END OF HEADER
   tth       Y_obs     Y_calc      Y_res    Background    Phase_1_Nuc    Phase_1_Mag    Phase_2_Nuc    Phase_2_Mag
  9.970    575.000    574.868      0.132    574.191    574.847    574.191    574.212    574.191
 10.070    581.000    574.932      6.068    574.195    574.910    574.195    574.216    574.195
 10.170    600.000    575.000     25.000    574.194    574.977    574.194    574.217    574.194
 10.270    587.000    575.077     11.923    574.189    575.051    574.189    574.214    574.189
 10.370    555.000    575.174    -20.174    574.179    575.148    574.179    574.204    574.179
 10.470    619.000    575.269     43.731    574.165    575.243    574.165    574.190    574.165
 10.570    606.000    575.377     30.623    574.146    575.350    574.146    574.171    574.146
 10.670    577.000    575.504      1.496    574.122    575.477    574.122    574.148    574.122
 10.770    589.000    575.657     13.343    574.095    575.631    574.095    574.121    574.095
 10.870    628.000    575.847     52.153    574.063    575.820    574.063    574.089    574.063
 10.970    552.881    576.086    -23.205    574.027    576.059    574.027    574.053    574.027
 11.070    610.366    576.392     33.974    573.986    576.364    573.986    574.012    573.986
 11.170    642.000    576.791     65.209    573.941    576.763    573.941    573.968    573.941
 11.270    604.000    577.326     26.674    573.893    577.298    573.893    573.919    573.893
 11.370    561.692    578.068    -16.376    573.840    578.039    573.840    573.866    573.840
 11.470    582.000    579.178      2.822    573.783    579.148    573.783    573.810    573.783
 11.570    621.000    581.093     39.907    573.722    581.061    573.722    573.750    573.722
 11.670    621.000    584.973     36.027    573.657    584.938    573.657    573.686    573.657
 11.770    632.000    593.344     38.656    573.588    593.304    573.588    573.617    573.588
 11.870    642.000    610.016     31.984    573.515    609.966    573.515    573.544    573.515
 11.970    684.165    637.651     46.514    573.439    637.586    573.439    573.468    573.439
 12.070    628.774    672.483    -43.710    573.358    672.399    573.358    573.388    573.358
 12.170    657.578    699.566    -41.988    573.274    699.466    573.274    573.304    573.274
 12.270    729.000    700.360     28.640    573.186    700.259    573.186    573.216    573.186
 12.370    636.000    674.086    -38.086    573.094    673.999    573.094    573.125    573.094
 12.470    627.000    638.953    -11.953    572.999    638.886    572.999    573.030    572.999
 12.570    574.000    610.557    -36.557    572.900    610.504    572.900    572.932    572.900
 12.670    571.000    593.180    -22.180    572.798    593.127    572.798    572.840    572.798
 12.770    586.000    584.314      1.686    572.692    584.264    572.692    572.736    572.692
 12.870    558.000    580.115    -22.115    572.583    580.067    572.583    572.627    572.583
 12.970    547.000    577.971    -30.971    572.470    577.923    572.470    572.515    572.470
 13.070    579.000    576.664      2.336    572.354    576.617    572.354    572.399    572.354
 13.170    617.808    575.739     42.069    572.234    575.691    572.234    572.279    572.234
 13.270    570.000    575.026     -5.026    572.111    574.979    572.111    572.157    572.111
 13.370    596.000    574.452     21.548    571.985    574.405    571.985    572.031    571.985
 13.470    607.861    573.975     33.886    571.855    573.927    571.855    571.902    571.855
 13.570    605.848    573.571     32.277    571.723    573.519    571.723    571.774    571.723
 13.670    562.000    573.214    -11.214    571.587    573.161    571.587    571.640    571.587
 13.770    533.106    572.894    -39.788    571.448    572.840    571.448    571.501    571.448
 13.870    604.000    572.602     31.398    571.306    572.549    571.306    571.359    571.306
 13.970    536.933    572.332    -35.400    571.161    572.278    571.161    571.214    571.161
 14.070    553.000    572.079    -19.079    571.013    572.025    571.013    571.066    571.013
 14.170    558.000    571.838    -13.838    570.861    571.784    570.861    570.916    570.861
 14.270    587.000    571.608     15.392    570.707    571.553    570.707    570.762    570.707
 14.370    534.000    571.385    -37.385    570.550    571.330    570.550    570.605    570.550
 14.470    548.000    571.168    -23.168    570.390    571.112    570.390    570.446    570.390
 14.570    598.000    570.955     27.045    570.228    570.899    570.228    570.283    570.228
 14.670    540.000    570.746    -30.746    570.062    570.690    570.062    570.118    570.062
 14.770    529.000    570.539    -41.539    569.894    570.483    569.894    569.950    569.894
 14.870    582.000    570.337     11.663    569.723    570.280    569.723    569.780    569.723
 14.970    588.274    570.134     18.140    569.549    570.077    569.549    569.606    569.549
 15.070    520.000    569.931    -49.931    569.373    569.874    569.373    569.430    569.373
 15.170    565.293    569.728     -4.436    569.194    569.671    569.194    569.252    569.194
 15.270    548.000    569.525    -21.525    569.013    569.468    569.013    569.070    569.013
 15.370    567.000    569.322     -2.322    568.829    569.264    568.829    568.887    568.829
 15.470    539.460    569.118    -29.658    568.642    569.060    568.642    568.701    568.642
 15.570    534.000    568.914    -34.914    568.453    568.855    568.453    568.512    568.453
 15.670    576.000    568.708      7.292    568.262    568.649    568.262    568.321    568.262
 15.770    585.000    568.502     16.498    568.068    568.442    568.068    568.127    568.068
 15.870    553.000    568.294    -15.294    567.871    568.234    567.871    567.931    567.871
 15.970    549.000    568.086    -19.086    567.673    568.025    567.673    567.734    567.673
 16.070    568.000    567.878      0.122    567.472    567.814    567.472    567.536    567.472
 16.170    518.000    567.667    -49.667    567.269    567.603    567.269    567.333    567.269
 16.270    599.795    567.456     32.339    567.063    567.390    567.063    567.129    567.063
 16.370    578.199    567.244     10.955    566.856    567.177    566.856    566.922    566.856
 16.470    596.000    567.028     28.972    566.646    566.961    566.646    566.713    566.646
 16.570    563.000    566.811     -3.811    566.434    566.744    566.434    566.502    566.434
 16.670    577.000    566.593     10.407    566.220    566.524    566.220    566.288    566.220
 16.770    597.615    566.372     31.243    566.004    566.304    566.004    566.072    566.004
 16.870    550.461    566.150    -15.690    565.786    566.081    565.786    565.855    565.786
 16.970    535.375    565.927    -30.552    565.566    565.858    565.566    565.635    565.566
 17.070    538.501    565.703    -27.202    565.343    565.632    565.343    565.413    565.343
 17.170    564.000    565.476     -1.476    565.119    565.406    565.119    565.190    565.119
 17.270    573.000    565.248      7.752    564.893    565.177    564.893    564.964    564.893
 17.370    587.000    565.019     21.981    564.665    564.948    564.665    564.737    564.665
 17.470    575.000    564.790     10.210    564.436    564.718    564.436    564.508    564.436
 17.570    592.000    564.558     27.442    564.204    564.486    564.204    564.277    564.204
 17.670    588.000    564.325     23.675    563.971    564.252    563.971    564.044    563.971
 17.770    566.000    564.089      1.911    563.736    564.016    563.736    563.809    563.736
 17.870    535.317    563.853    -28.536    563.499    563.779    563.499    563.573    563.499
 17.970    580.000    563.615     16.385    563.260    563.540    563.260    563.335    563.260
 18.070    579.000    563.375     15.625    563.020    563.300    563.020    563.095    563.020
 18.170    597.854    563.135     34.720    562.778    563.059    562.778    562.854    562.778
 18.270    551.000    562.894    -11.894    562.535    562.816    562.535    562.613    562.535
 18.370    512.000    562.651    -50.651    562.290    562.572    562.290    562.368    562.290
 18.470    551.419    562.406    -10.987    562.043    562.327    562.043    562.122    562.043
 18.570    530.443    562.160    -31.717    561.795    562.081    561.795    561.875    561.795
 18.670    554.094    561.913     -7.819    561.546    561.833    561.546    561.626    561.546
 18.770    535.000    561.666    -26.666    561.295    561.585    561.295    561.376    561.295
 18.870    594.000    561.418     32.582    561.042    561.336    561.042    561.124    561.042
 18.970    544.000    561.167    -17.167    560.789    561.085    560.789    560.871    560.789
 19.070    551.000    560.916     -9.916    560.533    560.833    560.533    560.616    560.533
 19.170    579.000    560.664     18.336    560.277    560.580    560.277    560.360    560.277
 19.270    579.000    560.410     18.590    560.019    560.326    560.019    560.103    560.019
 19.370    539.000    560.155    -21.155    559.760    560.071    559.760    559.845    559.760
 19.470    521.407    559.900    -38.492    559.499    559.814    559.499    559.585    559.499
 19.570    604.404    559.643     44.761    559.238    559.557    559.238    559.324    559.238
 19.670    567.000    559.386      7.614    558.975    559.299    558.975    559.062    558.975
 19.770    577.000    559.128     17.872    558.711    559.040    558.711    558.799    558.711
 19.870    553.000    558.869     -5.869    558.446    558.780    558.446    558.534    558.446
 19.970    547.000    558.610    -11.610    558.179    558.520    558.179    558.269    558.179
 20.070    551.000    558.355     -7.355    557.912    558.260    557.912    558.007    557.912
 20.170    510.000    558.109    -48.109    557.644    558.012    557.644    557.741    557.644
 20.270    556.000    557.858     -1.858    557.374    557.759    557.374    557.473    557.374
 20.370    505.000    557.597    -52.597    557.104    557.497    557.104    557.203    557.104
 20.470    551.000    557.334     -6.334    556.832    557.234    556.832    556.932    556.832
 20.570    540.000    557.072    -17.072    556.560    556.970    556.560    556.661    556.560
 20.670    556.828    556.809      0.019    556.286    556.706    556.286    556.388    556.286
 20.770    539.000    556.545    -17.545    556.012    556.442    556.012    556.115    556.012
 20.870    546.988    556.282     -9.294    555.737    556.178    555.737    555.841    555.737
 20.970    542.000    556.019    -14.019    555.461    555.913    555.461    555.566    555.461
 21.070    587.000    555.755     31.245    555.184    555.649    555.184    555.290    555.184
 21.170    542.701    555.492    -12.791    554.906    555.384    554.906    555.014    554.906
 21.270    546.000    555.228     -9.228    554.628    555.120    554.628    554.736    554.628
 21.370    509.051    554.966    -45.914    554.348    554.856    554.348    554.458    554.348
 21.470    515.000    554.703    -39.703    554.068    554.592    554.068    554.180    554.068
 21.570    569.630    554.441     15.189    553.788    554.329    553.788    553.900    553.788
 21.670    552.000    554.181     -2.181    553.506    554.067    553.506    553.620    553.506
 21.770    553.582    553.921     -0.338    553.224    553.806    553.224    553.339    553.224
 21.870    540.000    553.662    -13.662    552.942    553.546    552.942    553.058    552.942
 21.970    589.708    553.405     36.304    552.658    553.287    552.658    552.776    552.658
 22.070    574.000    553.157     20.843    552.374    553.038    552.374    552.494    552.374
 22.170    567.000    552.980     14.020    552.090    552.859    552.090    552.211    552.090
 22.270    525.000    552.749    -27.749    551.805    552.627    551.805    551.927    551.805
 22.370    516.000    552.503    -36.503    551.519    552.379    551.519    551.643    551.519
 22.470    566.224    552.259     13.965    551.233    552.134    551.233    551.359    551.233
 22.570    567.971    552.020     15.951    550.947    551.893    550.947    551.074    550.947
 22.670    580.000    551.788     28.212    550.660    551.659    550.660    550.789    550.660
 22.770    555.000    551.563      3.437    550.373    551.433    550.373    550.504    550.373
 22.870    510.000    551.348    -41.348    550.085    551.215    550.085    550.218    550.085
 22.970    531.000    551.181    -20.181    549.797    551.047    549.797    549.932    549.797
 23.070    557.000    551.018      5.982    549.508    550.882    549.508    549.645    549.508
 23.170    514.000    550.859    -36.859    549.219    550.720    549.219    549.359    549.219
 23.270    541.000    550.695     -9.695    548.930    550.554    548.930    549.072    548.930
 23.370    578.659    550.552     28.107    548.641    550.409    548.641    548.785    548.641
 23.470    538.000    550.439    -12.439    548.351    550.293    548.351    548.497    548.351
 23.570    562.000    550.365     11.635    548.061    550.217    548.061    548.210    548.061
 23.670    551.000    550.344      0.656    547.771    550.194    547.771    547.922    547.771
 23.770    582.000    550.401     31.599    547.480    550.246    547.480    547.637    547.480
 23.870    574.731    550.558     24.174    547.190    550.399    547.190    547.350    547.190
 23.970    555.000    550.877      4.123    546.899    550.716    546.899    547.062    546.899
 24.070    585.790    551.498     34.292    546.608    551.334    546.608    546.774    546.608
 24.170    569.000    552.800     16.200    546.317    552.634    546.317    546.487    546.317
 24.270    580.000    555.737     24.263    546.026    555.570    546.026    546.199    546.026
 24.370    589.229    562.190     27.038    545.734    562.024    545.734    545.911    545.734
 24.470    570.847    574.608     -3.761    545.443    574.447    545.443    545.624    545.443
 24.570    638.507    594.029     44.478    545.152    593.878    545.152    545.337    545.152
 24.670    595.000    616.626    -21.626    544.860    616.488    544.860    545.050    544.860
 24.770    610.029    631.473    -21.444    544.569    631.341    544.569    544.763    544.569
 24.870    612.770    627.816    -15.046    544.277    627.677    544.277    544.476    544.277
 24.970    601.000    608.576     -7.576    543.986    608.418    543.986    544.190    543.986
 25.070    616.000    585.830     30.170    543.694    585.650    543.694    543.904    543.694
 25.170    551.000    568.136    -17.136    543.403    567.938    543.403    543.618    543.403
 25.270    575.544    557.367     18.177    543.112    557.155    543.112    543.333    543.112
 25.370    551.000    551.762     -0.762    542.821    551.539    542.821    543.049    542.821
 25.470    513.391    548.972    -35.581    542.530    548.741    542.530    542.765    542.530
 25.570    534.000    547.447    -13.447    542.239    547.208    542.239    542.481    542.239
 25.670    536.000    546.474    -10.474    541.948    546.225    541.948    542.199    541.948
 25.770    508.000    545.756    -37.756    541.658    545.498    541.658    541.917    541.658
 25.870    529.000    545.174    -16.174    541.368    544.908    541.368    541.636    541.368
 25.970    519.835    544.692    -24.857    541.078    544.415    541.078    541.356    541.078
 26.070    526.000    544.288    -18.288    540.788    544.000    540.788    541.076    540.788
 26.170    580.706    543.941     36.765    540.498    543.641    540.498    540.798    540.498
 26.270    563.000    543.643     19.357    540.209    543.330    540.209    540.522    540.209
 26.370    571.000    543.390     27.610    539.920    543.064    539.920    540.246    539.920
 26.470    518.148    543.182    -25.034    539.631    542.841    539.631    539.972    539.631
 26.570    549.368    543.017      6.350    539.343    542.660    539.343    539.700    539.343
 26.670    524.000    542.903    -18.903    539.055    542.527    539.055    539.430    539.055
 26.770    514.852    542.870    -28.018    538.767    542.474    538.767    539.162    538.767
 26.870    554.996    542.898     12.098    538.479    542.481    538.479    538.897    538.479
 26.970    542.000    542.973     -0.973    538.192    542.531    538.192    538.634    538.192
 27.070    500.753    543.138    -42.385    537.906    542.669    537.906    538.374    537.906
 27.170    561.000    543.430     17.570    537.620    542.931    537.620    538.118    537.620
 27.270    566.000    543.893     22.107    537.334    543.361    537.334    537.866    537.334
 27.370    550.000    544.571      5.429    537.049    544.001    537.049    537.618    537.049
 27.470    561.041    545.600     15.441    536.764    544.986    536.764    537.376    536.764
 27.570    585.000    547.286     37.714    536.479    546.623    536.479    537.141    536.479
 27.670    568.000    550.759     17.241    536.196    550.038    536.196    536.913    536.196
 27.770    573.000    560.429     12.571    535.912    559.640    535.912    536.695    535.912
 27.870    612.000    588.561     23.439    535.629    587.687    535.629    536.487    535.629
 27.970    620.000    656.060    -36.060    535.347    655.076    535.347    536.293    535.347
 28.070    782.000    774.251      7.749    535.065    773.127    535.065    536.115    535.065
 28.170    948.595    909.181     39.414    534.784    907.902    534.784    535.958    534.784
 28.270    969.000    975.622     -6.622    534.504    974.195    534.504    535.827    534.504
 28.370    938.000    917.911     20.089    534.224    916.342    534.224    535.729    534.224
 28.470    792.000    794.410     -2.410    533.944    792.655    533.944    535.676    533.944
 28.570    694.209    699.764     -5.555    533.666    697.737    533.666    535.683    533.666
 28.670    718.678    681.559     37.119    533.388    679.153    533.388    535.779    533.388
 28.770    745.000    732.549     12.451    533.110    729.621    533.110    536.017    533.110
 28.870    787.000    808.101    -21.101    532.833    804.427    532.833    536.494    532.833
 28.970    834.813    844.018     -9.205    532.557    839.196    532.557    537.380    532.557
 29.070    806.554    803.193      3.361    532.282    796.545    532.282    538.942    532.282
 29.170    683.000    719.100    -36.100    532.007    709.601    532.007    541.519    532.007
 29.270    681.000    643.423     37.577    531.733    629.732    531.733    545.432    531.733
 29.370    597.000    599.056     -2.056    531.460    579.739    531.460    550.779    531.460
 29.470    607.000    581.808     25.192    531.188    555.899    531.188    557.096    531.188
 29.570    676.000    578.141     97.859    530.916    546.218    530.916    562.837    530.916
 29.670    618.572    576.903     41.669    530.645    542.158    530.645    565.387    530.645
 29.770    596.000    572.722     23.278    530.375    540.022    530.375    563.072    530.375
 29.870    564.000    565.704     -1.704    530.106    538.634    530.106    557.174    530.106
 29.970    580.800    558.123     22.676    529.837    537.659    529.837    550.300    529.837
 30.070    558.000    551.623      6.377    529.569    536.995    529.569    544.196    529.569
 30.170    550.000    546.810      3.190    529.302    536.624    529.302    539.487    529.302
 30.270    550.800    543.766      7.033    529.036    536.651    529.036    536.149    529.036
 30.370    522.631    542.624    -19.993    528.771    537.504    528.771    533.888    528.771
