neutron_powder_diffraction_0119
R_wp: 3.900
Temperature (K): 982.115
Counts: 83379.00
Wavelength (Ã…): 2.52098
COMMENTS
Test file for demonstrating the .xyy file format in Reel1.0
END OF HEADER
   tth       Y_obs     Y_calc      Y_res    Background    Phase_1_Nuc    Phase_1_Mag    Phase_2_Nuc    Phase_2_Mag
  9.970    624.000    562.911     61.089    561.790    562.795    561.790    561.905    561.790
 10.070    585.000    563.142     21.858    561.934    563.026    561.934    562.050    561.934
 10.170    549.621    563.379    -13.759    562.072    563.263    562.072    562.188    562.072
 10.270    602.000    563.626     38.374    562.203    563.508    562.203    562.320    562.203
 10.370    548.406    563.884    -15.478    562.329    563.766    562.329    562.446    562.329
 10.470    580.775    564.159     16.617    562.448    564.040    562.448    562.566    562.448
 10.570    614.000    564.455     49.545    562.561    564.336    562.561    562.679    562.561
 10.670    608.000    564.780     43.220    562.668    564.661    562.668    562.786    562.668
 10.770    558.923    565.143     -6.220    562.769    565.023    562.769    562.888    562.769
 10.870    557.000    565.558     -8.558    562.864    565.437    562.864    562.983    562.864
 10.970    600.000    566.040     33.960    562.953    565.919    562.953    563.073    562.953
 11.070    612.786    566.617     46.170    563.036    566.494    563.036    563.156    563.036
 11.170    580.000    567.323     12.677    563.113    567.200    563.113    563.234    563.113
 11.270    568.084    568.220     -0.135    563.185    568.095    563.185    563.307    563.185
 11.370    615.000    569.414     45.586    563.251    569.289    563.251    563.373    563.251
 11.470    600.000    571.135     28.865    563.311    571.008    563.311    563.434    563.311
 11.570    569.879    573.926     -4.047    563.366    573.797    563.366    563.490    563.366
 11.670    636.000    578.951     57.049    563.416    578.819    563.416    563.539    563.416
 11.770    575.498    588.243    -12.745    563.459    588.105    563.459    563.584    563.459
 11.870    565.643    604.337    -38.694    563.498    604.189    563.498    563.623    563.498
 11.970    668.000    628.623     39.377    563.531    628.461    563.531    563.656    563.531
 12.070    645.000    658.206    -13.206    563.559    658.027    563.559    563.685    563.559
 12.170    647.000    682.643    -35.643    563.581    682.450    563.581    563.708    563.581
 12.270    676.000    687.359    -11.359    563.599    687.162    563.599    563.726    563.599
 12.370    648.000    668.547    -20.547    563.611    668.361    563.611    563.738    563.611
 12.470    621.264    638.936    -17.672    563.618    638.766    563.618    563.746    563.618
 12.570    625.000    611.992     13.008    563.620    611.837    563.620    563.749    563.620
 12.670    619.000    593.028     25.972    563.617    592.882    563.617    563.746    563.617
 12.770    520.000    581.685    -61.685    563.609    581.545    563.609    563.739    563.609
 12.870    582.000    575.516      6.484    563.596    575.379    563.596    563.727    563.596
 12.970    527.447    572.188    -44.740    563.579    572.052    563.579    563.710    563.579
 13.070    605.808    570.236     35.573    563.556    570.100    563.556    563.688    563.556
 13.170    534.000    568.945    -34.945    563.529    568.809    563.529    563.661    563.529
 13.270    527.554    568.007    -40.453    563.497    567.871    563.497    563.630    563.497
 13.370    566.000    567.287     -1.287    563.460    567.151    563.460    563.594    563.460
 13.470    567.337    566.714      0.622    563.419    566.578    563.419    563.554    563.419
 13.570    564.000    566.248     -2.248    563.374    566.111    563.374    563.509    563.374
 13.670    581.000    565.860     15.140    563.323    565.723    563.323    563.459    563.323
 13.770    559.324    565.531     -6.206    563.269    565.393    563.269    563.405    563.269
 13.870    539.000    565.244    -26.244    563.210    565.106    563.210    563.347    563.210
 13.970    607.531    564.990     42.541    563.146    564.851    563.146    563.284    563.146
 14.070    591.000    564.762     26.238    563.079    564.622    563.079    563.217    563.079
 14.170    617.000    564.554     52.446    563.007    564.414    563.007    563.146    563.007
 14.270    534.000    564.361    -30.361    562.930    564.220    562.930    563.070    562.930
 14.370    575.696    564.180     11.517    562.850    564.039    562.850    562.991    562.850
 14.470    529.000    564.008    -35.008    562.766    563.866    562.766    562.907    562.766
 14.570    554.188    563.843     -9.655    562.677    563.701    562.677    562.819    562.677
 14.670    557.000    563.684     -6.684    562.584    563.541    562.584    562.727    562.584
 14.770    500.000    563.529    -63.529    562.488    563.385    562.488    562.631    562.488
 14.870    574.000    563.376     10.624    562.387    563.232    562.387    562.531    562.387
 14.970    570.000    563.226      6.774    562.283    563.081    562.283    562.428    562.283
 15.070    545.000    563.079    -18.079    562.175    562.933    562.175    562.320    562.175
 15.170    548.831    562.931    -14.100    562.063    562.784    562.063    562.209    562.063
 15.270    539.774    562.783    -23.009    561.947    562.635    561.947    562.094    561.947
 15.370    575.743    562.634     13.109    561.827    562.486    561.827    561.975    561.827
 15.470    537.417    562.485    -25.068    561.704    562.335    561.704    561.853    561.704
 15.570    543.000    562.334    -19.334    561.577    562.184    561.577    561.727    561.577
 15.670    604.942    562.183     42.759    561.447    562.032    561.447    561.597    561.447
 15.770    536.000    562.030    -26.030    561.313    561.878    561.313    561.464    561.313
 15.870    569.000    561.875      7.125    561.175    561.723    561.175    561.328    561.175
 15.970    600.678    561.719     38.959    561.035    561.565    561.035    561.188    561.035
 16.070    565.000    561.560      3.440    560.890    561.406    560.890    561.044    560.890
 16.170    548.000    561.403    -13.403    560.743    561.248    560.743    560.897    560.743
 16.270    588.000    561.265     26.735    560.592    561.109    560.592    560.747    560.592
 16.370    552.286    561.103     -8.817    560.437    560.947    560.437    560.594    560.437
 16.470    568.884    560.937      7.947    560.280    560.779    560.280    560.437    560.280
 16.570    543.000    560.769    -17.769    560.119    560.610    560.119    560.278    560.119
 16.670    542.000    560.598    -18.598    559.955    560.438    559.955    560.115    559.955
 16.770    571.580    560.425     11.155    559.788    560.264    559.788    559.949    559.788
 16.870    567.000    560.249      6.751    559.618    560.088    559.618    559.780    559.618
 16.970    562.000    560.072      1.928    559.445    559.909    559.445    559.608    559.445
 17.070    535.000    559.892    -24.892    559.269    559.728    559.269    559.433    559.269
 17.170    575.303    559.709     15.593    559.090    559.545    559.090    559.255    559.090
 17.270    477.000    559.525    -82.525    558.908    559.359    558.908    559.074    558.908
 17.370    567.000    559.338      7.662    558.724    559.171    558.724    558.890    558.724
 17.470    556.908    559.151     -2.243    558.536    558.984    558.536    558.704    558.536
 17.570    552.000    558.962     -6.962    558.346    558.793    558.346    558.514    558.346
 17.670    569.000    558.769     10.231    558.152    558.599    558.152    558.322    558.152
 17.770    571.783    558.573     13.210    557.957    558.402    557.957    558.128    557.957
 17.870    552.551    558.375     -5.824    557.758    558.203    557.758    557.930    557.758
 17.970    551.000    558.174     -7.174    557.557    558.001    557.557    557.730    557.557
 18.070    556.000    557.977     -1.977    557.353    557.803    557.353    557.528    557.353
 18.170    570.389    557.829     12.560    557.147    557.653    557.147    557.323    557.147
 18.270    596.000    557.678     38.322    556.938    557.501    556.938    557.115    556.938
 18.370    513.000    557.474    -44.474    556.727    557.296    556.727    556.905    556.727
 18.470    567.000    557.264      9.736    556.513    557.084    556.513    556.692    556.513
 18.570    544.000    557.052    -13.052    556.297    556.871    556.297    556.478    556.297
 18.670    552.000    556.841     -4.841    556.078    556.659    556.078    556.260    556.078
 18.770    535.000    556.628    -21.628    555.857    556.444    555.857    556.041    555.857
 18.870    547.482    556.410     -8.928    555.634    556.225    555.634    555.819    555.634
 18.970    565.000    556.190      8.810    555.409    556.003    555.409    555.595    555.409
 19.070    542.277    555.968    -13.691    555.181    555.780    555.181    555.369    555.181
 19.170    525.000    555.744    -30.744    554.951    555.555    554.951    555.141    554.951
 19.270    549.000    555.519     -6.519    554.719    555.329    554.719    554.910    554.719
 19.370    563.000    555.292      7.708    554.485    555.100    554.485    554.677    554.485
 19.470    558.000    555.064      2.936    554.249    554.870    554.249    554.443    554.249
 19.570    559.819    554.834      4.985    554.011    554.638    554.011    554.206    554.011
 19.670    580.771    554.602     26.169    553.771    554.405    553.771    553.968    553.771
 19.770    539.916    554.371    -14.455    553.529    554.172    553.529    553.727    553.529
 19.870    562.000    554.157      7.843    553.285    553.957    553.285    553.485    553.285
 19.970    559.000    553.970      5.030    553.039    553.769    553.039    553.240    553.039
 20.070    513.052    553.739    -40.687    552.791    553.535    552.791    552.994    552.791
 20.170    546.000    553.505     -7.505    552.541    553.299    552.541    552.746    552.541
 20.270    529.000    553.267    -24.267    552.289    553.060    552.289    552.497    552.289
 20.370    571.327    553.027     18.299    552.036    552.818    552.036    552.245    552.036
 20.470    526.000    552.786    -26.786    551.781    552.575    551.781    551.992    551.781
 20.570    524.000    552.545    -28.545    551.525    552.332    551.525    551.738    551.525
 20.670    544.652    552.303     -7.650    551.266    552.087    551.266    551.481    551.266
 20.770    543.000    552.060     -9.060    551.006    551.843    551.006    551.223    551.006
 20.870    543.000    551.818     -8.818    550.745    551.599    550.745    550.964    550.745
 20.970    579.192    551.574     27.618    550.481    551.352    550.481    550.703    550.481
 21.070    538.000    551.330    -13.330    550.217    551.106    550.217    550.441    550.217
 21.170    526.517    551.085    -24.568    549.951    550.859    549.951    550.177    549.951
 21.270    550.000    550.841     -0.841    549.683    550.612    549.683    549.911    549.683
 21.370    511.000    550.599    -39.599    549.414    550.369    549.414    549.645    549.414
 21.470    513.874    550.366    -36.492    549.143    550.132    549.143    549.377    549.143
 21.570    586.000    550.140     35.860    548.871    549.905    548.871    549.107    548.871
 21.670    547.000    549.960     -2.960    548.598    549.722    548.598    548.837    548.598
 21.770    546.032    549.728     -3.696    548.324    549.487    548.324    548.565    548.324
 21.870    528.000    549.489    -21.489    548.048    549.245    548.048    548.292    548.048
 21.970    523.000    549.251    -26.251    547.771    549.004    547.771    548.018    547.771
 22.070    544.547    549.015     -4.468    547.492    548.765    547.492    547.742    547.492
 22.170    556.000    548.782      7.218    547.213    548.529    547.213    547.466    547.213
 22.270    495.000    548.552    -53.552    546.932    548.296    546.932    547.189    546.932
 22.370    549.000    548.326      0.674    546.650    548.067    546.650    546.910    546.650
 22.470    560.848    548.105     12.743    546.367    547.842    546.367    546.631    546.367
 22.570    517.965    547.890    -29.925    546.083    547.623    546.083    546.350    546.083
 22.670    572.000    547.681     24.319    545.798    547.411    545.798    546.069    545.798
 22.770    508.000    547.482    -39.482    545.512    547.208    545.512    545.787    545.512
 22.870    567.000    547.298     19.702    545.225    547.021    545.225    545.503    545.225
 22.970    562.912    547.145     15.766    544.937    546.864    544.937    545.220    544.937
 23.070    539.000    546.988     -7.988    544.648    546.702    544.648    544.935    544.648
 23.170    546.000    546.860     -0.860    544.359    546.570    544.359    544.649    544.359
 23.270    550.000    546.808      3.192    544.068    546.513    544.068    544.363    544.068
 23.370    520.000    546.735    -26.735    543.776    546.436    543.776    544.077    543.776
 23.470    570.000    546.691     23.309    543.484    546.387    543.484    543.789    543.484
 23.570    587.000    546.702     40.298    543.191    546.393    543.191    543.501    543.191
 23.670    543.000    546.814     -3.814    542.897    546.500    542.897    543.213    542.897
 23.770    532.000    547.018    -15.018    542.602    546.699    542.602    542.924    542.602
 23.870    546.000    547.333     -1.333    542.307    547.009    542.307    542.634    542.307
 23.970    567.000    547.873     19.127    542.011    547.543    542.011    542.344    542.011
 24.070    530.802    548.799    -17.997    541.714    548.464    541.714    542.054    541.714
 24.170    578.398    550.522     27.876    541.417    550.181    541.417    541.763    541.417
 24.270    593.000    553.858     39.142    541.119    553.512    541.119    541.472    541.119
 24.370    560.275    560.174      0.102    540.821    559.826    540.821    541.181    540.821
 24.470    592.000    571.056     20.944    540.522    570.708    540.522    540.890    540.522
 24.570    609.000    587.190     21.810    540.222    586.846    540.222    540.599    540.222
 24.670    575.000    606.389    -31.389    539.922    606.050    539.922    540.307    539.922
 24.770    614.389    621.680     -7.292    539.622    621.344    539.622    540.016    539.622
 24.870    666.945    623.938     43.007    539.321    623.594    539.321    539.724    539.321
 24.970    603.000    611.194     -8.194    539.019    610.831    539.019    539.433    539.019
 25.070    565.000    591.571    -26.571    538.717    591.183    538.717    539.142    538.717
 25.170    569.000    573.564     -4.564    538.415    573.152    538.415    538.851    538.415
 25.270    575.000    560.631     14.369    538.113    560.198    538.113    538.560    538.113
 25.370    553.000    552.666      0.334    537.810    552.215    537.810    538.270    537.810
 25.470    573.000    548.169     24.831    537.507    547.700    537.507    537.981    537.507
 25.570    574.886    545.634     29.252    537.203    545.150    537.203    537.692    537.203
 25.670    567.000    544.079     22.921    536.900    543.578    536.900    537.403    536.900
 25.770    586.898    543.006     43.892    536.596    542.488    536.596    537.116    536.596
 25.870    584.000    542.195     41.805    536.291    541.659    536.291    536.829    536.291
 25.970    546.000    541.551      4.449    535.987    540.996    535.987    536.544    535.987
 26.070    563.000    541.027     21.973    535.683    540.451    535.683    536.260    535.683
 26.170    584.000    540.597     43.403    535.378    539.999    535.378    535.977    535.378
 26.270    527.938    540.241    -12.303    535.073    539.619    535.073    535.696    535.073
 26.370    541.000    539.951      1.049    534.768    539.304    534.768    535.417    534.768
 26.470    558.000    539.723     18.277    534.464    539.047    534.464    535.140    534.464
 26.570    558.000    539.554     18.446    534.159    538.848    534.159    534.865    534.159
 26.670    563.000    539.447     23.553    533.854    538.708    533.854    534.593    533.854
 26.770    525.000    539.407    -14.407    533.549    538.632    533.549    534.324    533.549
 26.870    573.762    539.445     34.317    533.244    538.631    533.244    534.058    533.244
 26.970    548.000    539.575      8.425    532.939    538.717    532.939    533.796    532.939
 27.070    582.664    539.819     42.845    532.634    538.914    532.634    533.539    532.634
 27.170    542.000    540.209      1.791    532.329    539.251    532.329    533.287    532.329
 27.270    535.000    540.792     -5.792    532.024    539.775    532.024    533.040    532.024
 27.370    574.174    541.642     32.533    531.720    540.559    531.720    532.801    531.720
 27.470    521.412    542.893    -21.481    531.415    541.737    531.415    532.569    531.415
 27.570    572.000    544.898     27.102    531.111    543.660    531.111    532.347    531.111
 27.670    545.000    548.900     -3.900    530.807    547.568    530.807    532.135    530.807
 27.770    602.321    559.063     43.258    530.503    557.623    530.503    531.937    530.503
 27.870    623.000    585.912     37.088    530.199    584.341    530.199    531.753    530.199
 27.970    623.543    646.197    -22.654    529.896    644.468    529.896    531.587    529.896
 28.070    752.000    749.175      2.825    529.592    747.256    529.592    531.443    529.592
 28.170    892.000    870.688     21.312    529.290    868.559    529.290    531.324    529.290
 28.270    972.085    944.987     27.098    528.987    942.644    528.987    531.235    528.987
 28.370    860.827    918.367    -57.540    528.685    915.806    528.685    531.181    528.685
 28.470    826.288    821.108      5.179    528.383    818.294    528.383    531.168    528.383
 28.570    720.000    730.106    -10.106    528.081    726.972    528.081    531.203    528.081
 28.670    684.000    697.289    -13.289    527.780    693.765    527.780    531.293    527.780
 28.770    678.715    727.265    -48.550    527.479    723.283    527.479    531.443    527.479
 28.870    797.000    787.563      9.437    527.178    783.061    527.178    531.659    527.178
 28.970    819.000    825.355     -6.355    526.878    820.276    526.878    531.944    526.878
 29.070    787.000    802.550    -15.550    526.579    796.837    526.579    532.294    526.579
 29.170    738.000    733.605      4.395    526.280    727.201    526.280    532.696    526.280
 29.270    672.401    658.610     13.791    525.981    651.481    525.981    533.124    525.981
 29.370    557.000    603.418    -46.418    525.683    595.581    525.683    533.530    525.683
 29.470    608.000    572.079     35.921    525.385    563.618    525.385    533.852    525.385
 29.570    554.000    557.198     -3.198    525.088    548.273    525.088    534.015    525.088
 29.670    580.000    550.509     29.491    524.792    541.348    524.792    533.953    524.792
 29.770    541.000    547.053     -6.053    524.496    537.921    524.496    533.628    524.496
 29.870    527.143    544.737    -17.594    524.200    535.892    524.200    533.045    524.200
 29.970    526.699    542.887    -16.187    523.906    534.541    523.906    532.251    523.906
 30.070    507.081    541.338    -34.257    523.611    533.634    523.611    531.315    523.611
 30.170    575.000    540.118     34.882    523.318    533.125    523.318    530.310    523.318
 30.270    604.000    539.400     64.600    523.025    533.127    523.025    529.297    523.025
 30.370    551.000    539.643     11.357    522.733    534.056    522.733    528.316    522.733
