neutron_powder_diffraction_0071
R_wp: 4.751
Temperature (K): 749.815
Counts: 83304.00
Wavelength (Ã…): 2.52098
COMMENTS
Test file for demonstrating the .xyy file format in Reel1.0
END OF HEADER
   tth       Y_obs     Y_calc      Y_res    Background    Phase_1_Nuc    Phase_1_Mag    Phase_2_Nuc    Phase_2_Mag
  9.970    574.442    608.176    -33.734    607.073    608.175    607.073    607.073    607.073
 10.070    670.000    609.150     60.850    607.959    609.149    607.959    607.959    607.959
 10.170    709.000    610.121     98.879    608.829    610.120    608.829    608.829    608.829
 10.270    678.000    611.091     66.909    609.684    611.090    609.684    609.684    609.684
 10.370    678.000    612.064     65.936    610.524    612.063    610.524    610.524    610.524
 10.470    688.000    613.045     74.955    611.348    613.044    611.348    611.348    611.348
 10.570    621.000    614.038      6.962    612.158    614.037    612.158    612.158    612.158
 10.670    681.000    615.050     65.950    612.953    615.049    612.953    612.953    612.953
 10.770    638.000    616.122     21.878    613.732    616.120    613.732    613.732    613.732
 10.870    592.397    617.325    -24.928    614.497    617.324    614.497    614.497    614.497
 10.970    678.000    618.470     59.530    615.248    618.468    615.248    615.248    615.248
 11.070    620.961    619.679      1.282    615.984    619.678    615.984    615.984    615.984
 11.170    646.360    620.999     25.361    616.705    620.997    616.705    616.705    616.705
 11.270    642.093    622.477     19.616    617.413    622.475    617.413    617.413    617.413
 11.370    672.000    624.193     47.807    618.106    624.190    618.106    618.106    618.106
 11.470    664.000    626.305     37.695    618.785    626.301    618.785    618.785    618.785
 11.570    630.000    629.176      0.824    619.450    629.171    619.450    619.450    619.450
 11.670    640.966    633.678      7.288    620.101    633.670    620.101    620.101    620.101
 11.770    698.000    641.626     56.374    620.739    641.614    620.739    620.739    620.739
 11.870    715.761    655.933     59.829    621.363    655.914    621.363    621.363    621.363
 11.970    768.000    679.565     88.435    621.973    679.534    621.973    621.973    621.973
 12.070    723.000    712.624     10.376    622.570    712.575    622.570    622.570    622.570
 12.170    735.546    747.797    -12.251    623.154    747.728    623.154    623.154    623.154
 12.270    729.343    767.740    -38.397    623.725    767.661    623.725    623.725    623.725
 12.370    768.096    758.252      9.843    624.282    758.178    624.282    624.282    624.282
 12.470    753.000    727.580     25.420    624.826    727.523    624.826    624.826    624.826
 12.570    711.084    693.842     17.242    625.358    693.804    625.358    625.358    625.358
 12.670    638.000    667.803    -29.803    625.877    667.780    625.877    625.877    625.877
 12.770    602.000    651.531    -49.531    626.383    651.517    626.383    626.383    626.383
 12.870    633.000    642.734     -9.734    626.876    642.725    626.876    626.876    626.876
 12.970    600.000    638.328    -38.328    627.357    638.322    627.357    627.357    627.357
 13.070    587.741    636.103    -48.362    627.825    636.099    627.825    627.825    627.825
 13.170    580.499    634.897    -54.398    628.282    634.893    628.282    628.282    628.282
 13.270    627.010    634.215     -7.205    628.726    634.212    628.726    628.726    628.726
 13.370    608.018    633.806    -25.787    629.158    633.803    629.158    629.158    629.158
 13.470    679.000    633.576     45.424    629.578    633.574    629.578    629.578    629.578
 13.570    657.000    633.473     23.527    629.986    633.471    629.986    629.986    629.986
 13.670    607.000    633.462    -26.462    630.382    633.460    630.382    630.382    630.382
 13.770    627.000    633.516     -6.516    630.767    633.515    630.767    630.767    630.767
 13.870    587.000    633.619    -46.619    631.140    633.618    631.140    631.140    631.140
 13.970    598.627    633.761    -35.134    631.501    633.760    631.501    631.501    631.501
 14.070    641.454    633.923      7.530    631.852    633.923    631.852    631.852    631.852
 14.170    618.000    634.103    -16.103    632.190    634.102    632.190    632.190    632.190
 14.270    633.926    634.295     -0.370    632.518    634.294    632.518    632.518    632.518
 14.370    638.000    634.495      3.505    632.835    634.495    632.835    632.835    632.835
 14.470    621.511    634.700    -13.189    633.140    634.700    633.140    633.140    633.140
 14.570    612.000    634.908    -22.908    633.435    634.907    633.435    633.435    633.435
 14.670    663.268    635.115     28.152    633.718    635.115    633.718    633.718    633.718
 14.770    644.000    635.322      8.678    633.991    635.321    633.991    633.991    633.991
 14.870    606.132    635.526    -29.393    634.254    635.525    634.254    634.254    634.254
 14.970    670.609    635.728     34.881    634.506    635.728    634.506    634.506    634.506
 15.070    603.000    635.953    -32.953    634.747    635.952    634.747    634.747    634.747
 15.170    624.000    636.199    -12.199    634.978    636.199    634.978    634.978    634.978
 15.270    589.000    636.391    -47.391    635.199    636.390    635.199    635.199    635.199
 15.370    690.635    636.569     54.066    635.409    636.569    635.409    635.409    635.409
 15.470    633.000    636.742     -3.742    635.610    636.741    635.610    635.610    635.610
 15.570    613.052    636.907    -23.854    635.800    636.906    635.800    635.800    635.800
 15.670    586.000    637.065    -51.065    635.981    637.064    635.981    635.981    635.981
 15.770    650.119    637.217     12.903    636.152    637.216    636.152    636.152    636.152
 15.870    611.887    637.367    -25.480    636.313    637.367    636.313    636.313    636.313
 15.970    685.853    637.509     48.344    636.464    637.509    636.464    636.464    636.464
 16.070    603.000    637.645    -34.645    636.606    637.645    636.606    636.606    636.606
 16.170    629.000    637.766     -8.766    636.738    637.766    636.738    636.738    636.738
 16.270    594.087    637.881    -43.793    636.861    637.881    636.861    636.861    636.861
 16.370    633.000    638.019     -5.019    636.975    638.019    636.975    636.975    636.975
 16.470    652.849    638.151     14.698    637.080    638.151    637.080    637.080    637.080
 16.570    608.000    638.242    -30.242    637.175    638.242    637.175    637.175    637.175
 16.670    655.132    638.323     16.808    637.261    638.323    637.261    637.261    637.261
 16.770    584.000    638.396    -54.396    637.339    638.395    637.339    637.339    637.339
 16.870    672.300    638.462     33.837    637.407    638.462    637.407    637.407    637.407
 16.970    633.000    638.542     -5.542    637.467    638.542    637.467    637.467    637.467
 17.070    606.000    638.598    -32.598    637.518    638.598    637.518    637.518    637.518
 17.170    649.748    638.650     11.098    637.561    638.650    637.561    637.561    637.561
 17.270    602.000    638.687    -36.687    637.595    638.687    637.595    637.595    637.595
 17.370    549.000    638.713    -89.713    637.621    638.713    637.621    637.621    637.621
 17.470    601.000    638.731    -37.731    637.638    638.731    637.638    637.638    637.638
 17.570    618.000    638.741    -20.741    637.647    638.741    637.647    637.647    637.647
 17.670    590.000    638.743    -48.743    637.648    638.743    637.648    637.648    637.648
 17.770    647.124    638.739      8.385    637.640    638.739    637.640    637.640    637.640
 17.870    578.000    638.732    -60.732    637.625    638.731    637.625    637.625    637.625
 17.970    625.211    638.741    -13.530    637.602    638.741    637.602    637.602    637.602
 18.070    618.281    638.734    -20.453    637.570    638.734    637.570    637.570    637.570
 18.170    624.000    638.724    -14.724    637.532    638.724    637.532    637.532    637.532
 18.270    607.000    638.693    -31.693    637.485    638.693    637.485    637.485    637.485
 18.370    598.500    638.666    -40.166    637.431    638.666    637.431    637.431    637.431
 18.470    672.391    638.646     33.746    637.369    638.645    637.369    637.369    637.369
 18.570    674.577    638.623     35.955    637.300    638.622    637.300    637.300    637.300
 18.670    594.000    638.565    -44.565    637.223    638.565    637.223    637.223    637.223
 18.770    627.000    638.518    -11.518    637.139    638.518    637.139    637.139    637.139
 18.870    630.000    638.438     -8.438    637.048    638.438    637.048    637.048    637.048
 18.970    656.507    638.354     18.154    636.950    638.353    636.950    636.950    636.950
 19.070    627.321    638.298    -10.977    636.844    638.298    636.844    636.844    636.844
 19.170    631.000    638.211     -7.211    636.732    638.211    636.732    636.732    636.732
 19.270    599.000    638.105    -39.105    636.613    638.105    636.613    636.613    636.613
 19.370    592.000    637.991    -45.991    636.486    637.991    636.486    636.486    636.486
 19.470    584.340    637.871    -53.532    636.353    637.871    636.353    636.353    636.353
 19.570    610.000    637.745    -27.745    636.214    637.745    636.214    636.214    636.214
 19.670    613.000    637.614    -24.614    636.068    637.614    636.068    636.068    636.068
 19.770    627.000    637.484    -10.484    635.915    637.484    635.915    635.915    635.915
 19.870    610.000    637.343    -27.343    635.756    637.343    635.756    635.756    635.756
 19.970    560.000    637.202    -77.202    635.590    637.202    635.590    635.590    635.590
 20.070    550.000    637.051    -87.051    635.418    637.051    635.418    635.418    635.418
 20.170    626.061    636.893    -10.832    635.240    636.893    635.240    635.240    635.240
 20.270    590.000    636.728    -46.728    635.055    636.728    635.055    635.055    635.055
 20.370    620.000    636.558    -16.558    634.865    636.558    634.865    634.865    634.865
 20.470    644.773    636.382      8.391    634.668    636.382    634.668    634.668    634.668
 20.570    625.000    636.201    -11.201    634.466    636.201    634.466    634.466    634.466
 20.670    603.000    636.015    -33.015    634.258    636.015    634.258    634.258    634.258
 20.770    581.000    635.827    -54.827    634.043    635.827    634.043    634.043    634.043
 20.870    591.441    635.633    -44.193    633.823    635.633    633.823    633.823    633.823
 20.970    605.948    635.434    -29.486    633.598    635.434    633.598    633.598    633.598
 21.070    586.940    635.230    -48.290    633.366    635.230    633.366    633.366    633.366
 21.170    631.502    635.022     -3.519    633.130    635.022    633.130    633.130    633.130
 21.270    625.000    634.810     -9.810    632.887    634.810    632.887    632.887    632.887
 21.370    597.000    634.595    -37.595    632.640    634.595    632.640    632.640    632.640
 21.470    680.101    634.376     45.725    632.387    634.376    632.387    632.387    632.387
 21.570    608.000    634.154    -26.154    632.128    634.154    632.128    632.128    632.128
 21.670    595.000    633.929    -38.929    631.865    633.929    631.865    631.865    631.865
 21.770    655.995    633.702     22.293    631.596    633.702    631.596    631.596    631.596
 21.870    598.673    633.472    -34.799    631.323    633.472    631.323    631.323    631.323
 21.970    594.000    633.240    -39.240    631.044    633.240    631.044    631.044    631.044
 22.070    617.000    633.007    -16.007    630.760    633.008    630.760    630.760    630.760
 22.170    574.000    632.775    -58.775    630.472    632.775    630.472    630.472    630.472
 22.270    665.908    632.542     33.366    630.179    632.542    630.179    630.179    630.179
 22.370    620.352    632.308    -11.957    629.881    632.309    629.881    629.881    629.881
 22.470    683.535    632.077     51.458    629.578    632.077    629.578    629.578    629.578
 22.570    602.880    631.847    -28.967    629.271    631.847    629.271    629.271    629.271
 22.670    622.693    631.620     -8.926    628.959    631.620    628.959    628.959    628.959
 22.770    622.000    631.398     -9.398    628.642    631.398    628.642    628.642    628.642
 22.870    635.242    631.182      4.061    628.322    631.182    628.322    628.322    628.322
 22.970    609.000    630.975    -21.975    627.997    630.975    627.997    627.997    627.997
 23.070    623.000    630.779     -7.779    627.667    630.780    627.667    627.667    627.667
 23.170    591.000    630.597    -39.597    627.334    630.598    627.334    627.334    627.334
 23.270    580.551    630.433    -49.882    626.996    630.434    626.996    626.996    626.996
 23.370    655.000    630.294     24.706    626.654    630.294    626.654    626.654    626.654
 23.470    620.000    630.185    -10.185    626.308    630.186    626.308    626.308    626.308
 23.570    633.000    630.118      2.882    625.958    630.119    625.958    625.958    625.958
 23.670    676.000    630.105     45.895    625.604    630.106    625.604    625.604    625.604
 23.770    630.003    630.166     -0.163    625.246    630.168    625.246    625.246    625.246
 23.870    621.000    630.329     -9.329    624.885    630.331    624.885    624.885    624.885
 23.970    602.000    630.640    -28.640    624.519    630.642    624.519    624.519    624.519
 24.070    642.000    631.183     10.817    624.150    631.186    624.150    624.150    624.150
 24.170    623.000    632.146     -9.146    623.778    632.150    623.778    623.778    623.778
 24.270    684.000    633.949     50.051    623.402    633.955    623.402    623.402    623.402
 24.370    604.000    637.506    -33.506    623.022    637.514    623.022    623.022    623.022
 24.470    630.880    644.367    -13.487    622.639    644.381    622.639    622.639    622.639
 24.570    660.000    656.416      3.584    622.252    656.438    622.252    622.252    622.252
 24.670    669.691    674.601     -4.910    621.862    674.636    621.862    621.862    621.862
 24.770    756.000    696.641     59.359    621.469    696.693    621.469    621.469    621.469
 24.870    742.000    714.746     27.254    621.073    714.811    621.073    621.073    621.073
 24.970    673.000    718.158    -45.158    620.673    718.226    620.673    620.673    620.673
 25.070    706.000    703.941      2.059    620.270    703.999    620.270    620.270    620.270
 25.170    701.000    681.348     19.652    619.864    681.390    619.864    619.864    619.864
 25.270    650.000    660.466    -10.466    619.456    660.493    619.456    619.456    619.456
 25.370    638.000    645.489     -7.489    619.044    645.505    619.044    619.044    619.044
 25.470    693.538    636.327     57.211    618.629    636.337    618.629    618.629    618.629
 25.570    675.729    631.207     44.522    618.212    631.213    618.212    618.212    618.212
 25.670    695.000    628.353     66.647    617.792    628.357    617.792    617.792    617.792
 25.770    646.000    626.618     19.382    617.369    626.621    617.369    617.369    617.369
 25.870    668.000    625.429     42.571    616.943    625.432    616.943    616.943    616.943
 25.970    655.413    624.540     30.873    616.515    624.542    616.515    616.515    616.515
 26.070    672.000    623.846     48.154    616.084    623.847    616.084    616.084    616.084
 26.170    662.000    623.296     38.704    615.650    623.297    615.650    615.650    615.650
 26.270    679.464    622.864     56.599    615.215    622.865    615.215    615.215    615.215
 26.370    696.000    622.536     73.464    614.776    622.536    614.776    614.776    614.776
 26.470    654.000    622.303     31.697    614.336    622.303    614.336    614.336    614.336
 26.570    656.677    622.167     34.510    613.893    622.167    613.893    613.893    613.893
 26.670    633.165    622.133     11.032    613.447    622.133    613.447    613.447    613.447
 26.770    686.000    622.212     63.788    613.000    622.211    613.000    613.000    613.000
 26.870    681.000    622.422     58.578    612.550    622.421    612.550    612.550    612.550
 26.970    668.000    622.790     45.210    612.098    622.789    612.098    612.098    612.098
 27.070    683.000    623.355     59.645    611.645    623.354    611.645    611.645    611.645
 27.170    632.418    624.170      8.247    611.189    624.169    611.189    611.189    611.189
 27.270    667.731    625.315     42.416    610.731    625.313    610.731    610.731    610.731
 27.370    724.000    626.907     97.093    610.271    626.904    610.271    610.271    610.271
 27.470    778.000    629.147    148.853    609.810    629.144    609.810    609.810    609.810
 27.570    771.000    632.454    138.546    609.346    632.450    609.346    609.346    609.346
 27.670    758.000    637.859    120.141    608.881    637.854    608.881    608.881    608.881
 27.770    633.788    647.922    -14.134    608.414    647.913    608.414    608.414    608.414
 27.870    746.000    668.026     77.974    607.945    668.011    607.945    607.945    607.945
 27.970    839.000    706.622    132.378    607.475    706.595    607.475    607.475    607.475
 28.070    842.000    771.575     70.425    607.003    771.528    607.003    607.003    607.003
 28.170    885.543    861.212     24.332    606.530    861.142    606.530    606.530    606.530
 28.270    943.215    952.872     -9.657    606.055    952.784    606.055    606.055    606.055
 28.370   1104.000   1000.426    103.574    605.578   1000.339    605.578    605.578    605.578
 28.470   1047.627    973.455     74.172    605.100    973.393    605.100    605.100    605.100
 28.570    851.025    903.582    -52.556    604.621    903.546    604.621    604.621    604.621
 28.670    948.000    843.290    104.710    604.141    843.269    604.141    604.141    604.141
 28.770    843.686    822.008     21.679    603.659    821.990    603.659    603.659    603.659
 28.870   1022.000    840.931    181.069    603.176    840.910    603.176    603.176    603.176
 28.970    995.000    877.835    117.165    602.692    877.814    602.692    602.692    602.692
 29.070    986.000    895.061     90.939    602.206    895.046    602.206    602.206    602.206
 29.170    989.000    867.033    121.967    601.720    867.030    601.720    601.720    601.720
 29.270    954.000    807.266    146.734    601.232    807.271    601.232    601.232    601.232
 29.370    838.000    743.999     94.001    600.744    744.007    600.744    600.744    600.744
 29.470    836.000    693.875    142.125    600.254    693.881    600.254    600.254    600.254
 29.570    808.000    660.639    147.361    599.764    660.643    599.764    599.764    599.764
 29.670    703.000    641.069     61.931    599.272    641.070    599.272    599.272    599.272
 29.770    742.000    630.133    111.867    598.780    630.132    598.780    598.780    598.780
 29.870    742.000    623.847    118.153    598.287    623.846    598.287    598.287    598.287
 29.970    571.588    619.911    -48.323    597.793    619.909    597.793    597.793    597.793
 30.070    560.538    617.249    -56.712    597.298    617.247    597.298    597.298    597.298
 30.170    766.000    615.433    150.567    596.803    615.430    596.803    596.803    596.803
 30.270    708.000    614.361     93.639    596.307    614.357    596.307    596.307    596.307
 30.370    675.000    614.184     60.816    595.811    614.179    595.811    595.811    595.811
