neutron_powder_diffraction_0042
R_wp: 3.765
Temperature (K): 603.090
Counts: 83376.00
Wavelength (Ã…): 2.52098
COMMENTS
Test file for demonstrating the .xyy file format in Reel1.0
END OF HEADER
   tth       Y_obs     Y_calc      Y_res    Background    Phase_1_Nuc    Phase_1_Mag    Phase_2_Nuc    Phase_2_Mag
  9.970    698.000    684.442     13.558    682.876    683.977    683.341    682.876    682.876
 10.070    700.000    683.786     16.214    682.126    683.316    682.595    682.126    682.126
 10.170    722.063    683.144     38.919    681.377    682.669    681.852    681.377    681.377
 10.270    697.000    682.518     14.482    680.630    682.038    681.109    680.630    680.630
 10.370    723.000    681.912     41.088    679.884    681.426    680.369    679.884    679.884
 10.470    717.000    681.329     35.671    679.141    680.838    679.631    679.141    679.141
 10.570    638.777    680.775    -41.998    678.399    680.279    678.894    678.399    678.399
 10.670    634.291    680.255    -45.965    677.658    679.753    678.159    677.658    677.658
 10.770    644.156    679.779    -35.623    676.920    679.271    677.426    676.920    676.920
 10.870    666.000    679.356    -13.356    676.183    678.843    676.695    676.183    676.183
 10.970    722.000    679.004     42.996    675.449    678.484    675.966    675.449    675.449
 11.070    714.000    678.742     35.258    674.715    678.217    675.239    674.715    674.715
 11.170    700.240    678.603     21.637    673.984    678.071    674.514    673.984    673.984
 11.270    745.000    678.626     66.374    673.255    678.088    673.791    673.255    673.255
 11.370    667.000    678.889    -11.889    672.527    678.344    673.069    672.527    672.527
 11.470    700.305    679.536     20.769    671.802    678.984    672.350    671.802    671.802
 11.570    656.460    680.877    -24.417    671.078    680.318    671.632    671.078    671.078
 11.670    731.000    683.584     47.416    670.356    683.016    670.917    670.356    670.356
 11.770    724.371    688.940     35.432    669.636    688.362    670.203    669.636    669.636
 11.870    757.000    698.893     58.107    668.918    698.304    669.492    668.918    668.918
 11.970    728.298    715.473     12.825    668.201    714.867    668.782    668.201    668.201
 12.070    823.000    739.141     83.859    667.487    738.515    668.075    667.487    667.487
 12.170    786.592    765.988     20.604    666.775    765.340    667.370    666.775    666.775
 12.270    807.000    785.320     21.680    666.064    784.654    666.666    666.064    666.064
 12.370    773.000    784.992    -11.992    665.356    784.319    665.965    665.356    665.356
 12.470    772.950    764.715      8.235    664.650    764.045    665.266    664.650    664.650
 12.570    755.626    736.483     19.143    663.945    735.820    664.569    663.945    663.945
 12.670    740.000    711.220     28.780    663.243    710.563    663.875    663.243    663.243
 12.770    648.000    693.016    -45.016    662.542    692.360    663.182    662.542    662.542
 12.870    675.000    681.489     -6.489    661.844    680.832    662.492    661.844    661.844
 12.970    701.561    674.630     26.931    661.147    673.967    661.803    661.147    661.147
 13.070    626.000    670.468    -44.468    660.453    669.799    661.117    660.453    660.453
 13.170    649.000    667.702    -18.702    659.761    667.025    660.433    659.761    659.761
 13.270    594.000    665.643    -71.643    659.071    664.958    659.752    659.071    659.071
 13.370    656.000    663.974     -7.974    658.383    663.281    659.073    658.383    658.383
 13.470    653.000    662.550     -9.550    657.696    661.848    658.395    657.696    657.696
 13.570    643.000    661.296    -18.296    657.013    660.586    657.721    657.013    657.013
 13.670    622.000    660.224    -38.224    656.331    659.504    657.048    656.331    656.331
 13.770    614.685    659.289    -44.603    655.651    658.560    656.379    655.651    655.651
 13.870    654.671    658.325     -3.653    654.973    657.586    655.711    654.973    654.973
 13.970    662.000    657.405      4.595    654.298    656.657    655.045    654.298    654.298
 14.070    693.000    656.530     36.470    653.625    655.771    654.382    653.625    653.625
 14.170    682.000    655.689     26.311    652.953    654.921    653.721    652.953    652.953
 14.270    625.637    654.878    -29.241    652.284    654.099    653.063    652.284    652.284
 14.370    655.000    654.091      0.909    651.618    653.302    652.406    651.618    651.618
 14.470    659.000    653.325      5.675    650.953    652.524    651.753    650.953    650.953
 14.570    677.000    652.575     24.425    650.291    651.764    651.101    650.291    650.291
 14.670    660.000    651.841      8.159    649.630    651.018    650.453    649.630    649.630
 14.770    607.000    651.120    -44.120    648.972    650.285    649.806    648.972    648.972
 14.870    648.000    650.410     -2.410    648.316    649.563    649.162    648.316    648.316
 14.970    607.000    649.710    -42.710    647.663    648.851    648.521    647.663    647.663
 15.070    585.000    649.019    -64.019    647.011    648.148    647.882    647.011    647.011
 15.170    646.000    648.336     -2.336    646.362    647.453    647.246    646.362    646.362
 15.270    610.000    647.661    -37.661    645.716    646.765    646.612    645.716    645.716
 15.370    606.000    646.993    -40.993    645.071    646.083    645.981    645.071    645.071
 15.470    613.400    646.332    -32.931    644.429    645.408    645.352    644.429    644.429
 15.570    692.542    645.679     46.863    643.789    644.742    644.726    643.789    643.789
 15.670    679.511    645.031     34.480    643.151    644.079    644.102    643.151    643.151
 15.770    602.586    644.386    -41.801    642.515    643.420    643.481    642.515    642.515
 15.870    674.189    643.746     30.443    641.882    642.765    642.863    641.882    641.882
 15.970    638.740    643.111     -4.371    641.251    642.115    642.247    641.251    641.251
 16.070    669.486    642.484     27.001    640.623    641.473    641.634    640.623    640.623
 16.170    622.000    641.862    -19.862    639.997    640.834    641.024    639.997    639.997
 16.270    653.000    641.241     11.759    639.373    640.197    640.417    639.373    639.373
 16.370    607.000    640.623    -33.623    638.751    639.562    639.812    638.751    638.751
 16.470    658.606    640.010     18.596    638.132    638.932    639.210    638.132    638.132
 16.570    680.165    639.400     40.765    637.515    638.304    638.611    637.515    637.515
 16.670    629.000    638.794     -9.794    636.901    637.681    638.014    636.901    636.901
 16.770    669.000    638.192     30.808    636.288    637.060    637.420    636.288    636.288
 16.870    639.000    637.594      1.406    635.679    636.443    636.830    635.679    635.679
 16.970    667.446    637.000     30.446    635.071    635.829    636.242    635.071    635.071
 17.070    606.000    636.416    -30.416    634.466    635.226    635.657    634.466    634.466
 17.170    613.653    635.902    -22.249    633.864    634.690    635.076    633.864    633.864
 17.270    629.000    635.340     -6.340    633.263    634.106    634.497    633.263    633.263
 17.370    605.000    634.764    -29.764    632.666    633.508    633.921    632.666    632.666
 17.470    644.989    634.203     10.786    632.070    632.925    633.348    632.070    632.070
 17.570    587.144    633.647    -46.503    631.477    632.347    632.777    631.477    631.477
 17.670    620.000    633.080    -13.080    630.887    631.756    632.210    630.887    630.887
 17.770    594.925    632.515    -37.590    630.298    631.168    631.646    630.298    630.298
 17.870    625.000    631.955     -6.955    629.713    630.582    631.085    629.713    629.713
 17.970    610.000    631.397    -21.397    629.129    630.000    630.527    629.129    629.129
 18.070    633.000    630.843      2.157    628.549    629.420    629.972    628.549    628.549
 18.170    614.089    630.294    -16.204    627.970    628.843    629.420    627.970    627.970
 18.270    581.000    629.747    -48.747    627.394    628.269    628.872    627.394    627.394
 18.370    596.000    629.205    -33.205    626.821    627.699    628.327    626.821    626.821
 18.470    602.000    628.669    -26.669    626.250    627.134    627.785    626.250    626.250
 18.570    596.000    628.144    -32.144    625.681    626.579    627.247    625.681    625.681
 18.670    649.007    627.614     21.393    625.115    626.018    626.712    625.115    625.115
 18.770    648.901    627.087     21.814    624.552    625.459    626.180    624.552    624.552
 18.870    608.000    626.564    -18.564    623.991    624.903    625.652    623.991    623.991
 18.970    665.232    626.044     39.188    623.432    624.350    625.127    623.432    623.432
 19.070    614.000    625.530    -11.530    622.876    623.800    624.606    622.876    622.876
 19.170    640.000    625.020     14.980    622.322    623.254    624.088    622.322    622.322
 19.270    662.892    624.513     38.379    621.771    622.710    623.574    621.771    621.771
 19.370    633.000    624.010      8.990    621.222    622.169    623.063    621.222    621.222
 19.470    647.101    623.514     23.587    620.676    621.633    622.557    620.676    620.676
 19.570    667.023    623.049     43.974    620.133    621.120    622.062    620.133    620.133
 19.670    658.646    622.603     36.043    619.592    620.621    621.573    619.592    619.592
 19.770    585.823    622.133    -36.310    619.053    620.107    621.079    619.053    619.053
 19.870    588.267    621.673    -33.407    618.517    619.601    620.589    618.517    618.517
 19.970    636.000    621.200     14.800    617.984    619.081    620.102    617.984    617.984
 20.070    613.000    620.732     -7.732    617.453    618.563    619.621    617.453    617.453
 20.170    630.000    620.281      9.719    616.924    618.053    619.151    616.924    616.924
 20.270    626.000    619.848      6.152    616.398    617.564    618.682    616.398    616.398
 20.370    618.000    619.456     -1.456    615.875    617.115    618.216    615.875    615.875
 20.470    588.393    619.027    -30.634    615.354    616.630    617.751    615.354    615.354
 20.570    613.000    618.589     -5.589    614.836    616.133    617.291    614.836    614.836
 20.670    640.120    618.197     21.923    614.320    615.681    616.836    614.320    614.320
 20.770    634.191    617.803     16.388    613.807    615.224    616.385    613.807    613.807
 20.870    614.000    617.392     -3.392    613.296    614.749    615.940    613.296    613.296
 20.970    608.392    616.978     -8.586    612.788    614.266    615.499    612.788    612.788
 21.070    585.573    616.575    -31.002    612.283    613.790    615.068    612.283    612.283
 21.170    623.277    616.172      7.105    611.780    613.314    614.638    611.780    611.780
 21.270    624.000    615.773      8.227    611.279    612.839    614.213    611.279    611.279
 21.370    597.000    615.380    -18.380    610.781    612.368    613.794    610.781    610.781
 21.470    620.345    614.998      5.347    610.286    611.904    613.380    610.286    610.286
 21.570    627.000    614.622     12.378    609.794    611.442    612.973    609.794    609.794
 21.670    638.985    614.262     24.723    609.303    610.994    612.572    609.303    609.303
 21.770    648.818    613.905     34.913    608.816    610.544    612.177    608.816    608.816
 21.870    613.000    613.554     -0.554    608.331    610.096    611.789    608.331    608.331
 21.970    649.000    613.213     35.787    607.849    609.654    611.408    607.849    607.849
 22.070    611.648    612.882     -1.234    607.369    609.217    611.034    607.369    607.369
 22.170    583.303    612.562    -29.259    606.892    608.786    610.667    606.892    606.892
 22.270    604.000    612.254     -8.254    606.417    608.362    610.309    606.417    606.417
 22.370    638.000    611.958     26.042    605.945    607.946    609.958    605.945    605.945
 22.470    614.000    611.677      2.323    605.476    607.537    609.616    605.476    605.476
 22.570    641.000    611.411     29.589    605.009    607.138    609.282    605.009    605.009
 22.670    653.000    611.163     41.837    604.545    606.750    608.958    604.545    604.545
 22.770    625.000    610.932     14.068    604.083    606.372    608.644    604.083    604.083
 22.870    643.571    610.720     32.851    603.624    606.004    608.340    603.624    603.624
 22.970    565.974    610.530    -44.556    603.167    605.652    608.046    603.167    603.167
 23.070    641.048    610.371     30.677    602.713    605.319    607.766    602.713    602.713
 23.170    570.352    610.237    -39.885    602.262    605.003    607.496    602.262    602.262
 23.270    586.000    610.134    -24.134    601.813    604.708    607.239    601.813    601.813
 23.370    630.000    610.068     19.932    601.367    604.441    606.995    601.367    601.367
 23.470    583.284    610.048    -26.764    600.924    604.207    606.766    600.924    600.924
 23.570    572.000    610.083    -38.083    600.483    604.016    606.552    600.483    600.483
 23.670    630.860    610.186     20.674    600.045    603.877    606.354    600.045    600.045
 23.770    605.191    610.371     -5.180    599.609    603.807    606.174    599.609    599.609
 23.870    652.644    610.662     41.981    599.176    603.828    606.012    599.176    599.176
 23.970    623.000    611.097     11.903    598.745    603.974    605.870    598.745    598.745
 24.070    606.000    611.734     -5.734    598.317    604.305    605.749    598.317    598.317
 24.170    621.000    612.695      8.305    597.892    604.938    605.652    597.892    597.892
 24.270    645.000    614.237     30.763    597.469    606.131    605.580    597.469    597.469
 24.370    615.861    616.895     -1.034    597.049    608.415    605.536    597.049    597.049
 24.470    709.000    621.622     87.378    596.632    612.742    605.521    596.632    596.632
 24.570    597.878    629.739    -31.861    596.217    620.433    605.539    596.217    596.217
 24.670    663.520    642.420     21.100    595.804    632.657    605.592    595.804    595.804
 24.770    662.000    659.521      2.479    595.395    649.268    605.684    595.395    595.395
 24.870    680.000    677.741      2.259    594.987    666.960    605.819    594.987    594.987
 24.970    713.000    689.451     23.549    594.583    678.092    606.002    594.583    594.583
 25.070    714.381    687.505     26.875    594.181    675.508    606.236    594.181    594.181
 25.170    727.000    673.600     53.400    593.781    660.899    606.529    593.781    593.781
 25.270    636.000    655.829    -19.829    593.385    642.360    606.887    593.385    593.385
 25.370    620.302    640.541    -20.239    592.990    626.236    607.318    592.990    592.990
 25.470    655.000    629.949     25.051    592.599    614.731    607.831    592.599    592.599
 25.570    615.000    623.693     -8.693    592.210    607.474    608.436    592.210    592.210
 25.670    663.000    620.499     42.501    591.823    603.181    609.147    591.823    591.823
 25.770    668.000    619.154     48.846    591.440    600.620    609.977    591.440    591.440
 25.870    662.565    618.859     43.706    591.058    598.976    610.944    591.058    591.058
 25.970    654.000    619.199     34.801    590.680    597.811    612.069    590.680    590.680
 26.070    632.000    619.994     12.006    590.303    596.921    613.377    590.303    590.303
 26.170    587.009    621.179    -34.170    589.930    596.211    614.899    589.930    589.930
 26.270    659.000    622.746     36.254    589.559    595.633    616.672    589.559    589.559
 26.370    554.000    624.713    -70.713    589.191    595.162    618.741    589.191    589.191
 26.470    601.000    627.121    -26.121    588.825    594.781    621.164    588.825    588.825
 26.570    654.000    630.035     23.965    588.462    594.483    624.013    588.462    588.462
 26.670    685.000    633.547     51.453    588.101    594.265    627.380    588.101    588.101
 26.770    622.296    637.768    -15.472    587.743    594.127    631.381    587.743    587.743
 26.870    644.000    642.859      1.141    587.387    594.075    636.168    587.387    587.387
 26.970    633.315    649.040    -15.725    587.034    594.125    641.946    587.034    587.034
 27.070    656.438    656.599     -0.161    586.684    594.289    648.990    586.684    586.684
 27.170    669.000    665.937      3.063    586.336    594.592    657.675    586.336    586.336
 27.270    668.000    677.624     -9.624    585.991    595.074    668.534    585.991    585.991
 27.370    715.142    692.487     22.655    585.648    595.791    682.335    585.648    585.648
 27.470    762.137    711.798     50.339    585.308    596.831    700.263    585.308    585.308
 27.570    714.900    737.840    -22.940    584.970    598.349    724.446    584.970    584.970
 27.670    776.000    776.069     -0.069    584.635    600.718    759.965    584.635    584.635
 27.770    823.000    842.618    -19.618    584.303    605.031    821.853    584.303    584.303
 27.870    922.898    983.649    -60.751    583.973    614.412    953.135    583.973    583.973
 27.970   1260.000   1304.799    -44.799    583.645    636.003   1252.279    583.645    583.645
 28.070   1925.000   1973.212    -48.212    583.320    681.106   1875.106    583.320    583.320
 28.170   3043.000   3116.776    -73.776    582.998    758.383   2940.871    582.998    582.998
 28.270   4533.000   4600.241    -67.241    582.678    858.759   4323.506    582.678    582.678
 28.370   5767.543   5845.487    -77.944    582.361    943.322   5483.957    582.361    582.361
 28.470   6137.000   6094.498     42.502    582.046    961.195   5715.070    582.046    582.046
 28.570   5435.000   5207.482    227.518    581.733    903.653   4885.535    581.733    581.733
 28.670   3993.000   3913.032     79.968    581.424    821.259   3673.253    581.424    581.424
 28.770   2985.655   2991.753     -6.098    581.116    768.506   2804.384    581.116    581.116
 28.870   2661.000   2743.483    -82.483    580.812    766.613   2557.645    580.812    580.812
 28.970   2932.000   3017.990    -85.990    580.509    803.440   2795.024    580.509    580.509
 29.070   3341.686   3397.406    -55.720    580.210    844.080   3133.593    580.210    580.210
 29.170   3582.000   3432.792    149.208    579.912    849.344   3163.550    579.912    579.912
 29.270   2998.000   2978.132     19.868    579.618    806.994   2751.007    579.618    579.618
 29.370   2236.000   2284.433    -48.433    579.325    741.511   2122.469    579.325    579.325
 29.470   1639.153   1651.688    -12.535    579.035    681.644   1549.232    579.035    579.035
 29.570   1138.000   1211.724    -73.724    578.748    640.018   1150.542    578.748    578.748
 29.670    994.000    957.863     36.137    578.463    616.040    920.330    578.463    578.463
 29.770    820.582    827.310     -6.728    578.181    603.765    801.747    578.181    578.181
 29.870    794.000    760.944     33.056    577.901    597.588    741.268    577.901    577.901
 29.970    680.012    723.560    -43.548    577.623    594.179    707.011    577.623    577.623
 30.070    758.000    699.220     58.780    577.348    592.045    684.527    577.348    577.348
 30.170    680.000    681.709     -1.709    577.076    590.623    668.164    577.076    577.076
 30.270    680.000    668.592     11.408    576.806    589.730    655.668    576.806    576.806
 30.370    702.000    658.843     43.157    576.538    589.374    646.005    576.538    576.538
