neutron_powder_diffraction_0090
R_wp: 4.023
Temperature (K): 840.104
Counts: 83562.00
Wavelength (Ã…): 2.52098
COMMENTS
Test file for demonstrating the .xyy file format in Reel1.0
END OF HEADER
   tth       Y_obs     Y_calc      Y_res    Background    Phase_1_Nuc    Phase_1_Mag    Phase_2_Nuc    Phase_2_Mag
  9.970    606.000    553.039     52.961    551.316    552.362    551.316    551.811    551.498
 10.070    508.807    553.736    -44.928    551.918    553.056    551.918    552.414    552.101
 10.170    530.027    554.430    -24.403    552.508    553.746    552.508    553.006    552.693
 10.270    605.000    555.126     49.874    553.085    554.438    553.085    553.585    553.272
 10.370    585.414    555.828     29.586    553.650    555.137    553.650    554.152    553.838
 10.470    595.000    556.541     38.459    554.202    555.845    554.202    554.707    554.393
 10.570    526.261    557.268    -31.008    554.743    556.569    554.743    555.249    554.935
 10.670    588.000    558.018     29.982    555.272    557.314    555.272    555.780    555.466
 10.770    523.641    558.799    -35.158    555.788    558.091    555.788    556.299    555.984
 10.870    597.000    559.623     37.377    556.293    558.911    556.293    556.806    556.491
 10.970    563.935    560.507      3.428    556.787    559.791    556.787    557.302    556.987
 11.070    520.600    561.476    -40.875    557.269    560.755    557.269    557.786    557.470
 11.170    631.000    562.560     68.440    557.739    561.835    557.739    558.258    557.943
 11.270    551.000    563.812    -12.812    558.198    563.082    558.198    558.719    558.404
 11.370    573.000    565.321      7.679    558.645    564.587    558.645    559.169    558.853
 11.470    591.000    567.270     23.730    559.082    566.530    559.082    559.607    559.292
 11.570    644.000    570.073     73.927    559.507    569.327    559.507    560.035    559.719
 11.670    571.000    574.645     -3.645    559.921    573.893    559.921    560.451    560.136
 11.770    617.000    582.697     34.303    560.325    581.937    560.325    560.857    560.541
 11.870    596.000    596.631     -0.631    560.717    595.858    560.717    561.252    560.936
 11.970    640.517    618.410     22.107    561.099    617.621    561.099    561.636    561.320
 12.070    691.010    647.079     43.930    561.470    646.270    561.470    562.009    561.693
 12.170    656.000    675.181    -19.181    561.830    674.352    561.830    562.372    562.056
 12.270    653.000    687.611    -34.611    562.180    686.772    562.180    562.725    562.409
 12.370    679.000    674.769      4.231    562.520    673.931    562.520    563.067    562.751
 12.470    620.603    646.949    -26.346    562.850    646.122    562.850    563.399    563.083
 12.570    650.000    619.172     30.828    563.169    618.355    563.169    563.721    563.404
 12.670    580.518    598.504    -17.986    563.478    597.694    563.478    564.032    563.716
 12.770    539.000    585.648    -46.648    563.777    584.840    563.777    564.334    564.018
 12.870    597.000    578.554     18.446    564.066    577.744    564.066    564.625    564.310
 12.970    585.000    574.828     10.172    564.345    574.015    564.345    564.907    564.592
 13.070    535.518    572.803    -37.285    564.615    571.986    564.615    565.179    564.864
 13.170    584.000    571.598     12.402    564.875    570.776    564.875    565.442    565.127
 13.270    558.905    570.818    -11.914    565.125    569.992    565.125    565.695    565.380
 13.370    529.233    570.290    -41.057    565.366    569.459    565.366    565.938    565.624
 13.470    598.482    569.929     28.553    565.597    569.092    565.597    566.173    565.858
 13.570    563.000    569.684     -6.684    565.820    568.842    565.820    566.397    566.083
 13.670    565.000    569.524     -4.524    566.032    568.675    566.032    566.613    566.299
 13.770    520.757    569.424    -48.668    566.236    568.570    566.236    566.819    566.506
 13.870    547.924    569.370    -21.446    566.431    568.511    566.431    567.017    566.703
 13.970    569.000    569.350     -0.350    566.616    568.484    566.616    567.205    566.892
 14.070    530.164    569.354    -39.191    566.793    568.483    566.793    567.385    567.072
 14.170    585.628    569.377     16.250    566.961    568.499    566.961    567.556    567.244
 14.270    545.000    569.415    -24.415    567.120    568.530    567.120    567.718    567.406
 14.370    587.000    569.461     17.539    567.271    568.570    567.271    567.872    567.560
 14.470    565.000    569.513     -4.513    567.413    568.616    567.413    568.017    567.706
 14.570    576.000    569.569      6.431    567.546    568.665    567.546    568.153    567.843
 14.670    545.000    569.627    -24.627    567.671    568.716    567.671    568.281    567.972
 14.770    548.000    569.686    -21.686    567.788    568.768    567.788    568.401    568.092
 14.870    533.000    569.745    -36.745    567.896    568.821    567.896    568.513    568.204
 14.970    529.000    569.821    -40.821    567.997    568.889    567.997    568.616    568.309
 15.070    580.644    569.885     10.760    568.089    568.946    568.089    568.712    568.405
 15.170    541.000    569.941    -28.941    568.173    568.995    568.173    568.799    568.493
 15.270    544.000    569.994    -25.994    568.250    569.041    568.250    568.879    568.574
 15.370    570.308    570.095      0.213    568.318    569.134    568.318    568.951    568.646
 15.470    557.000    570.203    -13.203    568.379    569.234    568.379    569.015    568.711
 15.570    599.000    570.244     28.756    568.432    569.268    568.432    569.071    568.769
 15.670    530.329    570.274    -39.945    568.477    569.290    568.477    569.120    568.818
 15.770    583.889    570.299     13.590    568.515    569.307    568.515    569.161    568.861
 15.870    525.000    570.318    -45.318    568.545    569.318    568.545    569.195    568.896
 15.970    533.000    570.333    -37.333    568.568    569.324    568.568    569.222    568.924
 16.070    594.090    570.341     23.749    568.584    569.324    568.584    569.241    568.944
 16.170    546.000    570.345    -24.345    568.593    569.318    568.593    569.254    568.958
 16.270    545.208    570.342    -25.135    568.594    569.307    568.594    569.259    568.964
 16.370    589.954    570.334     19.620    568.588    569.290    568.588    569.257    568.963
 16.470    584.000    570.320     13.680    568.575    569.267    568.575    569.248    568.956
 16.570    577.000    570.301      6.699    568.556    569.238    568.556    569.232    568.942
 16.670    577.000    570.275      6.725    568.529    569.203    568.529    569.209    568.921
 16.770    568.000    570.244     -2.244    568.496    569.163    568.496    569.180    568.893
 16.870    542.000    570.208    -28.208    568.456    569.116    568.456    569.144    568.859
 16.970    559.000    570.165    -11.165    568.409    569.064    568.409    569.102    568.818
 17.070    530.622    570.117    -39.495    568.356    569.006    568.356    569.053    568.770
 17.170    570.553    570.064      0.489    568.296    568.942    568.296    568.997    568.717
 17.270    523.483    570.005    -46.521    568.230    568.872    568.230    568.935    568.657
 17.370    541.000    569.942    -28.942    568.157    568.798    568.157    568.867    568.591
 17.470    520.000    569.878    -49.878    568.078    568.723    568.078    568.793    568.519
 17.570    544.000    569.807    -25.807    567.993    568.641    567.993    568.712    568.440
 17.670    597.000    569.726     27.274    567.902    568.549    567.902    568.626    568.356
 17.770    529.000    569.640    -40.640    567.805    568.451    567.805    568.533    568.266
 17.870    532.000    569.548    -37.548    567.702    568.347    567.702    568.435    568.170
 17.970    534.000    569.452    -35.452    567.592    568.238    567.592    568.330    568.068
 18.070    542.000    569.350    -27.350    567.477    568.124    567.477    568.220    567.961
 18.170    562.000    569.243     -7.243    567.357    568.004    567.357    568.104    567.848
 18.270    531.000    569.132    -38.132    567.230    567.880    567.230    567.983    567.729
 18.370    520.000    569.029    -49.029    567.098    567.764    567.098    567.856    567.605
 18.470    518.000    568.965    -50.965    566.960    567.686    566.960    567.723    567.476
 18.570    533.015    568.845    -35.830    566.817    567.551    566.817    567.585    567.341
 18.670    548.000    568.714    -20.714    566.668    567.406    566.668    567.442    567.201
 18.770    551.000    568.578    -17.578    566.514    567.256    566.514    567.293    567.056
 18.870    568.225    568.438     -0.213    566.354    567.101    566.354    567.140    566.906
 18.970    552.554    568.294    -15.739    566.189    566.941    566.189    566.981    566.751
 19.070    545.000    568.145    -23.145    566.019    566.777    566.019    566.816    566.591
 19.170    568.000    567.997      0.003    565.844    566.613    565.844    566.647    566.426
 19.270    539.906    567.847    -27.942    565.664    566.447    565.664    566.473    566.256
 19.370    571.000    567.687      3.313    565.479    566.269    565.479    566.294    566.082
 19.470    530.000    567.523    -37.523    565.289    566.088    565.289    566.111    565.902
 19.570    596.000    567.377     28.623    565.094    565.925    565.094    565.922    565.719
 19.670    517.000    567.208    -50.208    564.894    565.737    564.894    565.729    565.531
 19.770    550.613    567.031    -16.418    564.690    565.541    564.690    565.531    565.338
 19.870    536.000    566.851    -30.851    564.481    565.343    564.481    565.329    565.141
 19.970    551.000    566.677    -15.677    564.267    565.149    564.267    565.122    564.940
 20.070    570.000    566.493      3.507    564.048    564.945    564.048    564.911    564.734
 20.170    564.000    566.302     -2.302    563.826    564.734    563.826    564.695    564.525
 20.270    538.000    566.108    -28.108    563.598    564.518    563.598    564.475    564.311
 20.370    525.016    565.912    -40.896    563.367    564.300    563.367    564.251    564.094
 20.470    537.000    565.722    -28.722    563.131    564.088    563.131    564.023    563.872
 20.570    522.000    565.559    -43.559    562.890    563.902    562.890    563.791    563.647
 20.670    523.422    565.357    -41.936    562.646    563.677    562.646    563.555    563.418
 20.770    518.959    565.150    -46.191    562.397    563.444    562.397    563.314    563.186
 20.870    527.000    564.939    -37.939    562.145    563.209    562.145    563.070    562.949
 20.970    515.000    564.727    -49.727    561.888    562.971    561.888    562.822    562.710
 21.070    537.230    564.513    -27.283    561.627    562.730    561.627    562.571    562.467
 21.170    546.792    564.297    -17.505    561.363    562.487    561.363    562.315    562.220
 21.270    590.000    564.082     25.918    561.094    562.243    561.094    562.057    561.971
 21.370    539.898    563.889    -23.991    560.822    562.022    560.822    561.794    561.718
 21.470    584.000    563.680     20.320    560.546    561.783    560.546    561.528    561.462
 21.570    556.692    563.510     -6.818    560.267    561.582    560.267    561.259    561.203
 21.670    534.000    563.332    -29.332    559.984    561.372    559.984    560.986    560.941
 21.770    560.000    563.137     -3.137    559.697    561.144    559.697    560.710    560.677
 21.870    554.417    562.919     -8.502    559.407    560.892    559.407    560.431    560.409
 21.970    496.000    562.703    -66.703    559.113    560.641    559.113    560.149    560.140
 22.070    532.000    562.524    -30.524    558.816    560.426    558.816    559.863    559.867
 22.170    561.637    562.310     -0.674    558.515    560.175    558.515    559.575    559.592
 22.270    529.000    562.097    -33.097    558.212    559.922    558.212    559.284    559.315
 22.370    523.772    561.899    -38.127    557.905    559.685    557.905    558.989    559.035
 22.470    533.000    561.698    -28.698    557.595    559.442    557.595    558.692    558.754
 22.570    578.000    561.511     16.489    557.281    559.212    557.281    558.393    558.470
 22.670    522.194    561.317    -39.124    556.965    558.974    556.965    558.090    558.184
 22.770    521.261    561.131    -39.870    556.646    558.741    556.646    557.786    557.897
 22.870    534.000    560.952    -26.952    556.324    558.514    556.324    557.478    557.608
 22.970    526.315    560.785    -34.470    555.998    558.297    555.998    557.169    557.317
 23.070    545.000    560.634    -15.634    555.670    558.095    555.670    556.856    557.025
 23.170    615.000    560.499     54.501    555.339    557.906    555.339    556.542    556.731
 23.270    605.736    560.386     45.351    555.006    557.737    555.006    556.226    556.436
 23.370    570.000    560.302      9.698    554.670    557.595    554.670    555.907    556.140
 23.470    567.000    560.254      6.746    554.331    557.487    554.331    555.586    555.844
 23.570    545.000    560.254    -15.254    553.989    557.425    553.989    555.264    555.546
 23.670    592.689    560.317     32.372    553.645    557.422    553.645    554.939    555.248
 23.770    580.000    560.464     19.536    553.298    557.501    553.298    554.613    554.949
 23.870    594.000    560.732     33.268    552.949    557.698    552.949    554.285    554.650
 23.970    557.000    561.171     -4.171    552.598    558.063    552.598    553.956    554.351
 24.070    541.000    561.895    -20.895    552.244    558.710    552.244    553.625    554.052
 24.170    567.000    563.157      3.843    551.888    559.893    551.888    553.293    553.753
 24.270    589.000    565.504     23.496    551.529    562.157    551.529    552.959    553.454
 24.370    583.000    569.949     13.051    551.169    566.516    551.169    552.624    553.157
 24.470    584.000    577.934      6.066    550.806    574.415    550.806    552.289    552.860
 24.570    572.000    590.746    -18.746    550.441    587.139    550.441    551.952    552.564
 24.670    593.474    608.166    -14.692    550.074    604.470    550.074    551.615    552.269
 24.770    622.955    626.416     -3.461    549.705    622.627    549.705    551.276    551.977
 24.870    629.636    637.013     -7.377    549.334    633.119    549.334    550.938    551.686
 24.970    651.000    632.754     18.246    548.961    628.739    548.961    550.599    551.397
 25.070    613.990    616.766     -2.776    548.587    612.615    548.587    550.259    551.111
 25.170    601.363    597.921      3.443    548.210    593.626    548.210    549.920    550.828
 25.270    603.047    582.287     20.760    547.832    577.844    547.832    549.580    550.548
 25.370    597.000    571.613     25.387    547.451    567.017    547.451    549.241    550.271
 25.470    555.000    565.183    -10.183    547.070    560.430    547.070    548.902    549.999
 25.570    564.132    561.542      2.590    546.686    556.626    546.686    548.564    549.731
 25.670    611.000    559.450     51.550    546.301    554.362    546.301    548.226    549.469
 25.770    548.169    558.145     -9.976    545.914    552.877    545.914    547.889    549.211
 25.870    545.684    557.251    -11.567    545.526    551.793    545.526    547.554    548.960
 25.970    540.412    556.598    -16.186    545.136    550.939    545.136    547.220    548.715
 26.070    514.786    556.109    -41.323    544.745    550.237    544.745    546.888    548.477
 26.170    532.575    555.746    -23.172    544.353    549.649    544.353    546.557    548.248
 26.270    576.829    555.486     21.343    543.959    549.151    543.959    546.229    548.026
 26.370    559.146    555.316      3.830    543.563    548.728    543.563    545.903    547.814
 26.470    621.000    555.230     65.770    543.167    548.373    543.167    545.580    547.612
 26.570    595.000    555.225     39.775    542.769    548.084    542.769    545.261    547.421
 26.670    575.779    555.303     20.476    542.370    547.860    542.370    544.944    547.242
 26.770    540.151    555.470    -15.319    541.970    547.706    541.970    544.632    547.075
 26.870    576.000    555.737     20.263    541.569    547.632    541.569    544.323    546.922
 26.970    544.179    556.118    -11.939    541.167    547.651    541.167    544.019    546.783
 27.070    609.000    556.637     52.363    540.763    547.786    540.763    543.720    546.659
 27.170    520.120    557.327    -37.207    540.359    548.067    540.359    543.427    546.553
 27.270    601.000    558.235     42.765    539.954    548.542    539.954    543.139    546.463
 27.370    605.000    559.432     45.568    539.548    549.279    539.548    542.857    546.393
 27.470    591.000    561.045     29.955    539.141    550.404    539.141    542.581    546.342
 27.570    611.000    563.361     47.639    538.733    552.203    538.733    542.313    546.311
 27.670    528.359    567.268    -38.909    538.324    555.563    538.324    542.051    546.301
 27.770    600.000    575.538     24.462    537.915    563.254    537.915    541.797    546.314
 27.870    636.000    595.218     40.782    537.505    582.318    537.505    541.550    546.348
 27.970    654.000    638.794     15.206    537.094    625.239    537.094    541.311    546.404
 28.070    732.046    717.822     14.224    536.682    703.574    536.682    541.079    546.483
 28.170    814.000    825.513    -11.513    536.270    810.545    536.270    540.854    546.582
 28.270    927.000    920.864      6.136    535.858    905.165    535.858    540.636    546.701
 28.370   1008.949    945.719     63.230    535.444    929.288    535.444    540.424    546.837
 28.470    838.468    885.320    -46.852    535.031    868.145    535.031    540.216    546.987
 28.570    814.999    794.259     20.739    534.617    776.316    534.617    540.012    547.147
 28.670    788.649    735.275     53.374    534.202    716.545    534.202    539.809    547.312
 28.770    704.000    733.756    -29.756    533.787    714.234    533.787    539.606    547.475
 28.870    787.000    776.338     10.662    533.372    756.039    533.372    539.399    547.629
 28.970    874.518    823.871     50.647    532.956    802.826    532.956    539.185    547.765
 29.070    803.000    832.430    -29.430    532.540    810.683    532.540    538.961    547.873
 29.170    790.009    787.892      2.118    532.124    765.490    532.124    538.724    547.942
 29.270    699.000    717.681    -18.681    531.707    694.682    531.707    538.468    547.962
 29.370    655.000    654.264      0.736    531.291    630.745    531.291    538.192    547.922
 29.470    658.399    611.560     46.839    530.874    587.615    530.874    537.890    547.812
 29.570    572.553    588.135    -15.582    530.457    563.873    530.457    537.560    547.623
 29.670    618.489    576.775     41.714    530.040    552.311    530.040    537.200    547.349
 29.770    606.000    571.225     34.775    529.623    546.684    529.623    536.807    546.985
 29.870    587.000    568.064     18.936    529.206    543.569    529.206    536.382    546.529
 29.970    573.000    565.883      7.117    528.788    541.557    528.788    535.925    545.983
 30.070    640.000    564.199     75.801    528.371    540.158    528.371    535.437    545.350
 30.170    590.000    562.871     27.129    527.954    539.224    527.954    534.921    544.638
 30.270    565.000    561.931      3.069    527.537    538.773    527.537    534.380    543.855
 30.370    542.679    561.626    -18.946    527.121    539.041    527.121    533.817    543.011
