neutron_powder_diffraction_0061
R_wp: 4.107
Temperature (K): 702.330
Counts: 83221.00
Wavelength (Ã…): 2.52098
COMMENTS
Test file for demonstrating the .xyy file format in Reel1.0
END OF HEADER
   tth       Y_obs     Y_calc      Y_res    Background    Phase_1_Nuc    Phase_1_Mag    Phase_2_Nuc    Phase_2_Mag
  9.970    691.000    645.432     45.568    644.335    645.161    644.606    644.335    644.335
 10.070    650.000    645.308      4.692    644.143    645.034    644.416    644.143    644.143
 10.170    673.477    645.188     28.290    643.946    644.911    644.223    643.946    643.946
 10.270    702.000    645.074     56.926    643.745    644.794    644.025    643.745    643.745
 10.370    649.000    644.970      4.030    643.540    644.687    643.822    643.540    643.540
 10.470    742.000    644.878     97.122    643.331    644.591    643.616    643.331    643.331
 10.570    697.000    644.801     52.199    643.117    644.511    643.406    643.117    643.117
 10.670    648.000    644.744      3.256    642.900    644.452    643.192    642.900    642.900
 10.770    657.000    644.715     12.285    642.678    644.419    642.974    642.678    642.678
 10.870    663.000    644.721     18.279    642.453    644.422    642.751    642.453    642.453
 10.970    665.160    644.775     20.385    642.224    644.472    642.526    642.224    642.224
 11.070    695.000    644.893     50.107    641.991    644.586    642.296    641.991    641.991
 11.170    670.000    645.098     24.902    641.754    644.788    642.062    641.754    641.754
 11.270    641.000    645.426     -4.426    641.513    645.111    641.825    641.513    641.513
 11.370    687.000    645.931     41.069    641.268    645.613    641.584    641.268    641.268
 11.470    677.986    646.717     31.269    641.020    646.394    641.340    641.020    641.020
 11.570    735.000    648.021     86.979    640.769    647.694    641.092    640.769    640.769
 11.670    643.267    650.493     -7.226    640.513    650.161    640.840    640.513    640.513
 11.770    674.432    655.774     18.658    640.255    655.435    640.585    640.255    640.255
 11.870    638.746    667.170    -28.425    639.992    666.821    640.327    639.992    639.992
 11.970    737.000    688.594     48.406    639.727    688.228    640.065    639.727    639.727
 12.070    676.876    721.793    -44.917    639.457    721.405    639.800    639.457    639.457
 12.170    773.000    760.033     12.967    639.185    759.619    639.532    639.185    639.185
 12.270    817.889    784.261     33.628    638.909    783.829    639.261    638.909    638.909
 12.370    780.000    776.474      3.526    638.630    776.042    638.986    638.630    638.630
 12.470    693.000    743.200    -50.200    638.348    742.781    638.708    638.348    638.348
 12.570    747.727    705.293     42.433    638.063    704.892    638.427    638.063    638.063
 12.670    638.000    676.450    -38.450    637.774    676.060    638.143    637.774    637.774
 12.770    673.000    659.180     13.820    637.483    658.794    637.856    637.483    637.483
 12.870    633.000    650.276    -17.276    637.188    649.891    637.566    637.188    637.188
 12.970    628.000    645.849    -17.849    636.890    645.461    637.273    636.890    636.890
 13.070    638.316    643.409     -5.094    636.590    643.018    636.978    636.590    636.590
 13.170    609.177    641.811    -32.634    636.286    641.415    636.679    636.286    636.286
 13.270    616.000    640.616    -24.616    635.980    640.216    636.378    635.980    635.980
 13.370    612.000    639.655    -27.655    635.671    639.250    636.074    635.671    635.671
 13.470    621.348    638.843    -17.495    635.359    638.433    635.767    635.359    635.359
 13.570    667.662    638.140     29.523    635.044    637.725    635.458    635.044    635.044
 13.670    588.439    637.514    -49.075    634.727    637.094    635.146    634.727    634.727
 13.770    582.000    636.947    -54.947    634.407    636.521    634.832    634.407    634.407
 13.870    590.000    636.423    -46.423    634.084    635.991    634.515    634.084    634.084
 13.970    653.000    635.932     17.068    633.759    635.494    634.195    633.759    633.759
 14.070    661.000    635.467     25.533    633.431    635.023    633.874    633.431    633.431
 14.170    680.870    635.022     45.848    633.101    634.572    633.549    633.101    633.101
 14.270    605.000    634.592    -29.592    632.768    634.137    633.223    632.768    632.768
 14.370    602.000    634.175    -32.175    632.433    633.714    632.894    632.433    632.433
 14.470    593.208    633.768    -40.560    632.096    633.300    632.563    632.096    632.096
 14.570    604.814    633.370    -28.556    631.756    632.896    632.230    631.756    631.756
 14.670    637.000    632.988      4.012    631.414    632.507    631.895    631.414    631.414
 14.770    613.185    632.619    -19.433    631.069    632.130    631.557    631.069    631.069
 14.870    596.000    632.237    -36.237    630.723    631.742    631.218    630.723    630.723
 14.970    623.000    631.857     -8.857    630.374    631.354    630.876    630.374    630.374
 15.070    625.000    631.479     -6.479    630.023    630.969    630.533    630.023    630.023
 15.170    644.000    631.103     12.897    629.670    630.586    630.187    629.670    629.670
 15.270    622.000    630.729     -8.729    629.315    630.204    629.840    629.315    629.315
 15.370    653.240    630.356     22.884    628.958    629.823    629.491    628.958    628.958
 15.470    685.142    629.984     55.159    628.599    629.443    629.140    628.599    628.599
 15.570    645.000    629.612     15.388    628.238    629.063    628.787    628.238    628.238
 15.670    589.000    629.240    -40.240    627.875    628.683    628.432    627.875    627.875
 15.770    586.000    628.869    -42.869    627.510    628.303    628.076    627.510    627.510
 15.870    604.027    628.498    -24.472    627.143    627.923    627.719    627.143    627.143
 15.970    611.000    628.127    -17.127    626.775    627.542    627.359    626.775    626.775
 16.070    645.000    627.756     17.244    626.405    627.162    626.998    626.405    626.405
 16.170    626.000    627.386     -1.386    626.033    626.783    626.636    626.033    626.033
 16.270    672.347    627.014     45.333    625.659    626.401    626.272    625.659    625.659
 16.370    636.132    626.641      9.491    625.284    626.019    625.906    625.284    625.284
 16.470    623.000    626.273     -3.273    624.907    625.640    625.540    624.907    624.907
 16.570    585.811    625.900    -40.089    624.529    625.257    625.172    624.529    624.529
 16.670    647.983    625.527     22.456    624.149    624.873    624.802    624.149    624.149
 16.770    627.367    625.167      2.201    623.767    624.500    624.434    623.767    623.767
 16.870    579.000    624.858    -45.858    623.384    624.172    624.069    623.384    623.384
 16.970    581.000    624.556    -43.556    622.999    623.858    623.697    622.999    622.999
 17.070    587.827    624.200    -36.372    622.614    623.490    623.323    622.614    622.614
 17.170    635.400    623.825     11.575    622.226    623.104    622.948    622.226    622.226
 17.270    587.000    623.449    -36.449    621.838    622.715    622.572    621.838    621.838
 17.370    605.000    623.073    -18.073    621.448    622.325    622.195    621.448    621.448
 17.470    610.361    622.696    -12.335    621.057    621.935    621.817    621.057    621.057
 17.570    616.000    622.318     -6.318    620.664    621.544    621.438    620.664    620.664
 17.670    632.000    621.940     10.060    620.270    621.153    621.058    620.270    620.270
 17.770    590.991    621.562    -30.571    619.876    620.760    620.678    619.876    619.876
 17.870    609.000    621.184    -12.184    619.480    620.367    620.296    619.480    619.480
 17.970    641.000    620.805     20.195    619.082    619.973    619.914    619.082    619.082
 18.070    565.000    620.426    -55.426    618.684    619.579    619.532    618.684    618.684
 18.170    593.000    620.049    -27.049    618.285    619.185    619.148    618.285    618.285
 18.270    550.000    619.689    -69.689    617.885    618.809    618.764    617.885    617.885
 18.370    596.993    619.319    -22.326    617.484    618.423    618.380    617.484    617.484
 18.470    601.000    618.946    -17.946    617.081    618.032    617.995    617.081    617.081
 18.570    604.000    618.575    -14.575    616.678    617.643    617.610    616.678    616.678
 18.670    601.000    618.197    -17.197    616.274    617.246    617.225    616.274    616.274
 18.770    605.000    617.817    -12.817    615.869    616.848    616.839    615.869    615.869
 18.870    598.805    617.438    -18.633    615.464    616.449    616.453    615.464    615.464
 18.970    630.000    617.060     12.940    615.057    616.050    616.066    615.057    615.057
 19.070    592.000    616.685    -24.685    614.650    615.655    615.680    614.650    614.650
 19.170    662.935    616.316     46.619    614.242    615.264    615.293    614.242    614.242
 19.270    584.877    615.943    -31.066    613.833    614.869    614.907    613.833    613.833
 19.370    607.000    615.612     -8.612    613.424    614.514    614.521    613.424    613.424
 19.470    585.000    615.254    -30.254    613.013    614.132    614.135    613.013    613.013
 19.570    566.454    614.880    -48.427    612.603    613.734    613.749    612.603    612.603
 19.670    584.000    614.515    -30.515    612.191    613.343    613.363    612.191    612.191
 19.770    595.000    614.148    -19.148    611.780    612.949    612.978    611.780    611.780
 19.870    653.532    613.782     39.750    611.367    612.553    612.596    611.367    611.367
 19.970    578.000    613.410    -35.410    610.954    612.154    612.211    610.954    610.954
 20.070    587.449    613.039    -25.590    610.541    611.753    611.827    610.541    610.541
 20.170    613.039    612.669      0.370    610.127    611.353    611.443    610.127    610.127
 20.270    588.992    612.301    -23.309    609.713    610.954    611.060    609.713    609.713
 20.370    549.000    611.945    -62.945    609.298    610.564    610.678    609.298    609.298
 20.470    615.000    611.638      3.362    608.883    610.223    610.298    608.883    608.883
 20.570    613.286    611.288      1.998    608.468    609.838    609.917    608.468    608.468
 20.670    645.470    610.942     34.529    608.052    609.456    609.537    608.052    608.052
 20.770    579.000    610.617    -31.617    607.636    609.094    609.159    607.636    607.636
 20.870    657.096    610.263     46.833    607.220    608.702    608.781    607.220    607.220
 20.970    642.507    609.909     32.598    606.803    608.307    608.405    606.803    606.803
 21.070    622.000    609.570     12.430    606.386    607.926    608.030    606.386    606.386
 21.170    612.000    609.256      2.744    605.970    607.568    607.658    605.970    605.970
 21.270    585.618    608.913    -23.295    605.552    607.180    607.286    605.552    605.552
 21.370    617.000    608.570      8.430    605.135    606.790    606.916    605.135    605.135
 21.470    577.000    608.230    -31.230    604.718    606.400    606.548    604.718    604.718
 21.570    577.292    607.893    -30.602    604.301    606.012    606.182    604.301    604.301
 21.670    622.814    607.564     15.250    603.883    605.629    605.818    603.883    603.883
 21.770    621.508    607.242     14.266    603.466    605.250    605.458    603.466    603.466
 21.870    611.583    606.920      4.663    603.048    604.870    605.099    603.048    603.048
 21.970    581.000    606.602    -25.602    602.631    604.491    604.742    602.631    602.631
 22.070    595.000    606.295    -11.295    602.213    604.120    604.388    602.213    602.213
 22.170    599.021    605.991     -6.970    601.796    603.749    604.038    601.796    601.796
 22.270    600.000    605.691     -5.691    601.379    603.379    603.690    601.379    601.379
 22.370    617.000    605.398     11.602    600.962    603.013    603.347    600.962    600.962
 22.470    601.000    605.113     -4.113    600.545    602.651    603.006    600.545    600.545
 22.570    607.758    604.837      2.921    600.128    602.295    602.670    600.128    600.128
 22.670    653.386    604.572     48.815    599.711    601.945    602.338    599.711    599.711
 22.770    613.000    604.318      8.682    599.295    601.602    602.011    599.295    599.295
 22.870    593.000    604.079    -11.079    598.878    601.270    601.688    598.878    598.878
 22.970    644.000    603.854     40.146    598.462    600.945    601.371    598.462    598.462
 23.070    650.000    603.645     46.355    598.047    600.632    601.060    598.047    598.047
 23.170    584.729    603.456    -18.726    597.631    600.333    600.754    597.631    597.631
 23.270    586.000    603.290    -17.290    597.216    600.051    600.455    597.216    597.216
 23.370    599.000    603.153     -4.153    596.801    599.791    600.164    596.801    596.801
 23.470    580.000    603.049    -23.049    596.387    599.557    599.880    596.387    596.387
 23.570    612.000    602.987      9.013    595.973    599.357    599.604    595.973    595.973
 23.670    633.000    602.976     30.024    595.559    599.200    599.336    595.559    595.559
 23.770    630.000    603.033     26.967    595.146    599.101    599.079    595.146    595.146
 23.870    637.000    603.176     33.824    594.733    599.079    598.832    594.733    594.733
 23.970    615.000    603.436     11.564    594.321    599.163    598.596    594.321    594.321
 24.070    638.000    603.866     34.134    593.909    599.406    598.372    593.909    593.909
 24.170    647.000    604.580     42.420    593.498    599.919    598.162    593.498    593.498
 24.270    575.543    605.857    -30.313    593.087    600.982    597.966    593.087    593.087
 24.370    632.000    608.394     23.606    592.677    603.291    597.786    592.677    592.677
 24.470    663.000    613.662     49.338    592.268    608.315    597.624    592.268    592.268
 24.570    644.139    623.940     20.199    591.859    618.335    597.481    591.859    591.859
 24.670    640.144    641.241     -1.097    591.450    635.362    597.359    591.450    591.450
 24.770    697.000    664.694     32.306    591.042    658.522    597.260    591.042    591.042
 24.870    736.000    687.359     48.641    590.635    680.869    597.188    590.635    590.635
 24.970    644.546    696.352    -51.805    590.229    689.504    597.146    590.229    590.229
 25.070    723.000    684.388     38.612    589.823    677.137    597.135    589.823    589.823
 25.170    674.001    660.728     13.274    589.418    653.030    597.159    589.418    589.418
 25.270    656.000    638.043     17.957    589.014    629.860    597.223    589.014    589.014
 25.370    617.744    622.131     -4.387    588.610    613.423    597.333    588.610    588.610
 25.470    661.000    613.107     47.893    588.207    603.829    597.494    588.207    588.207
 25.570    585.661    608.736    -23.075    587.805    598.834    597.713    587.805    587.805
 25.670    631.000    606.830     24.170    587.404    596.238    597.999    587.404    587.404
 25.770    663.000    606.075     56.925    587.003    594.719    598.361    587.003    587.003
 25.870    591.416    605.888    -14.473    586.604    593.685    598.809    586.604    586.604
 25.970    643.000    606.058     36.942    586.205    592.907    599.357    586.205    586.205
 26.070    613.000    606.510      6.490    585.807    592.295    600.023    585.807    585.807
 26.170    634.000    607.222     26.778    585.410    591.807    600.826    585.410    585.410
 26.270    595.000    608.197    -13.197    585.014    591.420    601.791    585.014    585.014
 26.370    634.891    609.452     25.439    584.619    591.122    602.949    584.619    584.619
 26.470    640.220    611.019     29.201    584.225    590.906    604.337    584.225    584.225
 26.570    667.000    612.947     54.053    583.831    590.773    606.004    583.831    583.831
 26.670    626.000    615.300     10.700    583.439    590.727    608.011    583.439    583.439
 26.770    668.000    618.169     49.831    583.048    590.778    610.438    583.048    583.048
 26.870    635.000    621.671     13.329    582.657    590.939    613.388    582.657    582.657
 26.970    656.000    625.969     30.031    582.268    591.234    617.001    582.268    582.268
 27.070    688.629    631.281     57.348    581.880    591.693    621.465    581.880    581.880
 27.170    676.000    637.913     38.087    581.492    592.362    627.041    581.492    581.492
 27.270    643.000    646.300     -3.300    581.106    593.302    634.100    581.106    581.106
 27.370    753.000    657.089     95.911    580.721    594.612    643.194    580.721    580.721
 27.470    686.983    671.354     15.629    580.337    596.448    655.237    580.337    580.337
 27.570    630.935    691.261    -60.326    579.954    599.130    672.077    579.954    579.954
 27.670    735.851    722.128     13.723    579.572    603.436    698.252    579.572    579.572
 27.770    845.000    777.419     67.581    579.192    611.333    745.256    579.192    579.192
 27.870    839.380    886.680    -47.300    578.812    627.131    838.320    578.812    578.812
 27.970   1127.434   1099.212     28.222    578.434    658.021   1019.546    578.434    578.434
 28.070   1321.000   1466.745   -145.745    578.057    711.555   1333.110    578.057    578.057
 28.170   1985.573   1992.912     -7.340    577.681    788.302   1782.091    577.681    577.681
 28.270   2574.000   2561.958     12.042    577.306    871.491   2267.542    577.306    577.306
 28.370   2947.624   2909.605     38.019    576.933    922.838   2563.517    576.933    576.933
 28.470   2927.000   2817.126    109.874    576.560    910.925   2482.699    576.560    576.560
 28.570   2352.958   2400.122    -47.164    576.189    853.411   2122.930    576.189    576.189
 28.670   1885.000   1961.718    -76.718    575.819    795.671   1741.920    575.819    575.819
 28.770   1482.000   1713.966   -231.966    575.451    769.730   1519.726    575.451    575.451
 28.870   1645.000   1701.468    -56.468    575.084    781.915   1494.654    575.084    575.084
 28.970   1889.000   1831.017     57.983    574.718    815.523   1590.230    574.718    574.718
 29.070   1866.890   1921.991    -55.101    574.353    837.434   1658.963    574.353    574.353
 29.170   1823.000   1827.053     -4.053    573.990    820.392   1580.751    573.990    573.990
 29.270   1541.000   1568.345    -27.345    573.628    769.886   1372.206    573.628    573.628
 29.370   1311.000   1269.576     41.424    573.267    711.009   1131.936    573.267    573.267
 29.470   1028.000   1023.018      4.982    572.908    662.323    933.674    572.908    572.908
 29.570    929.000    856.732     72.268    572.550    629.501    799.824    572.550    572.550
 29.670    729.897    758.788    -28.891    572.194    610.214    720.792    572.194    572.194
 29.770    757.997    704.875     53.121    571.839    599.654    677.073    571.839    571.839
 29.870    627.875    674.623    -46.748    571.485    593.788    652.327    571.485    571.485
 29.970    605.643    655.987    -50.344    571.133    590.243    636.881    571.133    571.133
 30.070    683.314    643.230     40.084    570.782    587.901    626.113    570.782    570.782
 30.170    731.000    633.914     97.086    570.432    586.316    618.032    570.432    570.432
 30.270    718.000    627.036     90.964    570.084    585.356    611.764    570.084    570.084
 30.370    660.000    622.285     37.715    569.738    585.111    606.910    569.738    569.738
