neutron_powder_diffraction_0221
R_wp: 3.845
Temperature (K): 1074.000
Counts: 83812.00
Wavelength (Ã…): 2.52098
COMMENTS
Test file for demonstrating the .xyy file format in Reel1.0
END OF HEADER
   tth       Y_obs     Y_calc      Y_res    Background    Phase_1_Nuc    Phase_1_Mag    Phase_2_Nuc    Phase_2_Mag
  9.970    611.000    576.924     34.076    576.228    576.874    576.228    576.278    576.228
 10.070    614.590    576.988     37.603    576.233    576.938    576.233    576.282    576.233
 10.170    564.000    577.051    -13.051    576.232    577.001    576.232    576.281    576.232
 10.270    634.000    577.120     56.880    576.225    577.069    576.225    576.276    576.225
 10.370    609.000    577.200     31.800    576.214    577.144    576.214    576.270    576.214
 10.470    584.153    577.286      6.867    576.197    577.228    576.197    576.255    576.197
 10.570    584.000    577.384      6.616    576.176    577.325    576.176    576.233    576.176
 10.670    562.000    577.500    -15.500    576.149    577.441    576.149    576.207    576.149
 10.770    573.000    577.640     -4.640    576.118    577.581    576.118    576.176    576.118
 10.870    603.000    577.814     25.186    576.081    577.755    576.081    576.139    576.081
 10.970    613.000    578.033     34.967    576.040    577.973    576.040    576.098    576.040
 11.070    590.000    578.315     11.685    575.993    578.255    575.993    576.052    575.993
 11.170    595.225    578.686     16.539    575.942    578.625    575.942    576.002    575.942
 11.270    599.974    579.184     20.790    575.886    579.123    575.886    575.946    575.886
 11.370    577.000    579.877     -2.877    575.826    579.815    575.826    575.886    575.826
 11.470    589.679    580.913      8.766    575.761    580.850    575.761    575.821    575.761
 11.570    600.000    582.704     17.296    575.691    582.640    575.691    575.752    575.691
 11.670    619.000    586.411     32.589    575.617    586.344    575.617    575.678    575.617
 11.770    615.000    594.722     20.278    575.538    594.649    575.538    575.600    575.538
 11.870    584.000    611.944    -27.944    575.455    611.859    575.455    575.520    575.455
 11.970    673.236    641.389     31.847    575.368    641.286    575.368    575.434    575.368
 12.070    701.612    679.238     22.374    575.276    679.113    575.276    575.343    575.276
 12.170    701.000    708.966     -7.966    575.180    708.824    575.180    575.247    575.180
 12.270    679.000    709.839    -30.839    575.079    709.696    575.079    575.147    575.079
 12.370    661.000    680.983    -19.983    574.975    680.855    574.975    575.043    574.975
 12.470    612.000    642.766    -30.766    574.866    642.660    574.866    574.935    574.866
 12.570    641.100    612.456     28.644    574.753    612.365    574.753    574.823    574.753
 12.670    559.000    594.447    -35.447    574.636    594.366    574.636    574.706    574.636
 12.770    551.000    585.603    -34.603    574.515    585.527    574.515    574.585    574.515
 12.870    563.000    581.553    -18.553    574.391    581.479    574.391    574.461    574.391
 12.970    621.691    579.511     42.181    574.262    579.437    574.262    574.332    574.262
 13.070    609.000    578.256     30.744    574.129    578.182    574.129    574.200    574.129
 13.170    587.478    577.355     10.122    573.993    577.282    573.993    574.064    573.993
 13.270    540.000    576.656    -36.656    573.852    576.583    573.852    573.924    573.852
 13.370    540.000    576.087    -36.087    573.708    576.014    573.708    573.780    573.708
 13.470    613.705    575.610     38.095    573.560    575.536    573.560    573.633    573.560
 13.570    578.000    575.197      2.803    573.409    575.123    573.409    573.482    573.409
 13.670    592.000    574.832     17.168    573.254    574.758    573.254    573.327    573.254
 13.770    548.660    574.502    -25.842    573.095    574.428    573.095    573.169    573.095
 13.870    553.982    574.199    -20.217    572.933    574.124    572.933    573.007    572.933
 13.970    566.000    573.915     -7.915    572.768    573.841    572.768    572.842    572.768
 14.070    583.000    573.647      9.353    572.599    573.572    572.599    572.673    572.599
 14.170    589.000    573.390     15.610    572.426    573.315    572.426    572.501    572.426
 14.270    577.000    573.142      3.858    572.250    573.067    572.250    572.326    572.250
 14.370    582.361    572.901      9.459    572.071    572.825    572.071    572.147    572.071
 14.470    571.000    572.665     -1.665    571.889    572.588    571.889    571.966    571.889
 14.570    576.000    572.435      3.565    571.703    572.356    571.703    571.782    571.703
 14.670    550.000    572.208    -22.208    571.515    572.129    571.515    571.594    571.515
 14.770    589.000    571.981     17.019    571.323    571.902    571.323    571.402    571.323
 14.870    577.634    571.755      5.879    571.128    571.675    571.128    571.208    571.128
 14.970    563.025    571.528     -8.504    570.930    571.448    570.930    571.010    570.930
 15.070    572.821    571.302      1.518    570.729    571.221    570.729    570.809    570.729
 15.170    539.434    571.076    -31.642    570.525    570.995    570.525    570.606    570.525
 15.270    583.620    570.849     12.771    570.318    570.767    570.318    570.399    570.318
 15.370    546.000    570.621    -24.621    570.108    570.539    570.108    570.190    570.108
 15.470    525.314    570.393    -45.079    569.895    570.310    569.895    569.978    569.895
 15.570    579.000    570.163      8.837    569.679    570.080    569.679    569.762    569.679
 15.670    562.000    569.932     -7.932    569.461    569.848    569.461    569.545    569.461
 15.770    541.583    569.699    -28.116    569.240    569.615    569.240    569.324    569.240
 15.870    577.000    569.465      7.535    569.016    569.381    569.016    569.101    569.016
 15.970    543.888    569.231    -25.342    568.790    569.145    568.790    568.875    568.790
 16.070    537.529    568.995    -31.466    568.561    568.909    568.561    568.646    568.561
 16.170    530.000    568.756    -38.756    568.329    568.670    568.329    568.415    568.329
 16.270    581.000    568.516     12.484    568.095    568.429    568.095    568.182    568.095
 16.370    613.245    568.273     44.972    567.858    568.186    567.858    567.945    567.858
 16.470    521.000    568.029    -47.029    567.619    567.941    567.619    567.707    567.619
 16.570    588.175    567.783     20.392    567.378    567.694    567.378    567.466    567.378
 16.670    527.000    567.535    -40.535    567.134    567.446    567.134    567.222    567.134
 16.770    581.000    567.285     13.715    566.887    567.195    566.887    566.977    566.887
 16.870    557.000    567.033    -10.033    566.639    566.943    566.639    566.729    566.639
 16.970    554.427    566.780    -12.353    566.388    566.689    566.388    566.479    566.388
 17.070    568.000    566.530      1.470    566.135    566.434    566.135    566.231    566.135
 17.170    583.000    566.275     16.725    565.879    566.176    565.879    565.978    565.879
 17.270    542.809    566.017    -23.208    565.622    565.917    565.622    565.721    565.622
 17.370    563.000    565.759     -2.759    565.362    565.658    565.362    565.462    565.362
 17.470    561.299    565.497     -4.199    565.100    565.396    565.100    565.201    565.100
 17.570    551.000    565.233    -14.233    564.837    565.132    564.837    564.938    564.837
 17.670    599.000    564.968     34.032    564.571    564.865    564.571    564.673    564.571
 17.770    528.000    564.701    -36.701    564.303    564.597    564.303    564.406    564.303
 17.870    553.000    564.432    -11.432    564.033    564.328    564.033    564.137    564.033
 17.970    544.000    564.161    -20.161    563.761    564.057    563.761    563.866    563.761
 18.070    591.000    563.889     27.111    563.488    563.784    563.488    563.593    563.488
 18.170    546.403    563.615    -17.212    563.212    563.509    563.212    563.318    563.212
 18.270    587.168    563.340     23.828    562.935    563.233    562.935    563.042    562.935
 18.370    560.000    563.063     -3.063    562.656    562.956    562.656    562.764    562.656
 18.470    551.000    562.785    -11.785    562.375    562.677    562.375    562.484    562.375
 18.570    581.616    562.506     19.110    562.093    562.396    562.093    562.202    562.093
 18.670    560.000    562.225     -2.225    561.809    562.115    561.809    561.919    561.809
 18.770    547.000    561.942    -14.942    561.523    561.831    561.523    561.634    561.523
 18.870    569.970    561.659      8.311    561.235    561.547    561.235    561.347    561.235
 18.970    555.000    561.374     -6.374    560.946    561.261    560.946    561.059    560.946
 19.070    534.753    561.089    -26.336    560.656    560.975    560.656    560.769    560.656
 19.170    592.000    560.803     31.197    560.364    560.689    560.364    560.478    560.364
 19.270    616.000    560.515     55.485    560.070    560.399    560.070    560.185    560.070
 19.370    537.000    560.225    -23.225    559.775    560.109    559.775    559.891    559.775
 19.470    546.000    559.934    -13.934    559.479    559.817    559.479    559.596    559.479
 19.570    529.855    559.642    -29.787    559.181    559.524    559.181    559.299    559.181
 19.670    519.428    559.349    -39.922    558.882    559.230    558.882    559.001    558.882
 19.770    574.000    559.056     14.944    558.581    558.936    558.581    558.701    558.581
 19.870    528.029    558.761    -30.732    558.280    558.640    558.280    558.401    558.280
 19.970    567.000    558.467      8.533    557.977    558.345    557.977    558.099    557.977
 20.070    519.716    558.184    -38.468    557.672    558.061    557.672    557.795    557.672
 20.170    540.649    557.897    -17.247    557.367    557.773    557.367    557.491    557.367
 20.270    528.112    557.600    -29.488    557.060    557.475    557.060    557.186    557.060
 20.370    600.000    557.302     42.698    556.752    557.175    556.752    556.879    556.752
 20.470    556.000    557.003     -1.003    556.443    556.875    556.443    556.571    556.443
 20.570    523.000    556.704    -33.704    556.134    556.575    556.134    556.263    556.134
 20.670    584.042    556.404     27.638    555.822    556.274    555.822    555.953    555.822
 20.770    557.027    556.104      0.922    555.510    555.973    555.510    555.642    555.510
 20.870    577.120    555.804     21.316    555.197    555.671    555.197    555.330    555.197
 20.970    550.000    555.504     -5.504    554.883    555.369    554.883    555.018    554.883
 21.070    540.000    555.203    -15.203    554.569    555.068    554.569    554.704    554.569
 21.170    590.000    554.903     35.097    554.253    554.766    554.253    554.390    554.253
 21.270    550.000    554.602     -4.602    553.936    554.464    553.936    554.075    553.936
 21.370    564.066    554.303      9.763    553.618    554.162    553.618    553.759    553.618
 21.470    544.531    554.005     -9.474    553.300    553.861    553.300    553.444    553.300
 21.570    570.000    553.707     16.293    552.981    553.561    552.981    553.128    552.981
 21.670    536.000    553.409    -17.409    552.661    553.261    552.661    552.810    552.661
 21.770    532.000    553.112    -21.112    552.340    552.962    552.340    552.491    552.340
 21.870    552.000    552.815     -0.815    552.019    552.664    552.019    552.171    552.019
 21.970    528.861    552.521    -23.660    551.697    552.367    551.697    551.851    551.697
 22.070    571.000    552.236     18.764    551.374    552.080    551.374    551.530    551.374
 22.170    569.000    552.026     16.974    551.051    551.869    551.051    551.209    551.051
 22.270    544.000    551.761     -7.761    550.727    551.601    550.727    550.887    550.727
 22.370    561.000    551.498      9.502    550.403    551.336    550.403    550.564    550.403
 22.470    519.000    551.246    -32.246    550.078    551.082    550.078    550.241    550.078
 22.570    550.000    550.979     -0.979    549.752    550.813    549.752    549.918    549.752
 22.670    553.000    550.752      2.248    549.426    550.584    549.426    549.594    549.426
 22.770    577.000    550.505     26.495    549.099    550.334    549.099    549.270    549.099
 22.870    529.000    550.248    -21.248    548.773    550.075    548.773    548.946    548.773
 22.970    579.942    549.999     29.943    548.445    549.824    548.445    548.621    548.445
 23.070    589.073    549.761     39.311    548.117    549.583    548.117    548.296    548.117
 23.170    531.000    549.538    -18.538    547.789    549.357    547.789    547.971    547.789
 23.270    545.417    549.332     -3.915    547.461    549.148    547.461    547.645    547.461
 23.370    526.468    549.148    -22.681    547.132    548.961    547.132    547.319    547.132
 23.470    583.000    548.994     34.006    546.803    548.805    546.803    546.993    546.803
 23.570    551.000    548.880      2.120    546.474    548.688    546.474    546.667    546.474
 23.670    525.000    548.815    -23.815    546.144    548.619    546.144    546.341    546.144
 23.770    550.000    548.821      1.179    545.814    548.621    545.814    546.015    545.814
 23.870    528.000    548.927    -20.927    545.484    548.724    545.484    545.689    545.484
 23.970    590.000    549.189     40.811    545.154    548.983    545.154    545.362    545.154
 24.070    503.783    549.740    -45.957    544.824    549.530    544.824    545.036    544.824
 24.170    579.000    550.949     28.051    544.493    550.736    544.493    544.710    544.493
 24.270    615.000    553.797     61.203    544.163    553.582    544.163    544.384    544.163
 24.370    557.794    560.312     -2.519    543.832    560.097    543.832    544.058    543.832
 24.470    586.000    573.270     12.730    543.501    573.060    543.501    543.732    543.501
 24.570    622.000    594.006     27.994    543.171    593.805    543.171    543.407    543.171
 24.670    661.373    618.449     42.924    542.840    618.260    542.840    543.082    542.840
 24.770    640.000    634.600      5.400    542.509    634.418    542.509    542.757    542.509
 24.870    623.000    630.603     -7.603    542.179    630.412    542.179    542.432    542.179
 24.970    561.773    609.682    -47.909    541.848    609.470    541.848    542.108    541.848
 25.070    563.912    585.151    -21.239    541.518    584.914    541.518    541.785    541.518
 25.170    588.000    566.350     21.650    541.187    566.092    541.187    541.462    541.187
 25.270    525.630    555.191    -29.561    540.857    554.918    540.857    541.139    540.857
 25.370    564.000    549.556     14.444    540.527    549.270    540.527    540.817    540.527
 25.470    512.379    546.821    -34.442    540.197    546.525    540.197    540.496    540.197
 25.570    548.000    545.331      2.669    539.867    545.024    539.867    540.176    539.867
 25.670    534.000    544.350    -10.350    539.537    544.033    539.537    539.857    539.537
 25.770    568.561    543.613     24.947    539.208    543.284    539.208    539.538    539.208
 25.870    564.352    543.024     21.329    538.879    542.683    538.879    539.221    538.879
 25.970    578.000    542.536     35.464    538.550    542.182    538.550    538.905    538.550
 26.070    554.872    542.126     12.746    538.221    541.758    538.221    538.590    538.221
 26.170    554.000    541.780     12.220    537.893    541.397    537.893    538.276    537.893
 26.270    518.000    541.486    -23.486    537.565    541.087    537.565    537.964    537.565
 26.370    561.156    541.241     19.915    537.238    540.825    537.238    537.654    537.238
 26.470    559.000    541.049     17.951    536.910    540.613    536.910    537.346    536.910
 26.570    518.000    540.932    -22.932    536.583    540.476    536.583    537.040    536.583
 26.670    520.277    540.868    -20.591    536.257    540.389    536.257    536.737    536.257
 26.770    516.024    540.847    -24.822    535.931    540.342    535.931    536.436    535.931
 26.870    579.000    540.899     38.101    535.605    540.366    535.605    536.138    535.605
 26.970    515.000    541.048    -26.048    535.280    540.484    535.280    535.843    535.280
 27.070    520.038    541.324    -21.286    534.956    540.726    534.956    535.553    534.956
 27.170    497.324    541.756    -44.432    534.632    541.120    534.632    535.267    534.632
 27.270    522.000    542.384    -20.384    534.308    541.705    534.308    534.986    534.308
 27.370    577.558    543.312     34.247    533.985    542.584    533.985    534.711    533.985
 27.470    580.000    544.693     35.307    533.662    543.910    533.662    534.444    533.662
 27.570    561.000    546.880     14.120    533.340    546.035    533.340    534.184    533.340
 27.670    571.999    551.266     20.734    533.019    550.348    533.019    533.934    533.019
 27.770    586.000    562.551     23.449    532.698    561.547    532.698    533.695    532.698
 27.870    578.000    592.752    -14.752    532.378    591.643    532.378    533.470    532.378
 27.970    626.324    660.735    -34.411    532.059    659.493    532.059    533.262    532.059
 28.070    755.000    775.057    -20.057    531.740    773.651    531.740    533.075    531.740
 28.170    865.000    903.334    -38.334    531.422    901.745    531.422    532.913    531.422
 28.270    954.261    966.672    -12.410    531.104    964.896    531.104    532.784    531.104
 28.370    922.000    912.916      9.084    530.788    910.948    530.788    532.697    530.788
 28.470    841.000    797.418     43.582    530.472    795.202    530.472    532.665    530.472
 28.570    751.880    708.447     43.432    530.156    705.882    530.156    532.712    530.156
 28.670    695.239    691.140      4.098    529.842    688.093    529.842    532.875    529.842
 28.770    750.000    740.073      9.927    529.528    736.363    529.528    533.219    529.528
 28.870    866.165    813.159     53.006    529.215    808.506    529.215    533.857    529.215
 28.970    807.708    847.884    -40.176    528.903    841.829    528.903    534.962    528.903
 29.070    763.000    807.362    -44.362    528.592    799.193    528.592    536.775    528.592
 29.170    773.487    724.213     49.274    528.281    712.940    528.281    539.568    528.281
 29.270    694.080    648.549     45.531    527.971    632.967    527.971    543.563    527.971
 29.370    590.000    602.743    -12.743    527.663    581.641    527.663    548.767    527.663
 29.470    572.000    583.476    -11.476    527.355    556.152    527.355    554.679    527.355
 29.570    578.000    578.068     -0.068    527.048    545.248    527.048    559.866    527.048
 29.670    565.000    575.795    -10.795    526.742    540.450    526.742    562.084    526.742
 29.770    561.000    571.390    -10.390    526.436    537.866    526.436    559.958    526.436
 29.870    582.000    564.575     17.425    526.132    536.173    526.132    554.532    526.132
 29.970    631.000    557.177     73.823    525.829    534.974    525.829    548.030    525.829
 30.070    511.083    550.660    -39.577    525.526    534.139    525.526    542.045    525.526
 30.170    575.386    545.638     29.748    525.225    533.642    525.225    537.219    525.225
 30.270    499.550    542.276    -42.726    524.925    533.586    524.925    533.612    524.925
 30.370    549.000    540.809      8.191    524.625    534.399    524.625    531.032    524.625
