neutron_powder_diffraction_0091
R_wp: 4.077
Temperature (K): 845.477
Counts: 83562.00
Wavelength (Ã…): 2.52098
COMMENTS
Test file for demonstrating the .xyy file format in Reel1.0
END OF HEADER
   tth       Y_obs     Y_calc      Y_res    Background    Phase_1_Nuc    Phase_1_Mag    Phase_2_Nuc    Phase_2_Mag
  9.970    525.497    548.202    -22.706    546.716    547.811    546.716    547.017    546.806
 10.070    525.899    548.986    -23.087    547.407    548.593    547.407    547.708    547.497
 10.170    668.000    549.770    118.230    548.084    549.375    548.084    548.387    548.176
 10.270    570.541    550.557     19.984    548.748    550.160    548.748    549.053    548.841
 10.370    556.399    551.350      5.049    549.400    550.951    549.400    549.705    549.493
 10.470    557.000    552.154      4.846    550.039    551.752    550.039    550.346    550.133
 10.570    633.000    552.974     80.026    550.665    552.570    550.665    550.973    550.761
 10.670    596.843    553.817     43.026    551.279    553.410    551.279    551.589    551.375
 10.770    593.315    554.692     38.623    551.881    554.283    551.881    552.191    551.978
 10.870    585.000    555.612     29.388    552.470    555.200    552.470    552.782    552.568
 10.970    584.672    556.594     28.077    553.047    556.180    553.047    553.360    553.146
 11.070    603.000    557.663     45.337    553.612    557.247    553.612    553.927    553.712
 11.170    519.864    558.854    -38.990    554.166    558.435    554.166    554.481    554.267
 11.270    628.000    560.221     67.779    554.707    559.799    554.707    555.024    554.809
 11.370    591.000    561.858     29.142    555.236    561.433    555.236    555.554    555.339
 11.470    610.490    563.958     46.532    555.754    563.530    555.754    556.074    555.858
 11.570    590.000    566.959     23.041    556.260    566.527    556.260    556.581    556.365
 11.670    582.200    571.807     10.393    556.754    571.371    556.754    557.077    556.861
 11.770    643.000    580.228     62.772    557.238    579.784    557.238    557.562    557.345
 11.870    602.000    594.585      7.415    557.709    594.130    557.709    558.035    557.818
 11.970    661.331    616.734     44.597    558.170    616.264    558.170    558.497    558.280
 12.070    648.000    645.570      2.430    558.619    645.081    558.619    558.948    558.730
 12.170    651.000    673.534    -22.534    559.058    673.027    559.058    559.388    559.170
 12.270    719.000    685.684     33.316    559.485    685.168    559.485    559.816    559.598
 12.370    703.881    672.769     31.112    559.902    672.258    559.902    560.235    560.016
 12.470    636.000    645.038     -9.038    560.308    644.540    560.308    560.642    560.423
 12.570    562.000    617.321    -55.321    560.703    616.837    560.703    561.038    560.820
 12.670    601.330    596.615      4.715    561.087    596.139    561.087    561.425    561.205
 12.770    588.000    583.655      4.345    561.461    583.185    561.461    561.800    561.581
 12.870    573.000    576.460     -3.460    561.825    575.991    561.825    562.165    561.946
 12.970    534.790    572.677    -37.887    562.178    572.208    562.178    562.520    562.300
 13.070    527.565    570.639    -43.074    562.521    570.168    562.521    562.865    562.645
 13.170    527.057    569.450    -42.394    562.854    568.977    562.854    563.199    562.979
 13.270    528.000    568.703    -40.703    563.177    568.228    563.177    563.524    563.303
 13.370    559.000    568.217     -9.217    563.490    567.739    563.490    563.838    563.618
 13.470    527.724    567.903    -40.179    563.793    567.422    563.793    564.143    563.922
 13.570    534.000    567.710    -33.710    564.086    567.226    564.086    564.438    564.217
 13.670    537.000    567.603    -30.603    564.370    567.117    564.370    564.723    564.502
 13.770    523.000    567.560    -44.560    564.643    567.070    564.643    564.998    564.777
 13.870    562.000    567.564     -5.564    564.908    567.071    564.908    565.264    565.043
 13.970    600.000    567.603     32.397    565.162    567.107    565.162    565.521    565.299
 14.070    603.645    567.668     35.977    565.408    567.168    565.408    565.768    565.546
 14.170    551.000    567.750    -16.750    565.644    567.248    565.644    566.006    565.784
 14.270    595.950    567.847     28.103    565.871    567.340    565.871    566.235    566.013
 14.370    531.335    567.956    -36.621    566.089    567.446    566.089    566.454    566.232
 14.470    557.581    568.092    -10.511    566.298    567.578    566.298    566.665    566.443
 14.570    507.000    568.216    -61.216    566.497    567.699    566.497    566.867    566.645
 14.670    565.000    568.335     -3.335    566.688    567.814    566.688    567.060    566.837
 14.770    527.000    568.454    -41.454    566.870    567.929    566.870    567.244    567.021
 14.870    603.919    568.578     35.341    567.044    568.050    567.044    567.419    567.197
 14.970    558.000    568.767    -10.767    567.209    568.235    567.209    567.586    567.363
 15.070    565.334    568.936     -3.603    567.365    568.400    567.365    567.744    567.522
 15.170    536.759    569.052    -32.292    567.513    568.512    567.513    567.894    567.671
 15.270    551.000    569.158    -18.158    567.652    568.614    567.652    568.035    567.813
 15.370    530.121    569.260    -39.138    567.783    568.712    567.783    568.168    567.946
 15.470    549.000    569.357    -20.357    567.906    568.805    567.906    568.293    568.071
 15.570    594.000    569.449     24.551    568.021    568.892    568.021    568.410    568.188
 15.670    546.000    569.536    -23.536    568.127    568.975    568.127    568.519    568.297
 15.770    494.000    569.617    -75.617    568.226    569.051    568.226    568.620    568.398
 15.870    552.000    569.692    -17.692    568.317    569.122    568.317    568.712    568.491
 15.970    546.000    569.762    -23.762    568.400    569.188    568.400    568.797    568.576
 16.070    584.000    569.826     14.174    568.475    569.247    568.475    568.875    568.654
 16.170    558.000    569.884    -11.884    568.542    569.300    568.542    568.945    568.723
 16.270    581.000    569.935     11.065    568.602    569.346    568.602    569.007    568.786
 16.370    556.000    569.981    -13.981    568.654    569.387    568.654    569.061    568.841
 16.470    545.000    570.020    -25.020    568.699    569.421    568.699    569.108    568.888
 16.570    545.000    570.053    -25.053    568.736    569.449    568.736    569.148    568.928
 16.670    546.000    570.080    -24.080    568.766    569.471    568.766    569.181    568.961
 16.770    587.000    570.101     16.899    568.789    569.486    568.789    569.206    568.987
 16.870    562.000    570.118     -8.118    568.805    569.498    568.805    569.224    569.005
 16.970    576.000    570.136      5.864    568.814    569.510    568.814    569.236    569.017
 17.070    533.000    570.139    -37.139    568.815    569.508    568.815    569.240    569.022
 17.170    548.166    570.135    -21.969    568.810    569.498    568.810    569.237    569.019
 17.270    547.000    570.125    -23.125    568.798    569.482    568.798    569.228    569.010
 17.370    608.475    570.109     38.367    568.779    569.460    568.779    569.211    568.995
 17.470    544.000    570.087    -26.087    568.753    569.432    568.753    569.188    568.972
 17.570    569.000    570.059     -1.059    568.721    569.398    568.721    569.159    568.943
 17.670    604.148    570.026     34.122    568.682    569.359    568.682    569.123    568.908
 17.770    556.000    570.004    -14.004    568.636    569.330    568.636    569.080    568.866
 17.870    536.000    570.014    -34.014    568.584    569.334    568.584    569.031    568.818
 17.970    537.000    569.969    -32.969    568.526    569.282    568.526    568.976    568.763
 18.070    616.000    569.912     46.088    568.462    569.218    568.462    568.914    568.702
 18.170    578.000    569.850      8.150    568.391    569.149    568.391    568.847    568.636
 18.270    581.000    569.782     11.218    568.314    569.074    568.314    568.773    568.563
 18.370    592.353    569.710     22.643    568.231    568.994    568.231    568.693    568.484
 18.470    513.000    569.637    -56.637    568.142    568.915    568.142    568.607    568.399
 18.570    537.934    569.560    -31.627    568.047    568.830    568.047    568.515    568.308
 18.670    529.000    569.472    -40.472    567.946    568.734    567.946    568.418    568.212
 18.770    513.000    569.382    -56.382    567.839    568.636    567.839    568.315    568.110
 18.870    577.000    569.306      7.694    567.727    568.551    567.727    568.206    568.002
 18.970    561.000    569.204     -8.204    567.608    568.441    567.608    568.091    567.889
 19.070    578.729    569.094      9.635    567.485    568.323    567.485    567.971    567.770
 19.170    567.000    568.980     -1.980    567.355    568.200    567.355    567.845    567.646
 19.270    521.000    568.862    -47.862    567.221    568.073    567.221    567.714    567.516
 19.370    554.000    568.748    -14.748    567.080    567.949    567.080    567.578    567.381
 19.470    565.000    568.622     -3.622    566.935    567.814    566.935    567.436    567.241
 19.570    560.261    568.489     -8.228    566.784    567.671    566.784    567.289    567.096
 19.670    547.000    568.351    -21.351    566.628    567.524    566.628    567.137    566.946
 19.770    595.000    568.211     26.789    566.466    567.374    566.466    566.980    566.790
 19.870    550.571    568.066    -17.495    566.300    567.218    566.300    566.818    566.630
 19.970    576.000    567.917      8.083    566.129    567.058    566.129    566.651    566.465
 20.070    550.000    567.775    -17.775    565.952    566.905    565.952    566.479    566.295
 20.170    607.090    567.656     39.434    565.771    566.775    565.771    566.302    566.121
 20.270    567.000    567.498     -0.498    565.585    566.606    565.585    566.121    565.942
 20.370    563.000    567.333     -4.333    565.394    566.429    565.394    565.934    565.758
 20.470    581.180    567.164     14.016    565.198    566.248    565.198    565.744    565.570
 20.570    516.000    566.992    -50.992    564.998    566.063    564.998    565.548    565.377
 20.670    566.960    566.816      0.144    564.793    565.874    564.793    565.348    565.180
 20.770    519.000    566.638    -47.638    564.583    565.683    564.583    565.144    564.979
 20.870    535.862    566.467    -30.605    564.369    565.498    564.369    564.936    564.773
 20.970    552.666    566.331    -13.666    564.151    565.348    564.151    564.723    564.563
 21.070    554.000    566.186    -12.186    563.928    565.188    563.928    564.505    564.350
 21.170    504.000    566.027    -62.027    563.701    565.014    563.701    564.284    564.132
 21.270    592.447    565.847     26.599    563.470    564.819    563.470    564.059    563.910
 21.370    555.000    565.674    -10.674    563.235    564.630    563.235    563.829    563.684
 21.470    519.000    565.488    -46.488    562.995    564.427    562.995    563.596    563.455
 21.570    590.000    565.329     24.671    562.751    564.251    562.751    563.359    563.222
 21.670    568.048    565.135      2.912    562.504    564.040    562.504    563.118    562.985
 21.770    586.167    564.939     21.228    562.252    563.826    562.252    562.873    562.745
 21.870    538.113    564.759    -26.646    561.996    563.626    561.996    562.624    562.501
 21.970    566.000    564.566      1.434    561.737    563.415    561.737    562.372    562.254
 22.070    601.000    564.369     36.631    561.474    563.198    561.474    562.116    562.004
 22.170    561.000    564.184     -3.184    561.207    562.992    561.207    561.857    561.750
 22.270    526.000    563.990    -37.990    560.936    562.777    560.936    561.594    561.493
 22.370    531.000    563.797    -32.797    560.662    562.562    560.662    561.328    561.233
 22.470    541.000    563.608    -22.608    560.385    562.350    560.385    561.059    560.970
 22.570    533.000    563.421    -30.421    560.103    562.139    560.103    560.786    560.704
 22.670    592.506    563.240     29.267    559.819    561.932    559.819    560.510    560.435
 22.770    591.000    563.065     27.935    559.530    561.732    559.530    560.231    560.163
 22.870    543.713    562.899    -19.185    559.239    561.539    559.239    559.949    559.889
 22.970    504.000    562.744    -58.744    558.944    561.357    558.944    559.664    559.612
 23.070    564.263    562.603      1.660    558.646    561.187    558.646    559.376    559.333
 23.170    549.000    562.480    -13.480    558.345    561.034    558.345    559.086    559.051
 23.270    615.000    562.379     52.621    558.041    560.902    558.041    558.792    558.767
 23.370    553.000    562.307     -9.307    557.734    560.798    557.734    558.496    558.481
 23.470    546.000    562.275    -16.275    557.423    560.732    557.423    558.198    558.193
 23.570    569.000    562.294      6.706    557.110    560.716    557.110    557.896    557.902
 23.670    562.000    562.371     -0.371    556.793    560.757    556.793    557.593    557.610
 23.770    522.272    562.534    -40.262    556.474    560.882    556.474    557.287    557.316
 23.870    581.000    562.817     18.183    556.152    561.125    556.152    556.978    557.021
 23.970    558.000    563.279     -5.279    555.827    561.546    555.827    556.668    556.723
 24.070    601.000    564.041     36.959    555.500    562.265    555.500    556.355    556.425
 24.170    627.000    565.368     61.632    555.170    563.547    555.170    556.041    556.125
 24.270    537.742    567.826    -30.084    554.837    565.959    554.837    555.724    555.824
 24.370    558.000    572.447    -14.447    554.502    570.533    554.502    555.405    555.522
 24.470    612.000    580.672     31.328    554.164    578.711    554.164    555.085    555.220
 24.570    585.839    593.743     -7.904    553.823    591.736    553.823    554.763    554.916
 24.670    614.541    611.357      3.185    553.481    609.304    553.481    554.440    554.612
 24.770    650.046    629.615     20.431    553.135    627.514    553.135    554.115    554.308
 24.870    648.669    639.936      8.734    552.788    637.777    552.788    553.789    554.004
 24.970    663.000    635.244     27.756    552.438    633.015    552.438    553.461    553.700
 25.070    625.000    618.962      6.038    552.086    616.650    552.086    553.133    553.396
 25.170    634.000    600.007     33.993    551.732    597.606    551.732    552.803    553.093
 25.270    609.899    584.328     25.571    551.375    581.836    551.375    552.473    552.790
 25.370    606.000    573.595     32.405    551.017    571.012    551.017    552.142    552.489
 25.470    547.000    567.087    -20.087    550.656    564.409    550.656    551.811    552.189
 25.570    590.000    563.362     26.638    550.294    560.587    550.294    551.479    551.890
 25.670    583.000    561.188     21.812    549.929    558.311    549.929    551.147    551.594
 25.770    552.657    559.809     -7.153    549.563    556.825    549.563    550.815    551.300
 25.870    590.947    558.846     32.101    549.195    555.747    549.195    550.483    551.009
 25.970    619.000    558.126     60.874    548.825    554.905    548.825    550.151    550.721
 26.070    594.000    557.571     36.429    548.453    554.222    548.453    549.820    550.437
 26.170    567.144    557.142     10.002    548.079    553.655    548.079    549.491    550.157
 26.270    613.000    556.814     56.186    547.704    553.181    547.704    549.162    549.881
 26.370    575.000    556.575     18.425    547.327    552.785    547.327    548.835    549.611
 26.470    615.000    556.419     58.581    546.948    552.460    546.948    548.509    549.347
 26.570    576.000    556.342     19.658    546.568    552.204    546.568    548.186    549.090
 26.670    550.637    556.347     -5.711    546.186    552.017    546.186    547.865    548.840
 26.770    572.113    556.442     15.671    545.803    551.905    545.803    547.546    548.598
 26.870    511.398    556.637    -45.239    545.418    551.877    545.418    547.231    548.366
 26.970    603.347    556.949     46.398    545.032    551.951    545.032    546.920    548.143
 27.070    587.000    557.403     29.597    544.645    552.149    544.645    546.613    547.932
 27.170    593.000    558.035     34.965    544.256    552.505    544.256    546.311    547.733
 27.270    607.000    558.899     48.101    543.866    553.071    543.866    546.014    547.547
 27.370    554.000    560.069     -6.069    543.475    553.921    543.475    545.722    547.376
 27.470    586.750    561.686     25.064    543.082    555.192    543.082    545.437    547.221
 27.570    583.000    564.070     18.930    542.689    557.205    542.689    545.159    547.083
 27.670    622.000    568.197     53.803    542.294    560.931    542.294    544.889    546.964
 27.770    586.696    576.994      9.702    541.898    569.293    541.898    544.627    546.865
 27.870    636.000    597.624     38.376    541.502    589.452    541.502    544.374    546.788
 27.970    695.000    642.263     52.737    541.104    633.577    541.104    544.130    546.733
 28.070    750.000    721.468     28.532    540.705    712.227    540.705    543.896    546.702
 28.170    846.000    827.468     18.532    540.305    817.636    540.305    543.673    546.695
 28.270    935.000    919.676     15.324    539.904    909.233    539.904    543.459    546.713
 28.370    995.370    942.249     53.121    539.503    931.181    539.503    543.257    546.755
 28.470    938.166    882.674     55.492    539.101    870.953    539.101    543.064    546.822
 28.570    802.000    794.551      7.449    538.698    782.136    538.698    542.880    546.909
 28.670    772.000    737.984     34.016    538.294    724.837    538.294    542.704    547.015
 28.770    762.000    736.840     25.160    537.889    722.934    537.889    542.534    547.134
 28.870    825.000    777.841     47.159    537.484    763.166    537.484    542.366    547.260
 28.970    845.000    822.849     22.151    537.078    807.416    537.078    542.197    547.383
 29.070    845.000    829.568     15.432    536.672    813.400    536.672    542.021    547.494
 29.170    731.002    785.184    -54.182    536.265    768.313    536.265    541.835    547.580
 29.270    723.445    716.430      7.015    535.857    698.904    535.857    541.631    547.626
 29.370    686.190    654.329     31.862    535.449    636.220    535.449    541.402    547.617
 29.470    592.056    612.144    -20.087    535.041    593.551    535.041    541.143    547.540
 29.570    609.000    588.632     20.368    534.632    569.675    534.632    540.847    547.380
 29.670    627.000    576.997     50.003    534.223    557.810    534.223    540.510    547.127
 29.770    570.000    571.208     -1.208    533.813    551.936    533.813    540.129    546.773
 29.870    615.701    567.875     47.826    533.403    548.667    533.403    539.702    546.317
 29.970    524.916    565.564    -40.648    532.993    546.563    532.993    539.231    545.759
 30.070    608.000    563.770     44.230    532.583    545.113    532.583    538.718    545.108
 30.170    594.387    562.352     32.034    532.172    544.158    532.172    538.168    544.373
 30.270    572.213    561.355     10.858    531.761    543.724    531.761    537.587    543.568
 30.370    528.222    561.050    -32.828    531.350    544.060    531.350    536.982    542.708
