neutron_powder_diffraction_0173
R_wp: 3.852
Temperature (K): 1074.000
Counts: 83415.00
Wavelength (Ã…): 2.52098
COMMENTS
Test file for demonstrating the .xyy file format in Reel1.0
END OF HEADER
   tth       Y_obs     Y_calc      Y_res    Background    Phase_1_Nuc    Phase_1_Mag    Phase_2_Nuc    Phase_2_Mag
  9.970    576.000    570.801      5.199    570.044    570.744    570.044    570.101    570.044
 10.070    564.508    570.925     -6.417    570.108    570.868    570.108    570.164    570.108
 10.170    552.080    571.053    -18.973    570.165    570.995    570.165    570.222    570.165
 10.270    530.000    571.186    -41.186    570.218    571.128    570.218    570.275    570.218
 10.370    572.000    571.326      0.674    570.265    571.268    570.265    570.322    570.265
 10.470    581.119    571.478      9.641    570.306    571.419    570.306    570.364    570.306
 10.570    614.606    571.644     42.962    570.343    571.585    570.343    570.401    570.343
 10.670    582.000    571.830     10.170    570.374    571.771    570.374    570.432    570.374
 10.770    576.000    572.043      3.957    570.400    571.984    570.400    570.459    570.400
 10.870    618.000    572.292     45.708    570.421    572.232    570.421    570.480    570.421
 10.970    584.000    572.591     11.409    570.437    572.531    570.437    570.496    570.437
 11.070    619.000    572.959     46.041    570.448    572.898    570.448    570.508    570.448
 11.170    601.000    573.421     27.579    570.454    573.360    570.454    570.514    570.454
 11.270    571.000    574.022     -3.022    570.456    573.960    570.456    570.516    570.456
 11.370    536.870    574.836    -37.966    570.452    574.773    570.452    570.512    570.452
 11.470    586.000    576.027      9.973    570.444    575.964    570.444    570.504    570.444
 11.570    580.223    578.044      2.179    570.431    577.979    570.431    570.491    570.431
 11.670    591.000    582.084      8.916    570.413    582.016    570.413    570.474    570.413
 11.770    591.572    590.746      0.826    570.390    590.673    570.390    570.452    570.390
 11.870    592.609    607.954    -15.345    570.363    607.870    570.363    570.426    570.363
 11.970    601.983    636.445    -34.462    570.332    636.345    570.332    570.395    570.332
 12.070    696.336    672.341     23.995    570.295    672.220    570.295    570.359    570.295
 12.170    664.881    700.259    -35.378    570.255    700.123    570.255    570.319    570.255
 12.270    660.000    701.122    -41.122    570.210    700.985    570.210    570.274    570.210
 12.370    678.000    674.126      3.874    570.160    674.004    570.160    570.225    570.160
 12.470    592.000    638.012    -46.012    570.107    637.909    570.107    570.172    570.107
 12.570    575.000    608.828    -33.828    570.049    608.741    570.049    570.114    570.049
 12.670    580.155    590.979    -10.823    569.987    590.901    569.987    570.052    569.987
 12.770    578.122    581.897     -3.775    569.920    581.825    569.920    569.986    569.920
 12.870    597.000    577.620     19.380    569.850    577.549    569.850    569.916    569.850
 12.970    562.856    575.456    -12.600    569.775    575.387    569.775    569.842    569.775
 13.070    600.648    574.154     26.494    569.697    574.085    569.697    569.764    569.697
 13.170    561.580    573.243    -11.663    569.614    573.174    569.614    569.681    569.614
 13.270    518.000    572.550    -54.550    569.528    572.481    569.528    569.595    569.528
 13.370    610.290    572.000     38.290    569.437    571.931    569.437    569.505    569.437
 13.470    591.539    571.548     19.991    569.343    571.478    569.343    569.411    569.343
 13.570    573.000    571.166      1.834    569.245    571.097    569.245    569.313    569.245
 13.670    572.000    570.836      1.164    569.143    570.767    569.143    569.212    569.143
 13.770    567.000    570.545     -3.545    569.037    570.475    569.037    569.106    569.037
 13.870    541.474    570.282    -28.808    568.928    570.212    568.928    568.997    568.928
 13.970    535.732    570.041    -34.308    568.815    569.970    568.815    568.885    568.815
 14.070    586.266    569.816     16.450    568.698    569.745    568.698    568.769    568.698
 14.170    543.000    569.604    -26.604    568.578    569.533    568.578    568.649    568.578
 14.270    544.000    569.402    -25.402    568.454    569.331    568.454    568.526    568.454
 14.370    551.000    569.210    -18.210    568.327    569.138    568.327    568.399    568.327
 14.470    558.000    569.022    -11.022    568.197    568.950    568.197    568.269    568.197
 14.570    585.972    568.837     17.134    568.063    568.765    568.063    568.135    568.063
 14.670    540.000    568.655    -28.655    567.926    568.582    567.926    567.998    567.926
 14.770    589.587    568.475     21.112    567.785    568.402    567.785    567.858    567.785
 14.870    553.000    568.297    -15.297    567.641    568.223    567.641    567.715    567.641
 14.970    548.829    568.123    -19.294    567.494    568.044    567.494    567.572    567.494
 15.070    595.328    567.947     27.382    567.344    567.866    567.344    567.424    567.344
 15.170    580.700    567.769     12.931    567.190    567.688    567.190    567.271    567.190
 15.270    571.152    567.591      3.561    567.034    567.509    567.034    567.115    567.034
 15.370    545.947    567.412    -21.465    566.874    567.329    566.874    566.956    566.874
 15.470    589.000    567.231     21.769    566.712    567.149    566.712    566.794    566.712
 15.570    594.254    567.051     27.203    566.546    566.968    566.546    566.629    566.546
 15.670    620.000    566.870     53.130    566.377    566.787    566.377    566.461    566.377
 15.770    592.000    566.686     25.314    566.206    566.602    566.206    566.290    566.206
 15.870    580.158    566.500     13.657    566.032    566.416    566.032    566.116    566.032
 15.970    547.000    566.313    -19.313    565.855    566.228    565.855    565.939    565.855
 16.070    579.768    566.124     13.644    565.675    566.038    565.675    565.760    565.675
 16.170    521.000    565.933    -44.933    565.492    565.847    565.492    565.578    565.492
 16.270    597.000    565.740     31.260    565.307    565.654    565.307    565.393    565.307
 16.370    543.000    565.545    -22.545    565.119    565.458    565.119    565.205    565.119
 16.470    603.826    565.349     38.478    564.928    565.261    564.928    565.015    564.928
 16.570    534.000    565.150    -31.150    564.735    565.062    564.735    564.822    564.735
 16.670    528.000    564.950    -36.950    564.539    564.861    564.539    564.627    564.539
 16.770    567.000    564.748      2.252    564.340    564.659    564.340    564.429    564.340
 16.870    551.902    564.543    -12.641    564.139    564.454    564.139    564.229    564.139
 16.970    601.655    564.337     37.318    563.936    564.247    563.936    564.026    563.936
 17.070    587.000    564.131     22.869    563.730    564.040    563.730    563.821    563.730
 17.170    551.000    563.921    -12.921    563.522    563.830    563.522    563.614    563.522
 17.270    620.000    563.709     56.291    563.312    563.618    563.312    563.404    563.312
 17.370    559.000    563.495     -4.495    563.099    563.403    563.099    563.192    563.099
 17.470    553.000    563.279    -10.279    562.884    563.186    562.884    562.977    562.884
 17.570    529.000    563.062    -34.062    562.667    562.968    562.667    562.761    562.667
 17.670    589.000    562.842     26.158    562.448    562.748    562.448    562.542    562.448
 17.770    555.000    562.621     -7.621    562.226    562.526    562.226    562.321    562.226
 17.870    587.000    562.398     24.602    562.002    562.302    562.002    562.098    562.002
 17.970    597.829    562.173     35.656    561.777    562.076    561.777    561.873    561.777
 18.070    602.613    561.946     40.667    561.549    561.849    561.549    561.646    561.549
 18.170    547.000    561.717    -14.717    561.319    561.620    561.319    561.416    561.319
 18.270    560.000    561.487     -1.487    561.087    561.389    561.087    561.185    561.087
 18.370    582.051    561.256     20.795    560.853    561.157    560.853    560.952    560.853
 18.470    523.763    561.023    -37.260    560.618    560.924    560.618    560.717    560.618
 18.570    546.000    560.789    -14.789    560.380    560.689    560.380    560.480    560.380
 18.670    558.000    560.553     -2.553    560.140    560.452    560.140    560.242    560.140
 18.770    542.000    560.315    -18.315    559.899    560.213    559.899    560.001    559.899
 18.870    578.191    560.076     18.116    559.656    559.973    559.656    559.759    559.656
 18.970    571.000    559.835     11.165    559.411    559.731    559.411    559.515    559.411
 19.070    527.000    559.593    -32.593    559.165    559.488    559.165    559.269    559.165
 19.170    548.303    559.349    -11.046    558.917    559.244    558.917    559.022    558.917
 19.270    552.000    559.104     -7.104    558.667    558.998    558.667    558.773    558.667
 19.370    585.398    558.857     26.541    558.415    558.750    558.415    558.522    558.415
 19.470    505.000    558.610    -53.610    558.162    558.502    558.162    558.270    558.162
 19.570    559.000    558.362      0.638    557.908    558.253    557.908    558.016    557.908
 19.670    569.000    558.126     10.874    557.651    558.016    557.651    557.761    557.651
 19.770    586.000    557.885     28.115    557.394    557.774    557.394    557.504    557.394
 19.870    555.535    557.636     -2.101    557.135    557.522    557.135    557.248    557.135
 19.970    610.000    557.384     52.616    556.874    557.268    556.874    556.989    556.874
 20.070    557.693    557.130      0.564    556.612    557.013    556.612    556.729    556.612
 20.170    544.255    556.875    -12.620    556.349    556.757    556.349    556.466    556.349
 20.270    536.000    556.619    -20.619    556.084    556.501    556.084    556.203    556.084
 20.370    597.000    556.363     40.637    555.818    556.243    555.818    555.938    555.818
 20.470    512.000    556.106    -44.106    555.551    555.985    555.551    555.672    555.551
 20.570    550.269    555.848     -5.579    555.282    555.726    555.282    555.404    555.282
 20.670    531.000    555.589    -24.589    555.013    555.466    555.013    555.136    555.013
 20.770    526.000    555.330    -29.330    554.742    555.206    554.742    554.866    554.742
 20.870    600.000    555.071     44.929    554.470    554.946    554.470    554.595    554.470
 20.970    545.281    554.812     -9.530    554.197    554.685    554.197    554.323    554.197
 21.070    577.437    554.552     22.885    553.922    554.424    553.922    554.050    553.922
 21.170    526.971    554.292    -27.321    553.647    554.162    553.647    553.776    553.647
 21.270    520.000    554.032    -34.032    553.370    553.901    553.370    553.501    553.370
 21.370    565.000    553.772     11.228    553.093    553.640    553.093    553.225    553.093
 21.470    522.620    553.513    -30.893    552.815    553.379    552.815    552.948    552.815
 21.570    554.000    553.254      0.746    552.535    553.119    552.535    552.670    552.535
 21.670    562.000    552.995      9.005    552.255    552.859    552.255    552.392    552.255
 21.770    547.000    552.738     -5.738    551.974    552.600    551.974    552.112    551.974
 21.870    574.764    552.481     22.282    551.691    552.342    551.691    551.831    551.691
 21.970    603.000    552.234     50.766    551.409    552.093    551.409    551.550    551.409
 22.070    527.571    552.061    -24.490    551.125    551.917    551.125    551.268    551.125
 22.170    539.000    551.832    -12.832    550.840    551.687    550.840    550.985    550.840
 22.270    560.762    551.588      9.174    550.555    551.442    550.555    550.702    550.555
 22.370    506.000    551.343    -45.343    550.269    551.194    550.269    550.418    550.269
 22.470    586.000    551.107     34.893    549.982    550.956    549.982    550.133    549.982
 22.570    516.000    550.934    -34.934    549.694    550.781    549.694    549.847    549.694
 22.670    567.000    550.746     16.254    549.406    550.591    549.406    549.561    549.406
 22.770    570.212    550.525     19.687    549.117    550.368    549.117    549.275    549.117
 22.870    564.000    550.307     13.693    548.828    550.148    548.828    548.988    548.828
 22.970    573.502    550.099     23.403    548.538    549.937    548.538    548.700    548.538
 23.070    583.000    549.904     33.096    548.247    549.740    548.247    548.412    548.247
 23.170    570.285    549.725     20.560    547.956    549.559    547.956    548.123    547.956
 23.270    539.000    549.562    -10.562    547.665    549.393    547.665    547.834    547.665
 23.370    578.000    549.423     28.577    547.373    549.252    547.373    547.545    547.373
 23.470    552.725    549.315      3.410    547.080    549.140    547.080    547.255    547.080
 23.570    508.476    549.247    -40.771    546.787    549.070    546.787    546.966    546.787
 23.670    572.908    549.234     23.674    546.494    549.053    546.494    546.675    546.494
 23.770    526.000    549.296    -23.296    546.200    549.112    546.200    546.385    546.200
 23.870    596.000    549.465     46.535    545.906    549.279    545.906    546.094    545.906
 23.970    583.451    549.803     33.648    545.611    549.614    545.611    545.803    545.611
 24.070    555.392    550.454      4.938    545.317    550.262    545.317    545.512    545.317
 24.170    552.000    551.811      0.189    545.021    551.615    545.021    545.221    545.021
 24.270    557.000    554.858      2.142    544.726    554.660    544.726    544.930    544.726
 24.370    618.000    561.523     56.477    544.430    561.326    544.430    544.638    544.430
 24.470    567.000    574.304     -7.304    544.135    574.112    544.135    544.347    544.135
 24.570    633.000    594.240     38.760    543.839    594.058    543.839    544.056    543.839
 24.670    556.000    617.398    -61.398    543.542    617.227    543.542    543.765    543.542
 24.770    598.000    632.605    -34.605    543.246    632.441    543.246    543.474    543.246
 24.870    625.000    628.873     -3.873    542.949    628.701    542.949    543.183    542.949
 24.970    643.000    609.184     33.816    542.653    608.991    542.653    542.893    542.653
 25.070    598.086    585.880     12.207    542.356    585.664    542.356    542.602    542.356
 25.170    615.000    567.713     47.287    542.059    567.477    542.059    542.312    542.059
 25.270    556.000    556.652     -0.652    541.762    556.402    541.762    542.023    541.762
 25.370    568.876    550.895     17.981    541.466    550.632    541.466    541.733    541.466
 25.470    531.000    548.029    -17.029    541.169    547.757    541.169    541.445    541.169
 25.570    560.000    546.467     13.533    540.872    546.185    540.872    541.157    540.872
 25.670    559.000    545.461     13.539    540.575    545.169    540.575    540.869    540.575
 25.770    523.936    544.714    -20.778    540.278    544.411    540.278    540.583    540.278
 25.870    564.000    544.119     19.881    539.982    543.805    539.982    540.297    539.982
 25.970    560.000    543.631     16.369    539.685    543.305    539.685    540.012    539.685
 26.070    538.000    543.223     -5.223    539.389    542.884    539.389    539.728    539.389
 26.170    545.985    542.882      3.103    539.092    542.529    539.092    539.446    539.092
 26.270    553.000    542.621     10.379    538.796    542.254    538.796    539.164    538.796
 26.370    572.414    542.410     30.005    538.500    542.026    538.500    538.884    538.500
 26.470    523.217    542.228    -19.012    538.205    541.827    538.205    538.606    538.205
 26.570    547.793    542.094      5.698    537.909    541.674    537.909    538.330    537.909
 26.670    581.000    542.013     38.987    537.614    541.571    537.614    538.056    537.614
 26.770    521.998    541.999    -20.001    537.319    541.534    537.319    537.784    537.319
 26.870    536.000    542.041     -6.041    537.024    541.551    537.024    537.514    537.024
 26.970    509.050    542.169    -33.119    536.730    541.650    536.730    537.248    536.730
 27.070    556.000    542.416     13.584    536.435    541.866    536.435    536.986    536.435
 27.170    580.000    542.816     37.184    536.142    542.231    536.142    536.727    536.142
 27.270    543.000    543.384     -0.384    535.848    542.758    535.848    536.473    535.848
 27.370    547.000    544.212      2.788    535.555    543.542    535.555    536.224    535.555
 27.470    514.821    545.440    -30.619    535.262    544.719    535.262    535.981    535.262
 27.570    518.000    547.417    -29.417    534.970    546.638    534.970    535.746    534.970
 27.670    540.000    551.425    -11.425    534.678    550.580    534.678    535.520    534.678
 27.770    593.763    562.012     31.751    534.387    561.089    534.387    535.303    534.387
 27.870    614.964    591.193     23.771    534.096    590.173    534.096    535.100    534.096
 27.970    642.000    658.393    -16.393    533.805    657.249    533.805    534.911    533.805
 28.070    815.872    773.052     42.821    533.515    771.754    533.515    534.741    533.515
 28.170    906.402    902.496      3.906    533.226    901.027    533.226    534.595    533.226
 28.270    956.000    966.352    -10.352    532.937    964.714    532.937    534.477    532.937
 28.370    920.000    911.763      8.237    532.649    909.953    532.649    534.399    532.649
 28.470    749.000    794.588    -45.588    532.361    792.554    532.361    534.371    532.361
 28.570    701.000    704.399     -3.399    532.074    702.047    532.074    534.416    532.074
 28.670    706.000    686.597     19.403    531.787    683.803    531.787    534.568    531.787
 28.770    761.601    734.970     26.632    531.501    731.567    531.501    534.885    531.501
 28.870    836.000    807.143     28.857    531.215    802.888    531.215    535.459    531.215
 28.970    759.000    841.379    -82.379    530.931    835.889    530.931    536.423    530.931
 29.070    835.985    801.548     34.437    530.646    794.259    530.646    537.949    530.646
 29.170    721.000    719.571      1.429    530.363    709.730    530.363    540.217    530.363
 29.270    644.945    644.691      0.254    530.080    631.422    530.080    543.358    530.080
 29.370    607.000    598.938      8.062    529.798    581.399    529.798    547.340    529.798
 29.470    570.000    579.013     -9.013    529.517    556.777    529.517    551.753    529.517
 29.570    639.000    572.679     66.321    529.236    546.382    529.236    555.531    529.236
 29.670    578.000    570.017      7.983    528.956    541.881    528.956    557.090    528.956
 29.770    606.075    566.302     39.772    528.677    539.489    528.677    555.489    528.677
 29.870    588.000    560.977     27.023    528.399    537.936    528.399    551.438    528.399
 29.970    598.000    555.227     42.773    528.121    536.847    528.121    546.499    528.121
 30.070    544.576    550.109     -5.533    527.845    536.104    527.845    541.848    527.845
 30.170    534.150    546.113    -11.963    527.569    535.688    527.569    537.992    527.569
 30.270    559.000    543.435     15.565    527.294    535.709    527.294    535.017    527.294
 30.370    584.000    542.407     41.593    527.019    536.610    527.019    532.812    527.019
