neutron_powder_diffraction_0183
R_wp: 3.936
Temperature (K): 1074.000
Counts: 83432.00
Wavelength (Ã…): 2.52098
COMMENTS
Test file for demonstrating the .xyy file format in Reel1.0
END OF HEADER
   tth       Y_obs     Y_calc      Y_res    Background    Phase_1_Nuc    Phase_1_Mag    Phase_2_Nuc    Phase_2_Mag
  9.970    659.000    574.734     84.266    574.007    574.674    574.007    574.067    574.007
 10.070    601.000    574.762     26.238    573.978    574.701    573.978    574.038    573.978
 10.170    564.000    574.793    -10.793    573.943    574.733    573.943    574.004    573.943
 10.270    527.442    574.830    -47.388    573.905    574.769    573.905    573.965    573.905
 10.370    607.000    574.875     32.125    573.861    574.814    573.861    573.922    573.861
 10.470    572.484    574.931     -2.447    573.813    574.869    573.813    573.875    573.813
 10.570    540.450    575.002    -34.552    573.761    574.938    573.761    573.824    573.761
 10.670    548.247    575.091    -26.844    573.704    575.027    573.704    573.767    573.704
 10.770    622.000    575.205     46.795    573.643    575.141    573.643    573.706    573.643
 10.870    600.000    575.355     24.645    573.577    575.290    573.577    573.641    573.577
 10.970    615.521    575.552     39.970    573.508    575.486    573.508    573.572    573.508
 11.070    559.058    575.813    -16.755    573.434    575.748    573.434    573.498    573.434
 11.170    576.000    576.166     -0.166    573.356    576.099    573.356    573.420    573.356
 11.270    537.294    576.649    -39.355    573.274    576.582    573.274    573.338    573.274
 11.370    594.000    577.334     16.666    573.187    577.266    573.187    573.252    573.187
 11.470    608.023    578.369     29.654    573.097    578.301    573.097    573.162    573.097
 11.570    587.000    580.175      6.825    573.003    580.105    573.003    573.068    573.003
 11.670    573.000    583.932    -10.932    572.904    583.860    572.904    572.970    572.904
 11.770    636.934    592.360     44.574    572.802    592.282    572.802    572.869    572.802
 11.870    589.457    609.795    -20.338    572.696    609.707    572.696    572.763    572.696
 11.970    712.000    639.557     72.443    572.586    639.453    572.586    572.653    572.586
 12.070    670.000    677.772     -7.772    572.473    677.646    572.473    572.540    572.473
 12.170    688.000    707.765    -19.765    572.355    707.623    572.355    572.423    572.355
 12.270    697.537    708.626    -11.090    572.234    708.483    572.234    572.302    572.234
 12.370    639.000    679.472    -40.472    572.109    679.345    572.109    572.178    572.109
 12.470    652.000    640.849     11.151    571.981    640.742    571.981    572.050    571.981
 12.570    582.361    610.173    -27.812    571.849    610.083    571.849    571.918    571.849
 12.670    578.000    591.901    -13.901    571.714    591.821    571.714    571.783    571.714
 12.770    554.000    582.894    -28.894    571.575    582.819    571.575    571.644    571.575
 12.870    584.000    578.750      5.250    571.433    578.677    571.433    571.502    571.433
 12.970    576.000    576.650     -0.650    571.287    576.577    571.287    571.357    571.287
 13.070    621.145    575.354     45.791    571.138    575.282    571.138    571.208    571.138
 13.170    539.000    574.422    -35.422    570.985    574.349    570.985    571.056    570.985
 13.270    581.000    573.695      7.305    570.830    573.622    570.830    570.901    570.830
 13.370    575.660    573.103      2.558    570.671    573.030    570.671    570.742    570.671
 13.470    562.000    572.603    -10.603    570.508    572.530    570.508    570.580    570.508
 13.570    556.000    572.172    -16.172    570.343    572.098    570.343    570.415    570.343
 13.670    554.000    571.789    -17.789    570.175    571.715    570.175    570.247    570.175
 13.770    552.000    571.442    -19.442    570.003    571.369    570.003    570.076    570.003
 13.870    553.000    571.123    -18.123    569.829    571.049    569.829    569.902    569.829
 13.970    619.000    570.826     48.174    569.651    570.751    569.651    569.725    569.651
 14.070    559.000    570.548    -11.548    569.471    570.469    569.471    569.549    569.471
 14.170    614.572    570.280     44.292    569.287    570.199    569.287    569.368    569.287
 14.270    565.159    570.021     -4.862    569.101    569.939    569.101    569.182    569.101
 14.370    582.000    569.771     12.229    568.912    569.689    568.912    568.994    568.912
 14.470    518.000    569.526    -51.526    568.720    569.443    568.720    568.802    568.720
 14.570    544.000    569.283    -25.283    568.525    569.200    568.525    568.608    568.525
 14.670    553.049    569.044    -15.995    568.328    568.961    568.328    568.411    568.328
 14.770    602.923    568.807     34.116    568.127    568.723    568.127    568.211    568.127
 14.870    601.525    568.572     32.953    567.925    568.488    567.925    568.009    567.925
 14.970    541.799    568.338    -26.539    567.719    568.253    567.719    567.804    567.719
 15.070    517.000    568.104    -51.104    567.511    568.019    567.511    567.596    567.511
 15.170    543.000    567.871    -24.871    567.300    567.785    567.300    567.386    567.300
 15.270    584.000    567.637     16.363    567.087    567.551    567.087    567.173    567.087
 15.370    545.000    567.404    -22.404    566.872    567.317    566.872    566.958    566.872
 15.470    545.000    567.170    -22.170    566.654    567.083    566.654    566.741    566.654
 15.570    568.115    566.935      1.180    566.433    566.847    566.433    566.521    566.433
 15.670    529.000    566.699    -37.699    566.211    566.611    566.211    566.298    566.211
 15.770    596.000    566.462     29.538    565.985    566.374    565.985    566.074    565.985
 15.870    533.778    566.225    -32.448    565.758    566.136    565.758    565.847    565.758
 15.970    573.000    565.988      7.012    565.528    565.899    565.528    565.618    565.528
 16.070    544.504    565.748    -21.244    565.296    565.658    565.296    565.386    565.296
 16.170    548.000    565.506    -17.506    565.062    565.416    565.062    565.153    565.062
 16.270    572.000    565.263      6.737    564.826    565.173    564.826    564.917    564.826
 16.370    577.000    565.019     11.981    564.588    564.928    564.588    564.679    564.588
 16.470    539.925    564.774    -24.849    564.347    564.682    564.347    564.439    564.347
 16.570    586.000    564.527     21.473    564.105    564.434    564.105    564.197    564.105
 16.670    601.000    564.278     36.722    563.860    564.185    563.860    563.953    563.860
 16.770    551.000    564.028    -13.028    563.614    563.935    563.614    563.707    563.614
 16.870    536.247    563.777    -27.530    563.365    563.683    563.365    563.460    563.365
 16.970    573.000    563.524      9.476    563.115    563.430    563.115    563.210    563.115
 17.070    539.361    563.272    -23.911    562.863    563.177    562.863    562.958    562.863
 17.170    606.943    563.017     43.925    562.608    562.921    562.608    562.705    562.608
 17.270    578.895    562.760     16.134    562.353    562.664    562.353    562.449    562.353
 17.370    583.722    562.502     21.220    562.095    562.404    562.095    562.192    562.095
 17.470    507.000    562.242    -55.242    561.835    562.144    561.835    561.933    561.835
 17.570    576.000    561.981     14.019    561.574    561.882    561.574    561.673    561.574
 17.670    514.000    561.718    -47.718    561.311    561.619    561.311    561.410    561.311
 17.770    576.971    561.454     15.517    561.047    561.354    561.047    561.146    561.047
 17.870    503.000    561.189    -58.189    560.780    561.088    560.780    560.881    560.780
 17.970    539.793    560.922    -21.129    560.513    560.821    560.513    560.614    560.513
 18.070    569.000    560.654      8.346    560.243    560.552    560.243    560.345    560.243
 18.170    552.000    560.386     -8.386    559.972    560.283    559.972    560.075    559.972
 18.270    571.000    560.116     10.884    559.700    560.013    559.700    559.803    559.700
 18.370    534.000    559.845    -25.845    559.426    559.741    559.426    559.530    559.426
 18.470    515.000    559.572    -44.572    559.151    559.467    559.151    559.256    559.151
 18.570    536.000    559.299    -23.299    558.874    559.193    558.874    558.980    558.874
 18.670    540.000    559.024    -19.024    558.596    558.917    558.596    558.702    558.596
 18.770    536.000    558.748    -22.748    558.316    558.640    558.316    558.424    558.316
 18.870    585.000    558.471     26.529    558.035    558.363    558.035    558.144    558.035
 18.970    572.000    558.193     13.807    557.753    558.084    557.753    557.862    557.753
 19.070    526.744    557.915    -31.170    557.470    557.804    557.470    557.580    557.470
 19.170    563.000    557.637      5.363    557.185    557.524    557.185    557.298    557.185
 19.270    545.000    557.358    -12.358    556.900    557.243    556.900    557.014    556.900
 19.370    548.000    557.078     -9.078    556.613    556.962    556.613    556.728    556.613
 19.470    562.335    556.795      5.540    556.324    556.679    556.324    556.441    556.324
 19.570    548.000    556.512     -8.512    556.035    556.395    556.035    556.153    556.035
 19.670    561.000    556.230      4.770    555.745    556.111    555.745    555.863    555.745
 19.770    590.556    555.959     34.597    555.453    555.840    555.453    555.573    555.453
 19.870    588.469    555.685     32.784    555.161    555.564    555.161    555.282    555.161
 19.970    532.000    555.400    -23.400    554.868    555.278    554.868    554.989    554.868
 20.070    587.373    555.114     32.259    554.573    554.991    554.573    554.696    554.573
 20.170    599.000    554.828     44.172    554.278    554.704    554.278    554.402    554.278
 20.270    526.000    554.541    -28.541    553.981    554.416    553.981    554.106    553.981
 20.370    549.000    554.253     -5.253    553.684    554.127    553.684    553.810    553.684
 20.470    544.000    553.966     -9.966    553.386    553.839    553.386    553.513    553.386
 20.570    550.000    553.678     -3.678    553.087    553.550    553.087    553.216    553.087
 20.670    554.000    553.390      0.610    552.787    553.260    552.787    552.917    552.787
 20.770    540.000    553.102    -13.102    552.487    552.971    552.487    552.618    552.487
 20.870    600.000    552.814     47.186    552.186    552.682    552.186    552.318    552.186
 20.970    547.321    552.526     -5.205    551.884    552.392    551.884    552.017    551.884
 21.070    578.000    552.238     25.762    551.581    552.103    551.581    551.716    551.581
 21.170    593.690    551.959     41.730    551.277    551.823    551.277    551.414    551.277
 21.270    557.000    551.758      5.242    550.973    551.620    550.973    551.111    550.973
 21.370    540.000    551.494    -11.494    550.669    551.355    550.669    550.808    550.669
 21.470    506.697    551.210    -44.513    550.363    551.069    550.363    550.504    550.363
 21.570    580.000    550.925     29.075    550.057    550.783    550.057    550.200    550.057
 21.670    533.000    550.641    -17.641    549.751    550.497    549.751    549.895    549.751
 21.770    538.506    550.360    -11.854    549.444    550.214    549.444    549.590    549.444
 21.870    600.000    550.101     49.899    549.136    549.953    549.136    549.284    549.136
 21.970    545.000    549.850     -4.850    548.828    549.701    548.828    548.977    548.828
 22.070    564.000    549.579     14.421    548.520    549.428    548.520    548.671    548.520
 22.170    540.000    549.351     -9.351    548.211    549.198    548.211    548.364    548.211
 22.270    576.000    549.097     26.903    547.901    548.943    547.901    548.056    547.901
 22.370    508.000    548.832    -40.832    547.592    548.675    547.592    547.749    547.592
 22.470    583.848    548.571     35.277    547.282    548.412    547.282    547.441    547.282
 22.570    555.000    548.311      6.689    546.971    548.150    546.971    547.132    546.971
 22.670    555.000    548.056      6.944    546.660    547.893    546.660    546.824    546.660
 22.770    569.425    547.808     21.617    546.349    547.642    546.349    546.515    546.349
 22.870    535.000    547.567    -12.567    546.038    547.399    546.038    546.206    546.038
 22.970    568.569    547.336     21.233    545.726    547.165    545.726    545.897    545.726
 23.070    545.000    547.116     -2.116    545.415    546.943    545.415    545.588    545.415
 23.170    557.000    546.911     10.089    545.103    546.735    545.103    545.279    545.103
 23.270    560.722    546.724     13.998    544.790    546.546    544.790    544.969    544.790
 23.370    538.000    546.562     -8.562    544.478    546.381    544.478    544.660    544.478
 23.470    545.000    546.428     -1.428    544.165    546.244    544.165    544.350    544.165
 23.570    535.000    546.332    -11.332    543.853    546.144    543.853    544.041    543.853
 23.670    549.000    546.288      2.712    543.540    546.097    543.540    543.731    543.540
 23.770    577.649    546.315     31.334    543.227    546.122    543.227    543.422    543.227
 23.870    545.000    546.445     -1.445    542.914    546.248    542.914    543.113    542.914
 23.970    568.000    546.733     21.267    542.601    546.533    542.601    542.804    542.601
 24.070    585.000    547.313     37.687    542.289    547.109    542.289    542.495    542.289
 24.170    554.299    548.556      5.744    541.976    548.349    541.976    542.186    541.976
 24.270    514.966    551.452    -36.485    541.663    551.243    541.663    541.878    541.663
 24.370    596.224    558.053     38.171    541.350    557.845    541.350    541.569    541.350
 24.470    591.000    571.182     19.818    541.037    570.978    541.037    541.261    541.037
 24.570    612.000    592.218     19.782    540.725    592.025    540.725    540.954    540.725
 24.670    605.000    617.060    -12.060    540.412    616.879    540.412    540.647    540.412
 24.770    599.242    633.491    -34.249    540.100    633.317    540.100    540.340    540.100
 24.870    659.421    629.479     29.941    539.787    629.297    539.787    540.034    539.787
 24.970    634.110    608.284     25.826    539.475    608.080    539.475    539.728    539.475
 25.070    590.000    583.434      6.566    539.163    583.205    539.163    539.423    539.163
 25.170    577.000    564.423     12.577    538.852    564.174    538.852    539.118    538.852
 25.270    544.000    553.154     -9.154    538.540    552.889    538.540    538.814    538.540
 25.370    585.000    547.471     37.529    538.229    547.194    538.229    538.511    538.229
 25.470    522.000    544.722    -22.722    537.918    544.434    537.918    538.209    537.918
 25.570    525.000    543.240    -18.240    537.607    542.942    537.607    537.907    537.607
 25.670    584.000    542.279     41.721    537.297    541.971    537.297    537.607    537.297
 25.770    584.000    541.563     42.437    536.987    541.244    536.987    537.308    536.987
 25.870    498.000    540.997    -42.997    536.677    540.666    536.677    537.009    536.677
 25.970    527.815    540.561    -12.745    536.368    540.217    536.368    536.712    536.368
 26.070    570.043    540.200     29.843    536.059    539.843    536.059    536.416    536.059
 26.170    556.000    539.882     16.118    535.750    539.511    535.750    536.122    535.750
 26.270    540.000    539.623      0.377    535.442    539.235    535.442    535.830    535.442
 26.370    542.000    539.418      2.582    535.134    539.014    535.134    535.539    535.134
 26.470    586.000    539.260     46.740    534.827    538.837    534.827    535.250    534.827
 26.570    581.798    539.156     42.643    534.520    538.712    534.520    534.963    534.520
 26.670    549.000    539.112      9.888    534.213    538.646    534.213    534.679    534.213
 26.770    521.644    539.154    -17.510    533.908    538.663    533.908    534.398    533.908
 26.870    537.000    539.298     -2.298    533.602    538.781    533.602    534.119    533.602
 26.970    561.369    539.507     21.862    533.297    538.960    533.297    533.844    533.297
 27.070    555.608    539.840     15.769    532.993    539.259    532.993    533.573    532.993
 27.170    554.179    540.340     13.839    532.689    539.722    532.689    533.306    532.689
 27.270    562.000    541.064     20.936    532.386    540.405    532.386    533.044    532.386
 27.370    570.000    542.103     27.897    532.084    541.397    532.084    532.788    532.084
 27.470    517.985    543.623    -25.639    531.782    542.864    531.782    532.539    531.782
 27.570    590.968    546.054     44.914    531.480    545.234    531.480    532.298    531.480
 27.670    554.072    550.875      3.198    531.180    549.984    531.180    532.066    531.180
 27.770    554.000    562.880     -8.880    530.880    561.907    530.880    531.845    530.880
 27.870    598.000    593.739      4.261    530.580    592.664    530.580    531.637    530.580
 27.970    669.000    660.819      8.181    530.282    659.614    530.282    531.446    530.282
 28.070    739.000    770.943    -31.943    529.984    769.580    529.984    531.274    529.984
 28.170    926.043    893.018     33.025    529.686    891.477    529.686    531.127    529.686
 28.270    993.690    953.244     40.446    529.390    951.525    529.390    531.010    529.390
 28.370    852.037    902.910    -50.872    529.094    901.006    529.094    530.934    529.094
 28.470    798.000    794.100      3.900    528.799    791.958    528.799    530.913    528.799
 28.570    749.064    709.543     39.521    528.505    707.067    528.505    530.968    528.505
 28.670    694.000    691.930      2.070    528.211    688.990    528.211    531.136    528.211
 28.770    752.000    736.670     15.330    527.919    733.092    527.919    531.476    527.919
 28.870    801.344    804.379     -3.036    527.627    799.912    527.627    532.080    527.627
 28.970    757.000    836.341    -79.341    527.336    830.601    527.336    533.077    527.336
 29.070    765.000    797.724    -32.724    527.046    790.155    527.046    534.625    527.046
 29.170    696.000    718.611    -22.611    526.756    708.490    526.756    536.889    526.756
 29.270    695.000    645.529     49.471    526.468    632.022    526.468    539.982    526.468
 29.370    591.000    599.631     -8.631    526.180    581.957    526.180    543.857    526.180
 29.470    626.000    578.580     47.420    525.894    556.368    525.894    548.106    525.894
 29.570    541.000    571.170    -30.170    525.608    545.072    525.608    551.704    525.608
 29.670    627.000    567.850     59.150    525.323    540.003    525.323    553.168    525.323
 29.770    560.000    563.869     -3.869    525.039    537.278    525.039    551.628    525.039
 29.870    598.409    558.499     39.910    524.756    535.513    524.756    547.740    524.756
 29.970    538.000    552.769    -14.769    524.474    534.279    524.474    542.963    524.474
 30.070    543.000    547.663     -4.663    524.193    533.435    524.193    538.419    524.193
 30.170    541.000    543.655     -2.655    523.913    532.955    523.913    534.612    523.913
 30.270    543.000    540.961      2.039    523.634    532.955    523.634    531.637    523.634
 30.370    525.316    539.941    -14.625    523.356    533.890    523.356    529.404    523.356
