neutron_powder_diffraction_0139
R_wp: 4.040
Temperature (K): 1076.869
Counts: 83417.00
Wavelength (Ã…): 2.52098
COMMENTS
Test file for demonstrating the .xyy file format in Reel1.0
END OF HEADER
   tth       Y_obs     Y_calc      Y_res    Background    Phase_1_Nuc    Phase_1_Mag    Phase_2_Nuc    Phase_2_Mag
  9.970    601.000    573.311     27.689    572.464    573.252    572.464    572.522    572.464
 10.070    579.000    573.372      5.628    572.456    573.313    572.456    572.514    572.456
 10.170    549.000    573.439    -24.439    572.444    573.380    572.444    572.502    572.444
 10.270    609.000    573.513     35.487    572.427    573.453    572.427    572.486    572.427
 10.370    632.000    573.597     58.403    572.406    573.537    572.406    572.465    572.406
 10.470    596.000    573.695     22.305    572.381    573.635    572.381    572.440    572.381
 10.570    573.997    573.811      0.186    572.352    573.751    572.352    572.411    572.352
 10.670    603.225    573.951     29.273    572.318    573.891    572.318    572.378    572.318
 10.770    527.000    574.123    -47.123    572.280    574.062    572.280    572.340    572.280
 10.870    539.000    574.337    -35.337    572.238    574.275    572.238    572.298    572.238
 10.970    589.000    574.607     14.393    572.191    574.546    572.191    572.252    572.191
 11.070    619.294    574.956     44.339    572.141    574.894    572.141    572.202    572.141
 11.170    553.000    575.413    -22.413    572.087    575.350    572.087    572.148    572.087
 11.270    645.000    576.026     68.974    572.028    575.963    572.028    572.089    572.028
 11.370    564.000    576.882    -12.882    571.966    576.817    571.966    572.027    571.966
 11.470    559.260    578.172    -18.912    571.899    578.107    571.899    571.961    571.899
 11.570    611.000    580.403     30.597    571.829    580.337    571.829    571.891    571.829
 11.670    603.926    584.839     19.087    571.755    584.770    571.755    571.818    571.755
 11.770    598.000    594.031      3.969    571.677    593.956    571.677    571.740    571.677
 11.870    685.000    611.545     73.455    571.596    611.459    571.596    571.659    571.596
 11.970    657.281    639.554     17.727    571.511    639.452    571.511    571.574    571.511
 12.070    641.844    674.010    -32.166    571.422    673.888    571.422    571.485    571.422
 12.170    709.262    700.386      8.876    571.329    700.249    571.329    571.393    571.329
 12.270    702.000    701.020      0.980    571.233    700.882    571.233    571.297    571.233
 12.370    701.080    675.280     25.799    571.133    675.157    571.133    571.198    571.133
 12.470    677.000    640.556     36.444    571.030    640.452    571.030    571.095    571.030
 12.570    566.714    611.890    -45.176    570.923    611.802    570.923    570.988    570.923
 12.670    568.000    593.737    -25.737    570.813    593.658    570.813    570.878    570.813
 12.770    624.264    584.071     40.193    570.700    583.998    570.700    570.765    570.700
 12.870    595.000    579.309     15.691    570.583    579.238    570.583    570.649    570.583
 12.970    592.446    576.831     15.615    570.463    576.762    570.463    570.529    570.463
 13.070    593.000    575.328     17.672    570.339    575.259    570.339    570.406    570.339
 13.170    604.451    574.273     30.178    570.212    574.204    570.212    570.279    570.212
 13.270    528.000    573.466    -45.466    570.083    573.397    570.083    570.150    570.083
 13.370    569.000    572.821     -3.821    569.950    572.752    569.950    570.017    569.950
 13.470    536.000    572.286    -36.286    569.813    572.217    569.813    569.881    569.813
 13.570    605.406    571.830     33.576    569.674    571.761    569.674    569.742    569.674
 13.670    560.000    571.432    -11.432    569.532    571.363    569.532    569.600    569.532
 13.770    574.000    571.078      2.922    569.386    571.009    569.386    569.455    569.386
 13.870    585.000    570.758     14.242    569.238    570.688    569.238    569.307    569.238
 13.970    555.000    570.463    -15.463    569.087    570.393    569.087    569.156    569.087
 14.070    571.000    570.187      0.813    568.933    570.117    568.933    569.002    568.933
 14.170    554.365    569.927    -15.562    568.776    569.856    568.776    568.846    568.776
 14.270    579.000    569.679      9.321    568.616    569.608    568.616    568.686    568.616
 14.370    509.000    569.440    -60.440    568.453    569.369    568.453    568.524    568.453
 14.470    590.000    569.209     20.791    568.288    569.137    568.288    568.359    568.288
 14.570    522.210    568.983    -46.773    568.120    568.911    568.120    568.191    568.120
 14.670    541.000    568.762    -27.762    567.949    568.690    567.949    568.021    567.949
 14.770    529.000    568.544    -39.544    567.775    568.472    567.775    567.848    567.775
 14.870    583.000    568.329     14.671    567.599    568.256    567.599    567.672    567.599
 14.970    589.000    568.116     20.884    567.421    568.042    567.421    567.494    567.421
 15.070    546.000    567.904    -21.904    567.240    567.830    567.240    567.313    567.240
 15.170    570.000    567.692      2.308    567.056    567.618    567.056    567.130    567.056
 15.270    576.000    567.483      8.517    566.870    567.407    566.870    566.946    566.870
 15.370    557.000    567.273    -10.273    566.681    567.196    566.681    566.758    566.681
 15.470    561.000    567.062     -6.062    566.490    566.984    566.490    566.567    566.490
 15.570    568.000    566.851      1.149    566.297    566.773    566.297    566.374    566.297
 15.670    581.070    566.639     14.431    566.101    566.561    566.101    566.179    566.101
 15.770    585.000    566.427     18.573    565.903    566.348    565.903    565.982    565.903
 15.870    553.000    566.216    -13.216    565.702    566.137    565.702    565.782    565.702
 15.970    538.000    566.002    -28.002    565.500    565.922    565.500    565.580    565.500
 16.070    563.828    565.787     -1.959    565.295    565.707    565.295    565.375    565.295
 16.170    587.000    565.571     21.429    565.088    565.490    565.088    565.169    565.088
 16.270    557.000    565.353     -8.353    564.879    565.272    564.879    564.960    564.879
 16.370    609.429    565.135     44.295    564.668    565.053    564.668    564.749    564.668
 16.470    537.000    564.915    -27.915    564.455    564.832    564.455    564.537    564.455
 16.570    573.641    564.693      8.948    564.239    564.611    564.239    564.322    564.239
 16.670    563.000    564.471     -1.471    564.022    564.387    564.022    564.105    564.022
 16.770    570.000    564.247      5.753    563.803    564.163    563.803    563.886    563.803
 16.870    508.000    564.022    -56.022    563.581    563.938    563.581    563.665    563.581
 16.970    540.000    563.797    -23.797    563.358    563.712    563.358    563.443    563.358
 17.070    546.416    563.569    -17.153    563.133    563.484    563.133    563.218    563.133
 17.170    520.537    563.340    -42.802    562.906    563.254    562.906    562.992    562.906
 17.270    542.000    563.109    -21.109    562.677    563.023    562.677    562.763    562.677
 17.370    591.000    562.877     28.123    562.447    562.790    562.447    562.533    562.447
 17.470    559.000    562.644     -3.644    562.214    562.556    562.214    562.302    562.214
 17.570    561.167    562.409     -1.242    561.980    562.321    561.980    562.068    561.980
 17.670    555.000    562.173     -7.173    561.745    562.084    561.745    561.833    561.745
 17.770    567.013    561.936      5.077    561.507    561.846    561.507    561.596    561.507
 17.870    572.000    561.697     10.303    561.268    561.607    561.268    561.358    561.268
 17.970    515.777    561.457    -45.680    561.027    561.367    561.027    561.118    561.027
 18.070    511.000    561.216    -50.216    560.785    561.125    560.785    560.876    560.785
 18.170    577.887    560.973     16.913    560.541    560.882    560.541    560.633    560.541
 18.270    587.000    560.731     26.269    560.296    560.639    560.296    560.388    560.296
 18.370    551.629    560.501     -8.872    560.049    560.408    560.049    560.142    560.049
 18.470    548.000    560.266    -12.266    559.801    560.172    559.801    559.894    559.801
 18.570    572.000    560.020     11.980    559.551    559.925    559.551    559.645    559.551
 18.670    547.000    559.772    -12.772    559.300    559.677    559.300    559.395    559.300
 18.770    553.000    559.523     -6.523    559.047    559.427    559.047    559.143    559.047
 18.870    533.000    559.273    -26.273    558.793    559.176    558.793    558.890    558.793
 18.970    602.215    559.022     43.194    558.538    558.925    558.538    558.635    558.538
 19.070    576.000    558.770     17.230    558.282    558.672    558.282    558.379    558.282
 19.170    552.000    558.517     -6.517    558.024    558.418    558.024    558.122    558.024
 19.270    537.000    558.263    -21.263    557.765    558.164    557.765    557.864    557.765
 19.370    537.038    558.008    -20.971    557.504    557.908    557.504    557.604    557.504
 19.470    532.000    557.753    -25.753    557.243    557.652    557.243    557.344    557.243
 19.570    563.163    557.497      5.667    556.980    557.395    556.980    557.082    556.980
 19.670    607.000    557.240     49.760    556.717    557.137    556.717    556.819    556.717
 19.770    574.000    556.982     17.018    556.452    556.879    556.452    556.555    556.452
 19.870    577.495    556.724     20.771    556.186    556.620    556.186    556.290    556.186
 19.970    535.083    556.465    -21.382    555.919    556.360    555.919    556.024    555.919
 20.070    602.000    556.206     45.794    555.651    556.100    555.651    555.757    555.651
 20.170    554.000    555.946     -1.946    555.382    555.839    555.382    555.489    555.382
 20.270    530.000    555.686    -25.686    555.112    555.578    555.112    555.220    555.112
 20.370    528.043    555.426    -27.383    554.841    555.317    554.841    554.950    554.841
 20.470    563.000    555.174      7.826    554.569    555.064    554.569    554.679    554.569
 20.570    549.000    555.001     -6.001    554.296    554.890    554.296    554.407    554.296
 20.670    516.070    554.764    -38.694    554.022    554.652    554.022    554.134    554.022
 20.770    579.348    554.508     24.840    553.748    554.395    553.748    553.861    553.748
 20.870    570.783    554.248     16.536    553.472    554.133    553.472    553.587    553.472
 20.970    573.000    553.987     19.013    553.196    553.871    553.196    553.312    553.196
 21.070    523.000    553.726    -30.726    552.919    553.610    552.919    553.036    552.919
 21.170    543.000    553.466    -10.466    552.641    553.348    552.641    552.759    552.641
 21.270    542.000    553.206    -11.206    552.363    553.087    552.363    552.482    552.363
 21.370    516.000    552.947    -36.947    552.084    552.827    552.084    552.204    552.084
 21.470    523.080    552.689    -29.608    551.804    552.567    551.804    551.926    551.804
 21.570    598.035    552.436     45.599    551.524    552.313    551.524    551.647    551.524
 21.670    523.585    552.227    -28.642    551.242    552.102    551.242    551.367    551.242
 21.770    570.000    551.990     18.010    550.961    551.864    550.961    551.087    550.961
 21.870    540.000    551.739    -11.739    550.678    551.611    550.678    550.806    550.678
 21.970    536.633    551.489    -14.856    550.395    551.360    550.395    550.525    550.395
 22.070    578.000    551.261     26.739    550.112    551.131    550.112    550.243    550.112
 22.170    555.000    551.042      3.958    549.828    550.910    549.828    549.960    549.828
 22.270    540.000    550.802    -10.802    549.544    550.668    549.544    549.678    549.544
 22.370    535.000    550.564    -15.564    549.259    550.428    549.259    549.395    549.259
 22.470    545.000    550.331     -5.331    548.973    550.193    548.973    549.111    548.973
 22.570    542.689    550.102     -7.413    548.688    549.963    548.688    548.827    548.688
 22.670    565.455    549.879     15.576    548.401    549.738    548.401    548.543    548.401
 22.770    557.000    549.664      7.336    548.115    549.521    548.115    548.258    548.115
 22.870    585.290    549.458     35.832    547.828    549.313    547.828    547.973    547.828
 22.970    579.000    549.263     29.737    547.541    549.116    547.541    547.688    547.541
 23.070    581.000    549.082     31.918    547.253    548.933    547.253    547.403    547.253
 23.170    564.000    548.918     15.082    546.965    548.766    546.965    547.117    546.965
 23.270    543.000    548.775     -5.775    546.677    548.621    546.677    546.832    546.677
 23.370    531.495    548.660    -17.166    546.389    548.504    546.389    546.546    546.389
 23.470    508.863    548.583    -39.720    546.100    548.424    546.100    546.260    546.100
 23.570    527.000    548.550    -21.550    545.811    548.389    545.811    545.974    545.811
 23.670    542.000    548.586     -6.586    545.522    548.422    545.522    545.687    545.522
 23.770    567.000    548.702     18.298    545.233    548.535    545.233    545.401    545.233
 23.870    526.062    548.938    -22.876    544.943    548.769    544.943    545.115    544.943
 23.970    527.672    549.371    -21.698    544.654    549.198    544.654    544.829    544.654
 24.070    545.000    550.172     -5.172    544.364    549.997    544.364    544.542    544.364
 24.170    554.000    551.788      2.212    544.074    551.610    544.074    544.256    544.074
 24.270    517.104    555.243    -38.140    543.785    555.065    543.785    543.970    543.785
 24.370    565.000    562.377      2.623    543.495    562.200    543.495    543.684    543.495
 24.470    583.254    575.369      7.884    543.205    575.197    543.205    543.398    543.205
 24.570    614.426    594.792     19.635    542.915    594.629    542.915    543.113    542.915
 24.670    614.271    616.731     -2.460    542.625    616.579    542.625    542.828    542.625
 24.770    659.000    630.835     28.165    542.335    630.689    542.335    542.543    542.335
 24.870    623.000    627.213     -4.213    542.045    627.060    542.045    542.258    542.045
 24.970    623.000    608.671     14.329    541.755    608.499    541.755    541.974    541.755
 25.070    570.000    586.454    -16.454    541.466    586.260    541.466    541.690    541.466
 25.170    549.831    568.678    -18.847    541.176    568.466    541.176    541.406    541.176
 25.270    548.000    557.430     -9.430    540.886    557.203    540.886    541.123    540.886
 25.370    591.000    551.294     39.706    540.597    551.056    540.597    540.841    540.597
 25.470    568.000    548.114     19.886    540.308    547.867    540.308    540.559    540.308
 25.570    526.156    546.364    -20.208    540.019    546.107    540.019    540.278    540.019
 25.670    528.196    545.252    -17.055    539.730    544.986    539.730    539.998    539.730
 25.770    532.000    544.448    -12.448    539.441    544.173    539.441    539.718    539.441
 25.870    554.000    543.830     10.170    539.153    543.544    539.153    539.439    539.153
 25.970    546.366    543.343      3.023    538.865    543.047    538.865    539.162    538.865
 26.070    553.730    542.924     10.806    538.577    542.616    538.577    538.885    538.577
 26.170    584.000    542.575     41.425    538.289    542.255    538.289    538.610    538.289
 26.270    493.000    542.288    -49.288    538.001    541.954    538.001    538.336    538.001
 26.370    566.000    542.056     23.944    537.714    541.707    537.714    538.063    537.714
 26.470    574.000    541.879     32.121    537.428    541.514    537.428    537.792    537.428
 26.570    528.000    541.757    -13.757    537.141    541.375    537.141    537.523    537.141
 26.670    558.206    541.705     16.501    536.855    541.304    536.855    537.256    536.855
 26.770    522.401    541.712    -19.311    536.569    541.290    536.569    536.991    536.569
 26.870    532.000    541.787     -9.787    536.284    541.341    536.284    536.729    536.284
 26.970    521.696    541.954    -20.258    535.999    541.483    535.999    536.470    535.999
 27.070    541.232    542.241     -1.009    535.714    541.741    535.714    536.213    535.714
 27.170    564.000    542.680     21.320    535.430    542.149    535.430    535.961    535.430
 27.270    505.320    543.327    -38.007    535.147    542.760    535.147    535.712    535.147
 27.370    581.000    544.262     36.738    534.863    543.656    534.863    535.469    534.863
 27.470    508.414    545.625    -37.210    534.581    544.973    534.581    535.231    534.581
 27.570    560.000    547.815     12.185    534.299    547.111    534.299    535.000    534.299
 27.670    522.327    552.239    -29.911    534.017    551.475    534.017    534.777    534.017
 27.770    606.000    563.656     42.344    533.736    562.822    533.736    534.562    533.736
 27.870    579.000    594.017    -15.017    533.455    593.096    533.455    534.359    533.455
 27.970    671.000    661.680      9.320    533.175    660.647    533.175    534.170    533.175
 28.070    789.071    774.351     14.720    532.895    773.179    532.895    533.996    532.895
 28.170    932.000    899.676     32.324    532.616    898.351    532.616    533.844    532.616
 28.270    989.000    961.025     27.975    532.338    959.551    532.338    533.717    532.338
 28.370    967.953    908.649     59.303    532.060    907.026    532.060    533.625    532.060
 28.470    757.517    796.372    -38.855    531.783    794.552    531.783    533.579    531.783
 28.570    735.000    709.811     25.189    531.507    707.708    531.507    533.599    531.507
 28.670    708.000    692.612     15.388    531.231    690.116    531.231    533.713    531.231
 28.770    783.000    738.852     44.148    530.956    735.829    530.956    533.960    530.956
 28.870    770.000    807.533    -37.533    530.681    803.806    530.681    534.396    530.681
 28.970    805.000    839.427    -34.427    530.407    834.750    530.407    535.087    530.407
 29.070    777.000    800.100    -23.100    530.134    794.139    530.134    536.108    530.134
 29.170    709.876    719.656     -9.781    529.862    712.006    529.862    537.524    529.862
 29.270    620.000    644.746    -24.746    529.590    634.979    529.590    539.364    529.590
 29.370    598.000    596.817      1.183    529.319    584.579    529.319    541.560    529.319
 29.470    567.385    573.719     -6.333    529.049    558.923    529.049    543.845    529.049
 29.570    588.000    564.589     23.411    528.780    547.704    528.780    545.663    528.780
 29.670    551.000    560.541     -9.541    528.511    542.748    528.511    546.301    528.511
 29.770    540.000    557.256    -17.256    528.243    540.128    528.243    545.369    528.243
 29.870    593.000    553.641     39.359    527.976    538.450    527.976    543.165    527.976
 29.970    521.944    549.963    -28.019    527.710    537.287    527.710    540.383    527.710
 30.070    523.004    546.680    -23.676    527.445    536.505    527.445    537.618    527.445
 30.170    549.000    544.080      4.920    527.180    536.080    527.180    535.178    527.180
 30.270    524.152    542.382    -18.230    526.916    536.139    526.916    533.157    526.916
 30.370    553.000    542.036     10.964    526.653    537.146    526.653    531.539    526.653
