neutron_powder_diffraction_0246
R_wp: 3.971
Temperature (K): 971.033
Counts: 83492.00
Wavelength (Ã…): 2.52098
COMMENTS
Test file for demonstrating the .xyy file format in Reel1.0
END OF HEADER
   tth       Y_obs     Y_calc      Y_res    Background    Phase_1_Nuc    Phase_1_Mag    Phase_2_Nuc    Phase_2_Mag
  9.970    612.000    563.888     48.112    563.281    563.865    563.281    563.304    563.281
 10.070    590.000    564.108     25.892    563.449    564.085    563.449    563.472    563.449
 10.170    601.000    564.339     36.661    563.610    564.316    563.610    563.633    563.610
 10.270    581.255    564.571     16.684    563.765    564.547    563.765    563.788    563.765
 10.370    610.000    564.799     45.201    563.914    564.775    563.914    563.937    563.914
 10.470    523.517    565.033    -41.516    564.056    565.010    564.056    564.079    564.056
 10.570    598.000    565.278     32.722    564.192    565.254    564.192    564.215    564.192
 10.670    606.000    565.539     40.461    564.322    565.514    564.322    564.346    564.322
 10.770    597.381    565.822     31.559    564.445    565.793    564.445    564.473    564.445
 10.870    570.000    566.131      3.869    564.562    566.101    564.562    564.591    564.562
 10.970    570.000    566.478      3.522    564.674    566.448    564.674    564.702    564.674
 11.070    540.968    566.880    -25.912    564.779    566.850    564.779    564.808    564.779
 11.170    570.000    567.359      2.641    564.879    567.328    564.879    564.907    564.879
 11.270    572.000    567.948      4.052    564.972    567.918    564.972    565.001    564.972
 11.370    556.223    568.706    -12.483    565.060    568.675    565.060    565.089    565.060
 11.470    591.000    569.750     21.250    565.142    569.718    565.142    565.171    565.142
 11.570    576.000    571.401      4.599    565.218    571.368    565.218    565.247    565.218
 11.670    604.000    574.601     29.399    565.288    574.566    565.288    565.318    565.288
 11.770    608.000    581.707     26.293    565.353    581.669    565.353    565.383    565.353
 11.870    657.000    596.964     60.036    565.412    596.917    565.412    565.442    565.412
 11.970    653.903    624.570     29.333    565.466    624.507    565.466    565.496    565.466
 12.070    632.000    662.744    -30.744    565.515    662.661    565.515    565.545    565.515
 12.170    727.075    696.975     30.099    565.558    696.871    565.558    565.590    565.558
 12.270    655.000    704.558    -49.558    565.595    704.449    565.595    565.628    565.595
 12.370    619.000    678.649    -59.649    565.627    678.554    565.627    565.660    565.627
 12.470    602.000    639.120    -37.120    565.654    639.047    565.654    565.687    565.654
 12.570    606.000    606.311     -0.311    565.676    606.256    565.676    565.709    565.676
 12.670    609.000    586.554     22.446    565.693    586.509    565.693    565.726    565.693
 12.770    550.000    576.985    -26.985    565.704    576.945    565.704    565.738    565.704
 12.870    500.000    572.797    -72.797    565.711    572.760    565.711    565.744    565.711
 12.970    586.000    570.828     15.172    565.712    570.791    565.712    565.746    565.712
 13.070    532.000    569.699    -37.699    565.709    569.662    565.709    565.743    565.709
 13.170    547.000    568.937    -21.937    565.700    568.897    565.700    565.739    565.700
 13.270    526.000    568.383    -42.383    565.687    568.333    565.687    565.735    565.687
 13.370    602.522    567.949     34.574    565.669    567.899    565.669    565.718    565.669
 13.470    589.000    567.603     21.397    565.646    567.553    565.646    565.695    565.646
 13.570    556.000    567.321    -11.321    565.619    567.270    565.619    565.668    565.619
 13.670    598.000    567.085     30.915    565.587    567.034    565.587    565.637    565.587
 13.770    605.288    566.882     38.406    565.550    566.830    565.550    565.601    565.550
 13.870    538.690    566.704    -28.014    565.508    566.652    565.508    565.560    565.508
 13.970    531.000    566.544    -35.544    565.463    566.492    565.463    565.514    565.463
 14.070    575.728    566.399      9.329    565.412    566.345    565.412    565.466    565.412
 14.170    500.000    566.268    -66.268    565.357    566.209    565.357    565.416    565.357
 14.270    557.000    566.139     -9.139    565.298    566.080    565.298    565.358    565.298
 14.370    565.101    566.016     -0.915    565.235    565.956    565.235    565.294    565.235
 14.470    594.000    565.897     28.103    565.167    565.837    565.167    565.227    565.167
 14.570    603.000    565.782     37.218    565.095    565.722    565.095    565.155    565.095
 14.670    538.915    565.667    -26.753    565.019    565.606    565.019    565.080    565.019
 14.770    554.000    565.553    -11.553    564.939    565.492    564.939    565.000    564.939
 14.870    557.000    565.442     -8.442    564.854    565.380    564.854    564.916    564.854
 14.970    586.200    565.327     20.874    564.766    565.265    564.766    564.828    564.766
 15.070    526.053    565.210    -39.158    564.674    565.148    564.674    564.736    564.674
 15.170    549.000    565.093    -16.093    564.577    565.030    564.577    564.640    564.577
 15.270    537.733    564.973    -27.240    564.477    564.910    564.477    564.540    564.477
 15.370    584.000    564.852     19.148    564.373    564.789    564.373    564.436    564.373
 15.470    564.000    564.729     -0.729    564.265    564.665    564.265    564.328    564.265
 15.570    588.601    564.604     23.998    564.153    564.540    564.153    564.217    564.153
 15.670    567.000    564.476      2.524    564.038    564.411    564.038    564.102    564.038
 15.770    539.000    564.346    -25.346    563.918    564.281    563.918    563.983    563.918
 15.870    540.000    564.213    -24.213    563.796    564.148    563.796    563.861    563.796
 15.970    599.296    564.078     35.218    563.669    564.012    563.669    563.735    563.669
 16.070    556.000    563.940     -7.940    563.539    563.874    563.539    563.605    563.539
 16.170    496.000    563.799    -67.799    563.406    563.733    563.406    563.472    563.406
 16.270    581.000    563.656     17.344    563.269    563.589    563.269    563.335    563.269
 16.370    601.000    563.510     37.490    563.128    563.443    563.128    563.195    563.128
 16.470    573.000    563.362      9.638    562.984    563.294    562.984    563.052    562.984
 16.570    554.117    563.212     -9.095    562.837    563.142    562.837    562.907    562.837
 16.670    574.000    563.059     10.941    562.687    562.987    562.687    562.759    562.687
 16.770    539.000    562.903    -23.903    562.533    562.830    562.533    562.606    562.533
 16.870    544.636    562.744    -18.107    562.376    562.669    562.376    562.450    562.376
 16.970    583.000    562.581     20.419    562.216    562.507    562.216    562.291    562.216
 17.070    574.000    562.416     11.584    562.053    562.341    562.053    562.128    562.053
 17.170    549.000    562.249    -13.249    561.886    562.173    561.886    561.963    561.886
 17.270    555.000    562.079     -7.079    561.717    562.002    561.717    561.794    561.717
 17.370    534.000    561.908    -27.908    561.544    561.830    561.544    561.622    561.544
 17.470    605.307    561.732     43.575    561.369    561.654    561.369    561.447    561.369
 17.570    533.000    561.554    -28.554    561.191    561.475    561.191    561.269    561.191
 17.670    578.000    561.373     16.627    561.009    561.294    561.009    561.089    561.009
 17.770    597.344    561.189     36.155    560.825    561.109    560.825    560.905    560.825
 17.870    590.000    561.003     28.997    560.638    560.923    560.638    560.719    560.638
 17.970    563.244    560.814      2.430    560.449    560.734    560.449    560.529    560.449
 18.070    555.000    560.624     -5.624    560.256    560.542    560.256    560.338    560.256
 18.170    553.000    560.430     -7.430    560.061    560.348    560.061    560.143    560.061
 18.270    555.000    560.234     -5.234    559.863    560.151    559.863    559.946    559.863
 18.370    524.953    560.036    -35.083    559.663    559.953    559.663    559.746    559.663
 18.470    547.000    559.835    -12.835    559.460    559.751    559.460    559.544    559.460
 18.570    558.383    559.632     -1.249    559.254    559.548    559.254    559.339    559.254
 18.670    555.000    559.427     -4.427    559.046    559.342    559.046    559.131    559.046
 18.770    563.000    559.221      3.779    558.835    559.135    558.835    558.921    558.835
 18.870    586.394    559.013     27.380    558.622    558.926    558.622    558.710    558.622
 18.970    573.607    558.803     14.804    558.407    558.714    558.407    558.496    558.407
 19.070    546.000    558.589    -12.589    558.189    558.499    558.189    558.279    558.189
 19.170    529.000    558.374    -29.374    557.969    558.283    557.969    558.059    557.969
 19.270    525.000    558.156    -33.156    557.746    558.065    557.746    557.838    557.746
 19.370    565.000    557.936      7.064    557.522    557.844    557.522    557.614    557.522
 19.470    541.000    557.715    -16.715    557.295    557.622    557.295    557.388    557.295
 19.570    575.000    557.491     17.509    557.066    557.398    557.066    557.159    557.066
 19.670    564.000    557.266      6.734    556.835    557.172    556.835    556.929    556.835
 19.770    586.000    557.041     28.959    556.601    556.946    556.601    556.697    556.601
 19.870    524.094    556.832    -32.738    556.366    556.735    556.366    556.462    556.366
 19.970    541.000    556.606    -15.606    556.128    556.509    556.128    556.225    556.128
 20.070    551.242    556.375     -5.132    555.889    556.277    555.889    555.987    555.889
 20.170    556.000    556.141     -0.141    555.647    556.043    555.647    555.746    555.647
 20.270    558.000    555.907      2.093    555.404    555.807    555.404    555.504    555.404
 20.370    528.000    555.670    -27.670    555.159    555.570    555.159    555.259    555.159
 20.470    521.000    555.433    -34.433    554.912    555.331    554.912    555.014    554.912
 20.570    526.000    555.199    -29.199    554.663    555.091    554.663    554.771    554.663
 20.670    519.000    554.961    -35.961    554.412    554.850    554.412    554.523    554.412
 20.770    553.668    554.720     -1.052    554.159    554.608    554.159    554.271    554.159
 20.870    516.409    554.478    -38.069    553.905    554.365    553.905    554.018    553.905
 20.970    602.000    554.235     47.765    553.649    554.120    553.649    553.763    553.649
 21.070    521.341    553.991    -32.649    553.391    553.875    553.391    553.507    553.391
 21.170    519.000    553.746    -34.746    553.132    553.629    553.132    553.249    553.132
 21.270    515.153    553.500    -38.348    552.871    553.383    552.871    552.989    552.871
 21.370    588.705    553.254     35.451    552.609    553.135    552.609    552.728    552.609
 21.470    517.000    553.008    -36.008    552.344    552.888    552.344    552.465    552.344
 21.570    538.000    552.762    -14.762    552.079    552.640    552.079    552.201    552.079
 21.670    541.096    552.515    -11.419    551.812    552.392    551.812    551.935    551.812
 21.770    527.000    552.268    -25.268    551.543    552.144    551.543    551.668    551.543
 21.870    553.000    552.022      0.978    551.274    551.896    551.274    551.400    551.274
 21.970    574.160    551.776     22.384    551.002    551.649    551.002    551.130    551.002
 22.070    543.000    551.532     -8.532    550.730    551.403    550.730    550.859    550.730
 22.170    539.347    551.291    -11.944    550.456    551.160    550.456    550.586    550.456
 22.270    509.049    551.052    -42.003    550.180    550.919    550.180    550.313    550.180
 22.370    534.000    550.812    -16.812    549.904    550.678    549.904    550.038    549.904
 22.470    556.000    550.579      5.421    549.626    550.443    549.626    549.762    549.626
 22.570    564.000    550.389     13.611    549.347    550.251    549.347    549.485    549.347
 22.670    575.348    550.170     25.178    549.067    550.030    549.067    549.207    549.067
 22.770    550.000    549.980      0.020    548.786    549.838    548.786    548.928    548.786
 22.870    562.000    549.831     12.169    548.503    549.687    548.503    548.647    548.503
 22.970    573.830    549.640     24.189    548.220    549.495    548.220    548.366    548.220
 23.070    564.000    549.486     14.514    547.935    549.339    547.935    548.084    547.935
 23.170    549.000    549.301     -0.301    547.650    549.151    547.650    547.800    547.650
 23.270    506.171    549.126    -42.955    547.363    548.974    547.363    547.516    547.363
 23.370    582.000    548.970     33.030    547.076    548.816    547.076    547.231    547.076
 23.470    585.000    548.839     36.161    546.787    548.682    546.787    546.945    546.787
 23.570    533.660    548.741    -15.081    546.498    548.581    546.498    546.659    546.498
 23.670    555.000    548.687      6.313    546.208    548.524    546.208    546.371    546.208
 23.770    567.660    548.692     18.968    545.917    548.527    545.917    546.083    545.917
 23.870    551.000    548.783      2.217    545.625    548.615    545.625    545.794    545.625
 23.970    558.000    549.001      8.999    545.332    548.830    545.332    545.505    545.332
 24.070    556.000    549.444      6.556    545.038    549.270    545.038    545.215    545.038
 24.170    533.000    550.373    -17.373    544.744    550.194    544.744    544.926    544.744
 24.270    577.000    552.504     24.496    544.449    552.323    544.449    544.636    544.449
 24.370    611.000    557.461     53.539    544.153    557.278    544.153    544.344    544.153
 24.470    553.205    567.858    -14.653    543.857    567.679    543.857    544.052    543.857
 24.570    619.000    585.877     33.123    543.560    585.707    543.560    543.759    543.560
 24.670    613.000    609.791      3.209    543.262    609.635    543.262    543.466    543.262
 24.770    629.365    630.482     -1.117    542.964    630.336    542.964    543.173    542.964
 24.870    623.000    634.602    -11.602    542.665    634.454    542.665    542.879    542.665
 24.970    642.055    618.384     23.671    542.366    618.219    542.366    542.585    542.366
 25.070    570.000    593.434    -23.434    542.066    593.245    542.066    542.291    542.066
 25.170    613.000    571.962     41.038    541.766    571.752    541.766    541.997    541.766
 25.270    571.000    558.289     12.711    541.465    558.062    541.465    541.702    541.465
 25.370    572.000    551.169     20.831    541.164    550.931    541.164    541.408    541.164
 25.470    520.957    547.786    -26.830    540.862    547.538    540.862    541.114    540.862
 25.570    558.000    546.080     11.920    540.560    545.822    540.560    540.820    540.560
 25.670    574.000    545.053     28.947    540.258    544.786    540.258    540.526    540.258
 25.770    567.113    544.313     22.800    539.955    544.038    539.955    540.232    539.955
 25.870    535.707    543.744     -8.037    539.652    543.458    539.652    539.938    539.652
 25.970    585.000    543.263     41.737    539.348    542.966    539.348    539.646    539.348
 26.070    503.308    542.861    -39.553    539.045    542.553    539.045    539.353    539.045
 26.170    523.000    542.527    -19.527    538.741    542.206    538.741    539.061    538.741
 26.270    592.000    542.250     49.750    538.436    541.916    538.436    538.770    538.436
 26.370    540.000    542.024     -2.024    538.132    541.675    538.132    538.481    538.132
 26.470    543.192    541.843      1.349    537.828    541.479    537.828    538.192    537.828
 26.570    534.778    541.723     -6.945    537.523    541.342    537.523    537.904    537.523
 26.670    558.000    541.651     16.349    537.218    541.251    537.218    537.618    537.218
 26.770    498.522    541.633    -43.111    536.913    541.213    536.913    537.334    536.913
 26.870    551.453    541.691      9.762    536.608    541.248    536.608    537.051    536.608
 26.970    581.000    541.872     39.128    536.303    541.403    536.303    536.771    536.303
 27.070    503.600    542.140    -38.541    535.998    541.643    535.998    536.494    535.998
 27.170    568.000    542.543     25.457    535.693    542.014    535.693    536.220    535.693
 27.270    578.000    543.140     34.860    535.387    542.576    535.387    535.950    535.387
 27.370    597.000    544.010     52.990    535.082    543.407    535.082    535.684    535.082
 27.470    541.000    545.296     -4.296    534.777    544.648    534.777    535.424    534.777
 27.570    584.000    547.312     36.688    534.472    546.613    534.472    535.169    534.472
 27.670    544.388    551.185     -6.797    534.167    550.426    534.167    534.922    534.167
 27.770    591.000    560.758     30.242    533.862    559.929    533.862    534.684    533.862
 27.870    598.000    586.084     11.916    533.557    585.169    533.557    534.457    533.557
 27.970    675.000    644.078     30.922    533.253    643.053    533.253    534.242    533.253
 28.070    739.000    745.757     -6.757    532.948    744.595    532.948    534.044    532.948
 28.170    916.377    869.230     47.147    532.644    867.914    532.644    533.867    532.644
 28.270    982.000    947.701     34.299    532.340    946.232    532.340    533.715    532.340
 28.370    945.000    922.625     22.375    532.036    921.002    532.036    533.596    532.036
 28.470    778.096    822.693    -44.597    531.732    820.878    531.732    533.520    531.732
 28.570    659.000    727.594    -68.594    531.429    725.508    531.429    533.504    531.429
 28.670    694.000    692.602      1.398    531.126    690.144    531.126    533.572    531.126
 28.770    740.000    724.917     15.083    530.823    721.948    530.823    533.772    530.823
 28.870    770.000    792.117    -22.117    530.521    788.421    530.521    534.192    530.521
 28.970    852.000    836.748     15.252    530.218    831.956    530.218    534.993    530.218
 29.070    800.000    814.948    -14.948    529.917    808.426    529.917    536.440    529.917
 29.170    697.861    742.448    -44.587    529.615    733.179    529.615    538.897    529.615
 29.270    661.379    665.572     -4.193    529.314    652.145    529.314    542.754    529.314
 29.370    624.000    613.605     10.395    529.014    594.389    529.014    548.238    529.014
 29.470    604.000    589.418     14.582    528.713    563.068    528.713    555.065    528.713
 29.570    583.000    582.396      0.604    528.414    548.892    528.414    561.916    528.414
 29.670    606.000    580.832     25.168    528.114    542.748    528.114    566.196    528.114
 29.770    594.000    577.375     16.625    527.815    539.677    527.815    565.511    527.815
 29.870    574.618    570.380      4.239    527.517    537.789    527.517    560.105    527.517
 29.970    559.510    561.814     -2.304    527.219    536.479    527.219    552.551    527.219
 30.070    580.000    553.915     26.085    526.922    535.560    526.922    545.275    526.922
 30.170    598.000    547.775     50.225    526.625    534.978    526.625    539.421    526.625
 30.270    591.000    543.647     47.353    526.329    534.795    526.329    535.178    526.329
 30.370    584.017    541.596     42.422    526.033    535.340    526.033    532.286    526.033
