neutron_powder_diffraction_0052
R_wp: 3.881
Temperature (K): 656.212
Counts: 83616.00
Wavelength (Ã…): 2.52098
COMMENTS
Test file for demonstrating the .xyy file format in Reel1.0
END OF HEADER
   tth       Y_obs     Y_calc      Y_res    Background    Phase_1_Nuc    Phase_1_Mag    Phase_2_Nuc    Phase_2_Mag
  9.970    619.106    659.749    -40.643    658.273    659.372    658.649    658.273    658.273
 10.070    688.216    659.336     28.879    657.767    658.956    658.146    657.767    657.767
 10.170    653.139    658.940     -5.801    657.259    658.555    657.643    657.259    657.259
 10.270    677.000    658.555     18.445    656.751    658.166    657.140    656.751    656.751
 10.370    625.488    658.186    -32.698    656.242    657.792    656.635    656.242    656.242
 10.470    699.000    657.836     41.164    655.732    657.438    656.129    655.732    655.732
 10.570    640.069    657.512    -17.443    655.221    657.110    655.622    655.221    655.221
 10.670    708.618    657.221     51.397    654.709    656.814    655.115    654.709    654.709
 10.770    657.943    656.970      0.973    654.196    656.559    654.606    654.196    654.196
 10.870    660.000    656.771      3.229    653.682    656.355    654.097    653.682    653.682
 10.970    710.000    656.641     53.359    653.168    656.220    653.587    653.168    653.168
 11.070    616.170    656.600    -40.430    652.652    656.174    653.076    652.652    652.652
 11.170    709.680    656.678     53.001    652.136    656.247    652.565    652.136    652.136
 11.270    672.928    656.924     16.004    651.620    656.488    652.053    651.620    651.620
 11.370    722.000    657.414     64.586    651.102    656.972    651.541    651.102    651.102
 11.470    613.305    658.300    -44.995    650.584    657.852    651.028    650.584    650.584
 11.570    690.000    659.919     30.081    650.065    659.465    650.514    650.065    650.065
 11.670    732.000    663.013     68.987    649.546    662.552    650.000    649.546    649.546
 11.770    726.379    669.021     57.358    649.026    668.551    649.485    649.026    649.026
 11.870    634.012    680.117    -46.105    648.505    679.635    648.970    648.505    648.505
 11.970    813.000    698.489    114.511    647.984    697.991    648.454    647.984    647.984
 12.070    677.595    724.395    -46.800    647.463    723.877    647.938    647.463    647.463
 12.170    696.875    752.973    -56.098    646.940    752.434    647.422    646.940    646.940
 12.270    786.000    771.899     14.101    646.418    771.343    646.905    646.418    646.418
 12.370    812.000    768.782     43.218    645.895    768.221    646.388    645.895    645.895
 12.470    726.000    745.689    -19.689    645.372    745.134    645.872    645.372    645.372
 12.570    713.000    716.020     -3.020    644.848    715.475    645.354    644.848    644.848
 12.670    717.000    690.511     26.489    644.324    689.974    644.836    644.324    644.324
 12.770    686.000    672.718     13.282    643.800    672.184    644.318    643.800    643.800
 12.870    610.537    661.803    -51.266    643.275    661.268    643.800    643.275    643.275
 12.970    650.000    655.487     -5.487    642.750    654.949    643.282    642.750    642.750
 13.070    634.000    651.733    -17.733    642.225    651.190    642.764    642.225    642.225
 13.170    690.654    649.266     41.387    641.700    648.717    642.245    641.700    641.700
 13.270    663.595    647.447     16.148    641.174    646.891    641.727    641.174    641.174
 13.370    645.000    645.986     -0.986    640.649    645.424    641.208    640.649    640.649
 13.470    588.000    644.760    -56.760    640.123    644.191    640.690    640.123    640.123
 13.570    650.000    643.780      6.220    639.597    643.203    640.171    639.597    639.597
 13.670    599.000    642.867    -43.867    639.071    642.284    639.653    639.071    639.071
 13.770    656.000    641.993     14.007    638.545    641.402    639.135    638.545    638.545
 13.870    654.000    641.180     12.820    638.019    640.581    638.617    638.019    638.019
 13.970    668.304    640.417     27.886    637.493    639.811    638.099    637.493    637.493
 14.070    637.000    639.695     -2.695    636.967    639.080    637.581    636.967    636.967
 14.170    637.000    639.004     -2.004    636.442    638.382    637.064    636.442    636.442
 14.270    603.049    638.340    -35.291    635.916    637.709    636.546    635.916    635.916
 14.370    621.000    637.697    -16.697    635.390    637.057    636.029    635.390    635.390
 14.470    648.914    637.072     11.842    634.864    636.423    635.513    634.864    634.864
 14.570    600.000    636.467    -36.467    634.339    635.809    634.996    634.339    634.339
 14.670    596.065    635.869    -39.804    633.813    635.202    634.480    633.813    633.813
 14.770    591.000    635.281    -44.281    633.288    634.605    633.964    633.288    633.288
 14.870    630.006    634.702     -4.696    632.763    634.016    633.449    632.763    632.763
 14.970    598.000    634.131    -36.131    632.239    633.435    632.934    632.239    632.239
 15.070    600.000    633.567    -33.567    631.714    632.860    632.420    631.714    631.714
 15.170    622.000    633.008    -11.008    631.190    632.292    631.906    631.190    631.190
 15.270    591.000    632.456    -41.456    630.666    631.728    631.393    630.666    630.666
 15.370    638.485    631.908      6.577    630.143    631.170    630.880    630.143    630.143
 15.470    635.000    631.365      3.635    629.620    630.616    630.368    629.620    629.620
 15.570    592.000    630.827    -38.827    629.097    630.067    629.857    629.097    629.097
 15.670    669.069    630.314     38.755    628.574    629.542    629.346    628.574    628.574
 15.770    617.000    629.794    -12.794    628.052    629.010    628.836    628.052    628.052
 15.870    600.000    629.265    -29.265    627.531    628.469    628.326    627.531    627.531
 15.970    614.000    628.737    -14.737    627.010    627.929    627.818    627.010    627.010
 16.070    607.000    628.213    -21.213    626.489    627.392    627.310    626.489    626.489
 16.170    616.730    627.691    -10.961    625.969    626.857    626.803    625.969    625.969
 16.270    595.096    627.171    -32.075    625.449    626.324    626.296    625.449    625.449
 16.370    657.808    626.653     31.154    624.930    625.793    625.791    624.930    624.930
 16.470    634.310    626.138      8.172    624.412    625.264    625.286    624.412    624.412
 16.570    628.000    625.627      2.373    623.894    624.738    624.783    623.894    623.894
 16.670    616.000    625.120     -9.120    623.377    624.216    624.280    623.377    623.377
 16.770    595.000    624.647    -29.647    622.860    623.727    623.779    622.860    622.860
 16.870    581.000    624.184    -43.184    622.344    623.248    623.279    622.344    622.344
 16.970    610.000    623.688    -13.688    621.829    622.737    622.780    621.829    621.829
 17.070    612.852    623.195    -10.342    621.314    622.227    622.281    621.314    621.314
 17.170    673.895    622.694     51.201    620.800    621.710    621.784    620.800    620.800
 17.270    659.177    622.195     36.982    620.287    621.194    621.288    620.287    620.287
 17.370    575.000    621.698    -46.698    619.774    620.679    620.793    619.774    619.774
 17.470    604.000    621.203    -17.203    619.262    620.166    620.299    619.262    619.262
 17.570    646.000    620.709     25.291    618.751    619.654    619.806    618.751    618.751
 17.670    619.000    620.218     -1.218    618.241    619.144    619.315    618.241    618.241
 17.770    583.000    619.728    -36.728    617.732    618.634    618.825    617.732    617.732
 17.870    583.000    619.240    -36.240    617.223    618.126    618.337    617.223    617.223
 17.970    615.000    618.754     -3.754    616.715    617.620    617.850    616.715    616.715
 18.070    606.103    618.272    -12.168    616.209    617.116    617.364    616.209    616.209
 18.170    592.000    617.799    -25.799    615.703    616.621    616.880    615.703    615.703
 18.270    595.876    617.323    -21.447    615.198    616.123    616.398    615.198    615.198
 18.370    614.159    616.846     -2.686    614.693    615.622    615.917    614.693    614.693
 18.470    574.000    616.370    -42.370    614.190    615.123    615.437    614.190    614.190
 18.570    606.000    615.901     -9.901    613.688    614.630    614.959    613.688    613.688
 18.670    592.000    615.430    -23.430    613.187    614.134    614.483    613.187    613.187
 18.770    580.000    614.966    -34.966    612.687    613.643    614.010    612.687    612.687
 18.870    641.586    614.552     27.033    612.187    613.192    613.547    612.187    612.187
 18.970    561.000    614.107    -53.107    611.689    612.716    613.080    611.689    611.689
 19.070    569.000    613.647    -44.647    611.192    612.227    612.612    611.192    611.192
 19.170    617.936    613.188      4.748    610.696    611.738    612.145    610.696    610.696
 19.270    583.000    612.731    -29.731    610.201    611.251    611.681    610.201    610.201
 19.370    604.000    612.277     -8.277    609.707    610.766    611.218    609.707    609.707
 19.470    608.000    611.826     -3.826    609.214    610.282    610.758    609.214    609.214
 19.570    618.000    611.379      6.621    608.722    609.802    610.300    608.722    608.722
 19.670    633.000    610.945     22.055    608.232    609.333    609.844    608.232    608.232
 19.770    618.000    610.519      7.481    607.742    608.870    609.391    607.742    607.742
 19.870    583.000    610.096    -27.096    607.254    608.405    608.944    607.254    607.254
 19.970    591.183    609.695    -18.512    606.767    607.961    608.501    606.767    606.767
 20.070    654.697    609.292     45.405    606.281    607.517    608.055    606.281    606.281
 20.170    650.000    608.906     41.094    605.796    607.090    607.612    605.796    605.796
 20.270    646.000    608.501     37.499    605.313    606.642    607.171    605.313    605.313
 20.370    599.000    608.125     -9.125    604.830    606.222    606.733    604.830    604.830
 20.470    610.000    607.727      2.273    604.350    605.777    606.299    604.350    604.350
 20.570    586.000    607.323    -21.323    603.870    605.325    605.869    603.870    603.870
 20.670    604.000    606.916     -2.916    603.391    604.868    605.440    603.391    603.391
 20.770    606.000    606.517     -0.517    602.914    604.418    605.014    602.914    602.914
 20.870    626.000    606.128     19.872    602.439    603.975    604.591    602.439    602.439
 20.970    624.436    605.732     18.704    601.964    603.524    604.172    601.964    601.964
 21.070    603.000    605.343     -2.343    601.491    603.078    603.756    601.491    601.491
 21.170    649.157    604.965     44.193    601.019    602.641    603.343    601.019    601.019
 21.270    578.000    604.583    -26.583    600.549    602.198    602.935    600.549    600.549
 21.370    654.442    604.210     50.232    600.080    601.760    602.530    600.080    600.080
 21.470    578.212    603.840    -25.628    599.612    601.323    602.129    599.612    599.612
 21.570    606.000    603.475      2.525    599.146    600.888    601.733    599.146    599.146
 21.670    621.069    603.117     17.952    598.681    600.457    601.341    598.681    598.681
 21.770    579.000    602.766    -23.766    598.218    600.030    600.954    598.218    598.218
 21.870    599.000    602.422     -3.422    597.756    599.607    600.571    597.756    597.756
 21.970    578.000    602.087    -24.087    597.296    599.189    600.194    597.296    597.296
 22.070    585.000    601.760    -16.760    596.837    598.775    599.821    596.837    596.837
 22.170    563.401    601.442    -38.041    596.379    598.367    599.455    596.379    596.379
 22.270    545.000    601.137    -56.137    595.923    597.966    599.094    595.923    595.923
 22.370    613.000    600.847     12.153    595.469    597.575    598.741    595.469    595.469
 22.470    613.000    600.563     12.437    595.016    597.186    598.392    595.016    595.016
 22.570    560.000    600.293    -40.293    594.564    596.807    598.051    594.564    594.564
 22.670    616.000    600.038     15.962    594.115    596.438    597.716    594.115    594.115
 22.770    603.114    599.798      3.316    593.666    596.076    597.388    593.666    593.666
 22.870    586.000    599.575    -13.575    593.219    595.726    597.069    593.219    593.219
 22.970    617.000    599.372     17.628    592.774    595.389    596.758    592.774    592.774
 23.070    613.000    599.193     13.807    592.331    595.069    596.455    592.331    592.331
 23.170    568.000    599.041    -31.041    591.889    594.768    596.162    591.889    591.889
 23.270    599.000    598.920      0.080    591.448    594.490    595.879    591.448    591.448
 23.370    615.000    598.836     16.164    591.009    594.240    595.607    591.009    591.009
 23.470    595.807    598.797     -2.990    590.572    594.024    595.346    590.572    590.572
 23.570    625.769    598.812     26.957    590.137    593.852    595.098    590.137    590.137
 23.670    640.000    598.893     41.107    589.703    593.736    594.862    589.703    589.703
 23.770    622.000    599.059     22.941    589.271    593.692    594.640    589.271    589.271
 23.870    635.154    599.335     35.819    588.840    593.745    594.432    588.840    588.840
 23.970    623.000    599.761     23.239    588.411    593.933    594.242    588.411    588.411
 24.070    575.000    600.407    -25.407    587.984    594.326    594.068    587.984    587.984
 24.170    622.000    601.418     20.582    587.559    595.066    593.913    587.559    587.559
 24.270    589.000    603.107    -14.107    587.135    596.468    593.779    587.135    587.135
 24.370    611.000    606.115      4.885    586.713    599.167    593.668    586.713    586.713
 24.470    659.314    611.521     47.793    586.293    604.245    593.581    586.293    586.293
 24.570    649.000    620.716     28.284    585.874    613.088    593.520    585.874    585.874
 24.670    580.499    634.716    -54.217    585.457    626.713    593.488    585.457    585.457
 24.770    662.000    652.840      9.160    585.042    644.434    593.488    585.042    585.042
 24.870    710.000    670.802     39.198    584.629    661.960    593.524    584.629    584.629
 24.970    698.000    680.031     17.969    584.217    670.710    593.599    584.217    584.217
 25.070    668.000    674.331     -6.331    583.807    664.477    593.717    583.807    583.807
 25.170    665.000    658.048      6.952    583.399    647.607    593.884    583.399    583.399
 25.270    656.000    639.891     16.109    582.993    628.810    594.105    582.993    582.993
 25.370    611.685    625.179    -13.494    582.589    613.401    594.386    582.589    582.589
 25.470    627.423    615.319     12.104    582.186    602.781    594.736    582.186    582.186
 25.570    618.000    609.602      8.398    581.785    596.231    595.164    581.785    581.785
 25.670    553.145    606.675    -53.529    581.386    592.387    595.679    581.386    581.386
 25.770    599.000    605.378     -6.378    580.989    590.076    596.294    580.989    580.989
 25.870    588.969    604.992    -16.023    580.594    588.563    597.026    580.594    580.594
 25.970    645.000    605.159     39.841    580.201    587.471    597.890    580.201    580.201
 26.070    620.000    605.726     14.274    579.809    586.627    598.908    579.809    579.809
 26.170    637.000    606.640     30.360    579.419    585.952    600.108    579.419    579.419
 26.270    631.607    607.893     23.714    579.031    585.404    601.521    579.031    579.031
 26.370    582.000    609.501    -27.501    578.645    584.960    603.186    578.645    578.645
 26.470    630.000    611.497     18.503    578.261    584.606    605.151    578.261    578.261
 26.570    613.000    613.937     -0.937    577.879    584.336    607.479    577.879    577.879
 26.670    674.000    616.905     57.095    577.499    584.153    610.249    577.499    577.499
 26.770    655.000    620.503     34.497    577.120    584.058    613.563    577.120    577.120
 26.870    654.772    624.867     29.904    576.744    584.055    617.554    576.744    576.744
 26.970    637.642    630.195      7.447    576.369    584.162    622.399    576.369    576.369
 27.070    683.000    636.748     46.252    575.996    584.400    628.340    575.996    575.996
 27.170    669.000    644.890     24.110    575.626    584.803    635.708    575.626    575.626
 27.270    696.628    655.139     41.489    575.257    585.417    644.973    575.257    575.257
 27.370    617.484    668.249    -50.765    574.890    586.309    656.823    574.890    574.890
 27.470    722.000    685.420     36.580    574.525    587.592    672.343    574.525    574.525
 27.570    739.000    708.906     30.094    574.162    589.470    693.586    574.162    574.162
 27.670    776.302    744.345     31.957    573.801    592.456    725.672    573.801    573.801
 27.770    796.000    807.889    -11.889    573.442    598.017    783.284    573.442    573.442
 27.870    884.319    941.856    -57.537    573.085    609.985    904.895    573.085    573.085
 27.970   1162.000   1232.182    -70.182    572.730    636.140   1168.644    572.730    572.730
 28.070   1635.000   1794.321   -159.321    572.376    686.938   1679.518    572.376    572.376
 28.170   2540.000   2682.809   -142.809    572.025    767.340   2487.113    572.025    572.025
 28.270   3755.000   3736.369     18.631    571.676    862.835   3444.742    571.676    571.676
 28.370   4537.422   4491.967     45.455    571.329    931.715   4131.184    571.329    571.329
 28.470   4650.000   4473.963    176.037    570.983    931.351   4113.419    570.983    570.983
 28.570   3856.103   3755.255    100.848    570.640    869.132   3456.768    570.640    570.640
 28.670   2878.622   2887.384     -8.762    570.299    796.290   2661.453    570.299    570.299
 28.770   2242.001   2341.069    -99.068    569.959    756.910   2154.151    569.959    569.959
 28.870   2177.000   2252.566    -75.566    569.622    763.677   2058.502    569.622    569.622
 28.970   2408.000   2474.836    -66.836    569.287    800.535   2243.576    569.287    569.287
 29.070   2779.000   2695.309     83.691    568.954    832.186   2432.126    568.954    568.954
 29.170   2679.000   2626.336     52.664    568.622    825.256   2369.842    568.622    568.622
 29.270   2251.010   2240.789     10.221    568.293    777.657   2031.605    568.293    568.293
 29.370   1686.442   1738.871    -52.429    567.966    715.063   1591.932    567.966    567.966
 29.470   1320.000   1307.000     13.000    567.641    661.096   1213.654    567.641    567.641
 29.570    993.000   1014.058    -21.058    567.318    624.496    956.943    567.318    567.318
 29.670    908.000    845.230     62.770    566.997    603.442    808.817    566.997    566.997
 29.770    780.177    756.461     23.717    566.677    592.424    730.730    566.677    566.677
 29.870    802.000    709.456     92.544    566.360    586.650    689.175    566.360    566.360
 29.970    730.000    681.853     48.147    566.045    583.330    664.573    566.045    566.045
 30.070    764.000    663.425    100.575    565.732    581.201    647.958    565.732    565.732
 30.170    691.114    650.058     41.056    565.422    579.783    635.697    565.422    565.422
 30.270    638.882    640.099     -1.217    565.113    578.930    626.281    565.113    565.113
 30.370    718.000    632.914     85.086    564.806    578.700    619.018    564.806    564.806
