neutron_powder_diffraction_0133
R_wp: 3.913
Temperature (K): 1053.113
Counts: 83735.00
Wavelength (Ã…): 2.52098
COMMENTS
Test file for demonstrating the .xyy file format in Reel1.0
END OF HEADER
   tth       Y_obs     Y_calc      Y_res    Background    Phase_1_Nuc    Phase_1_Mag    Phase_2_Nuc    Phase_2_Mag
  9.970    565.000    575.802    -10.802    574.894    575.735    574.894    574.961    574.894
 10.070    597.000    575.911     21.089    574.928    575.844    574.928    574.994    574.928
 10.170    539.132    576.024    -36.892    574.956    575.956    574.956    575.023    574.956
 10.270    595.000    576.143     18.857    574.978    576.075    574.978    575.045    574.978
 10.370    595.000    576.272     18.728    574.995    576.204    574.995    575.063    574.995
 10.470    578.000    576.415      1.585    575.007    576.347    575.007    575.075    575.007
 10.570    555.174    576.578    -21.403    575.013    576.508    575.013    575.082    575.013
 10.670    555.000    576.764    -21.764    575.014    576.693    575.014    575.084    575.014
 10.770    541.167    576.983    -35.816    575.009    576.911    575.009    575.080    575.009
 10.870    602.000    577.245     24.755    574.999    577.173    574.999    575.071    574.999
 10.970    615.000    577.567     37.433    574.985    577.494    574.985    575.056    574.985
 11.070    611.059    577.970     33.088    574.964    577.897    574.964    575.036    574.964
 11.170    582.000    578.487      3.513    574.939    578.413    574.939    575.011    574.939
 11.270    590.000    579.168     10.832    574.909    579.094    574.909    574.981    574.909
 11.370    590.000    580.106      9.894    574.874    580.031    574.874    574.947    574.874
 11.470    630.000    581.508     48.492    574.834    581.431    574.834    574.907    574.834
 11.570    603.000    583.898     19.102    574.789    583.820    574.789    574.862    574.789
 11.670    582.907    588.526     -5.619    574.739    588.445    574.739    574.813    574.739
 11.770    634.000    597.787     36.213    574.685    597.700    574.685    574.759    574.685
 11.870    635.000    614.885     20.115    574.625    614.788    574.625    574.700    574.625
 11.970    648.000    641.649      6.351    574.562    641.537    574.562    574.636    574.562
 12.070    653.000    674.311    -21.311    574.493    674.180    574.493    574.568    574.493
 12.170    697.000    699.679     -2.679    574.420    699.533    574.420    574.495    574.420
 12.270    737.000    701.307     35.693    574.342    701.160    574.342    574.418    574.342
 12.370    670.029    677.752     -7.723    574.260    677.618    574.260    574.336    574.260
 12.470    644.000    644.805     -0.805    574.173    644.689    574.173    574.250    574.173
 12.570    596.000    616.826    -20.826    574.082    616.726    574.082    574.159    574.082
 12.670    628.000    598.517     29.483    573.987    598.426    573.987    574.064    573.987
 12.770    607.000    588.406     18.594    573.888    588.321    573.888    573.965    573.888
 12.870    612.000    583.271     28.729    573.784    583.188    573.784    573.861    573.784
 12.970    545.388    580.573    -35.185    573.676    580.491    573.676    573.754    573.676
 13.070    621.281    578.952     42.329    573.564    578.870    573.564    573.642    573.564
 13.170    606.000    577.829     28.171    573.447    577.748    573.447    573.526    573.447
 13.270    597.138    576.977     20.160    573.327    576.897    573.327    573.406    573.327
 13.370    595.000    576.299     18.701    573.203    576.218    573.203    573.282    573.203
 13.470    560.000    575.739    -15.739    573.075    575.658    573.075    573.154    573.075
 13.570    541.000    575.265    -34.265    572.943    575.184    572.943    573.023    572.943
 13.670    593.000    574.854     18.146    572.806    574.772    572.806    572.887    572.806
 13.770    582.000    574.489      7.511    572.667    574.407    572.667    572.748    572.667
 13.870    568.000    574.160     -6.160    572.523    574.078    572.523    572.604    572.523
 13.970    546.000    573.857    -27.857    572.376    573.775    572.376    572.457    572.376
 14.070    564.000    573.576     -9.576    572.225    573.493    572.225    572.307    572.225
 14.170    589.898    573.310     16.588    572.070    573.227    572.070    572.153    572.070
 14.270    535.000    573.056    -38.056    571.912    572.973    571.912    571.995    571.912
 14.370    561.000    572.813    -11.813    571.750    572.729    571.750    571.833    571.750
 14.470    578.000    572.576      5.424    571.585    572.492    571.585    571.669    571.585
 14.570    578.000    572.345      5.655    571.416    572.261    571.416    571.500    571.416
 14.670    535.263    572.119    -36.856    571.244    572.034    571.244    571.328    571.244
 14.770    597.000    571.895     25.105    571.068    571.810    571.068    571.153    571.068
 14.870    559.000    571.674    -12.674    570.889    571.588    570.889    570.975    570.889
 14.970    564.000    571.457     -7.457    570.707    571.370    570.707    570.793    570.707
 15.070    596.430    571.239     25.191    570.522    571.152    570.522    570.608    570.522
 15.170    566.000    571.021     -5.021    570.333    570.934    570.333    570.420    570.333
 15.270    593.000    570.804     22.196    570.141    570.716    570.141    570.229    570.141
 15.370    589.239    570.585     18.654    569.946    570.497    569.946    570.034    569.946
 15.470    558.000    570.366    -12.366    569.748    570.277    569.748    569.837    569.748
 15.570    514.000    570.146    -56.146    569.547    570.057    569.547    569.636    569.547
 15.670    543.487    569.924    -26.438    569.343    569.835    569.343    569.433    569.343
 15.770    642.000    569.702     72.298    569.136    569.612    569.136    569.226    569.136
 15.870    524.000    569.478    -45.478    568.926    569.387    568.926    569.017    568.926
 15.970    545.000    569.253    -24.253    568.714    569.162    568.714    568.805    568.714
 16.070    587.000    569.026     17.974    568.498    568.934    568.498    568.590    568.498
 16.170    524.549    568.797    -44.248    568.280    568.705    568.280    568.372    568.280
 16.270    555.000    568.567    -13.567    568.059    568.474    568.059    568.151    568.059
 16.370    554.359    568.335    -13.975    567.835    568.241    567.835    567.928    567.835
 16.470    586.124    568.101     18.023    567.608    568.007    567.608    567.702    567.608
 16.570    597.000    567.865     29.135    567.379    567.771    567.379    567.473    567.379
 16.670    573.830    567.628      6.202    567.147    567.533    567.147    567.242    567.147
 16.770    523.000    567.389    -44.389    566.913    567.293    566.913    567.008    566.913
 16.870    555.348    567.147    -11.799    566.676    567.052    566.676    566.772    566.676
 16.970    560.335    566.904     -6.569    566.437    566.808    566.437    566.533    566.437
 17.070    553.000    566.659    -13.659    566.195    566.562    566.195    566.292    566.195
 17.170    578.564    566.413     12.151    565.951    566.316    565.951    566.049    565.951
 17.270    555.000    566.177    -11.177    565.705    566.078    565.705    565.803    565.705
 17.370    572.000    565.939      6.061    565.456    565.841    565.456    565.555    565.456
 17.470    569.000    565.688      3.312    565.205    565.589    565.205    565.304    565.205
 17.570    548.078    565.434    -17.356    564.951    565.334    564.951    565.052    564.951
 17.670    557.000    565.178     -8.178    564.696    565.077    564.696    564.797    564.696
 17.770    558.000    564.921     -6.921    564.438    564.819    564.438    564.540    564.438
 17.870    573.000    564.661      8.339    564.178    564.559    564.178    564.280    564.178
 17.970    542.000    564.400    -22.400    563.916    564.297    563.916    564.019    563.916
 18.070    585.730    564.137     21.593    563.652    564.033    563.652    563.756    563.652
 18.170    605.000    563.873     41.127    563.386    563.768    563.386    563.490    563.386
 18.270    564.000    563.606      0.394    563.118    563.501    563.118    563.223    563.118
 18.370    572.705    563.339      9.367    562.848    563.233    562.848    562.954    562.848
 18.470    540.901    563.070    -22.169    562.576    562.963    562.576    562.683    562.576
 18.570    581.000    562.802     18.198    562.302    562.695    562.302    562.410    562.302
 18.670    545.000    562.531    -17.531    562.027    562.422    562.027    562.135    562.027
 18.770    530.000    562.257    -32.257    561.749    562.148    561.749    561.858    561.749
 18.870    544.000    561.981    -17.981    561.470    561.872    561.470    561.580    561.470
 18.970    552.000    561.705     -9.705    561.189    561.594    561.189    561.299    561.189
 19.070    529.404    561.427    -32.023    560.906    561.315    560.906    561.017    560.906
 19.170    557.000    561.147     -4.147    560.622    561.035    560.622    560.734    560.622
 19.270    533.145    560.867    -27.722    560.335    560.754    560.335    560.449    560.335
 19.370    562.000    560.587      1.413    560.048    560.473    560.048    560.162    560.048
 19.470    567.000    560.309      6.691    559.759    560.194    559.759    559.874    559.759
 19.570    570.000    560.025      9.975    559.468    559.909    559.468    559.584    559.468
 19.670    539.000    559.740    -20.740    559.175    559.623    559.175    559.292    559.175
 19.770    546.000    559.454    -13.454    558.882    559.336    558.882    558.999    558.882
 19.870    554.000    559.166     -5.166    558.586    559.048    558.586    558.705    558.586
 19.970    514.028    558.878    -44.850    558.290    558.758    558.290    558.410    558.290
 20.070    506.000    558.595    -52.595    557.992    558.474    557.992    558.113    557.992
 20.170    533.000    558.368    -25.368    557.692    558.246    557.692    557.814    557.692
 20.270    511.000    558.122    -47.122    557.391    557.999    557.391    557.515    557.391
 20.370    524.000    557.835    -33.835    557.089    557.711    557.089    557.214    557.089
 20.470    568.000    557.545     10.455    556.786    557.420    556.786    556.912    556.786
 20.570    555.000    557.253     -2.253    556.482    557.127    556.482    556.608    556.482
 20.670    600.082    556.961     43.121    556.176    556.833    556.176    556.304    556.176
 20.770    513.000    556.668    -43.668    555.869    556.539    555.869    555.998    555.869
 20.870    564.549    556.375      8.173    555.561    556.245    555.561    555.691    555.561
 20.970    567.000    556.082     10.918    555.252    555.951    555.252    555.384    555.252
 21.070    523.000    555.790    -32.790    554.942    555.657    554.942    555.075    554.942
 21.170    568.000    555.497     12.503    554.631    555.363    554.631    554.765    554.631
 21.270    543.000    555.209    -12.209    554.318    555.073    554.318    554.454    554.318
 21.370    528.000    554.958    -26.958    554.005    554.821    554.005    554.142    554.005
 21.470    537.000    554.691    -17.691    553.691    554.552    553.691    553.830    553.691
 21.570    541.000    554.403    -13.403    553.376    554.262    553.376    553.516    553.376
 21.670    585.000    554.113     30.887    553.060    553.971    553.060    553.202    553.060
 21.770    606.000    553.825     52.175    552.743    553.681    552.743    552.887    552.743
 21.870    562.000    553.538      8.462    552.426    553.393    552.426    552.571    552.426
 21.970    556.000    553.254      2.746    552.107    553.108    552.107    552.254    552.107
 22.070    547.000    552.989     -5.989    551.788    552.840    551.788    551.937    551.788
 22.170    584.053    552.738     31.315    551.468    552.588    551.468    551.618    551.468
 22.270    554.000    552.464      1.536    551.147    552.312    551.147    551.300    551.147
 22.370    515.420    552.192    -36.772    550.826    552.037    550.826    550.980    550.826
 22.470    530.502    551.923    -21.421    550.504    551.767    550.504    550.660    550.504
 22.570    560.980    551.661      9.319    550.181    551.502    550.181    550.339    550.181
 22.670    551.642    551.405      0.237    549.857    551.244    549.857    550.018    549.857
 22.770    568.533    551.159     17.373    549.534    550.997    549.534    549.697    549.534
 22.870    588.168    550.922     37.246    549.209    550.757    549.209    549.375    549.209
 22.970    552.000    550.697      1.303    548.884    550.530    548.884    549.052    548.884
 23.070    538.000    550.513    -12.513    548.558    550.343    548.558    548.729    548.558
 23.170    536.897    550.324    -13.427    548.232    550.152    548.232    548.406    548.232
 23.270    552.000    550.152      1.848    547.906    549.977    547.906    548.082    547.906
 23.370    577.921    550.009     27.912    547.579    549.831    547.579    547.758    547.579
 23.470    527.444    549.902    -22.459    547.252    549.722    547.252    547.433    547.252
 23.570    520.000    549.845    -29.845    546.924    549.661    546.924    547.109    546.924
 23.670    532.000    549.853    -17.853    546.596    549.666    546.596    546.784    546.596
 23.770    568.000    549.950     18.050    546.268    549.761    546.268    546.459    546.268
 23.870    603.000    550.178     52.822    545.939    549.986    545.939    546.134    545.939
 23.970    505.988    550.618    -44.631    545.610    550.422    545.610    545.809    545.610
 24.070    547.000    551.464     -4.464    545.281    551.265    545.281    545.484    545.281
 24.170    604.000    553.169     50.831    544.952    552.967    544.952    545.158    544.952
 24.270    554.035    556.714     -2.679    544.622    556.511    544.622    544.833    544.622
 24.370    552.000    563.709    -11.709    544.292    563.506    544.292    544.508    544.292
 24.470    539.893    575.972    -36.079    543.962    575.773    543.962    544.182    543.962
 24.570    608.241    593.937     14.304    543.632    593.747    543.632    543.857    543.632
 24.670    634.880    614.172     20.708    543.302    613.991    543.302    543.532    543.302
 24.770    582.000    627.754    -45.754    542.972    627.577    542.972    543.207    542.972
 24.870    587.345    625.681    -38.336    542.641    625.497    542.641    542.883    542.641
 24.970    635.000    609.389     25.611    542.311    609.188    542.311    542.559    542.311
 25.070    615.000    588.609     26.391    541.981    588.387    541.981    542.235    541.981
 25.170    598.313    571.158     27.155    541.650    570.917    541.650    541.912    541.650
 25.270    576.000    559.504     16.496    541.320    559.247    541.320    541.589    541.320
 25.370    524.843    552.795    -27.952    540.990    552.526    540.990    541.266    540.990
 25.470    557.554    549.208      8.346    540.659    548.927    540.659    540.944    540.659
 25.570    552.000    547.189      4.811    540.329    546.898    540.329    540.623    540.329
 25.670    566.000    545.910     20.090    539.999    545.609    539.999    540.303    539.999
 25.770    535.408    544.992     -9.584    539.669    544.680    539.669    539.983    539.669
 25.870    513.602    544.270    -30.668    539.340    543.946    539.340    539.665    539.340
 25.970    527.000    543.684    -16.684    539.010    543.348    539.010    539.347    539.010
 26.070    588.000    543.200     44.800    538.681    542.851    538.681    539.031    538.681
 26.170    567.000    542.800     24.200    538.352    542.437    538.352    538.715    538.352
 26.270    502.840    542.452    -39.612    538.023    542.074    538.023    538.402    538.023
 26.370    564.000    542.160     21.840    537.694    541.766    537.694    538.089    537.694
 26.470    582.000    541.921     40.079    537.366    541.509    537.366    537.779    537.366
 26.570    498.656    541.736    -43.081    537.038    541.305    537.038    537.470    537.038
 26.670    509.163    541.609    -32.446    536.711    541.156    536.711    537.164    536.711
 26.770    549.000    541.549      7.451    536.383    541.072    536.383    536.860    536.383
 26.870    563.000    541.571     21.429    536.056    541.069    536.056    536.559    536.056
 26.970    560.000    541.673     18.327    535.730    541.142    535.730    536.261    535.730
 27.070    575.763    541.885     33.877    535.404    541.323    535.404    535.966    535.404
 27.170    553.000    542.243     10.757    535.078    541.646    535.078    535.675    535.078
 27.270    504.291    542.796    -38.506    534.753    542.159    534.753    535.389    534.753
 27.370    568.000    543.622     24.378    534.428    542.940    534.428    535.108    534.428
 27.470    542.947    544.855     -1.908    534.104    544.124    534.104    534.834    534.104
 27.570    550.000    546.868      3.132    533.780    546.079    533.780    534.566    533.780
 27.670    518.209    550.987    -32.778    533.457    550.133    533.457    534.307    533.457
 27.770    582.000    561.752     20.248    533.134    560.821    533.134    534.058    533.134
 27.870    596.599    590.705      5.894    532.812    589.680    532.812    533.821    532.812
 27.970    696.000    655.889     40.111    532.490    654.744    532.490    533.598    532.490
 28.070    762.000    765.547     -3.547    532.169    764.255    532.169    533.393    532.169
 28.170    906.000    889.249     16.751    531.849    887.792    531.849    533.210    531.849
 28.270    958.000    952.823      5.177    531.529    951.202    531.529    533.055    531.529
 28.370    859.418    905.825    -46.406    531.210    904.038    531.210    532.939    531.210
 28.470    798.000    796.829      1.171    530.891    794.827    530.891    532.872    530.891
 28.570    690.854    709.448    -18.594    530.574    707.142    530.574    532.873    530.574
 28.670    684.000    689.064     -5.064    530.257    686.347    530.257    532.965    530.257
 28.770    720.000    732.072    -12.072    529.940    728.816    529.940    533.179    529.940
 28.870    753.000    799.446    -46.446    529.625    795.500    529.625    533.550    529.625
 28.970    860.070    833.016     27.054    529.310    828.193    529.310    534.119    529.310
 29.070    779.000    797.043    -18.043    528.996    791.115    528.996    534.926    528.996
 29.170    723.398    718.836      4.562    528.682    711.532    528.682    536.000    528.682
 29.270    604.644    644.107    -39.463    528.370    635.153    528.370    537.337    528.370
 29.370    591.000    595.098     -4.098    528.058    584.304    528.058    538.861    528.058
 29.470    535.534    570.644    -35.110    527.747    558.026    527.747    540.369    527.747
 29.570    608.000    560.481     47.519    527.437    546.417    527.437    541.501    527.437
 29.670    559.549    556.009      3.540    527.128    541.294    527.128    541.842    527.128
 29.770    562.627    552.957      9.670    526.819    538.611    526.819    541.165    526.819
 29.870    563.283    549.996     13.286    526.512    536.902    526.512    539.605    526.512
 29.970    574.000    547.062     26.938    526.205    535.714    526.205    537.552    526.205
 30.070    539.624    544.399     -4.775    525.900    534.903    525.900    535.395    525.900
 30.170    558.000    542.235     15.765    525.595    534.449    525.595    533.379    525.595
 30.270    556.818    540.798     16.020    525.291    534.475    525.291    531.611    525.291
 30.370    532.568    540.566     -7.998    524.988    535.437    524.988    530.114    524.988
