neutron_powder_diffraction_0028
R_wp: 3.706
Temperature (K): 534.136
Counts: 83779.00
Wavelength (Ã…): 2.52098
COMMENTS
Test file for demonstrating the .xyy file format in Reel1.0
END OF HEADER
   tth       Y_obs     Y_calc      Y_res    Background    Phase_1_Nuc    Phase_1_Mag    Phase_2_Nuc    Phase_2_Mag
  9.970    748.000    714.225     33.775    712.589    713.633    713.179    712.589    712.589
 10.070    695.000    713.218    -18.218    711.492    712.620    712.089    711.492    711.492
 10.170    678.841    712.229    -33.388    710.401    711.624    711.004    710.401    710.401
 10.270    725.958    711.259     14.699    709.315    710.648    709.925    709.315    709.315
 10.370    708.000    710.312     -2.312    708.235    709.694    708.851    708.235    708.235
 10.470    727.000    709.390     17.610    707.161    708.766    707.784    707.161    707.161
 10.570    670.982    708.499    -37.517    706.092    707.868    706.722    706.092    706.092
 10.670    674.950    707.644    -32.694    705.029    707.006    705.665    705.029    705.029
 10.770    675.415    706.834    -31.418    703.971    706.188    704.615    703.971    703.971
 10.870    714.000    706.077      7.923    702.919    705.424    703.570    702.919    702.919
 10.970    695.000    705.389    -10.389    701.873    704.729    702.530    701.873    701.873
 11.070    710.000    704.788      5.212    700.832    704.121    701.497    700.832    700.832
 11.170    731.234    704.303     26.931    699.796    703.627    700.469    699.796    699.796
 11.270    700.000    703.973     -3.973    698.766    703.289    699.446    698.766    698.766
 11.370    709.445    703.864      5.581    697.742    703.172    698.429    697.742    697.742
 11.470    737.056    704.099     32.957    696.723    703.399    697.418    696.723    696.723
 11.570    691.000    704.943    -13.943    695.709    704.234    696.413    695.709    695.709
 11.670    792.000    706.990     85.010    694.701    706.271    695.413    694.701    694.701
 11.770    729.000    711.444     17.556    693.698    710.713    694.419    693.698    693.698
 11.870    746.000    720.271     25.729    692.701    719.526    693.430    692.701    692.701
 11.970    791.037    735.765     55.272    691.709    735.002    692.447    691.709    691.709
 12.070    819.000    758.954     60.046    690.723    758.169    691.469    690.723    690.723
 12.170    881.000    786.714     94.286    689.742    785.903    690.497    689.742    689.742
 12.270    754.116    808.846    -54.731    688.766    808.014    689.531    688.766    688.766
 12.370    782.556    811.734    -29.178    687.796    810.891    688.570    687.796    687.796
 12.470    828.000    792.338     35.662    686.831    791.495    687.614    686.831    686.831
 12.570    753.465    762.816     -9.351    685.872    761.979    686.664    685.872    685.872
 12.670    689.464    735.637    -46.173    684.917    734.805    685.720    684.917    684.917
 12.770    696.462    715.858    -19.396    683.969    715.027    684.781    683.969    683.969
 12.870    672.522    703.346    -30.824    683.025    702.512    683.848    683.025    683.025
 12.970    630.000    695.933    -65.933    682.087    695.092    682.920    682.087    682.087
 13.070    705.559    691.434     14.125    681.154    690.585    681.997    681.154    681.154
 13.170    732.000    688.412     43.588    680.226    687.553    681.080    680.226    680.226
 13.270    677.000    686.127     -9.127    679.304    685.258    680.169    679.304    679.304
 13.370    633.000    684.236    -51.236    678.387    683.356    679.263    678.387    678.387
 13.470    706.000    682.592     23.408    677.475    681.701    678.362    677.475    677.475
 13.570    718.634    681.118     37.516    676.568    680.216    677.467    676.568    676.568
 13.670    641.461    679.770    -38.309    675.666    678.857    676.577    675.666    675.666
 13.770    674.000    678.516     -4.516    674.770    677.591    675.693    674.770    674.770
 13.870    715.000    677.336     37.664    673.879    676.398    674.814    673.879    673.879
 13.970    700.000    676.213     23.787    672.993    675.263    673.941    672.993    672.993
 14.070    701.761    675.136     26.625    672.112    674.174    673.073    672.112    672.112
 14.170    683.000    674.098      8.902    671.237    673.123    672.210    671.237    671.237
 14.270    665.000    673.095     -8.095    670.366    672.106    671.353    670.366    670.366
 14.370    679.000    672.139      6.861    669.501    671.136    670.502    669.501    669.501
 14.470    663.000    671.190     -8.190    668.641    670.173    669.656    668.641    668.641
 14.570    636.000    670.254    -34.254    667.786    669.223    668.815    667.786    667.786
 14.670    660.000    669.335     -9.335    666.936    668.290    667.979    666.936    666.936
 14.770    672.000    668.432      3.568    666.091    667.372    667.149    666.091    666.091
 14.870    619.000    667.543    -48.543    665.251    666.467    666.324    665.251    665.251
 14.970    619.000    666.666    -47.666    664.416    665.576    665.505    664.416    664.416
 15.070    665.000    665.802     -0.802    663.586    664.696    664.691    663.586    663.586
 15.170    641.000    664.949    -23.949    662.761    663.826    663.882    662.761    662.761
 15.270    595.000    664.107    -69.107    661.941    662.968    663.079    661.941    661.941
 15.370    649.982    663.277    -13.296    661.127    662.121    662.281    661.127    661.127
 15.470    642.000    662.453    -20.453    660.317    661.280    661.488    660.317    660.317
 15.570    670.000    661.637      8.363    659.512    660.446    660.701    659.512    659.512
 15.670    697.000    660.829     36.171    658.712    659.620    659.919    658.712    658.712
 15.770    617.126    660.029    -42.903    657.917    658.802    659.143    657.917    657.917
 15.870    656.000    659.237     -3.237    657.127    657.991    658.372    657.127    657.127
 15.970    623.000    658.452    -35.452    656.342    657.187    657.606    656.342    656.342
 16.070    657.000    657.675     -0.675    655.562    656.390    656.845    655.562    655.562
 16.170    619.295    656.904    -37.609    654.787    655.599    656.090    654.787    654.787
 16.270    666.000    656.141      9.859    654.016    654.815    655.341    654.016    654.016
 16.370    684.660    655.384     29.276    653.251    654.037    654.596    653.251    653.251
 16.470    663.609    654.634      8.975    652.490    653.265    653.857    652.490    652.490
 16.570    634.000    653.890    -19.890    651.734    652.499    653.124    651.734    651.734
 16.670    664.442    653.154     11.288    650.983    651.740    652.396    650.983    650.983
 16.770    592.000    652.429    -60.429    650.237    650.991    651.673    650.237    650.237
 16.870    648.000    651.706     -3.706    649.496    650.245    650.956    649.496    649.496
 16.970    609.768    650.988    -41.220    648.759    649.502    650.244    648.759    648.759
 17.070    644.542    650.276     -5.734    648.027    648.765    649.537    648.027    648.027
 17.170    644.000    649.571     -5.571    647.300    648.034    648.836    647.300    647.300
 17.270    659.151    648.875     10.276    646.578    647.311    648.141    646.578    646.578
 17.370    682.773    648.226     34.547    645.860    646.634    647.452    645.860    645.860
 17.470    604.490    647.588    -43.098    645.147    645.966    646.768    645.147    645.147
 17.570    601.000    646.912    -45.912    644.439    645.261    646.089    644.439    644.439
 17.670    676.076    646.237     29.839    643.736    644.557    645.415    643.736    643.736
 17.770    676.000    645.568     30.432    643.037    643.857    644.746    643.037    643.037
 17.870    668.188    644.905     23.283    642.343    643.163    644.083    642.343    642.343
 17.970    643.000    644.253     -1.253    641.654    642.479    643.426    641.654    641.654
 18.070    597.996    643.628    -45.632    640.969    641.822    642.774    640.969    640.969
 18.170    601.000    642.986    -41.986    640.289    641.146    642.128    640.289    640.289
 18.270    649.913    642.348      7.565    639.613    640.472    641.487    639.613    639.613
 18.370    641.000    641.715     -0.715    638.942    639.804    640.852    638.942    638.942
 18.470    633.669    641.089     -7.420    638.276    639.141    640.222    638.276    638.276
 18.570    623.132    640.468    -17.336    637.614    638.482    639.599    637.614    637.614
 18.670    681.000    639.854     41.146    636.957    637.829    638.980    636.957    636.957
 18.770    661.000    639.246     21.754    636.304    637.180    638.368    636.304    636.304
 18.870    619.000    638.644    -19.644    635.656    636.538    637.761    635.656    635.656
 18.970    653.051    638.055     14.996    635.012    635.905    637.161    635.012    635.012
 19.070    680.527    637.472     43.054    634.373    635.279    636.566    634.373    634.373
 19.170    650.000    636.890     13.110    633.739    634.651    635.977    633.739    633.739
 19.270    624.000    636.313    -12.313    633.109    634.027    635.394    633.109    633.109
 19.370    676.000    635.743     40.257    632.483    633.409    634.816    632.483    632.483
 19.470    636.386    635.186      1.200    631.862    632.800    634.247    631.862    631.862
 19.570    632.000    634.693     -2.693    631.245    632.237    633.700    631.245    631.245
 19.670    600.000    634.155    -34.155    630.633    631.642    633.145    630.633    630.633
 19.770    653.000    633.618     19.382    630.025    631.050    632.592    630.025    630.025
 19.870    595.000    633.103    -38.103    629.421    630.477    632.046    629.421    629.421
 19.970    593.587    632.577    -38.990    628.822    629.892    631.506    628.822    628.822
 20.070    590.157    632.056    -41.899    628.228    629.310    630.972    628.228    628.228
 20.170    586.000    631.542    -45.542    627.637    628.732    630.446    627.637    627.637
 20.270    600.000    631.046    -31.046    627.051    628.164    629.932    627.051    627.051
 20.370    653.417    630.598     22.820    626.470    627.631    629.435    626.470    626.470
 20.470    637.000    630.136      6.864    625.892    627.097    628.930    625.892    625.892
 20.570    673.159    629.712     43.447    625.319    626.599    628.431    625.319    625.319
 20.670    606.000    629.254    -23.254    624.750    626.065    627.938    624.750    624.750
 20.770    617.000    628.804    -11.804    624.186    625.536    627.452    624.186    624.186
 20.870    577.000    628.359    -51.359    623.626    625.009    626.974    623.626    623.626
 20.970    601.000    627.943    -26.943    623.070    624.508    626.504    623.070    623.070
 21.070    584.000    627.504    -43.504    622.518    623.980    626.040    622.518    622.518
 21.170    600.000    627.070    -27.070    621.970    623.455    625.584    621.970    621.970
 21.270    603.000    626.646    -23.646    621.427    622.935    625.136    621.427    621.427
 21.370    614.936    626.237    -11.301    620.888    622.426    624.698    620.888    620.888
 21.470    633.419    625.849      7.569    620.353    621.930    624.271    620.353    620.353
 21.570    642.000    625.467     16.533    619.822    621.439    623.849    619.822    619.822
 21.670    596.013    625.088    -29.075    619.295    620.948    623.434    619.295    619.295
 21.770    599.000    624.715    -25.715    618.773    620.458    623.029    618.773    618.773
 21.870    609.000    624.354    -15.354    618.255    619.974    622.633    618.255    618.255
 21.970    664.982    624.005     40.977    617.740    619.498    622.246    617.740    617.740
 22.070    615.000    623.668     -8.668    617.230    619.028    621.869    617.230    617.230
 22.170    573.000    623.346    -50.346    616.724    618.567    621.502    616.724    616.724
 22.270    652.387    623.039     29.348    616.222    618.114    621.146    616.222    616.222
 22.370    611.000    622.746    -11.746    615.724    617.668    620.801    615.724    615.724
 22.470    633.353    622.469     10.883    615.230    617.231    620.467    615.230    615.230
 22.570    602.686    622.211    -19.526    614.740    616.805    620.145    614.740    614.740
 22.670    613.000    621.972     -8.972    614.255    616.390    619.836    614.255    614.255
 22.770    643.000    621.754     21.246    613.773    615.986    619.539    613.773    613.773
 22.870    642.000    621.563     20.437    613.295    615.598    619.258    613.295    613.295
 22.970    592.000    621.390    -29.390    612.821    615.221    618.989    612.821    612.821
 23.070    600.000    621.245    -21.245    612.351    614.859    618.735    612.351    612.351
 23.170    579.000    621.130    -42.130    611.885    614.517    618.497    611.885    611.885
 23.270    671.000    621.050     49.950    611.423    614.197    618.275    611.423    611.423
 23.370    573.000    621.010    -48.010    610.965    613.903    618.071    610.965    610.965
 23.470    608.000    621.018    -13.018    610.511    613.642    617.886    610.511    610.511
 23.570    612.235    621.080     -8.845    610.060    613.419    617.721    610.060    610.060
 23.670    640.000    621.209     18.791    609.614    613.246    617.576    609.614    609.614
 23.770    681.000    621.418     59.582    609.171    613.136    617.453    609.171    609.171
 23.870    645.606    621.729     23.876    608.732    613.108    617.354    608.732    608.732
 23.970    637.000    622.173     14.827    608.297    613.191    617.281    608.297    608.297
 24.070    579.655    622.800    -43.145    607.866    613.432    617.235    607.866    607.866
 24.170    617.714    623.703     -5.990    607.439    613.925    617.218    607.439    607.439
 24.270    621.000    625.085     -4.085    607.015    614.869    617.234    607.015    607.015
 24.370    637.000    627.384      9.616    606.596    616.698    617.285    606.596    606.596
 24.470    665.232    631.444     33.788    606.180    620.257    617.372    606.180    606.180
 24.570    654.000    638.586     15.414    605.767    626.864    617.501    605.767    605.767
 24.670    676.000    650.247     25.753    605.359    637.952    617.674    605.359    605.359
 24.770    650.000    666.910    -16.910    604.954    654.000    617.896    604.954    604.954
 24.870    659.269    686.289    -27.020    604.553    672.715    618.171    604.553    604.553
 24.970    711.705    701.612     10.093    604.155    687.318    618.506    604.155    604.155
 25.070    757.000    704.261     52.739    603.762    689.174    618.905    603.762    603.762
 25.170    731.323    692.564     38.759    603.372    676.606    619.378    603.372    603.372
 25.270    666.000    674.257     -8.257    602.985    657.346    619.931    602.985    602.985
 25.370    672.000    657.418     14.582    602.602    639.468    620.574    602.602    602.602
 25.470    616.000    645.444    -29.444    602.223    626.361    621.319    602.223    602.223
 25.570    675.000    638.374     36.626    601.848    618.051    622.178    601.848    601.848
 25.670    646.000    634.890     11.110    601.476    613.202    623.167    601.476    601.476
 25.770    618.000    633.589    -15.589    601.107    610.395    624.303    601.107    601.107
 25.870    625.737    633.517     -7.780    600.742    608.653    625.608    600.742    600.742
 25.970    645.000    634.175     10.825    600.381    607.450    627.106    600.381    600.381
 26.070    607.000    635.351    -28.351    600.023    606.545    628.829    600.023    600.023
 26.170    656.696    636.975     19.721    599.669    605.830    630.812    599.669    599.669
 26.270    628.000    639.039    -11.039    599.318    605.253    633.102    599.318    599.318
 26.370    642.000    641.579      0.421    598.971    604.790    635.757    598.971    598.971
 26.470    631.790    644.633    -12.843    598.627    604.418    638.839    598.627    598.627
 26.570    626.000    648.274    -22.274    598.287    604.124    642.433    598.287    598.287
 26.670    614.000    652.612    -38.612    597.950    603.906    646.651    597.950    597.950
 26.770    621.465    657.787    -36.323    597.617    603.767    651.632    597.617    597.617
 26.870    678.000    663.986     14.014    597.287    603.711    657.556    597.287    597.287
 26.970    659.585    671.456    -11.871    596.960    603.746    664.663    596.960    596.960
 27.070    668.000    680.533    -12.533    596.637    603.890    673.273    596.637    596.637
 27.170    725.000    691.678     33.322    596.317    604.163    683.824    596.317    596.317
 27.270    722.000    705.536     16.464    596.001    604.599    696.927    596.001    596.001
 27.370    673.560    723.033    -49.472    595.688    605.248    713.460    595.688    595.688
 27.470    777.845    745.557     32.288    595.378    606.182    734.737    595.378    595.378
 27.570    778.000    775.451      2.549    595.072    607.526    762.976    595.072    595.072
 27.670    785.775    817.782    -32.007    594.768    609.549    802.972    594.768    594.768
 27.770    911.258    887.010     24.248    594.469    613.013    868.417    594.469    594.469
 27.870   1058.000   1026.809     31.191    594.172    620.213   1000.672    594.172    594.172
 27.970   1266.000   1348.399    -82.399    593.879    636.991   1305.081    593.879    593.879
 28.070   1963.000   2057.140    -94.140    593.589    674.131   1976.193    593.589    593.589
 28.170   3099.000   3371.064   -272.064    593.302    743.091   3220.614    593.302    593.302
 28.270   5226.676   5254.472    -27.796    593.018    842.042   5004.601    593.018    593.018
 28.370   7064.000   7109.416    -45.416    592.738    939.715   6761.662    592.738    592.738
 28.470   7825.000   7864.342    -39.342    592.461    980.126   7476.228    592.461    592.461
 28.570   7223.000   6968.986    254.014    592.187    934.967   6626.066    592.187    592.187
 28.670   5224.424   5241.427    -17.004    591.916    848.345   4984.983    591.916    591.916
 28.770   3810.597   3832.131    -21.534    591.648    782.454   3641.289    591.648    591.648
 28.870   3245.000   3301.913    -56.913    591.383    768.287   3124.917    591.383    591.383
 28.970   3586.423   3572.240     14.183    591.122    800.933   3362.345    591.122    591.122
 29.070   4212.000   4151.381     60.619    590.864    849.115   3893.173    590.864    590.864
 29.170   4466.000   4387.864     78.136    590.608    868.801   4109.897    590.608    590.608
 29.270   3901.305   3919.634    -18.329    590.356    835.262   3675.044    590.356    590.356
 29.370   2974.000   3019.821    -45.821    590.107    769.405   2840.806    590.107    590.107
 29.470   2123.000   2135.308    -12.308    589.861    704.474   2020.889    589.861    589.861
 29.570   1516.360   1495.603     20.758    589.618    657.512   1427.819    589.618    589.618
 29.670   1156.000   1119.436     36.564    589.378    629.947   1078.921    589.378    589.378
 29.770    951.000    926.383     24.617    589.141    615.870    899.678    589.141    589.141
 29.870    851.729    830.598     21.131    588.907    608.964    810.553    588.907    588.907
 29.970    813.000    778.527     34.473    588.676    605.293    761.916    588.676    588.676
 30.070    758.804    745.519     13.285    588.448    603.058    730.911    588.448    588.448
 30.170    703.686    722.036    -18.350    588.222    601.581    708.678    588.222    588.222
 30.270    716.000    704.432     11.568    588.000    600.634    691.797    588.000    588.000
 30.370    653.960    691.137    -37.176    587.781    600.188    678.727    587.781    587.781
