neutron_powder_diffraction_0006
R_wp: 3.581
Temperature (K): 441.391
Counts: 83325.00
Wavelength (Ã…): 2.52098
COMMENTS
Test file for demonstrating the .xyy file format in Reel1.0
END OF HEADER
   tth       Y_obs     Y_calc      Y_res    Background    Phase_1_Nuc    Phase_1_Mag    Phase_2_Nuc    Phase_2_Mag
  9.970    763.000    748.822     14.178    747.127    748.125    747.823    747.127    747.127
 10.070    774.000    747.742     26.258    745.960    747.038    746.663    745.960    745.960
 10.170    767.000    746.680     20.320    744.800    745.969    745.510    744.800    744.800
 10.270    788.260    745.638     42.622    743.646    744.919    744.364    743.646    743.646
 10.370    789.417    744.618     44.799    742.499    743.891    743.225    742.499    742.499
 10.470    762.000    743.624     18.376    741.358    742.889    742.092    741.358    741.358
 10.570    719.927    742.659    -22.733    740.224    741.917    740.966    740.224    740.224
 10.670    789.000    741.731     47.269    739.097    740.980    739.847    739.097    739.097
 10.770    748.224    740.844      7.380    737.976    740.085    738.734    737.976    737.976
 10.870    749.000    740.010      8.990    736.861    739.243    737.628    736.861    736.861
 10.970    765.000    739.241     25.759    735.754    738.465    736.528    735.754    735.754
 11.070    747.000    738.555      8.445    734.652    737.770    735.436    734.652    734.652
 11.170    715.314    737.977    -22.664    733.557    737.183    734.349    733.557    733.557
 11.270    743.000    737.544      5.456    732.469    736.741    733.270    732.469    732.469
 11.370    742.458    737.314      5.144    731.386    736.501    732.197    731.386    731.386
 11.470    725.635    737.394    -11.759    730.311    736.571    731.130    730.311    730.311
 11.570    726.000    738.008    -12.008    729.241    737.174    730.070    729.241    729.241
 11.670    719.048    739.664    -20.616    728.178    738.820    729.017    728.178    728.178
 11.770    783.000    743.428     39.572    727.122    742.571    727.970    727.122    727.122
 11.870    794.000    751.140     42.860    726.071    750.269    726.930    726.071    726.071
 11.970    777.316    765.129     12.186    725.027    764.239    725.896    725.027    725.027
 12.070    861.000    786.840     74.160    723.990    785.927    724.869    723.990    723.990
 12.170    770.052    814.209    -44.157    722.958    813.269    723.848    722.958    722.958
 12.270    906.000    838.136     67.864    721.933    837.172    722.834    721.933    721.933
 12.370    862.000    844.498     17.502    720.914    843.519    721.826    720.914    720.914
 12.470    802.000    827.478    -25.478    719.902    826.496    720.824    719.902    719.902
 12.570    837.541    798.297     39.244    718.895    797.320    719.829    718.895    718.895
 12.670    770.707    770.498      0.209    717.895    769.524    718.840    717.895    717.895
 12.770    741.000    749.954     -8.954    716.901    748.980    717.858    716.901    716.901
 12.870    768.329    736.858     31.470    715.913    735.879    716.882    715.913    715.913
 12.970    670.000    729.101    -59.101    714.931    728.112    715.912    714.931    714.931
 13.070    687.000    724.425    -37.425    713.956    723.427    714.949    713.956    713.956
 13.170    701.000    721.309    -20.309    712.986    720.299    713.992    712.986    712.986
 13.270    694.000    718.960    -24.960    712.023    717.939    713.041    712.023    712.023
 13.370    717.000    717.023     -0.023    711.065    715.989    712.097    711.065    711.065
 13.470    686.769    715.341    -28.572    710.114    714.294    711.159    710.114    710.114
 13.570    746.224    713.835     32.389    709.168    712.774    710.227    709.168    709.168
 13.670    742.000    712.452     29.548    708.229    711.378    709.302    708.229    708.229
 13.770    722.000    711.164     10.836    707.296    710.076    708.383    707.296    707.296
 13.870    714.000    709.951      4.049    706.368    708.848    707.470    706.368    706.368
 13.970    666.103    708.796    -42.693    705.447    707.679    706.563    705.447    705.447
 14.070    667.276    707.689    -40.413    704.531    706.557    705.662    704.531    704.531
 14.170    663.165    706.620    -43.456    703.622    705.473    704.768    703.622    703.622
 14.270    724.000    705.584     18.416    702.718    704.422    703.880    702.718    702.718
 14.370    749.075    704.576     44.499    701.821    703.398    702.998    701.821    701.821
 14.470    699.000    703.594     -4.594    700.929    702.399    702.123    700.929    700.929
 14.570    752.715    702.637     50.079    700.043    701.425    701.254    700.043    700.043
 14.670    671.828    701.714    -29.886    699.162    700.485    700.391    699.162    699.162
 14.770    647.000    700.787    -53.787    698.288    699.541    699.534    698.288    698.288
 14.870    674.000    699.873    -25.873    697.419    698.609    698.683    697.419    697.419
 14.970    665.000    698.972    -33.972    696.557    697.690    697.838    696.557    696.557
 15.070    693.000    698.084     -5.084    695.700    696.783    697.000    695.700    695.700
 15.170    680.000    697.207    -17.207    694.848    695.888    696.167    694.848    694.848
 15.270    691.000    696.345     -5.345    694.003    695.006    695.341    694.003    694.003
 15.370    731.491    695.492     36.000    693.163    694.133    694.521    693.163    693.163
 15.470    660.000    694.646    -34.646    692.329    693.268    693.707    692.329    692.329
 15.570    638.000    693.810    -55.810    691.500    692.411    692.899    691.500    691.500
 15.670    745.000    692.983     52.017    690.677    691.562    692.097    690.677    690.677
 15.770    689.946    692.164     -2.218    689.860    690.722    691.302    689.860    689.860
 15.870    671.000    691.354    -20.354    689.048    689.890    690.512    689.048    689.048
 15.970    733.000    690.552     42.448    688.242    689.065    689.729    688.242    688.242
 16.070    720.435    689.758     30.677    687.442    688.248    688.952    687.442    687.442
 16.170    681.545    688.971     -7.426    686.647    687.438    688.180    686.647    686.647
 16.270    658.611    688.192    -29.581    685.858    686.635    687.415    685.858    685.858
 16.370    689.399    687.421      1.978    685.074    685.839    686.656    685.074    685.074
 16.470    687.000    686.657      0.343    684.296    685.049    685.903    684.296    684.296
 16.570    694.000    685.900      8.100    683.523    684.266    685.157    683.523    683.523
 16.670    672.000    685.151    -13.151    682.756    683.490    684.416    682.756    682.756
 16.770    693.000    684.408      8.592    681.994    682.720    683.682    681.994    681.994
 16.870    654.000    683.673    -29.673    681.237    681.957    682.953    681.237    681.237
 16.970    661.000    682.945    -21.945    680.486    681.200    682.231    680.486    680.486
 17.070    641.000    682.224    -41.224    679.741    680.450    681.515    679.741    679.741
 17.170    696.000    681.516     14.484    679.000    679.711    680.805    679.000    679.000
 17.270    713.871    680.809     33.062    678.265    678.973    680.101    678.265    678.265
 17.370    686.000    680.108      5.892    677.536    678.240    679.404    677.536    677.536
 17.470    671.000    679.420     -8.420    676.812    677.519    678.712    676.812    676.812
 17.570    681.000    678.748      2.252    676.093    676.812    678.029    676.093    676.093
 17.670    722.000    678.124     43.876    675.379    676.151    677.352    675.379    675.379
 17.770    654.000    677.472    -23.472    674.671    675.463    676.680    674.671    674.671
 17.870    673.000    676.807     -3.807    673.968    674.762    676.013    673.968    673.968
 17.970    633.000    676.147    -43.147    673.270    674.064    675.353    673.270    673.270
 18.070    654.000    675.494    -21.494    672.577    673.372    674.699    672.577    672.577
 18.170    644.000    674.849    -30.849    671.890    672.688    674.051    671.890    671.890
 18.270    657.000    674.227    -17.227    671.208    672.025    673.409    671.208    671.208
 18.370    686.000    673.608     12.392    670.531    671.364    672.774    670.531    670.531
 18.470    720.000    672.983     47.017    669.859    670.696    672.146    669.859    669.859
 18.570    712.000    672.364     39.636    669.192    670.032    671.523    669.192    669.192
 18.670    665.000    671.751     -6.751    668.530    669.374    670.907    668.530    668.530
 18.770    685.000    671.145     13.855    667.874    668.721    670.298    667.874    667.874
 18.870    665.000    670.547     -5.547    667.222    668.074    669.695    667.222    667.222
 18.970    647.000    669.955    -22.955    666.576    667.432    669.098    666.576    666.576
 19.070    710.810    669.370     41.440    665.934    666.796    668.508    665.934    665.934
 19.170    622.000    668.793    -46.793    665.298    666.166    667.925    665.298    665.298
 19.270    639.745    668.232    -28.486    664.666    665.549    667.349    664.666    664.666
 19.370    689.492    667.673     21.820    664.040    664.934    666.779    664.040    664.040
 19.470    631.000    667.117    -36.117    663.419    664.320    666.216    663.419    663.419
 19.570    708.000    666.571     41.429    662.802    663.712    665.661    662.802    662.802
 19.670    659.000    666.061     -7.061    662.191    663.130    665.122    662.191    662.191
 19.770    623.000    665.573    -42.573    661.584    662.562    664.595    661.584    661.584
 19.870    640.047    665.054    -25.007    660.982    661.975    664.061    660.982    660.982
 19.970    623.845    664.556    -40.711    660.385    661.407    663.534    660.385    660.385
 20.070    704.916    664.053     40.863    659.793    660.833    663.013    659.793    659.793
 20.170    692.000    663.553     28.447    659.206    660.259    662.500    659.206    659.206
 20.270    660.000    663.059     -3.059    658.624    659.689    661.994    658.624    658.624
 20.370    693.000    662.577     30.423    658.046    659.126    661.497    658.046    658.046
 20.470    648.000    662.142    -14.142    657.474    658.592    661.023    657.474    657.474
 20.570    690.550    661.716     28.835    656.906    658.066    660.556    656.906    656.906
 20.670    631.000    661.263    -30.263    656.342    657.524    660.082    656.342    656.342
 20.770    645.000    660.836    -15.836    655.784    657.004    659.616    655.784    655.784
 20.870    643.127    660.462    -17.335    655.230    656.533    659.159    655.230    655.230
 20.970    637.000    660.043    -23.043    654.681    656.016    658.708    654.681    654.681
 21.070    684.357    659.623     24.734    654.137    655.493    658.267    654.137    654.137
 21.170    651.000    659.230     -8.230    653.597    654.992    657.835    653.597    653.597
 21.270    618.000    658.859    -40.859    653.062    654.508    657.412    653.062    653.062
 21.370    623.000    658.470    -35.470    652.531    654.004    656.997    652.531    652.531
 21.470    694.000    658.089     35.911    652.006    653.503    656.592    652.006    652.006
 21.570    659.000    657.728      1.272    651.484    653.014    656.199    651.484    651.484
 21.670    673.755    657.392     16.364    650.968    652.540    655.819    650.968    650.968
 21.770    645.000    657.056    -12.056    650.455    652.067    655.444    650.455    650.455
 21.870    651.000    656.727     -5.727    649.948    651.596    655.079    649.948    649.948
 21.970    697.326    656.408     40.918    649.445    651.129    654.724    649.445    649.445
 22.070    660.000    656.103      3.897    648.946    650.668    654.381    648.946    648.946
 22.170    655.000    655.814     -0.814    648.452    650.217    654.049    648.452    648.452
 22.270    664.000    655.539      8.461    647.962    649.773    653.729    647.962    647.962
 22.370    651.000    655.280     -4.280    647.477    649.336    653.421    647.477    647.477
 22.470    622.000    655.038    -33.038    646.997    648.908    653.127    646.997    646.997
 22.570    656.728    654.816      1.912    646.520    648.490    652.846    646.520    646.520
 22.670    640.000    654.614    -14.614    646.048    648.084    652.579    646.048    646.048
 22.770    633.139    654.434    -21.295    645.581    647.689    652.326    645.581    645.581
 22.870    643.000    654.277    -11.277    645.117    647.306    652.089    645.117    645.117
 22.970    655.891    654.149      1.742    644.659    646.939    651.869    644.659    644.659
 23.070    671.240    654.050     17.190    644.204    646.588    651.666    644.204    644.204
 23.170    616.931    653.978    -37.047    643.754    646.252    651.480    643.754    643.754
 23.270    618.434    653.942    -35.508    643.308    645.938    651.313    643.308    643.308
 23.370    624.701    653.946    -29.245    642.866    645.648    651.166    642.866    642.866
 23.470    694.000    653.997     40.003    642.429    645.387    651.040    642.429    642.429
 23.570    646.000    654.103     -8.103    641.996    645.163    650.936    641.996    641.996
 23.670    628.000    654.273    -26.273    641.567    644.984    650.857    641.567    641.567
 23.770    622.000    654.521    -32.521    641.142    644.861    650.803    641.142    641.142
 23.870    615.179    654.865    -39.686    640.721    644.812    650.776    640.721    640.721
 23.970    629.000    655.332    -26.332    640.305    644.861    650.777    640.305    640.305
 24.070    650.335    655.962     -5.627    639.892    645.046    650.810    639.892    639.892
 24.170    622.000    656.828    -34.828    639.484    645.438    650.877    639.484    639.484
 24.270    650.413    658.078     -7.665    639.080    646.181    650.980    639.080    639.080
 24.370    695.411    660.042     35.369    638.680    647.605    651.123    638.680    638.680
 24.470    671.000    663.408      7.592    638.284    650.391    651.309    638.284    638.284
 24.570    638.000    669.362    -31.362    637.892    655.725    651.540    637.892    637.892
 24.670    657.000    679.432    -22.432    637.505    665.132    651.823    637.505    637.505
 24.770    666.000    694.660    -28.660    637.121    679.650    652.161    637.121    637.121
 24.870    712.000    713.985     -1.985    636.741    698.210    652.559    636.741    636.741
 24.970    727.000    732.132     -5.132    636.365    715.528    653.025    636.365    636.365
 25.070    694.912    739.613    -44.702    635.993    722.102    653.566    635.993    635.993
 25.170    725.000    731.142     -6.142    635.625    712.634    654.188    635.625    635.625
 25.270    785.000    713.392     71.608    635.262    693.791    654.902    635.262    635.262
 25.370    706.000    695.740     10.260    634.901    674.950    655.719    634.901    634.901
 25.470    710.000    682.714     27.286    634.545    660.625    656.650    634.545    634.545
 25.570    658.000    674.881    -16.881    634.193    651.374    657.711    634.193    634.193
 25.670    640.815    671.034    -30.219    633.845    645.967    658.918    633.845    633.845
 25.770    692.000    669.672     22.328    633.500    642.885    660.292    633.500    633.500
 25.870    696.000    669.714     26.286    633.159    641.021    661.855    633.159    633.159
 25.970    675.000    670.578      4.422    632.822    639.766    663.637    632.822    632.822
 26.070    678.601    672.016      6.586    632.489    638.836    665.671    632.489    632.489
 26.170    717.998    673.944     44.054    632.160    638.107    667.997    632.160    632.160
 26.270    680.000    676.356      3.644    631.834    637.524    670.667    631.834    631.834
 26.370    641.000    679.289    -38.289    631.512    637.056    673.746    631.512    631.512
 26.470    695.261    682.777     12.483    631.194    636.672    677.299    631.194    631.194
 26.570    710.000    686.912     23.088    630.880    636.368    681.423    630.880    630.880
 26.670    731.433    691.809     39.625    630.569    636.138    686.238    630.569    630.569
 26.770    696.000    697.618     -1.618    630.262    635.981    691.898    630.262    630.262
 26.870    745.937    704.540     41.397    629.959    635.900    698.597    629.959    629.959
 26.970    716.719    712.839      3.879    629.659    635.901    706.594    629.659    629.659
 27.070    711.000    722.874    -11.874    629.363    635.997    716.236    629.363    629.363
 27.170    708.074    735.131    -27.057    629.070    636.207    727.989    629.070    629.070
 27.270    709.000    750.287    -41.287    628.781    636.557    742.506    628.781    628.781
 27.370    813.762    769.308     44.454    628.496    637.087    760.710    628.496    628.496
 27.470    774.000    793.615    -19.615    628.214    637.856    783.962    628.214    628.214
 27.570    852.000    825.482     26.518    627.935    638.961    814.444    627.935    627.935
 27.670    910.772    869.415     41.357    627.660    640.589    856.469    627.660    627.660
 27.770    903.000    937.694    -34.694    627.389    643.251    921.806    627.389    627.389
 27.870   1120.000   1069.132     50.868    627.121    648.558   1047.646    627.121    627.121
 27.970   1399.411   1372.242     27.169    626.857    661.006   1337.982    626.857    626.857
 28.070   2147.905   2073.132     74.772    626.596    689.962   2009.515    626.596    626.596
 28.170   3230.000   3464.643   -234.643    626.338    747.557   3342.920    626.338    626.338
 28.270   5350.000   5629.305   -279.305    626.084    837.237   5417.340    626.084    626.084
 28.370   7958.000   8028.224    -70.224    625.833    936.771   7716.305    625.833    625.833
 28.470   9356.000   9415.161    -59.161    625.586    994.759   9045.217    625.586    625.586
 28.570   8972.000   8830.876    141.124    625.342    971.930   8484.053    625.342    625.342
 28.670   7004.715   6885.923    118.792    625.101    894.485   6616.724    625.101    625.101
 28.770   5042.000   4975.744     66.256    624.864    821.780   4779.120    624.864    624.864
 28.870   3989.341   4015.706    -26.366    624.630    793.384   3847.166    624.630    624.630
 28.970   4018.000   4112.439    -94.439    624.399    813.747   3923.221    624.399    624.399
 29.070   4841.000   4777.390     63.610    624.171    858.757   4542.962    624.171    624.171
 29.170   5249.000   5233.724     15.276    623.947    887.807   4970.179    623.947    623.947
 29.270   4960.000   4909.241     50.759    623.726    870.261   4663.202    623.726    623.726
 29.370   3954.426   3932.751     21.675    623.508    814.517   3742.280    623.508    623.508
 29.470   2721.000   2818.343    -97.343    623.293    750.576   2691.496    623.293    623.293
 29.570   1824.000   1935.578   -111.578    623.082    699.890   1859.057    623.082    623.082
 29.670   1390.000   1380.826      9.174    622.874    668.075   1335.787    622.874    622.874
 29.770   1116.000   1084.074     31.926    622.669    651.121   1055.706    622.669    622.669
 29.870    986.245    937.043     49.202    622.466    642.798    916.755    622.466    622.466
 29.970    828.939    861.091    -32.152    622.268    638.584    844.801    622.268    622.268
 30.070    893.000    816.002     76.998    622.072    636.176    801.914    622.072    622.072
 30.170    785.538    785.234      0.305    621.879    634.642    772.483    621.879    621.879
 30.270    782.000    762.527     19.473    621.689    633.654    750.572    621.689    621.689
 30.370    783.000    745.330     37.670    621.503    633.132    733.707    621.503    621.503
