neutron_powder_diffraction_0174
R_wp: 3.969
Temperature (K): 1074.000
Counts: 83396.00
Wavelength (Ã…): 2.52098
COMMENTS
Test file for demonstrating the .xyy file format in Reel1.0
END OF HEADER
   tth       Y_obs     Y_calc      Y_res    Background    Phase_1_Nuc    Phase_1_Mag    Phase_2_Nuc    Phase_2_Mag
  9.970    617.000    570.971     46.029    570.274    570.915    570.274    570.331    570.274
 10.070    606.370    571.129     35.241    570.377    571.072    570.377    570.433    570.377
 10.170    592.000    571.288     20.712    570.473    571.231    570.473    570.530    570.473
 10.270    574.000    571.451      2.549    570.563    571.394    570.563    570.620    570.563
 10.370    602.000    571.619     30.381    570.647    571.562    570.647    570.704    570.647
 10.470    562.788    571.796     -9.008    570.725    571.738    570.725    570.782    570.725
 10.570    618.000    571.985     46.015    570.797    571.927    570.797    570.855    570.797
 10.670    615.000    572.191     42.809    570.863    572.132    570.863    570.921    570.863
 10.770    593.000    572.420     20.580    570.923    572.361    570.923    570.981    570.923
 10.870    579.000    572.680      6.320    570.977    572.620    570.977    571.036    570.977
 10.970    584.824    572.984     11.840    571.025    572.924    571.025    571.084    571.025
 11.070    540.000    573.348    -33.348    571.068    573.288    571.068    571.127    571.068
 11.170    555.767    573.799    -18.032    571.105    573.738    571.105    571.165    571.105
 11.270    606.000    574.375     31.625    571.137    574.313    571.137    571.196    571.137
 11.370    556.398    575.140    -18.742    571.163    575.078    571.163    571.223    571.163
 11.470    581.000    576.239      4.761    571.183    576.175    571.183    571.245    571.183
 11.570    557.181    578.077    -20.896    571.198    578.011    571.198    571.260    571.198
 11.670    614.000    581.828     32.172    571.207    581.760    571.207    571.270    571.207
 11.770    617.000    590.282     26.718    571.212    590.209    571.212    571.274    571.212
 11.870    653.000    608.026     44.974    571.211    607.943    571.211    571.273    571.211
 11.970    654.000    638.712     15.288    571.204    638.612    571.204    571.267    571.204
 12.070    634.000    678.442    -44.442    571.193    678.320    571.193    571.256    571.193
 12.170    696.000    709.774    -13.774    571.176    709.635    571.176    571.240    571.176
 12.270    692.543    710.777    -18.234    571.154    710.637    571.154    571.218    571.154
 12.370    671.000    680.524     -9.524    571.128    680.400    571.128    571.192    571.128
 12.470    632.910    640.563     -7.654    571.096    640.461    571.096    571.161    571.096
 12.570    613.981    609.123      4.858    571.059    609.037    571.059    571.124    571.059
 12.670    572.194    590.717    -18.523    571.018    590.641    571.018    571.083    571.018
 12.770    542.000    581.876    -39.876    570.972    581.805    570.972    571.037    570.972
 12.870    588.000    577.939     10.061    570.921    577.869    570.921    570.986    570.921
 12.970    553.375    576.008    -22.633    570.865    575.939    570.865    570.931    570.865
 13.070    570.346    574.849     -4.503    570.804    574.781    570.804    570.871    570.804
 13.170    614.068    574.036     40.032    570.739    573.968    570.739    570.806    570.739
 13.270    564.000    573.419     -9.419    570.670    573.350    570.670    570.737    570.670
 13.370    577.000    572.928      4.072    570.596    572.860    570.596    570.663    570.596
 13.470    583.000    572.527     10.473    570.517    572.458    570.517    570.585    570.517
 13.570    590.674    572.188     18.486    570.434    572.119    570.434    570.502    570.434
 13.670    598.856    571.896     26.960    570.347    571.827    570.347    570.415    570.347
 13.770    535.158    571.639    -36.481    570.255    571.570    570.255    570.324    570.255
 13.870    523.000    571.405    -48.405    570.159    571.335    570.159    570.228    570.159
 13.970    578.149    571.190      6.960    570.059    571.120    570.059    570.129    570.059
 14.070    577.530    570.988      6.542    569.955    570.918    569.955    570.025    569.955
 14.170    579.292    570.797      8.495    569.846    570.727    569.846    569.917    569.846
 14.270    562.000    570.615     -8.615    569.734    570.544    569.734    569.804    569.734
 14.370    581.887    570.440     11.446    569.617    570.369    569.617    569.688    569.617
 14.470    536.000    570.269    -34.269    569.497    570.197    569.497    569.568    569.497
 14.570    554.000    570.099    -16.099    569.372    570.027    569.372    569.444    569.372
 14.670    534.010    569.935    -35.925    569.244    569.858    569.244    569.321    569.244
 14.770    549.000    569.769    -20.769    569.112    569.690    569.112    569.191    569.112
 14.870    568.000    569.602     -1.602    568.976    569.523    568.976    569.055    568.976
 14.970    573.000    569.435      3.565    568.836    569.355    568.836    568.916    568.836
 15.070    535.712    569.267    -33.555    568.693    569.187    568.693    568.773    568.693
 15.170    594.000    569.099     24.901    568.546    569.018    568.546    568.626    568.546
 15.270    532.155    568.929    -36.773    568.395    568.848    568.395    568.476    568.395
 15.370    583.000    568.757     14.243    568.241    568.676    568.241    568.322    568.241
 15.470    539.000    568.584    -29.584    568.083    568.502    568.083    568.165    568.083
 15.570    567.640    568.409     -0.769    567.922    568.327    567.922    568.004    567.922
 15.670    607.796    568.232     39.564    567.758    568.149    567.758    567.840    567.758
 15.770    577.000    568.053      8.947    567.590    567.970    567.590    567.673    567.590
 15.870    554.000    567.872    -13.872    567.418    567.788    567.418    567.502    567.418
 15.970    604.478    567.688     36.790    567.244    567.604    567.244    567.328    567.244
 16.070    547.000    567.502    -20.502    567.066    567.418    567.066    567.150    567.066
 16.170    536.315    567.314    -30.999    566.885    567.229    566.885    566.970    566.885
 16.270    550.000    567.124    -17.124    566.700    567.038    566.700    566.786    566.700
 16.370    539.000    566.931    -27.931    566.513    566.844    566.513    566.599    566.513
 16.470    553.602    566.735    -13.133    566.323    566.649    566.323    566.409    566.323
 16.570    604.311    566.538     37.773    566.129    566.451    566.129    566.216    566.129
 16.670    545.567    566.338    -20.771    565.933    566.250    565.933    566.020    565.933
 16.770    564.000    566.135     -2.135    565.733    566.047    565.733    565.821    565.733
 16.870    559.000    565.933     -6.933    565.531    565.844    565.531    565.620    565.531
 16.970    550.000    565.726    -15.726    565.326    565.636    565.326    565.415    565.326
 17.070    553.000    565.516    -12.516    565.118    565.426    565.118    565.207    565.118
 17.170    532.000    565.304    -33.304    564.907    565.213    564.907    564.997    564.907
 17.270    554.704    565.089    -10.385    564.693    564.998    564.693    564.784    564.693
 17.370    570.000    564.872      5.128    564.477    564.780    564.477    564.568    564.477
 17.470    561.033    564.653     -3.619    564.258    564.561    564.258    564.350    564.258
 17.570    552.000    564.431    -12.431    564.036    564.339    564.036    564.129    564.036
 17.670    568.000    564.208      3.792    563.812    564.114    563.812    563.906    563.812
 17.770    571.116    563.982      7.134    563.585    563.888    563.585    563.680    563.585
 17.870    604.293    563.754     40.539    563.356    563.659    563.356    563.451    563.356
 17.970    528.000    563.524    -35.524    563.125    563.429    563.125    563.220    563.125
 18.070    553.000    563.292    -10.292    562.891    563.196    562.891    562.987    562.891
 18.170    531.000    563.057    -32.057    562.654    562.961    562.654    562.751    562.654
 18.270    561.000    562.821     -1.821    562.415    562.723    562.415    562.513    562.415
 18.370    559.000    562.583     -3.583    562.174    562.485    562.174    562.272    562.174
 18.470    544.182    562.343    -18.162    561.931    562.245    561.931    562.029    561.931
 18.570    578.256    562.101     16.155    561.685    562.001    561.685    561.785    561.685
 18.670    544.000    561.856    -17.856    561.437    561.756    561.437    561.537    561.437
 18.770    589.111    561.610     27.500    561.187    561.509    561.187    561.288    561.187
 18.870    606.695    561.362     45.333    560.935    561.260    560.935    561.037    560.935
 18.970    571.000    561.112      9.888    560.681    561.009    560.681    560.783    560.681
 19.070    591.000    560.860     30.140    560.425    560.757    560.425    560.528    560.425
 19.170    558.176    560.607     -2.431    560.166    560.503    560.166    560.270    560.166
 19.270    556.000    560.353     -4.353    559.906    560.248    559.906    560.011    559.906
 19.370    592.627    560.110     32.517    559.644    560.004    559.644    559.750    559.644
 19.470    602.499    559.862     42.637    559.380    559.755    559.380    559.486    559.380
 19.570    532.000    559.603    -27.603    559.114    559.496    559.114    559.222    559.114
 19.670    577.775    559.344     18.431    558.846    559.234    558.846    558.957    558.846
 19.770    579.222    559.083     20.140    558.576    558.970    558.576    558.689    558.576
 19.870    535.369    558.819    -23.450    558.305    558.705    558.305    558.418    558.305
 19.970    575.000    558.554     16.446    558.032    558.439    558.032    558.146    558.032
 20.070    558.267    558.287     -0.020    557.757    558.172    557.757    557.873    557.757
 20.170    538.947    558.020    -19.073    557.481    557.903    557.481    557.597    557.481
 20.270    564.000    557.751      6.249    557.203    557.634    557.203    557.320    557.203
 20.370    538.000    557.481    -19.481    556.923    557.363    556.923    557.042    556.923
 20.470    544.000    557.211    -13.211    556.642    557.091    556.642    556.762    556.642
 20.570    610.000    556.939     53.061    556.359    556.818    556.359    556.480    556.359
 20.670    562.023    556.667      5.356    556.075    556.545    556.075    556.197    556.075
 20.770    575.000    556.402     18.598    555.789    556.279    555.789    555.913    555.789
 20.870    591.000    556.216     34.784    555.502    556.091    555.502    555.627    555.502
 20.970    599.580    555.964     43.616    555.214    555.838    555.214    555.340    555.214
 21.070    570.000    555.691     14.309    554.924    555.564    554.924    555.051    554.924
 21.170    524.000    555.416    -31.416    554.633    555.287    554.633    554.761    554.633
 21.270    562.000    555.140      6.860    554.341    555.011    554.341    554.470    554.341
 21.370    542.352    554.865    -12.513    554.047    554.734    554.047    554.178    554.047
 21.470    540.748    554.589    -13.842    553.752    554.457    553.752    553.884    553.752
 21.570    572.000    554.316     17.684    553.456    554.182    553.456    553.590    553.456
 21.670    558.000    554.066      3.934    553.159    553.931    553.159    553.294    553.159
 21.770    572.740    553.827     18.913    552.860    553.690    552.860    552.997    552.860
 21.870    507.977    553.558    -45.580    552.561    553.419    552.561    552.699    552.561
 21.970    565.000    553.285     11.715    552.260    553.145    552.260    552.401    552.260
 22.070    596.060    553.015     43.045    551.959    552.873    551.959    552.101    551.959
 22.170    563.111    552.750     10.361    551.656    552.607    551.656    551.800    551.656
 22.270    541.337    552.529    -11.192    551.353    552.384    551.353    551.498    551.353
 22.370    554.000    552.284      1.716    551.048    552.137    551.048    551.196    551.048
 22.470    596.000    552.025     43.975    550.743    551.876    550.743    550.892    550.743
 22.570    553.575    551.768      1.806    550.436    551.617    550.436    550.588    550.436
 22.670    508.558    551.516    -42.959    550.129    551.363    550.129    550.283    550.129
 22.770    581.000    551.270     29.730    549.821    551.115    549.821    549.977    549.821
 22.870    550.000    551.032     -1.032    549.512    550.874    549.512    549.670    549.512
 22.970    542.000    550.802     -8.802    549.203    550.642    549.203    549.363    549.203
 23.070    551.492    550.583      0.909    548.892    550.420    548.892    549.055    548.892
 23.170    550.000    550.377     -0.377    548.581    550.212    548.581    548.747    548.581
 23.270    562.874    550.189     12.685    548.270    550.022    548.270    548.438    548.270
 23.370    533.000    550.024    -17.024    547.957    549.854    547.957    548.128    547.957
 23.470    554.000    549.887      4.113    547.644    549.714    547.644    547.818    547.644
 23.570    515.000    549.788    -34.788    547.331    549.612    547.331    547.507    547.331
 23.670    537.000    549.740    -12.740    547.017    549.562    547.017    547.196    547.017
 23.770    521.000    549.764    -28.764    546.702    549.583    546.702    546.885    546.702
 23.870    555.000    549.888      5.112    546.387    549.704    546.387    546.573    546.387
 23.970    593.000    550.170     42.830    546.071    549.982    546.071    546.261    546.071
 24.070    551.000    550.746      0.254    545.755    550.555    545.755    545.948    545.755
 24.170    513.211    552.003    -38.792    545.438    551.810    545.438    545.635    545.438
 24.270    576.000    554.962     21.038    545.121    554.767    545.121    545.322    545.121
 24.370    590.000    561.707     28.293    544.803    561.513    544.803    545.009    544.803
 24.470    585.000    575.051      9.949    544.486    574.862    544.486    544.696    544.486
 24.570    621.210    596.271     24.939    544.167    596.092    544.167    544.382    544.167
 24.670    642.000    621.151     20.849    543.849    620.987    543.849    544.069    543.849
 24.770    618.000    637.516    -19.516    543.530    637.358    543.530    543.756    543.530
 24.870    598.248    633.524    -35.276    543.211    633.358    543.211    543.442    543.211
 24.970    653.859    612.368     41.491    542.892    612.181    542.892    543.129    542.892
 25.070    656.000    587.405     68.595    542.573    587.193    542.573    542.816    542.573
 25.170    575.000    568.167      6.833    542.253    567.935    542.253    542.503    542.253
 25.270    586.000    556.684     29.316    541.933    556.436    541.933    542.190    541.933
 25.370    553.000    550.874      2.126    541.613    550.615    541.613    541.878    541.613
 25.470    566.000    548.074     17.926    541.293    547.804    541.293    541.566    541.293
 25.570    544.000    546.569     -2.569    540.973    546.290    540.973    541.254    540.973
 25.670    556.310    545.603     10.707    540.653    545.314    540.653    540.944    540.653
 25.770    578.000    544.895     33.105    540.333    544.596    540.333    540.633    540.333
 25.870    576.252    544.320     31.932    540.012    544.010    540.012    540.324    540.012
 25.970    579.379    543.846     35.533    539.692    543.524    539.692    540.015    539.692
 26.070    522.000    543.454    -21.454    539.372    543.119    539.372    539.707    539.372
 26.170    541.000    543.151     -2.151    539.052    542.803    539.052    539.400    539.052
 26.270    561.000    542.905     18.095    538.732    542.542    538.732    539.095    538.732
 26.370    534.539    542.691     -8.152    538.412    542.313    538.412    538.791    538.412
 26.470    555.000    542.521     12.479    538.092    542.125    538.092    538.488    538.092
 26.570    581.353    542.404     38.949    537.772    541.989    537.772    538.187    537.772
 26.670    611.000    542.346     68.654    537.453    541.910    537.453    537.888    537.453
 26.770    546.360    542.358      4.002    537.133    541.899    537.133    537.592    537.133
 26.870    508.000    542.462    -34.462    536.814    541.978    536.814    537.298    536.814
 26.970    503.800    542.679    -38.879    536.495    542.167    536.495    537.007    536.495
 27.070    544.908    543.001      1.907    536.176    542.458    536.176    536.719    536.176
 27.170    554.923    543.488     11.435    535.858    542.910    535.858    536.435    535.858
 27.270    567.380    544.200     23.180    535.540    543.583    535.540    536.156    535.540
 27.370    591.000    545.229     45.771    535.222    544.568    535.222    535.881    535.222
 27.470    511.296    546.742    -35.446    534.905    546.032    534.905    535.613    534.905
 27.570    502.000    549.179    -47.179    534.588    548.412    534.588    535.352    534.588
 27.670    656.000    554.032    101.968    534.271    553.199    534.271    535.100    534.271
 27.770    564.000    566.085     -2.085    533.954    565.174    533.954    534.857    533.954
 27.870    624.000    596.836     27.164    533.638    595.829    533.638    534.627    533.638
 27.970    613.775    663.198    -49.423    533.323    662.070    533.323    534.412    533.323
 28.070    750.000    771.535    -21.535    533.008    770.259    533.008    534.215    533.008
 28.170    858.649    891.226    -32.577    532.693    889.785    532.693    534.041    532.693
 28.270    983.000    950.199     32.801    532.379    948.592    532.379    533.895    532.379
 28.370    906.145    900.939      5.206    532.066    899.160    532.066    533.788    532.066
 28.470    764.367    794.372    -30.006    531.753    792.370    531.753    533.730    531.753
 28.570    689.000    711.506    -22.506    531.440    709.191    531.440    533.744    531.440
 28.670    658.764    694.547    -35.783    531.128    691.798    531.128    533.864    531.128
 28.770    698.054    739.379    -41.325    530.817    736.033    530.817    534.146    530.817
 28.870    770.126    807.045    -36.919    530.506    802.863    530.506    534.678    530.506
 28.970    804.324    838.911    -34.586    530.196    833.522    530.196    535.588    530.196
 29.070    838.674    800.119     38.555    529.886    792.981    529.886    537.039    529.886
 29.170    721.000    720.781      0.219    529.577    711.173    529.577    539.198    529.577
 29.270    632.000    647.513    -15.513    529.269    634.602    529.269    542.188    529.269
 29.370    656.000    601.526     54.474    528.962    584.518    528.962    545.973    528.962
 29.470    550.223    580.456    -30.233    528.655    558.955    528.655    550.155    528.655
 29.570    568.464    573.055     -4.591    528.349    547.684    528.349    553.718    528.349
 29.670    627.000    569.742     57.258    528.044    542.621    528.044    555.162    528.044
 29.770    535.646    565.751    -30.104    527.739    539.887    527.739    553.600    527.739
 29.870    572.000    560.375     11.625    527.435    538.106    527.435    549.701    527.435
 29.970    569.000    554.664     14.336    527.132    536.850    527.132    544.944    527.132
 30.070    575.000    549.598     25.402    526.830    535.979    526.830    540.447    526.830
 30.170    593.000    545.639     47.361    526.529    535.465    526.529    536.700    526.529
 30.270    601.000    542.985     58.015    526.228    535.422    526.228    533.789    526.228
 30.370    516.000    541.983    -25.983    525.929    536.294    525.929    531.614    525.929
