neutron_powder_diffraction_0033
R_wp: 3.768
Temperature (K): 558.451
Counts: 83609.00
Wavelength (Ã…): 2.52098
COMMENTS
Test file for demonstrating the .xyy file format in Reel1.0
END OF HEADER
   tth       Y_obs     Y_calc      Y_res    Background    Phase_1_Nuc    Phase_1_Mag    Phase_2_Nuc    Phase_2_Mag
  9.970    711.000    703.560      7.440    702.019    703.019    702.560    702.019    702.019
 10.070    700.000    702.664     -2.664    701.037    702.117    701.583    701.037    701.037
 10.170    667.855    701.783    -33.928    700.059    701.231    700.611    700.059    700.059
 10.270    783.000    700.921     82.079    699.085    700.362    699.643    699.085    699.085
 10.370    720.000    700.078     19.922    698.116    699.513    698.680    698.116    698.116
 10.470    711.000    699.260     11.740    697.151    698.689    697.722    697.151    697.151
 10.570    680.000    698.470    -18.470    696.191    697.892    696.767    696.191    696.191
 10.670    733.000    697.713     35.287    695.235    697.130    695.818    695.235    695.235
 10.770    688.000    696.999     -8.999    694.283    696.408    694.872    694.283    694.283
 10.870    708.228    696.335     11.893    693.336    695.738    693.931    693.336    693.336
 10.970    697.000    695.737      1.263    692.393    695.133    692.995    692.393    692.393
 11.070    697.000    695.222      1.778    691.454    694.611    692.063    691.454    691.454
 11.170    721.018    694.818     26.201    690.520    694.200    691.136    690.520    690.520
 11.270    668.856    694.564    -25.708    689.590    693.938    690.213    689.590    689.590
 11.370    724.000    694.523     29.477    688.665    693.890    689.295    688.665    688.665
 11.470    705.440    694.816     10.624    687.743    694.175    688.381    687.743    687.743
 11.570    746.000    695.706     50.294    686.826    695.057    687.471    686.826    686.826
 11.670    793.000    697.797     95.203    685.914    697.138    686.566    685.914    685.914
 11.770    752.000    702.337     49.663    685.006    701.668    685.666    685.006    685.006
 11.870    801.000    711.414     89.586    684.102    710.731    684.770    684.102    684.102
 11.970    713.523    727.461    -13.937    683.202    726.760    683.878    683.202    683.202
 12.070    733.796    751.533    -17.737    682.307    750.811    682.991    682.307    682.307
 12.170    818.000    780.173     37.827    681.416    779.425    682.108    681.416    681.416
 12.270    810.000    802.430      7.570    680.530    801.661    681.230    680.530    680.530
 12.370    836.000    804.347     31.653    679.647    803.568    680.356    679.647    679.647
 12.470    810.000    783.690     26.310    678.770    782.914    679.487    678.770    678.770
 12.570    778.000    753.311     24.689    677.896    752.543    678.622    677.896    677.896
 12.670    711.000    725.925    -14.925    677.026    725.163    677.762    677.026    677.026
 12.770    671.000    706.449    -35.449    676.161    705.688    676.906    676.161    676.161
 12.870    724.624    694.473     30.150    675.301    693.710    676.054    675.301    675.301
 12.970    667.202    687.471    -20.270    674.444    686.701    675.207    674.444    674.444
 13.070    635.000    683.274    -48.274    673.592    682.496    674.365    673.592    673.592
 13.170    642.452    680.466    -38.014    672.744    679.679    673.526    672.744    672.744
 13.270    685.000    678.338      6.662    671.900    677.543    672.693    671.900    671.900
 13.370    634.000    676.581    -42.581    671.061    675.775    671.864    671.061    671.061
 13.470    628.000    675.054    -47.054    670.226    674.239    671.039    670.226    670.226
 13.570    630.000    673.688    -43.688    669.395    672.862    670.218    669.395    669.395
 13.670    694.000    672.439     21.561    668.568    671.603    669.403    668.568    668.568
 13.770    650.000    671.279    -21.279    667.745    670.431    668.591    667.745    667.745
 13.870    663.000    670.186     -7.186    666.927    669.328    667.784    666.927    666.927
 13.970    691.543    669.151     22.392    666.113    668.281    666.982    666.113    666.113
 14.070    645.000    668.182    -23.182    665.303    667.300    666.184    665.303    665.303
 14.170    704.205    667.225     36.979    664.498    666.332    665.391    664.498    664.498
 14.270    716.706    666.295     50.411    663.697    665.389    664.602    663.697    663.697
 14.370    694.000    665.390     28.610    662.899    664.471    663.817    662.899    662.899
 14.470    708.870    664.505     44.364    662.106    663.574    663.037    662.106    662.106
 14.570    627.063    663.639    -36.576    661.318    662.695    662.261    661.318    661.318
 14.670    613.715    662.789    -49.074    660.533    661.832    661.490    660.533    660.533
 14.770    660.000    661.953     -1.953    659.753    660.983    660.723    659.753    659.753
 14.870    615.000    661.130    -46.130    658.977    660.146    659.961    658.977    658.977
 14.970    701.663    660.318     41.344    658.205    659.320    659.203    658.205    658.205
 15.070    673.332    659.517     13.814    657.437    658.505    658.449    657.437    657.437
 15.170    626.716    658.726    -32.010    656.673    657.698    657.700    656.673    656.673
 15.270    632.000    657.944    -25.944    655.914    656.901    656.956    655.914    655.914
 15.370    625.891    657.170    -31.279    655.158    656.112    656.216    655.158    655.158
 15.470    668.000    656.405     11.595    654.407    655.331    655.481    654.407    654.407
 15.570    665.862    655.646     10.215    653.660    654.556    654.750    653.660    653.660
 15.670    642.000    654.896    -12.896    652.917    653.789    654.023    652.917    652.917
 15.770    661.021    654.152      6.870    652.178    653.028    653.301    652.178    652.178
 15.870    697.000    653.414     43.586    651.443    652.274    652.584    651.443    651.443
 15.970    669.000    652.684     16.316    650.713    651.526    651.871    650.713    650.713
 16.070    669.000    651.964     17.036    649.986    650.787    651.163    649.986    649.986
 16.170    660.000    651.254      8.746    649.264    650.059    650.459    649.264    649.264
 16.270    634.000    650.543    -16.543    648.546    649.328    649.760    648.546    648.546
 16.370    616.774    649.836    -33.062    647.831    648.602    649.065    647.831    647.831
 16.470    637.000    649.136    -12.136    647.121    647.882    648.375    647.121    647.121
 16.570    641.000    648.441     -7.441    646.415    647.166    647.689    646.415    646.415
 16.670    611.204    647.751    -36.548    645.713    646.456    647.008    645.713    645.713
 16.770    641.000    647.068     -6.068    645.015    645.751    646.332    645.015    645.015
 16.870    617.350    646.389    -29.040    644.321    645.050    645.660    644.321    644.321
 16.970    628.000    645.716    -17.716    643.631    644.355    644.993    643.631    643.631
 17.070    603.000    645.049    -42.049    642.946    643.664    644.330    642.946    642.946
 17.170    666.000    644.387     21.613    642.264    642.979    643.672    642.264    642.264
 17.270    643.000    643.731     -0.731    641.586    642.298    643.019    641.586    641.586
 17.370    622.000    643.079    -21.079    640.912    641.621    642.370    640.912    640.912
 17.470    677.858    642.434     35.424    640.243    640.951    641.726    640.243    640.243
 17.570    646.000    641.810      4.190    639.577    640.300    641.087    639.577    639.577
 17.670    647.000    641.193      5.807    638.915    639.655    640.453    638.915    638.915
 17.770    604.021    640.608    -36.587    638.257    639.041    639.824    638.257    638.257
 17.870    625.000    640.017    -15.017    637.604    638.422    639.199    637.604    637.604
 17.970    658.890    639.406     19.484    636.954    637.781    638.579    636.954    636.954
 18.070    618.381    638.801    -20.420    636.308    637.146    637.963    636.308    636.308
 18.170    618.028    638.193    -20.165    635.666    636.507    637.353    635.666    635.666
 18.270    574.000    637.590    -63.590    635.028    635.871    636.747    635.028    635.028
 18.370    646.000    636.991      9.009    634.394    635.240    636.146    634.394    634.394
 18.470    662.929    636.398     26.531    633.764    634.613    635.550    633.764    633.764
 18.570    642.000    635.810      6.190    633.138    633.990    634.958    633.138    633.138
 18.670    655.000    635.228     19.772    632.516    633.372    634.372    632.516    632.516
 18.770    622.000    634.651    -12.651    631.898    632.758    633.791    631.898    631.898
 18.870    601.892    634.080    -32.187    631.284    632.149    633.214    631.284    631.284
 18.970    599.915    633.514    -33.598    630.673    631.543    632.643    630.673    630.673
 19.070    665.558    632.953     32.605    630.067    630.943    632.077    630.067    630.067
 19.170    612.000    632.398    -20.398    629.464    630.346    631.516    629.464    629.464
 19.270    591.330    631.850    -40.520    628.865    629.755    630.961    628.865    628.865
 19.370    642.870    631.316     11.554    628.270    629.175    630.411    628.270    628.270
 19.470    670.000    630.794     39.206    627.679    628.605    629.869    627.679    627.679
 19.570    615.269    630.326    -15.057    627.092    628.072    629.346    627.092    627.092
 19.670    607.132    629.807    -22.675    626.509    627.502    628.813    626.509    626.509
 19.770    586.000    629.288    -43.288    625.929    626.932    628.285    625.929    625.929
 19.870    590.612    628.775    -38.163    625.353    626.367    627.761    625.353    625.353
 19.970    647.000    628.268     18.732    624.782    625.805    627.244    624.782    624.782
 20.070    609.000    627.767    -18.767    624.214    625.249    626.732    624.214    624.214
 20.170    669.385    627.274     42.111    623.649    624.697    626.226    623.649    623.649
 20.270    574.000    626.790    -52.790    623.089    624.153    625.726    623.089    623.089
 20.370    582.000    626.311    -44.311    622.532    623.611    625.231    622.532    622.532
 20.470    672.972    625.852     47.121    621.979    623.087    624.743    621.979    621.979
 20.570    610.967    625.407    -14.440    621.430    622.573    624.265    621.430    621.430
 20.670    641.000    624.986     16.014    620.885    622.068    623.802    620.885    620.885
 20.770    598.000    624.542    -26.542    620.343    621.547    623.338    620.343    620.343
 20.870    582.000    624.102    -42.102    619.805    621.031    622.875    619.805    619.805
 20.970    656.977    623.714     33.264    619.271    620.564    622.420    619.271    619.271
 21.070    600.000    623.351    -23.351    618.741    620.120    621.972    618.741    618.741
 21.170    641.437    622.936     18.501    618.214    619.621    621.529    618.214    618.214
 21.270    645.710    622.526     23.184    617.691    619.123    621.094    617.691    617.691
 21.370    578.000    622.145    -44.145    617.172    618.651    620.667    617.172    617.172
 21.470    669.807    621.776     48.031    616.656    618.186    620.247    616.656    616.656
 21.570    583.440    621.396    -37.957    616.144    617.707    619.834    616.144    616.144
 21.670    598.000    621.027    -23.027    615.636    617.235    619.429    615.636    615.636
 21.770    610.000    620.676    -10.676    615.132    616.773    619.035    615.132    615.132
 21.870    644.000    620.331     23.669    614.631    616.312    618.649    614.631    614.631
 21.970    596.986    619.992    -23.006    614.133    615.855    618.270    614.133    614.133
 22.070    661.519    619.663     41.856    613.640    615.404    617.899    613.640    613.640
 22.170    631.499    619.345     12.153    613.150    614.958    617.537    613.150    613.150
 22.270    636.000    619.040     16.960    612.664    614.519    617.185    612.664    612.664
 22.370    604.000    618.750    -14.750    612.181    614.087    616.843    612.181    612.181
 22.470    623.000    618.474      4.526    611.702    613.664    616.512    611.702    611.702
 22.570    566.000    618.215    -52.215    611.226    613.251    616.191    611.226    611.226
 22.670    610.000    617.976     -7.976    610.754    612.849    615.881    610.754    610.754
 22.770    615.000    617.758     -2.758    610.286    612.459    615.584    610.286    610.286
 22.870    567.000    617.562    -50.562    609.821    612.083    615.301    609.821    609.821
 22.970    593.740    617.386    -23.646    609.360    611.717    615.028    609.360    609.360
 23.070    619.000    617.235      1.765    608.902    611.368    614.770    608.902    608.902
 23.170    616.000    617.116     -1.116    608.448    611.038    614.526    608.448    608.448
 23.270    604.000    617.028    -13.028    607.997    610.729    614.297    607.997    607.997
 23.370    567.000    616.979    -49.979    607.550    610.446    614.084    607.550    607.550
 23.470    640.000    616.974     23.026    607.107    610.194    613.888    607.107    607.107
 23.570    629.000    617.023     11.977    606.666    609.981    613.710    606.666    606.666
 23.670    577.000    617.137    -40.137    606.230    609.817    613.551    606.230    606.230
 23.770    617.798    617.331      0.467    605.797    609.715    613.413    605.797    605.797
 23.870    629.000    617.626     11.374    605.367    609.696    613.298    605.367    605.367
 23.970    609.000    618.053     -9.053    604.941    609.790    613.206    604.941    604.941
 24.070    598.000    618.664    -20.664    604.518    610.045    613.139    604.518    604.518
 24.170    626.000    619.561      6.439    604.099    610.562    613.100    604.099    604.099
 24.270    602.336    620.963    -18.628    603.683    611.561    613.090    603.683    603.683
 24.370    588.000    623.348    -35.348    603.271    613.512    613.111    603.271    603.271
 24.470    648.000    627.610     20.390    602.862    617.312    613.168    602.862    602.862
 24.570    672.626    635.086     37.541    602.456    624.293    613.262    602.456    602.456
 24.670    663.329    647.122     16.206    602.054    635.800    613.398    602.054    602.054
 24.770    674.000    663.949     10.051    601.655    652.058    613.579    601.655    601.655
 24.870    718.000    682.874     35.126    601.259    670.371    613.809    601.259    601.259
 24.970    723.000    696.856     26.144    600.867    683.685    614.095    600.867    600.867
 25.070    651.988    697.902    -45.914    600.479    683.997    614.441    600.479    600.479
 25.170    686.000    685.537      0.463    600.093    670.824    614.854    600.093    600.093
 25.270    658.000    667.500     -9.500    599.711    651.904    615.342    599.711    599.711
 25.370    698.000    651.216     46.784    599.332    634.656    615.914    599.332    599.332
 25.470    613.000    639.710    -26.710    598.957    622.100    616.581    598.957    598.957
 25.570    670.000    632.922     37.078    598.585    614.161    617.354    598.585    598.585
 25.670    651.000    629.556     21.444    598.216    609.529    618.248    598.216    598.216
 25.770    617.000    628.268    -11.268    597.850    606.843    619.279    597.850    597.850
 25.870    628.168    628.147      0.020    597.488    605.170    620.467    597.488    597.488
 25.970    657.589    628.719     28.870    597.129    604.012    621.837    597.129    597.129
 26.070    586.000    629.781    -43.781    596.773    603.139    623.415    596.773    596.773
 26.170    586.747    631.266    -44.519    596.421    602.449    625.238    596.421    596.421
 26.270    625.000    633.166     -8.166    596.072    601.890    627.347    596.072    596.072
 26.370    624.000    635.506    -11.506    595.726    601.436    629.794    595.726    595.726
 26.470    634.000    638.336     -4.336    595.383    601.072    632.645    595.383    595.383
 26.570    634.000    641.735     -7.735    595.043    600.794    635.982    595.043    595.043
 26.670    683.731    645.785     37.946    594.707    600.588    639.902    594.707    594.707
 26.770    608.000    650.624    -42.624    594.373    600.456    644.538    594.373    594.373
 26.870    688.000    656.432     31.568    594.043    600.407    650.064    594.043    594.043
 26.970    674.000    663.446     10.554    593.716    600.451    656.707    593.716    593.716
 27.070    659.082    671.988    -12.906    593.393    600.603    664.771    593.393    593.393
 27.170    653.000    682.499    -29.499    593.072    600.888    674.676    593.072    593.072
 27.270    696.000    695.599      0.401    592.754    601.339    687.006    592.754    592.754
 27.370    707.609    712.182     -4.573    592.440    602.007    702.604    592.440    592.440
 27.470    741.000    733.607      7.393    592.129    602.971    722.751    592.129    592.129
 27.570    745.463    762.223    -16.760    591.820    604.364    749.661    591.820    591.820
 27.670    829.797    803.328     26.469    591.515    606.489    788.329    591.515    591.515
 27.770    840.000    872.289    -32.289    591.213    610.218    853.241    591.213    591.213
 27.870   1052.506   1014.329     38.177    590.914    618.115    987.041    590.914    590.914
 27.970   1349.000   1339.357      9.643    590.618    636.401   1293.386    590.618    590.618
 28.070   2123.903   2038.311     85.593    590.325    675.887   1952.378    590.325    590.325
 28.170   3211.781   3293.041    -81.259    590.036    746.879   3135.593    590.036    590.036
 28.270   5003.851   5026.390    -22.539    589.749    845.060   4770.313    589.749    589.749
 28.370   6700.000   6645.582     54.418    589.465    937.008   6297.352    589.465    589.465
 28.470   7309.000   7200.583    108.417    589.184    969.241   6820.157    589.184    589.184
 28.570   6477.000   6302.723    174.277    588.906    920.371   5971.175    588.906    588.906
 28.670   4882.000   4738.258    143.742    588.631    836.095   4490.815    588.631    588.631
 28.770   3566.000   3517.247     48.753    588.359    775.363   3330.232    588.359    588.359
 28.870   3129.000   3102.486     26.514    588.090    765.752   2924.752    588.090    588.090
 28.970   3505.000   3387.812    117.188    587.824    800.101   3175.467    587.824    587.824
 29.070   3777.770   3903.341   -125.572    587.561    845.979   3644.970    587.561    587.561
 29.170   4118.000   4064.925     53.075    587.301    860.860   3791.579    587.301    587.301
 29.270   3709.388   3589.866    119.522    587.044    824.175   3353.029    587.044    587.044
 29.370   2703.000   2751.592    -48.592    586.790    758.276   2580.367    586.790    586.790
 29.470   1924.000   1950.502    -26.502    586.538    695.132   1842.087    586.538    586.538
 29.570   1315.000   1381.883    -66.883    586.290    650.313   1317.962    586.290    586.290
 29.670   1075.019   1052.399     22.620    586.044    624.390   1014.103    586.044    586.044
 29.770    946.000    884.854     61.146    585.801    611.274    859.406    585.801    585.801
 29.870    787.425    801.726    -14.301    585.561    604.838    782.461    585.561    585.561
 29.970    746.792    756.117     -9.325    585.324    601.384    740.063    585.324    585.324
 30.070    780.802    726.898     53.904    585.089    599.259    712.732    585.089    585.089
 30.170    788.000    705.986     82.014    584.858    597.846    692.999    584.858    584.858
 30.270    728.000    690.281     37.719    584.629    596.943    677.967    584.629    584.629
 30.370    688.000    678.445      9.555    584.403    596.530    666.317    584.403    584.403
