neutron_powder_diffraction_0216
R_wp: 4.026
Temperature (K): 1074.100
Counts: 84220.00
Wavelength (Ã…): 2.52098
COMMENTS
Test file for demonstrating the .xyy file format in Reel1.0
END OF HEADER
   tth       Y_obs     Y_calc      Y_res    Background    Phase_1_Nuc    Phase_1_Mag    Phase_2_Nuc    Phase_2_Mag
  9.970    592.000    567.436     24.564    566.748    567.407    566.748    566.776    566.748
 10.070    604.408    567.662     36.746    566.914    567.634    566.914    566.942    566.914
 10.170    539.754    567.889    -28.135    567.073    567.859    567.073    567.103    567.073
 10.270    575.000    568.118      6.882    567.226    568.087    567.226    567.257    567.226
 10.370    531.096    568.353    -37.257    567.373    568.322    567.373    567.403    567.373
 10.470    559.765    568.597     -8.832    567.513    568.565    567.513    567.544    567.513
 10.570    580.000    568.853     11.147    567.647    568.820    567.647    567.679    567.647
 10.670    533.585    569.126    -35.541    567.774    569.093    567.774    567.806    567.774
 10.770    616.000    569.423     46.577    567.895    569.390    567.895    567.928    567.895
 10.870    618.173    569.755     48.419    568.010    569.720    568.010    568.044    568.010
 10.970    604.000    570.141     33.859    568.120    570.095    568.120    568.164    568.120
 11.070    585.000    570.581     14.419    568.223    570.534    568.223    568.269    568.223
 11.170    608.765    571.109     37.656    568.320    571.061    568.320    568.366    568.320
 11.270    539.921    571.766    -31.845    568.411    571.717    568.411    568.457    568.411
 11.370    584.730    572.621     12.108    568.496    572.573    568.496    568.543    568.496
 11.470    596.000    573.829     22.171    568.576    573.779    568.576    568.622    568.576
 11.570    561.182    575.808    -14.627    568.649    575.757    568.649    568.696    568.649
 11.670    622.000    579.730     42.270    568.717    579.676    568.717    568.765    568.717
 11.770    607.825    588.241     19.584    568.780    588.182    568.780    568.828    568.780
 11.870    656.000    605.505     50.495    568.836    605.430    568.836    568.890    568.836
 11.970    660.000    634.614     25.386    568.888    634.522    568.888    568.942    568.888
 12.070    641.000    671.744    -30.744    568.933    671.631    568.933    568.988    568.933
 12.170    647.000    700.833    -53.833    568.974    700.703    568.974    569.029    568.974
 12.270    713.000    701.810     11.190    569.009    701.680    569.009    569.064    569.009
 12.370    721.539    673.832     47.707    569.038    673.718    569.038    569.094    569.038
 12.470    580.000    636.620    -56.620    569.063    636.526    569.063    569.119    569.063
 12.570    618.000    606.943     11.057    569.082    606.866    569.082    569.138    569.082
 12.670    573.000    589.183    -16.183    569.096    589.115    569.096    569.152    569.096
 12.770    618.688    580.413     38.274    569.105    580.350    569.105    569.162    569.105
 12.870    595.765    576.419     19.346    569.109    576.358    569.109    569.166    569.109
 12.970    515.000    574.458    -59.458    569.107    574.397    569.107    569.165    569.107
 13.070    559.717    573.302    -13.585    569.101    573.242    569.101    569.159    569.101
 13.170    533.048    572.510    -39.462    569.090    572.450    569.090    569.148    569.090
 13.270    564.000    571.923     -7.923    569.074    571.863    569.074    569.133    569.074
 13.370    567.355    571.468     -4.113    569.054    571.408    569.054    569.112    569.054
 13.470    526.000    571.106    -45.106    569.028    571.046    569.028    569.087    569.028
 13.570    565.000    570.808     -5.808    568.998    570.748    568.998    569.057    568.998
 13.670    575.878    570.559      5.319    568.963    570.498    568.963    569.023    568.963
 13.770    537.100    570.345    -33.245    568.924    570.284    568.924    568.984    568.924
 13.870    565.508    570.159     -4.652    568.880    570.095    568.880    568.943    568.880
 13.970    563.000    569.991     -6.991    568.831    569.925    568.831    568.896    568.831
 14.070    561.000    569.837     -8.837    568.778    569.770    568.778    568.844    568.778
 14.170    579.000    569.693      9.307    568.721    569.626    568.721    568.787    568.721
 14.270    537.000    569.557    -32.557    568.659    569.491    568.659    568.726    568.659
 14.370    596.161    569.428     26.733    568.593    569.360    568.593    568.660    568.593
 14.470    559.000    569.303    -10.303    568.523    569.235    568.523    568.590    568.523
 14.570    606.194    569.183     37.011    568.448    569.115    568.448    568.516    568.448
 14.670    579.000    569.064      9.936    568.369    568.995    568.369    568.438    568.369
 14.770    584.000    568.944     15.056    568.287    568.875    568.287    568.356    568.287
 14.870    570.000    568.825      1.175    568.200    568.755    568.200    568.269    568.200
 14.970    533.000    568.705    -35.705    568.109    568.635    568.109    568.178    568.109
 15.070    500.000    568.584    -68.584    568.014    568.514    568.014    568.084    568.014
 15.170    553.000    568.463    -15.463    567.915    568.392    567.915    567.986    567.915
 15.270    613.175    568.339     44.836    567.812    568.268    567.812    567.883    567.812
 15.370    557.000    568.214    -11.214    567.706    568.143    567.706    567.777    567.706
 15.470    568.006    568.088     -0.082    567.595    568.016    567.595    567.667    567.595
 15.570    584.000    567.959     16.041    567.481    567.887    567.481    567.553    567.481
 15.670    588.583    567.829     20.754    567.364    567.756    567.364    567.436    567.364
 15.770    568.000    567.697      0.303    567.242    567.624    567.242    567.315    567.242
 15.870    595.665    567.562     28.103    567.117    567.488    567.117    567.190    567.117
 15.970    600.407    567.423     32.984    566.988    567.350    566.988    567.062    566.988
 16.070    510.000    567.283    -57.283    566.856    567.208    566.856    566.930    566.856
 16.170    554.187    567.139    -12.952    566.720    567.065    566.720    566.795    566.720
 16.270    520.260    566.994    -46.734    566.581    566.918    566.581    566.657    566.581
 16.370    567.000    566.846      0.154    566.439    566.769    566.439    566.516    566.439
 16.470    574.000    566.695      7.305    566.293    566.617    566.293    566.371    566.293
 16.570    544.000    566.541    -22.541    566.144    566.463    566.144    566.222    566.144
 16.670    539.000    566.385    -27.385    565.991    566.306    565.991    566.070    565.991
 16.770    558.000    566.225     -8.225    565.836    566.146    565.836    565.915    565.836
 16.870    564.445    566.063     -1.618    565.677    565.983    565.677    565.757    565.677
 16.970    563.000    565.899     -2.899    565.515    565.818    565.515    565.595    565.515
 17.070    561.379    565.731     -4.352    565.350    565.650    565.350    565.431    565.350
 17.170    557.300    565.562     -8.262    565.182    565.480    565.182    565.263    565.182
 17.270    589.000    565.391     23.609    565.010    565.309    565.010    565.092    565.010
 17.370    593.000    565.217     27.783    564.836    565.134    564.836    564.919    564.836
 17.470    550.503    565.039    -14.537    564.659    564.956    564.659    564.742    564.659
 17.570    568.446    564.859      3.587    564.479    564.775    564.479    564.563    564.479
 17.670    579.000    564.676     14.324    564.296    564.592    564.296    564.381    564.296
 17.770    556.000    564.491     -8.491    564.111    564.406    564.111    564.196    564.111
 17.870    566.000    564.303      1.697    563.922    564.218    563.922    564.008    563.922
 17.970    559.000    564.113     -5.113    563.731    564.027    563.731    563.817    563.731
 18.070    610.000    563.920     46.080    563.537    563.834    563.537    563.624    563.537
 18.170    521.756    563.725    -41.970    563.341    563.638    563.341    563.428    563.341
 18.270    576.000    563.528     12.472    563.142    563.440    563.142    563.230    563.142
 18.370    549.301    563.329    -14.028    562.940    563.240    562.940    563.029    562.940
 18.470    556.173    563.127     -6.955    562.736    563.038    562.736    562.826    562.736
 18.570    571.432    562.928      8.504    562.529    562.833    562.529    562.624    562.529
 18.670    521.000    562.724    -41.724    562.320    562.626    562.320    562.418    562.320
 18.770    592.000    562.517     29.483    562.109    562.418    562.109    562.207    562.109
 18.870    555.000    562.307     -7.307    561.895    562.208    561.895    561.994    561.895
 18.970    610.705    562.095     48.610    561.678    561.995    561.678    561.778    561.678
 19.070    504.000    561.881    -57.881    561.460    561.780    561.460    561.560    561.460
 19.170    554.000    561.665     -7.665    561.239    561.564    561.239    561.340    561.239
 19.270    587.000    561.447     25.553    561.016    561.345    561.016    561.118    561.016
 19.370    591.033    561.227     29.806    560.791    561.124    560.791    560.894    560.791
 19.470    550.000    561.005    -11.005    560.563    560.901    560.563    560.667    560.563
 19.570    525.000    560.781    -35.781    560.334    560.676    560.334    560.438    560.334
 19.670    520.000    560.556    -40.556    560.102    560.450    560.102    560.208    560.102
 19.770    553.000    560.330     -7.330    559.868    560.223    559.868    559.975    559.868
 19.870    542.566    560.115    -17.548    559.633    560.007    559.633    559.740    559.633
 19.970    590.313    559.894     30.419    559.395    559.786    559.395    559.503    559.395
 20.070    558.000    559.664     -1.664    559.155    559.554    559.155    559.265    559.155
 20.170    547.013    559.430    -12.418    558.914    559.320    558.914    559.024    558.914
 20.270    553.000    559.196     -6.196    558.671    559.085    558.671    558.782    558.671
 20.370    544.000    558.960    -14.960    558.425    558.848    558.425    558.538    558.425
 20.470    540.000    558.723    -18.723    558.178    558.610    558.178    558.292    558.178
 20.570    570.000    558.485     11.515    557.930    558.371    557.930    558.044    557.930
 20.670    588.000    558.246     29.754    557.679    558.130    557.679    557.795    557.679
 20.770    509.198    558.005    -48.808    557.427    557.889    557.427    557.544    557.427
 20.870    569.571    557.764     11.807    557.173    557.646    557.173    557.291    557.173
 20.970    571.000    557.522     13.478    556.917    557.403    556.917    557.037    556.917
 21.070    565.000    557.279      7.721    556.660    557.159    556.660    556.781    556.660
 21.170    562.712    557.036      5.677    556.402    556.914    556.402    556.523    556.402
 21.270    541.000    556.792    -15.792    556.142    556.669    556.142    556.265    556.142
 21.370    522.547    556.548    -34.001    555.880    556.423    555.880    556.004    555.880
 21.470    507.669    556.303    -48.634    555.617    556.178    555.617    555.742    555.617
 21.570    549.843    556.059     -6.216    555.352    555.932    555.352    555.479    555.352
 21.670    552.000    555.814     -3.814    555.086    555.686    555.086    555.215    555.086
 21.770    544.076    555.570    -11.493    554.819    555.440    554.819    554.949    554.819
 21.870    589.000    555.326     33.674    554.550    555.195    554.550    554.682    554.550
 21.970    582.557    555.084     27.473    554.280    554.950    554.280    554.413    554.280
 22.070    508.016    554.850    -46.834    554.009    554.715    554.009    554.144    554.009
 22.170    543.000    554.691    -11.691    553.736    554.554    553.736    553.873    553.736
 22.270    564.423    554.474      9.949    553.463    554.335    553.463    553.601    553.463
 22.370    535.164    554.243    -19.079    553.188    554.103    553.188    553.328    553.188
 22.470    582.922    554.035     28.887    552.912    553.893    552.912    553.054    552.912
 22.570    549.000    553.840     -4.840    552.634    553.694    552.634    552.781    552.634
 22.670    530.000    553.664    -23.664    552.356    553.515    552.356    552.506    552.356
 22.770    539.610    553.464    -13.854    552.077    553.313    552.077    552.228    552.077
 22.870    565.000    553.255     11.745    551.797    553.101    551.797    551.950    551.797
 22.970    586.000    553.053     32.947    551.515    552.897    551.515    551.671    551.515
 23.070    576.000    552.861     23.139    551.233    552.703    551.233    551.391    551.233
 23.170    547.000    552.684     -5.684    550.950    552.523    550.950    551.111    550.950
 23.270    543.000    552.524     -9.524    550.665    552.361    550.665    550.829    550.665
 23.370    534.000    552.389    -18.389    550.380    552.223    550.380    550.547    550.380
 23.470    533.000    552.280    -19.280    550.095    552.112    550.095    550.263    550.095
 23.570    545.000    552.209     -7.209    549.808    552.038    549.808    549.980    549.808
 23.670    561.000    552.190      8.810    549.520    552.016    549.520    549.695    549.520
 23.770    589.000    552.242     36.758    549.232    552.066    549.232    549.410    549.232
 23.870    551.000    552.397     -1.397    548.943    552.217    548.943    549.124    548.943
 23.970    564.000    552.711     11.289    548.653    552.528    548.653    548.838    548.653
 24.070    589.000    553.320     35.680    548.363    553.134    548.363    548.551    548.363
 24.170    535.586    554.602    -19.016    548.072    554.414    548.072    548.264    548.072
 24.270    602.000    557.536     44.464    547.780    557.345    547.780    547.976    547.780
 24.370    570.779    564.105      6.674    547.488    563.916    547.488    547.688    547.488
 24.470    615.000    576.970     38.030    547.195    576.785    547.195    547.399    547.195
 24.570    647.358    597.343     50.015    546.901    597.168    546.901    547.111    546.901
 24.670    562.000    621.215    -59.215    546.607    621.053    546.607    546.821    546.607
 24.770    672.000    636.950     35.050    546.313    636.794    546.313    546.532    546.313
 24.870    637.000    633.087      3.913    546.018    632.923    546.018    546.243    546.018
 24.970    571.000    612.750    -41.750    545.722    612.566    545.722    545.953    545.722
 25.070    567.944    588.805    -20.861    545.426    588.598    545.426    545.663    545.426
 25.170    576.000    570.340      5.660    545.130    570.114    545.130    545.374    545.130
 25.270    589.000    559.285     29.715    544.834    559.044    544.834    545.084    544.834
 25.370    595.000    553.650     41.350    544.537    553.398    544.537    544.794    544.537
 25.470    535.000    550.895    -15.895    544.239    550.632    544.239    544.505    544.239
 25.570    539.000    549.404    -10.404    543.942    549.132    543.942    544.216    543.942
 25.670    562.000    548.440     13.560    543.644    548.158    543.644    543.927    543.644
 25.770    575.000    547.722     27.278    543.346    547.431    543.346    543.639    543.346
 25.870    521.000    547.152    -26.152    543.047    546.850    543.047    543.351    543.047
 25.970    511.000    546.682    -35.682    542.749    546.368    542.749    543.064    542.749
 26.070    550.000    546.290      3.710    542.450    545.964    542.450    542.777    542.450
 26.170    553.000    545.963      7.037    542.151    545.623    542.151    542.491    542.151
 26.270    575.000    545.691     29.309    541.852    545.337    541.852    542.207    541.852
 26.370    589.921    545.468     44.453    541.553    545.099    541.553    541.923    541.553
 26.470    569.000    545.318     23.682    541.254    544.932    541.254    541.641    541.254
 26.570    501.000    545.214    -44.214    540.955    544.809    540.955    541.360    540.955
 26.670    591.924    545.144     46.780    540.656    544.718    540.656    541.081    540.656
 26.770    570.000    545.136     24.864    540.356    544.688    540.356    540.804    540.356
 26.870    540.000    545.211     -5.211    540.057    544.738    540.057    540.529    540.057
 26.970    530.000    545.378    -15.378    539.758    544.878    539.758    540.257    539.758
 27.070    569.000    545.645     23.355    539.459    545.115    539.459    539.988    539.459
 27.170    543.000    546.061     -3.061    539.160    545.496    539.160    539.723    539.160
 27.270    531.279    546.688    -15.409    538.860    546.085    538.860    539.462    538.860
 27.370    499.324    547.609    -48.285    538.562    546.963    538.562    539.206    538.562
 27.470    544.000    548.935     -4.935    538.263    548.240    538.263    538.956    538.263
 27.570    557.000    551.057      5.943    537.964    550.306    537.964    538.713    537.964
 27.670    571.826    555.315     16.511    537.666    554.500    537.666    538.478    537.666
 27.770    571.000    566.339      4.661    537.368    565.447    537.368    538.252    537.368
 27.870    602.000    596.082      5.918    537.070    595.096    537.070    538.039    537.070
 27.970    689.000    663.497     25.503    536.772    662.390    536.772    537.841    536.772
 28.070    795.000    777.385     17.615    536.474    776.128    536.474    537.660    536.474
 28.170    842.000    905.429    -63.429    536.177    904.005    536.177    537.503    536.177
 28.270    992.000    968.628     23.372    535.880    967.039    535.880    537.374    535.880
 28.370    936.657    914.822     21.834    535.583    913.064    535.583    537.282    535.583
 28.470    826.804    799.323     27.482    535.287    797.347    535.287    537.240    535.287
 28.570    700.000    710.386    -10.386    534.991    708.101    534.991    537.267    534.991
 28.670    692.000    692.981     -0.981    534.696    690.269    534.696    537.395    534.696
 28.770    704.118    741.466    -37.348    534.401    738.165    534.401    537.684    534.401
 28.870    759.000    813.869    -54.869    534.106    809.724    534.106    538.239    534.106
 28.970    805.000    848.215    -43.215    533.812    842.797    533.812    539.233    533.812
 29.070    771.000    808.045    -37.045    533.518    800.657    533.518    540.919    533.518
 29.170    687.000    725.702    -38.702    533.225    715.342    533.225    543.599    533.225
 29.270    649.000    650.878     -1.878    532.932    636.282    532.932    547.536    532.932
 29.370    635.000    605.766     29.234    532.639    585.630    532.639    552.778    532.639
 29.470    611.000    587.043     23.957    532.348    560.549    532.348    558.841    532.348
 29.570    589.000    582.058      6.942    532.056    549.863    532.056    564.250    532.056
 29.670    599.000    580.025     18.975    531.766    545.185    531.766    566.603    531.766
 29.770    532.457    575.602    -43.145    531.475    542.675    531.475    564.399    531.475
 29.870    598.816    568.638     30.178    531.186    541.037    531.186    558.784    531.186
 29.970    572.839    561.133     11.706    530.897    539.883    530.897    552.145    530.897
 30.070    518.610    554.612    -36.001    530.609    539.085    530.609    546.133    530.609
 30.170    567.596    549.680     17.915    530.321    538.619    530.321    541.381    530.321
 30.270    527.000    546.471    -19.471    530.034    538.591    530.034    537.912    530.034
 30.370    573.524    545.176     28.348    529.748    539.431    529.748    535.489    529.748
