neutron_powder_diffraction_0238
R_wp: 3.898
Temperature (K): 1013.186
Counts: 84110.00
Wavelength (Ã…): 2.52098
COMMENTS
Test file for demonstrating the .xyy file format in Reel1.0
END OF HEADER
   tth       Y_obs     Y_calc      Y_res    Background    Phase_1_Nuc    Phase_1_Mag    Phase_2_Nuc    Phase_2_Mag
  9.970    609.000    570.570     38.430    569.898    570.539    569.898    569.928    569.898
 10.070    573.533    570.711      2.822    569.981    570.681    569.981    570.011    569.981
 10.170    586.000    570.867     15.133    570.058    570.836    570.058    570.088    570.058
 10.270    589.000    571.020     17.980    570.129    570.989    570.129    570.159    570.129
 10.370    583.751    571.173     12.578    570.194    571.142    570.194    570.224    570.194
 10.470    596.000    571.335     24.665    570.253    571.304    570.253    570.283    570.253
 10.570    595.633    571.510     24.123    570.306    571.478    570.306    570.337    570.306
 10.670    595.000    571.703     23.297    570.353    571.671    570.353    570.384    570.353
 10.770    620.000    571.920     48.080    570.395    571.887    570.395    570.427    570.395
 10.870    582.000    572.171      9.829    570.431    572.137    570.431    570.464    570.431
 10.970    552.000    572.465    -20.465    570.461    572.431    570.461    570.495    570.461
 11.070    611.000    572.822     38.178    570.486    572.787    570.486    570.520    570.486
 11.170    527.612    573.266    -45.655    570.506    573.231    570.506    570.539    570.506
 11.270    572.000    573.838     -1.838    570.519    573.802    570.519    570.554    570.519
 11.370    611.000    574.602     36.398    570.528    574.565    570.528    570.562    570.528
 11.470    563.000    575.704    -12.704    570.531    575.666    570.531    570.566    570.531
 11.570    583.000    577.535      5.465    570.529    577.494    570.529    570.565    570.529
 11.670    601.000    581.170     19.830    570.522    581.120    570.522    570.566    570.522
 11.770    590.000    589.040      0.960    570.509    588.979    570.509    570.559    570.509
 11.870    655.000    605.063     49.937    570.491    604.994    570.491    570.542    570.491
 11.970    634.118    632.460      1.658    570.469    632.374    570.469    570.520    570.469
 12.070    673.574    668.357      5.217    570.441    668.252    570.441    570.492    570.441
 12.170    719.000    698.392     20.608    570.408    698.270    570.408    570.460    570.408
 12.270    742.426    702.568     39.858    570.371    702.443    570.371    570.422    570.371
 12.370    666.014    677.137    -11.123    570.328    677.026    570.328    570.380    570.328
 12.470    675.117    640.516     34.601    570.281    640.425    570.281    570.333    570.281
 12.570    615.000    610.203      4.797    570.229    610.124    570.229    570.285    570.229
 12.670    548.000    591.522    -43.522    570.172    591.451    570.172    570.231    570.172
 12.770    543.000    582.066    -39.066    570.110    581.999    570.110    570.170    570.110
 12.870    588.000    577.686     10.314    570.044    577.621    570.044    570.104    570.044
 12.970    592.000    575.518     16.482    569.973    575.454    569.973    570.034    569.973
 13.070    551.629    574.232    -22.603    569.898    574.169    569.898    569.959    569.898
 13.170    550.643    573.338    -22.695    569.818    573.275    569.818    569.880    569.818
 13.270    548.000    572.661    -24.661    569.734    572.598    569.734    569.796    569.734
 13.370    522.000    572.123    -50.123    569.646    572.060    569.646    569.708    569.646
 13.470    611.145    571.681     39.464    569.553    571.618    569.553    569.615    569.553
 13.570    635.000    571.309     63.691    569.456    571.245    569.456    569.519    569.456
 13.670    538.000    570.986    -32.986    569.355    570.922    569.355    569.418    569.355
 13.770    521.000    570.700    -49.700    569.249    570.636    569.249    569.313    569.249
 13.870    562.538    570.441     -7.903    569.140    570.377    569.140    569.203    569.140
 13.970    567.000    570.203     -3.203    569.026    570.139    569.026    569.090    569.026
 14.070    540.857    569.981    -29.124    568.908    569.916    568.908    568.973    568.908
 14.170    555.000    569.771    -14.771    568.787    569.706    568.787    568.851    568.787
 14.270    591.000    569.572     21.428    568.661    569.506    568.661    568.726    568.661
 14.370    564.351    569.377     -5.026    568.531    569.311    568.531    568.597    568.531
 14.470    556.000    569.187    -13.187    568.398    569.121    568.398    568.464    568.398
 14.570    547.000    569.002    -22.002    568.261    568.936    568.261    568.327    568.261
 14.670    558.208    568.822    -10.614    568.120    568.754    568.120    568.188    568.120
 14.770    571.285    568.642      2.643    567.975    568.571    567.975    568.046    567.975
 14.870    563.000    568.461     -5.461    567.827    568.389    567.827    567.899    567.827
 14.970    608.849    568.280     40.569    567.675    568.207    567.675    567.748    567.675
 15.070    550.899    568.098    -17.199    567.519    568.024    567.519    567.593    567.519
 15.170    534.000    567.915    -33.915    567.360    567.841    567.360    567.434    567.360
 15.270    555.000    567.732    -12.732    567.198    567.658    567.198    567.272    567.198
 15.370    581.000    567.548     13.452    567.032    567.472    567.032    567.107    567.032
 15.470    564.000    567.362     -3.362    566.862    567.286    566.862    566.938    566.862
 15.570    574.106    567.174      6.932    566.690    567.097    566.690    566.766    566.690
 15.670    545.000    566.984    -21.984    566.514    566.907    566.514    566.590    566.514
 15.770    587.434    566.792     20.641    566.334    566.715    566.334    566.411    566.334
 15.870    523.476    566.599    -43.123    566.152    566.521    566.152    566.229    566.152
 15.970    529.000    566.403    -37.403    565.966    566.325    565.966    566.044    565.966
 16.070    552.000    566.206    -14.206    565.777    566.127    565.777    565.856    565.777
 16.170    520.000    566.006    -46.006    565.585    565.927    565.585    565.664    565.585
 16.270    556.000    565.804     -9.804    565.390    565.724    565.390    565.470    565.390
 16.370    606.623    565.599     41.024    565.192    565.519    565.192    565.272    565.192
 16.470    544.000    565.393    -21.393    564.991    565.312    564.991    565.072    564.991
 16.570    622.000    565.184     56.816    564.787    565.103    564.787    564.868    564.787
 16.670    522.000    564.972    -42.972    564.580    564.891    564.580    564.662    564.580
 16.770    550.279    564.759    -14.480    564.371    564.677    564.371    564.453    564.371
 16.870    583.638    564.543     19.095    564.158    564.460    564.158    564.241    564.158
 16.970    582.000    564.325     17.675    563.943    564.242    563.943    564.026    563.943
 17.070    566.000    564.107      1.893    563.725    564.022    563.725    563.809    563.725
 17.170    562.000    563.887     -1.887    563.504    563.801    563.504    563.590    563.504
 17.270    550.000    563.662    -13.662    563.281    563.575    563.281    563.368    563.281
 17.370    555.000    563.435     -8.435    563.055    563.348    563.055    563.142    563.055
 17.470    540.000    563.206    -23.206    562.827    563.118    562.827    562.915    562.827
 17.570    583.310    562.974     20.336    562.596    562.886    562.596    562.684    562.596
 17.670    577.000    562.741     14.259    562.362    562.652    562.362    562.451    562.362
 17.770    605.914    562.505     43.409    562.126    562.416    562.126    562.216    562.126
 17.870    545.000    562.269    -17.269    561.888    562.179    561.888    561.978    561.888
 17.970    530.000    562.029    -32.029    561.647    561.939    561.647    561.738    561.647
 18.070    573.000    561.788     11.212    561.404    561.696    561.404    561.496    561.404
 18.170    604.491    561.544     42.947    561.159    561.451    561.159    561.251    561.159
 18.270    545.275    561.298    -16.023    560.911    561.205    560.911    561.004    560.911
 18.370    563.000    561.050      1.950    560.662    560.956    560.662    560.755    560.662
 18.470    557.000    560.800     -3.800    560.410    560.706    560.410    560.504    560.410
 18.570    578.000    560.549     17.451    560.155    560.454    560.155    560.250    560.155
 18.670    559.000    560.295     -1.295    559.899    560.200    559.899    559.995    559.899
 18.770    575.000    560.040     14.960    559.641    559.944    559.641    559.737    559.641
 18.870    595.000    559.783     35.217    559.380    559.686    559.380    559.478    559.380
 18.970    606.000    559.525     46.475    559.118    559.427    559.118    559.216    559.118
 19.070    576.076    559.265     16.811    558.854    559.166    558.854    558.953    558.854
 19.170    590.000    559.005     30.995    558.588    558.903    558.588    558.689    558.588
 19.270    545.000    558.746    -13.746    558.319    558.639    558.319    558.427    558.319
 19.370    514.000    558.482    -44.482    558.049    558.373    558.049    558.158    558.049
 19.470    531.811    558.222    -26.411    557.778    558.113    557.778    557.887    557.778
 19.570    567.000    557.972      9.028    557.504    557.861    557.504    557.615    557.504
 19.670    544.431    557.704    -13.273    557.229    557.593    557.229    557.340    557.229
 19.770    537.000    557.434    -20.434    556.952    557.321    556.952    557.064    556.952
 19.870    538.000    557.162    -19.162    556.673    557.049    556.673    556.786    556.673
 19.970    575.000    556.889     18.111    556.393    556.775    556.393    556.507    556.393
 20.070    545.569    556.615    -11.046    556.111    556.499    556.111    556.226    556.111
 20.170    572.000    556.339     15.661    555.827    556.223    555.827    555.943    555.827
 20.270    567.000    556.063     10.937    555.542    555.945    555.542    555.659    555.542
 20.370    561.000    555.785      5.215    555.255    555.667    555.255    555.374    555.255
 20.470    541.511    555.507    -13.996    554.967    555.388    554.967    555.087    554.967
 20.570    533.661    555.228    -21.567    554.678    555.107    554.678    554.798    554.678
 20.670    558.000    554.948      3.052    554.387    554.826    554.387    554.509    554.387
 20.770    504.000    554.667    -50.667    554.094    554.544    554.094    554.217    554.094
 20.870    510.175    554.386    -44.211    553.801    554.262    553.801    553.925    553.801
 20.970    520.522    554.104    -33.582    553.506    553.979    553.506    553.631    553.506
 21.070    563.000    553.822      9.178    553.209    553.695    553.209    553.336    553.209
 21.170    558.000    553.539      4.461    552.912    553.411    552.912    553.040    552.912
 21.270    559.000    553.257      5.743    552.613    553.127    552.613    552.743    552.613
 21.370    538.545    552.974    -14.429    552.313    552.843    552.313    552.444    552.313
 21.470    519.088    552.691    -33.603    552.012    552.559    552.012    552.144    552.012
 21.570    546.930    552.408     -5.478    551.710    552.275    551.710    551.844    551.710
 21.670    497.000    552.127    -55.127    551.406    551.991    551.406    551.542    551.406
 21.770    527.000    551.850    -24.850    551.102    551.713    551.102    551.239    551.102
 21.870    549.570    551.570     -2.000    550.796    551.432    550.796    550.935    550.796
 21.970    550.000    551.291     -1.291    550.490    551.151    550.490    550.630    550.490
 22.070    560.000    551.013      8.987    550.183    550.871    550.183    550.325    550.183
 22.170    576.435    550.737     25.698    549.874    550.593    549.874    550.018    549.874
 22.270    519.319    550.466    -31.146    549.565    550.320    549.565    549.711    549.565
 22.370    521.745    550.195    -28.450    549.255    550.048    549.255    549.402    549.255
 22.470    562.143    549.938     12.205    548.944    549.789    548.944    549.093    548.944
 22.570    594.690    549.763     44.927    548.632    549.612    548.632    548.784    548.632
 22.670    568.958    549.513     19.445    548.319    549.360    548.319    548.473    548.319
 22.770    513.000    549.273    -36.273    548.006    549.118    548.006    548.162    548.006
 22.870    552.000    549.090      2.910    547.692    548.932    547.692    547.850    547.692
 22.970    562.000    548.890     13.110    547.377    548.730    547.377    547.537    547.377
 23.070    586.763    548.668     38.094    547.061    548.505    547.061    547.225    547.061
 23.170    579.000    548.459     30.541    546.745    548.290    546.745    546.914    546.745
 23.270    542.000    548.264     -6.264    546.428    548.093    546.428    546.600    546.428
 23.370    516.106    548.093    -31.986    546.111    547.919    546.111    546.285    546.111
 23.470    553.000    547.949      5.051    545.793    547.773    545.793    545.970    545.793
 23.570    512.000    547.843    -35.843    545.474    547.663    545.474    545.655    545.474
 23.670    559.000    547.786     11.214    545.155    547.604    545.155    545.339    545.155
 23.770    539.000    547.799     -8.799    544.836    547.614    544.836    545.022    544.836
 23.870    530.045    547.910    -17.865    544.516    547.722    544.516    544.706    544.516
 23.970    585.000    548.173     36.827    544.195    547.982    544.195    544.389    544.195
 24.070    515.275    548.713    -33.438    543.874    548.518    543.874    544.072    543.874
 24.170    571.000    549.862     21.138    543.553    549.664    543.553    543.754    543.553
 24.270    507.781    552.469    -44.689    543.231    552.269    543.231    543.437    543.231
 24.370    574.000    558.255     15.745    542.909    558.056    542.909    543.119    542.909
 24.470    605.000    569.619     35.381    542.587    569.423    542.587    542.801    542.587
 24.570    558.903    587.979    -29.075    542.264    587.791    542.264    542.484    542.264
 24.670    600.884    610.562     -9.678    541.941    610.387    541.941    542.166    541.941
 24.770    624.155    627.803     -3.648    541.618    627.635    541.618    541.848    541.618
 24.870    636.000    628.203      7.797    541.295    628.030    541.295    541.530    541.295
 24.970    646.000    611.187     34.813    540.971    610.996    540.971    541.213    540.971
 25.070    546.087    587.986    -41.899    540.648    587.772    540.648    540.896    540.648
 25.170    606.000    568.631     37.369    540.324    568.396    540.324    540.579    540.324
 25.270    570.000    556.279     13.721    540.000    556.028    540.000    540.262    540.000
 25.370    564.000    549.667     14.333    539.676    549.403    539.676    539.945    539.676
 25.470    566.000    546.380     19.620    539.352    546.106    539.352    539.630    539.352
 25.570    513.283    544.646    -31.364    539.028    544.363    539.028    539.314    539.028
 25.670    572.077    543.570     28.506    538.704    543.277    538.704    538.999    538.704
 25.770    537.195    542.782     -5.587    538.380    542.478    538.380    538.685    538.380
 25.870    502.553    542.146    -39.593    538.055    541.831    538.055    538.372    538.055
 25.970    584.000    541.626     42.374    537.731    541.299    537.731    538.059    537.731
 26.070    550.000    541.182      8.818    537.407    540.843    537.407    537.748    537.407
 26.170    574.584    540.815     33.769    537.083    540.461    537.083    537.437    537.083
 26.270    558.000    540.503     17.497    536.760    540.135    536.760    537.128    536.760
 26.370    541.000    540.229      0.771    536.436    539.845    536.436    536.821    536.436
 26.470    563.018    540.002     23.016    536.112    539.600    536.112    536.514    536.112
 26.570    537.000    539.824     -2.824    535.789    539.403    535.789    536.210    535.789
 26.670    574.599    539.711     34.888    535.466    539.269    535.466    535.908    535.466
 26.770    540.000    539.681      0.319    535.143    539.217    535.143    535.608    535.143
 26.870    570.590    539.688     30.903    534.820    539.198    534.820    535.311    534.820
 26.970    560.000    539.771     20.229    534.498    539.253    534.498    535.016    534.498
 27.070    543.000    539.953      3.047    534.176    539.404    534.176    534.725    534.176
 27.170    549.005    540.269      8.736    533.854    539.684    533.854    534.438    533.854
 27.270    555.166    540.764     14.402    533.533    540.140    533.533    534.156    533.533
 27.370    579.910    541.510     38.400    533.211    540.842    533.211    533.878    533.211
 27.470    589.000    542.653     46.347    532.891    541.935    532.891    533.607    532.891
 27.570    580.000    544.462     35.538    532.570    543.687    532.570    533.343    532.570
 27.670    529.000    548.075    -19.075    532.250    547.235    532.250    533.088    532.250
 27.770    546.000    557.556    -11.556    531.931    556.637    531.931    532.843    531.931
 27.870    623.118    583.914     39.204    531.612    582.900    531.612    532.610    531.612
 27.970    614.661    645.847    -31.186    531.293    644.712    531.293    532.393    531.293
 28.070    812.000    754.584     57.416    530.975    753.299    530.975    532.194    530.975
 28.170    860.000    883.003    -23.003    530.657    881.548    530.657    532.018    530.657
 28.270    949.680    956.029     -6.349    530.340    954.405    530.340    531.871    530.340
 28.370    952.000    916.216     35.784    530.023    914.420    530.023    531.762    530.023
 28.470    808.000    805.664      2.336    529.707    803.648    529.707    531.703    529.707
 28.570    761.802    710.816     50.986    529.392    708.492    529.392    531.712    529.392
 28.670    681.000    683.679     -2.679    529.077    680.928    529.077    531.820    529.077
 28.770    728.000    725.055      2.945    528.763    721.716    528.763    532.084    528.763
 28.870    794.585    796.859     -2.274    528.449    792.679    528.449    532.607    528.449
 28.970    872.174    838.047     34.127    528.136    832.604    528.136    533.565    528.136
 29.070    845.000    807.410     37.590    527.824    800.011    527.824    535.226    527.824
 29.170    711.000    729.325    -18.325    527.512    718.923    527.512    537.929    527.512
 29.270    659.000    652.940      6.060    527.201    638.157    527.201    541.998    527.201
 29.370    586.000    604.596    -18.596    526.891    583.938    526.891    547.558    526.891
 29.470    595.099    583.770     11.329    526.582    556.157    526.582    554.198    526.582
 29.570    605.000    578.355     26.645    526.273    544.155    526.273    560.472    526.273
 29.670    622.000    576.895     45.105    525.965    539.027    525.965    563.830    525.965
 29.770    601.000    573.069     27.931    525.658    536.409    525.658    562.316    525.658
 29.870    598.000    566.070     31.930    525.351    534.753    525.351    556.666    525.351
 29.970    533.000    557.940    -24.940    525.046    533.591    525.046    549.393    525.046
 30.070    536.000    550.597    -14.597    524.741    532.777    524.741    542.559    524.741
 30.170    543.000    544.913     -1.913    524.437    532.277    524.437    537.071    524.437
 30.270    529.636    541.095    -11.460    524.134    532.178    524.134    533.049    524.134
 30.370    526.000    539.270    -13.270    523.832    532.847    523.832    530.251    523.832
