neutron_powder_diffraction_0172
R_wp: 4.113
Temperature (K): 1074.000
Counts: 83722.00
Wavelength (Ã…): 2.52098
COMMENTS
Test file for demonstrating the .xyy file format in Reel1.0
END OF HEADER
   tth       Y_obs     Y_calc      Y_res    Background    Phase_1_Nuc    Phase_1_Mag    Phase_2_Nuc    Phase_2_Mag
  9.970    560.303    583.238    -22.935    582.548    583.220    582.548    582.566    582.548
 10.070    596.000    583.128     12.872    582.377    583.111    582.377    582.395    582.377
 10.170    573.000    583.021    -10.021    582.203    583.003    582.203    582.220    582.203
 10.270    599.784    582.922     16.861    582.026    582.903    582.026    582.044    582.026
 10.370    610.000    582.834     27.166    581.845    582.813    581.845    581.866    581.845
 10.470    556.000    582.757    -26.757    581.662    582.735    581.662    581.683    581.662
 10.570    540.063    582.695    -42.632    581.476    582.673    581.476    581.497    581.476
 10.670    598.000    582.655     15.345    581.287    582.633    581.287    581.309    581.287
 10.770    534.993    582.643    -47.650    581.095    582.620    581.095    581.117    581.095
 10.870    596.446    582.667     13.779    580.901    582.645    580.901    580.923    580.901
 10.970    593.000    582.742     10.258    580.704    582.719    580.704    580.725    580.704
 11.070    588.553    582.883      5.670    580.504    582.860    580.504    580.525    580.504
 11.170    594.850    583.120     11.730    580.301    583.096    580.301    580.323    580.301
 11.270    605.000    583.491     21.509    580.096    583.467    580.096    580.118    580.096
 11.370    558.311    584.068    -25.757    579.888    584.044    579.888    579.910    579.888
 11.470    606.414    585.008     21.406    579.677    584.983    579.677    579.699    579.677
 11.570    561.808    586.743    -24.935    579.464    586.717    579.464    579.486    579.464
 11.670    640.000    590.471     49.529    579.248    590.441    579.248    579.272    579.248
 11.770    632.000    598.890     33.110    579.030    598.855    579.030    579.054    579.030
 11.870    654.000    616.221     37.779    578.810    616.176    578.810    578.834    578.810
 11.970    696.000    645.584     50.416    578.587    645.522    578.587    578.611    578.587
 12.070    682.000    683.051     -1.051    578.361    682.968    578.361    578.386    578.361
 12.170    701.985    712.313    -10.328    578.134    712.214    578.134    578.159    578.134
 12.270    711.742    713.043     -1.301    577.904    712.943    577.904    577.929    577.904
 12.370    678.405    684.383     -5.978    577.671    684.299    577.671    577.697    577.671
 12.470    697.777    646.304     51.473    577.437    646.240    577.437    577.462    577.437
 12.570    599.000    615.830    -16.830    577.200    615.784    577.200    577.226    577.200
 12.670    601.000    597.456      3.544    576.961    597.418    576.961    576.988    576.961
 12.770    583.000    588.249     -5.249    576.720    588.207    576.720    576.755    576.720
 12.870    581.000    583.915     -2.915    576.477    583.875    576.477    576.513    576.477
 12.970    533.000    581.665    -48.665    576.231    581.626    576.231    576.268    576.231
 13.070    571.000    580.245     -9.245    575.984    580.206    575.984    576.021    575.984
 13.170    547.000    579.200    -32.200    575.734    579.160    575.734    575.772    575.734
 13.270    538.000    578.366    -40.366    575.483    578.326    575.483    575.521    575.483
 13.370    578.000    577.670      0.330    575.230    577.630    575.230    575.268    575.230
 13.470    592.613    577.071     15.542    574.974    577.031    574.974    575.013    574.974
 13.570    582.000    576.541      5.459    574.717    576.501    574.717    574.756    574.717
 13.670    620.504    576.067     44.437    574.458    576.023    574.458    574.501    574.458
 13.770    526.745    575.628    -48.883    574.197    575.583    574.197    574.241    574.197
 13.870    563.000    575.218    -12.218    573.934    575.173    573.934    573.978    573.934
 13.970    527.755    574.831    -47.076    573.669    574.786    573.669    573.714    573.669
 14.070    547.000    574.463    -27.463    573.402    574.417    573.402    573.447    573.402
 14.170    580.518    574.106      6.411    573.134    574.061    573.134    573.180    573.134
 14.270    567.000    573.761     -6.761    572.864    573.715    572.864    572.910    572.864
 14.370    569.548    573.428     -3.880    572.593    573.381    572.593    572.639    572.593
 14.470    567.000    573.100     -6.100    572.319    573.053    572.319    572.366    572.319
 14.570    553.062    572.776    -19.713    572.045    572.729    572.045    572.091    572.045
 14.670    620.301    572.456     47.845    571.768    572.409    571.768    571.815    571.768
 14.770    599.000    572.140     26.860    571.490    572.093    571.490    571.537    571.490
 14.870    601.000    571.827     29.173    571.210    571.780    571.210    571.258    571.210
 14.970    537.000    571.517    -34.517    570.929    571.469    570.929    570.977    570.929
 15.070    578.142    571.208      6.934    570.647    571.160    570.647    570.694    570.647
 15.170    611.551    570.900     40.651    570.363    570.852    570.363    570.411    570.363
 15.270    602.000    570.594     31.406    570.077    570.545    570.077    570.126    570.077
 15.370    594.000    570.288     23.712    569.790    570.239    569.790    569.839    569.790
 15.470    540.883    569.983    -29.100    569.502    569.934    569.502    569.551    569.502
 15.570    579.000    569.678      9.322    569.213    569.629    569.213    569.262    569.213
 15.670    548.000    569.374    -21.374    568.922    569.324    568.922    568.971    568.922
 15.770    556.000    569.069    -13.069    568.629    569.019    568.629    568.679    568.629
 15.870    527.496    568.765    -41.269    568.336    568.715    568.336    568.386    568.336
 15.970    580.000    568.460     11.540    568.041    568.410    568.041    568.092    568.041
 16.070    539.000    568.156    -29.156    567.745    568.104    567.745    567.797    567.745
 16.170    556.000    567.853    -11.853    567.448    567.799    567.448    567.502    567.448
 16.270    570.000    567.548      2.452    567.150    567.493    567.150    567.204    567.150
 16.370    513.000    567.243    -54.243    566.850    567.187    566.850    566.906    566.850
 16.470    541.000    566.936    -25.936    566.550    566.881    566.550    566.606    566.550
 16.570    559.000    566.630     -7.630    566.248    566.574    566.248    566.304    566.248
 16.670    579.948    566.323     13.625    565.946    566.266    565.946    566.003    565.946
 16.770    591.413    566.016     25.397    565.642    565.959    565.642    565.699    565.642
 16.870    553.000    565.708    -12.708    565.337    565.650    565.337    565.395    565.337
 16.970    546.251    565.402    -19.151    565.031    565.344    565.031    565.089    565.031
 17.070    576.000    565.093     10.907    564.725    565.035    564.725    564.783    564.725
 17.170    572.000    564.784      7.216    564.417    564.725    564.417    564.476    564.417
 17.270    578.000    564.473     13.527    564.108    564.414    564.108    564.168    564.108
 17.370    554.000    564.163    -10.163    563.799    564.103    563.799    563.859    563.799
 17.470    578.000    563.852     14.148    563.489    563.792    563.489    563.549    563.489
 17.570    547.000    563.540    -16.540    563.178    563.480    563.178    563.238    563.178
 17.670    548.000    563.228    -15.228    562.866    563.167    562.866    562.927    562.866
 17.770    554.000    562.915     -8.915    562.553    562.854    562.553    562.614    562.553
 17.870    554.000    562.603     -8.603    562.239    562.541    562.239    562.301    562.239
 17.970    507.000    562.290    -55.290    561.925    562.228    561.925    561.987    561.925
 18.070    606.000    561.977     44.023    561.610    561.915    561.610    561.673    561.610
 18.170    531.497    561.663    -30.166    561.294    561.600    561.294    561.358    561.294
 18.270    553.000    561.349     -8.349    560.978    561.285    560.978    561.042    560.978
 18.370    538.000    561.035    -23.035    560.661    560.969    560.661    560.726    560.661
 18.470    548.000    560.720    -12.720    560.343    560.654    560.343    560.409    560.343
 18.570    575.000    560.405     14.595    560.025    560.338    560.025    560.092    560.025
 18.670    560.000    560.089     -0.089    559.706    560.022    559.706    559.773    559.706
 18.770    516.000    559.773    -43.773    559.387    559.705    559.387    559.454    559.387
 18.870    555.000    559.456     -4.456    559.067    559.388    559.067    559.135    559.067
 18.970    594.583    559.139     35.443    558.746    559.071    558.746    558.815    558.746
 19.070    507.000    558.823    -51.823    558.426    558.753    558.426    558.495    558.426
 19.170    539.000    558.505    -19.505    558.104    558.436    558.104    558.174    558.104
 19.270    547.000    558.189    -11.189    557.782    558.119    557.782    557.853    557.782
 19.370    548.000    557.886     -9.886    557.460    557.815    557.460    557.531    557.460
 19.470    559.000    557.579      1.421    557.137    557.507    557.137    557.209    557.137
 19.570    557.678    557.262      0.416    556.814    557.190    556.814    556.886    556.814
 19.670    551.000    556.945     -5.945    556.490    556.872    556.490    556.563    556.490
 19.770    527.409    556.628    -29.219    556.167    556.554    556.167    556.240    556.167
 19.870    567.000    556.311     10.689    555.842    556.237    555.842    555.916    555.842
 19.970    561.000    555.994      5.006    555.518    555.919    555.518    555.593    555.518
 20.070    533.365    555.677    -22.312    555.193    555.601    555.193    555.269    555.193
 20.170    515.000    555.364    -40.364    554.868    555.284    554.868    554.948    554.868
 20.270    544.000    555.049    -11.049    554.543    554.967    554.543    554.625    554.543
 20.370    596.000    554.733     41.267    554.217    554.650    554.217    554.300    554.217
 20.470    538.143    554.417    -16.274    553.892    554.333    553.892    553.975    553.892
 20.570    529.000    554.102    -25.102    553.566    554.017    553.566    553.650    553.566
 20.670    459.000    553.787    -94.787    553.240    553.701    553.240    553.325    553.240
 20.770    553.645    553.473      0.173    552.913    553.386    552.913    553.000    552.913
 20.870    544.000    553.159     -9.159    552.587    553.072    552.587    552.674    552.587
 20.970    559.000    552.846      6.154    552.260    552.758    552.260    552.349    552.260
 21.070    543.000    552.534     -9.534    551.934    552.445    551.934    552.023    551.934
 21.170    588.000    552.222     35.778    551.607    552.132    551.607    551.697    551.607
 21.270    523.000    551.912    -28.912    551.281    551.821    551.281    551.372    551.281
 21.370    562.000    551.603     10.397    550.954    551.511    550.954    551.046    550.954
 21.470    574.442    551.303     23.139    550.627    551.210    550.627    550.720    550.627
 21.570    508.000    551.079    -43.079    550.300    550.985    550.300    550.394    550.300
 21.670    520.394    550.797    -30.403    549.974    550.702    549.974    550.069    549.974
 21.770    570.000    550.500     19.500    549.647    550.403    549.647    549.743    549.647
 21.870    545.651    550.199     -4.548    549.320    550.102    549.320    549.418    549.320
 21.970    540.000    549.901     -9.901    548.994    549.803    548.994    549.092    548.994
 22.070    512.419    549.608    -37.189    548.667    549.508    548.667    548.767    548.667
 22.170    547.589    549.317     -1.728    548.341    549.216    548.341    548.442    548.341
 22.270    549.000    549.048     -0.048    548.015    548.946    548.015    548.117    548.015
 22.370    544.000    548.789     -4.789    547.689    548.686    547.689    547.793    547.689
 22.470    540.997    548.515     -7.518    547.363    548.410    547.363    547.468    547.363
 22.570    549.000    548.284      0.716    547.037    548.178    547.037    547.144    547.037
 22.670    535.000    548.033    -13.033    546.712    547.925    546.712    546.820    546.712
 22.770    552.000    547.772      4.228    546.386    547.663    546.386    546.496    546.386
 22.870    505.638    547.518    -41.880    546.061    547.407    546.061    546.173    546.061
 22.970    568.397    547.274     21.123    545.737    547.162    545.737    545.849    545.737
 23.070    522.000    547.043    -25.043    545.412    546.929    545.412    545.527    545.412
 23.170    543.000    546.827     -3.827    545.088    546.711    545.088    545.204    545.088
 23.270    541.282    546.631     -5.348    544.764    546.513    544.764    544.882    544.764
 23.370    566.000    546.459     19.541    544.440    546.339    544.440    544.560    544.440
 23.470    581.000    546.318     34.682    544.117    546.197    544.117    544.239    544.117
 23.570    501.085    546.218    -45.133    543.794    546.094    543.794    543.918    543.794
 23.670    549.886    546.172      3.714    543.471    546.046    543.471    543.598    543.471
 23.770    549.000    546.201      2.799    543.149    546.073    543.149    543.278    543.149
 23.870    499.881    546.339    -46.458    542.827    546.207    542.827    542.960    542.827
 23.970    504.174    546.643    -42.469    542.506    546.509    542.506    542.642    542.506
 24.070    595.410    547.260     48.150    542.184    547.123    542.184    542.324    542.184
 24.170    572.652    548.590     24.063    541.864    548.452    541.864    542.006    541.864
 24.270    523.993    551.644    -27.651    541.544    551.505    541.544    541.689    541.544
 24.370    575.000    558.413     16.587    541.224    558.276    541.224    541.372    541.224
 24.470    580.063    571.476      8.587    540.905    571.345    540.905    541.056    540.905
 24.570    619.000    591.889     27.111    540.586    591.770    540.586    540.741    540.586
 24.670    660.189    615.570     44.619    540.268    615.465    540.268    540.426    540.268
 24.770    609.000    631.085    -22.085    539.950    630.988    539.950    540.113    539.950
 24.870    628.000    627.265      0.735    539.633    627.161    539.633    539.800    539.633
 24.970    591.311    607.129    -15.818    539.317    607.007    539.317    539.487    539.317
 25.070    629.000    583.255     45.745    539.001    583.111    539.001    539.176    539.001
 25.170    578.000    564.649     13.351    538.685    564.487    538.685    538.865    538.685
 25.270    535.000    553.335    -18.335    538.370    553.160    538.370    538.556    538.370
 25.370    549.469    547.465      2.004    538.056    547.280    538.056    538.247    538.056
 25.470    567.000    544.565     22.435    537.742    544.372    537.742    537.939    537.742
 25.570    538.829    542.990     -4.160    537.430    542.789    537.430    537.632    537.430
 25.670    599.000    541.974     57.026    537.117    541.766    537.117    537.327    537.117
 25.770    563.000    541.222     21.778    536.806    541.007    536.806    537.022    536.806
 25.870    523.234    540.629    -17.395    536.495    540.406    536.495    536.719    536.495
 25.970    518.000    540.152    -22.152    536.184    539.920    536.184    536.417    536.184
 26.070    538.000    539.744     -1.744    535.875    539.503    535.875    536.116    535.875
 26.170    559.046    539.397     19.649    535.566    539.146    535.566    535.817    535.566
 26.270    566.377    539.108     27.269    535.258    538.847    535.258    535.520    535.258
 26.370    571.000    538.896     32.104    534.950    538.623    534.950    535.224    534.950
 26.470    553.771    538.734     15.037    534.644    538.448    534.644    534.930    534.644
 26.570    556.000    538.604     17.396    534.338    538.305    534.338    534.637    534.338
 26.670    552.394    538.522     13.872    534.033    538.208    534.033    534.347    534.033
 26.770    575.216    538.503     36.713    533.728    538.171    533.728    534.059    533.728
 26.870    546.000    538.558      7.442    533.425    538.208    533.425    533.774    533.425
 26.970    517.781    538.705    -20.925    533.122    538.335    533.122    533.492    533.122
 27.070    553.000    538.980     14.020    532.820    538.587    532.820    533.212    532.820
 27.170    574.000    539.417     34.583    532.519    538.999    532.519    532.936    532.519
 27.270    518.000    540.035    -22.035    532.219    539.589    532.219    532.664    532.219
 27.370    507.858    540.936    -33.078    531.919    540.458    531.919    532.397    531.919
 27.470    532.028    542.269    -10.242    531.621    541.754    531.621    532.134    531.621
 27.570    562.718    544.418     18.299    531.323    543.862    531.323    531.878    531.323
 27.670    539.000    548.756     -9.756    531.027    548.152    531.027    531.628    531.027
 27.770    593.000    559.996     33.004    530.731    559.333    530.731    531.386    530.731
 27.870    631.000    590.177     40.823    530.436    589.441    530.436    531.154    530.436
 27.970    669.497    658.154     11.344    530.142    657.323    530.142    530.934    530.142
 28.070    803.000    772.402     30.598    529.849    771.452    529.849    530.728    529.849
 28.170    851.674    900.422    -48.748    529.557    899.341    529.557    530.540    529.557
 28.270   1025.928    963.508     62.420    529.265    962.304    529.265    530.375    529.265
 28.370    904.000    909.856     -5.856    528.975    908.536    528.975    530.237    528.975
 28.470    757.000    794.465    -37.465    528.686    792.991    528.686    530.138    528.686
 28.570    744.262    705.345     38.917    528.398    703.644    528.398    530.089    528.398
 28.670    660.000    687.661    -27.661    528.110    685.642    528.110    530.116    528.110
 28.770    709.000    735.958    -26.958    527.824    733.503    527.824    530.262    527.824
 28.870    793.000    808.181    -15.181    527.539    805.101    527.539    530.608    527.539
 28.970    796.000    842.200    -46.200    527.255    838.160    527.255    531.300    527.255
 29.070    819.587    801.499     18.088    526.972    795.924    526.972    532.561    526.972
 29.170    751.000    718.306     32.694    526.689    710.329    526.689    534.680    526.689
 29.270    688.058    642.356     45.701    526.408    630.842    526.408    537.931    526.408
 29.370    623.336    596.044     27.292    526.128    579.776    526.128    542.400    526.128
 29.470    582.000    576.262      5.738    525.849    554.417    525.849    547.694    525.849
 29.570    573.000    570.535      2.465    525.571    543.598    525.571    552.506    525.571
 29.670    572.000    568.201      3.799    525.295    538.874    525.295    554.618    525.295
 29.770    606.000    563.949     42.051    525.019    536.355    525.019    552.610    525.019
 29.870    609.000    557.548     51.452    524.744    534.720    524.744    547.570    524.744
 29.970    604.000    550.813     53.187    524.471    533.572    524.471    541.709    524.471
 30.070    579.000    545.094     33.906    524.198    532.786    524.198    536.505    524.198
 30.170    561.000    540.896     20.104    523.927    532.336    523.927    532.485    523.927
 30.270    534.000    538.306     -4.306    523.657    532.333    523.657    529.627    523.657
 30.370    551.000    537.511     13.489    523.388    533.215    523.388    527.680    523.388
