neutron_powder_diffraction_0214
R_wp: 4.050
Temperature (K): 1074.000
Counts: 84055.00
Wavelength (Ã…): 2.52098
COMMENTS
Test file for demonstrating the .xyy file format in Reel1.0
END OF HEADER
   tth       Y_obs     Y_calc      Y_res    Background    Phase_1_Nuc    Phase_1_Mag    Phase_2_Nuc    Phase_2_Mag
  9.970    563.000    569.614     -6.614    568.930    569.550    568.930    568.994    568.930
 10.070    560.633    569.775     -9.142    569.037    569.711    569.037    569.102    569.037
 10.170    637.000    569.938     67.062    569.139    569.873    569.139    569.204    569.139
 10.270    532.182    570.104    -37.922    569.235    570.039    569.235    569.300    569.235
 10.370    595.000    570.276     24.724    569.325    570.211    569.325    569.390    569.325
 10.470    574.000    570.456      3.544    569.409    570.390    569.409    569.475    569.409
 10.570    579.000    570.648      8.352    569.488    570.582    569.488    569.554    569.488
 10.670    549.692    570.856    -21.164    569.561    570.789    569.561    569.627    569.561
 10.770    558.000    571.086    -13.086    569.628    571.019    569.628    569.694    569.628
 10.870    522.669    571.347    -48.678    569.689    571.280    569.689    569.756    569.689
 10.970    573.000    571.650      1.350    569.745    571.582    569.745    569.812    569.745
 11.070    587.000    572.012     14.988    569.796    571.943    569.796    569.863    569.796
 11.170    525.372    572.456    -47.084    569.841    572.387    569.841    569.908    569.841
 11.270    569.000    573.021     -4.021    569.881    572.951    569.881    569.948    569.881
 11.370    575.000    573.769      1.231    569.915    573.699    569.915    569.983    569.915
 11.470    574.000    574.838     -0.838    569.944    574.767    569.944    570.012    569.944
 11.570    611.076    576.615     34.461    569.968    576.543    569.968    570.036    569.968
 11.670    559.841    580.228    -20.388    569.986    580.153    569.986    570.055    569.986
 11.770    638.000    588.381     49.619    570.000    588.302    570.000    570.069    570.000
 11.870    639.905    605.571     34.334    570.008    605.481    570.008    570.078    570.008
 11.970    644.000    635.447      8.553    570.012    635.340    570.012    570.082    570.012
 12.070    691.855    674.290     17.565    570.010    674.160    570.010    570.081    570.010
 12.170    692.281    705.010    -12.728    570.003    704.861    570.003    570.076    570.003
 12.270    701.978    706.004     -4.026    569.992    705.854    569.992    570.065    569.992
 12.370    656.822    676.361    -19.539    569.976    676.227    569.976    570.049    569.976
 12.470    645.000    637.307      7.693    569.955    637.195    569.955    570.028    569.955
 12.570    608.705    606.708      1.997    569.929    606.613    569.929    570.003    569.929
 12.670    604.000    588.892     15.108    569.898    588.807    569.898    569.973    569.898
 12.770    588.000    580.383      7.617    569.863    580.303    569.863    569.938    569.863
 12.870    586.000    576.611      9.389    569.824    576.532    569.824    569.899    569.824
 12.970    622.963    574.763     48.200    569.779    574.685    569.779    569.855    569.779
 13.070    558.000    573.655    -15.655    569.731    573.577    569.731    569.806    569.731
 13.170    612.522    572.879     39.644    569.678    572.801    569.678    569.754    569.678
 13.270    568.000    572.291     -4.291    569.620    572.213    569.620    569.696    569.620
 13.370    522.528    571.827    -49.299    569.558    571.749    569.558    569.635    569.558
 13.470    553.803    571.448    -17.645    569.492    571.370    569.492    569.569    569.492
 13.570    570.271    571.131     -0.860    569.421    571.052    569.421    569.499    569.421
 13.670    533.751    570.857    -37.107    569.347    570.779    569.347    569.425    569.347
 13.770    538.000    570.617    -32.617    569.268    570.538    569.268    569.346    569.268
 13.870    557.000    570.400    -13.400    569.185    570.321    569.185    569.264    569.185
 13.970    532.730    570.202    -37.471    569.098    570.122    569.098    569.177    569.098
 14.070    552.000    570.017    -18.017    569.007    569.937    569.007    569.086    569.007
 14.170    575.000    569.842      5.158    568.912    569.762    568.912    568.992    568.912
 14.270    541.000    569.675    -28.675    568.813    569.594    568.813    568.893    568.813
 14.370    563.000    569.514     -6.514    568.710    569.432    568.710    568.791    568.710
 14.470    578.921    569.356      9.565    568.603    569.275    568.603    568.684    568.603
 14.570    530.000    569.202    -39.202    568.493    569.120    568.493    568.574    568.493
 14.670    532.000    569.052    -37.052    568.378    568.969    568.378    568.460    568.378
 14.770    554.000    568.901    -14.901    568.260    568.818    568.260    568.343    568.260
 14.870    569.630    568.750      0.880    568.139    568.667    568.139    568.222    568.139
 14.970    548.000    568.598    -20.598    568.013    568.514    568.013    568.097    568.013
 15.070    603.022    568.446     34.576    567.885    568.362    567.885    567.968    567.885
 15.170    577.767    568.293      9.474    567.752    568.208    567.752    567.837    567.752
 15.270    549.000    568.143    -19.143    567.616    568.053    567.616    567.706    567.616
 15.370    563.651    567.989     -4.338    567.477    567.896    567.477    567.569    567.477
 15.470    526.003    567.831    -41.828    567.334    567.738    567.334    567.427    567.334
 15.570    605.631    567.672     37.959    567.188    567.578    567.188    567.282    567.188
 15.670    603.000    567.511     35.489    567.039    567.417    567.039    567.133    567.039
 15.770    547.000    567.347    -20.347    566.886    567.253    566.886    566.980    566.886
 15.870    589.000    567.182     21.818    566.730    567.087    566.730    566.825    566.730
 15.970    566.956    567.014     -0.058    566.571    566.918    566.571    566.666    566.571
 16.070    565.000    566.844     -1.844    566.408    566.748    566.408    566.505    566.408
 16.170    609.308    566.672     42.636    566.243    566.575    566.243    566.340    566.243
 16.270    555.000    566.498    -11.498    566.074    566.400    566.074    566.172    566.074
 16.370    548.000    566.321    -18.321    565.903    566.223    565.903    566.001    565.903
 16.470    595.129    566.142     28.988    565.728    566.043    565.728    565.827    565.728
 16.570    567.446    565.960      1.486    565.551    565.861    565.551    565.650    565.551
 16.670    582.000    565.776     16.224    565.370    565.676    565.370    565.470    565.370
 16.770    586.000    565.590     20.410    565.187    565.490    565.187    565.287    565.187
 16.870    565.000    565.402     -0.402    565.001    565.301    565.001    565.102    565.001
 16.970    582.000    565.213     16.787    564.812    565.111    564.812    564.913    564.812
 17.070    591.474    565.020     26.454    564.620    564.918    564.620    564.722    564.620
 17.170    597.694    564.824     32.870    564.426    564.721    564.426    564.528    564.426
 17.270    530.083    564.627    -34.543    564.228    564.523    564.228    564.332    564.228
 17.370    523.504    564.426    -40.922    564.029    564.322    564.029    564.133    564.029
 17.470    517.000    564.224    -47.224    563.826    564.119    563.826    563.931    563.826
 17.570    583.461    564.022     19.439    563.621    563.916    563.621    563.727    563.621
 17.670    536.000    563.815    -27.815    563.414    563.709    563.414    563.520    563.414
 17.770    585.488    563.606     21.882    563.204    563.499    563.204    563.311    563.204
 17.870    528.000    563.395    -35.395    562.992    563.287    562.992    563.099    562.992
 17.970    539.000    563.182    -24.182    562.777    563.073    562.777    562.885    562.777
 18.070    546.000    562.966    -16.966    562.560    562.857    562.560    562.669    562.560
 18.170    549.000    562.749    -13.749    562.340    562.639    562.340    562.450    562.340
 18.270    501.000    562.529    -61.529    562.118    562.418    562.118    562.229    562.118
 18.370    523.000    562.308    -39.308    561.894    562.196    561.894    562.006    561.894
 18.470    565.000    562.084      2.916    561.668    561.972    561.668    561.780    561.668
 18.570    549.000    561.859    -12.859    561.439    561.745    561.439    561.552    561.439
 18.670    521.177    561.631    -40.455    561.208    561.517    561.208    561.323    561.208
 18.770    565.000    561.403      3.597    560.976    561.288    560.976    561.091    560.976
 18.870    602.383    561.172     41.211    560.741    561.056    560.741    560.857    560.741
 18.970    603.260    560.939     42.320    560.504    560.823    560.504    560.620    560.504
 19.070    600.000    560.705     39.295    560.265    560.588    560.265    560.382    560.265
 19.170    590.348    560.469     29.878    560.024    560.351    560.024    560.142    560.024
 19.270    535.000    560.231    -25.231    559.781    560.112    559.781    559.900    559.781
 19.370    522.896    559.992    -37.096    559.536    559.871    559.536    559.656    559.536
 19.470    556.000    559.751     -3.751    559.289    559.630    559.289    559.411    559.289
 19.570    573.000    559.509     13.491    559.041    559.386    559.041    559.163    559.041
 19.670    576.000    559.265     16.735    558.790    559.141    558.790    558.914    558.790
 19.770    532.000    559.020    -27.020    558.538    558.895    558.538    558.663    558.538
 19.870    583.998    558.773     25.225    558.284    558.647    558.284    558.410    558.284
 19.970    534.000    558.526    -24.526    558.029    558.399    558.029    558.156    558.029
 20.070    560.000    558.280      1.720    557.771    558.150    557.771    557.902    557.771
 20.170    564.714    558.032      6.682    557.512    557.900    557.512    557.645    557.512
 20.270    605.000    557.794     47.206    557.252    557.660    557.252    557.386    557.252
 20.370    552.000    557.552     -5.552    556.990    557.417    556.990    557.125    556.990
 20.470    513.000    557.299    -44.299    556.726    557.163    556.726    556.862    556.726
 20.570    576.000    557.045     18.955    556.461    556.907    556.461    556.598    556.461
 20.670    573.000    556.789     16.211    556.194    556.651    556.194    556.333    556.194
 20.770    528.000    556.534    -28.534    555.926    556.393    555.926    556.066    555.926
 20.870    534.700    556.277    -21.577    555.656    556.135    555.656    555.798    555.656
 20.970    567.000    556.019     10.981    555.385    555.876    555.385    555.528    555.385
 21.070    542.000    555.762    -13.762    555.113    555.617    555.113    555.257    555.113
 21.170    577.371    555.503     21.867    554.839    555.357    554.839    554.985    554.839
 21.270    560.000    555.245      4.755    554.564    555.097    554.564    554.712    554.564
 21.370    593.000    554.986     38.014    554.288    554.837    554.288    554.437    554.288
 21.470    562.075    554.727      7.347    554.011    554.577    554.011    554.161    554.011
 21.570    537.000    554.469    -17.469    553.732    554.316    553.732    553.884    553.732
 21.670    532.000    554.219    -22.219    553.452    554.064    553.452    553.606    553.452
 21.770    569.083    554.048     15.035    553.171    553.892    553.171    553.327    553.171
 21.870    512.401    553.835    -41.435    552.889    553.677    552.889    553.047    552.889
 21.970    555.000    553.609      1.391    552.606    553.450    552.606    552.766    552.606
 22.070    559.000    553.358      5.642    552.321    553.196    552.321    552.483    552.321
 22.170    590.861    553.105     37.756    552.036    552.941    552.036    552.200    552.036
 22.270    530.069    552.854    -22.785    551.750    552.688    551.750    551.916    551.750
 22.370    534.026    552.610    -18.584    551.463    552.442    551.463    551.631    551.463
 22.470    521.925    552.410    -30.485    551.174    552.240    551.174    551.345    551.174
 22.570    571.561    552.187     19.375    550.885    552.014    550.885    551.058    550.885
 22.670    525.915    551.951    -26.036    550.595    551.776    550.595    550.770    550.595
 22.770    592.801    551.719     41.082    550.304    551.542    550.304    550.482    550.304
 22.870    568.000    551.494     16.506    550.013    551.315    550.013    550.193    550.013
 22.970    589.234    551.280     37.954    549.720    551.097    549.720    549.903    549.720
 23.070    558.000    551.077      6.923    549.427    550.892    549.427    549.612    549.427
 23.170    541.179    550.884     -9.704    549.133    550.696    549.133    549.321    549.133
 23.270    531.000    550.706    -19.706    548.838    550.515    548.838    549.029    548.838
 23.370    536.063    550.549    -14.486    548.543    550.355    548.543    548.737    548.543
 23.470    530.577    550.419    -19.842    548.246    550.222    548.246    548.444    548.246
 23.570    573.457    550.325     23.132    547.950    550.125    547.950    548.151    547.950
 23.670    538.000    550.279    -12.279    547.652    550.075    547.652    547.857    547.652
 23.770    575.000    550.299     24.701    547.354    550.091    547.354    547.563    547.354
 23.870    516.229    550.413    -34.184    547.056    550.202    547.056    547.268    547.056
 23.970    601.000    550.672     50.328    546.757    550.458    546.757    546.973    546.757
 24.070    508.298    551.198    -42.901    546.457    550.980    546.457    546.678    546.457
 24.170    601.000    552.337     48.663    546.157    552.116    546.157    546.382    546.157
 24.270    554.000    555.040     -1.040    545.856    554.816    545.856    546.086    545.856
 24.370    581.738    561.386     20.352    545.555    561.161    545.555    545.790    545.555
 24.470    568.291    574.358     -6.067    545.254    574.138    545.254    545.494    545.254
 24.570    645.000    595.572     49.428    544.952    595.361    544.952    545.197    544.952
 24.670    605.910    620.928    -15.018    544.650    620.730    544.650    544.901    544.650
 24.770    654.000    637.819     16.181    544.347    637.627    544.347    544.605    544.347
 24.870    596.139    633.701    -37.562    544.045    633.500    544.045    544.308    544.045
 24.970    652.000    611.975     40.025    543.742    611.753    543.742    544.012    543.742
 25.070    629.439    586.728     42.711    543.438    586.480    543.438    543.716    543.438
 25.170    520.783    567.699    -46.916    543.135    567.430    543.135    543.420    543.135
 25.270    551.000    556.663     -5.663    542.831    556.378    542.831    543.124    542.831
 25.370    581.418    551.241     30.177    542.527    550.943    542.527    542.829    542.527
 25.470    519.772    548.675    -28.903    542.222    548.366    542.222    542.534    542.222
 25.570    586.000    547.300     38.700    541.918    546.981    541.918    542.239    541.918
 25.670    567.985    546.407     21.578    541.614    546.076    541.614    541.945    541.614
 25.770    534.000    545.739    -11.739    541.309    545.397    541.309    541.652    541.309
 25.870    588.000    545.205     42.795    541.004    544.851    541.004    541.360    541.004
 25.970    561.000    544.769     16.231    540.699    544.401    540.699    541.068    540.699
 26.070    561.000    544.408     16.592    540.395    544.026    540.395    540.777    540.395
 26.170    545.000    544.108      0.892    540.090    543.710    540.090    540.488    540.090
 26.270    534.000    543.864     -9.864    539.785    543.449    539.785    540.200    539.785
 26.370    505.476    543.696    -38.220    539.480    543.263    539.480    539.913    539.480
 26.470    554.000    543.575     10.425    539.175    543.123    539.175    539.628    539.175
 26.570    571.000    543.486     27.514    538.871    543.012    538.871    539.345    538.871
 26.670    575.000    543.454     31.546    538.566    542.956    538.566    539.064    538.566
 26.770    522.000    543.490    -21.490    538.262    542.966    538.262    538.786    538.262
 26.870    532.000    543.611    -11.611    537.957    543.058    537.957    538.510    537.957
 26.970    555.000    543.836     11.164    537.653    543.251    537.653    538.238    537.653
 27.070    562.000    544.185     17.815    537.349    543.564    537.349    537.969    537.349
 27.170    494.000    544.713    -50.713    537.045    544.053    537.045    537.705    537.045
 27.270    501.462    545.482    -44.019    536.742    544.777    536.742    537.446    536.742
 27.370    540.000    546.550     -6.550    536.438    545.794    536.438    537.192    536.438
 27.470    527.819    548.109    -20.290    536.135    547.297    536.135    536.945    536.135
 27.570    574.983    550.597     24.385    535.832    549.720    535.832    536.707    535.832
 27.670    584.553    555.478     29.075    535.530    554.526    535.530    536.478    535.530
 27.770    576.000    567.592      8.408    535.227    566.551    535.227    536.260    535.227
 27.870    629.000    598.699     30.301    534.926    597.549    534.926    536.057    534.926
 27.970    618.000    666.394    -48.394    534.624    665.108    534.624    535.870    534.624
 28.070    796.000    777.712     18.288    534.323    776.259    534.323    535.704    534.323
 28.170    942.000    901.309     40.691    534.022    899.669    534.022    535.565    534.022
 28.270    936.000    962.338    -26.338    533.721    960.506    533.721    535.458    533.721
 28.370    872.886    911.239    -38.354    533.421    909.207    533.421    535.394    533.421
 28.470    744.828    800.957    -56.129    533.122    798.666    533.122    535.388    533.122
 28.570    747.000    715.402     31.598    532.823    712.750    532.823    535.463    532.823
 28.670    754.000    697.832     56.168    532.524    694.683    532.524    535.658    532.524
 28.770    713.000    743.711    -30.711    532.226    739.878    532.226    536.040    532.226
 28.870    772.000    813.066    -41.066    531.928    808.269    531.928    536.713    531.928
 28.970    821.000    845.919    -24.919    531.631    839.722    531.631    537.831    531.631
 29.070    754.000    806.602    -52.602    531.335    798.357    531.335    539.592    531.335
 29.170    671.000    726.118    -55.118    531.039    714.962    531.039    542.207    531.039
 29.270    650.687    652.213     -1.525    530.743    637.131    530.743    545.833    530.743
 29.370    605.954    606.403     -0.448    530.448    586.418    530.448    550.436    530.448
 29.470    622.000    586.039     35.961    530.154    560.645    530.154    555.549    530.154
 29.570    608.000    579.401     28.599    529.860    549.319    529.860    559.942    529.860
 29.670    598.819    576.447     22.372    529.568    544.239    529.568    561.775    529.568
 29.770    552.021    572.172    -20.151    529.275    541.493    529.275    559.953    529.275
 29.870    585.000    566.025     18.975    528.984    539.703    528.984    555.304    528.984
 29.970    587.051    559.392     27.659    528.693    538.441    528.693    549.643    528.693
 30.070    584.000    553.490     30.510    528.402    537.566    528.402    544.325    528.402
 30.170    540.000    548.873     -8.873    528.113    537.051    528.113    539.933    528.113
 30.270    559.000    545.743     13.257    527.824    537.004    527.824    536.561    527.824
 30.370    571.000    544.406     26.594    527.536    537.861    527.536    534.077    527.536
