neutron_powder_diffraction_0058
R_wp: 4.003
Temperature (K): 686.642
Counts: 83307.00
Wavelength (Ã…): 2.52098
COMMENTS
Test file for demonstrating the .xyy file format in Reel1.0
END OF HEADER
   tth       Y_obs     Y_calc      Y_res    Background    Phase_1_Nuc    Phase_1_Mag    Phase_2_Nuc    Phase_2_Mag
  9.970    622.000    652.352    -30.352    651.170    652.040    651.482    651.170    651.170
 10.070    685.000    652.094     32.906    650.840    651.779    651.155    650.840    650.840
 10.170    729.000    651.843     77.157    650.506    651.524    650.825    650.506    650.506
 10.270    615.340    651.601    -36.261    650.170    651.279    650.492    650.170    650.170
 10.370    680.810    651.370     29.440    649.831    651.044    650.156    649.831    649.831
 10.470    614.000    651.153    -37.153    649.490    650.823    649.818    649.490    649.490
 10.570    669.000    650.954     18.046    649.145    650.621    649.478    649.145    649.145
 10.670    635.000    650.779    -15.779    648.798    650.443    649.134    648.798    648.798
 10.770    686.000    650.635     35.365    648.449    650.294    648.788    648.449    648.449
 10.870    696.791    650.529     46.262    648.096    650.185    648.440    648.096    648.096
 10.970    693.000    650.476     42.524    647.742    650.127    648.089    647.742    647.742
 11.070    682.000    650.492     31.508    647.384    650.139    647.736    647.384    647.384
 11.170    618.959    650.602    -31.643    647.024    650.245    647.380    647.024    647.024
 11.270    697.000    650.843     46.157    646.662    650.482    647.022    646.662    646.662
 11.370    663.000    651.274     11.726    646.298    650.908    646.661    646.298    646.298
 11.470    604.463    652.004    -47.541    645.931    651.633    646.299    645.931    645.931
 11.570    623.352    653.290    -29.938    645.562    652.914    645.934    645.562    645.562
 11.670    680.000    655.791     24.209    645.190    655.409    645.567    645.190    645.190
 11.770    607.512    661.063    -53.550    644.817    660.673    645.197    644.817    644.817
 11.870    714.000    671.977     42.023    644.441    671.577    644.826    644.441    644.441
 11.970    695.737    692.057      3.680    644.063    691.641    644.452    644.063    644.063
 12.070    757.928    722.624     35.304    643.682    722.187    644.077    643.682    643.682
 12.170    772.020    757.613     14.407    643.300    757.152    643.699    643.300    643.300
 12.270    828.000    780.229     47.771    642.916    779.750    643.320    642.916    642.916
 12.370    742.703    774.241    -31.537    642.530    773.760    642.939    642.530    642.530
 12.470    762.000    744.439     17.561    642.141    743.970    642.556    642.141    642.141
 12.570    716.943    709.254      7.688    641.751    708.799    642.171    641.751    641.751
 12.670    643.000    681.526    -38.526    641.359    681.080    641.784    641.359    641.359
 12.770    702.130    664.183     37.947    640.965    663.741    641.395    640.965    640.965
 12.870    631.000    654.786    -23.786    640.569    654.343    641.005    640.569    640.569
 12.970    681.999    649.904     32.095    640.172    649.459    640.613    640.172    640.172
 13.070    620.000    647.149    -27.149    639.772    646.699    640.219    639.772    639.772
 13.170    642.153    645.330     -3.176    639.371    644.875    639.823    639.371    639.371
 13.270    587.000    643.960    -56.960    638.969    643.499    639.427    638.969    638.969
 13.370    628.747    642.846    -14.099    638.564    642.380    639.028    638.564    638.564
 13.470    597.750    641.900    -44.150    638.158    641.428    638.628    638.158    638.158
 13.570    656.110    641.072     15.038    637.751    640.594    638.227    637.751    637.751
 13.670    595.000    640.330    -45.330    637.341    639.846    637.824    637.341    637.341
 13.770    646.000    639.651      6.349    636.931    639.161    637.420    636.931    636.931
 13.870    641.000    639.022      1.978    636.519    638.525    637.014    636.519    636.519
 13.970    628.158    638.429    -10.271    636.105    637.926    636.607    636.105    636.105
 14.070    639.150    637.866      1.284    635.690    637.356    636.199    635.690    635.690
 14.170    633.000    637.325     -4.325    635.274    636.809    635.789    635.274    635.274
 14.270    629.000    636.803     -7.803    634.856    636.280    635.379    634.856    634.856
 14.370    598.000    636.296    -38.296    634.437    635.765    634.967    634.437    634.437
 14.470    618.000    635.805    -17.805    634.016    635.267    634.554    634.016    634.016
 14.570    593.000    635.321    -42.321    633.595    634.775    634.140    633.595    633.595
 14.670    639.129    634.844      4.286    633.172    634.290    633.725    633.172    633.172
 14.770    645.000    634.373     10.627    632.748    633.812    633.309    632.748    632.748
 14.870    624.000    633.908     -9.908    632.323    633.338    632.892    632.323    632.323
 14.970    674.597    633.448     41.149    631.896    632.870    632.474    631.896    631.896
 15.070    626.000    632.998     -6.998    631.469    632.412    632.055    631.469    631.469
 15.170    558.000    632.567    -74.567    631.040    631.972    631.635    631.040    631.040
 15.270    607.000    632.119    -25.119    630.611    631.515    631.215    630.611    630.611
 15.370    607.778    631.671    -23.894    630.180    631.058    630.793    630.180    630.180
 15.470    581.000    631.226    -50.226    629.749    630.604    630.371    629.749    629.749
 15.570    676.848    630.782     46.066    629.316    630.150    629.948    629.316    629.316
 15.670    585.445    630.339    -44.894    628.883    629.698    629.524    628.883    628.883
 15.770    612.000    629.898    -17.898    628.449    629.247    629.100    628.449    628.449
 15.870    632.108    629.458      2.650    628.014    628.797    628.675    628.014    628.014
 15.970    613.000    629.019    -16.019    627.578    628.348    628.249    627.578    627.578
 16.070    636.000    628.581      7.419    627.141    627.899    627.823    627.141    627.141
 16.170    661.053    628.147     32.906    626.704    627.454    627.397    626.704    626.704
 16.270    594.000    627.715    -33.715    626.266    627.011    626.970    626.266    626.266
 16.370    583.291    627.280    -43.989    625.827    626.564    626.542    625.827    625.827
 16.470    645.000    626.845     18.155    625.387    626.117    626.115    625.387    625.387
 16.570    631.000    626.410      4.590    624.947    625.670    625.686    624.947    624.947
 16.670    606.000    625.976    -19.976    624.506    625.224    625.258    624.506    624.506
 16.770    588.000    625.542    -37.542    624.065    624.778    624.829    624.065    624.065
 16.870    623.356    625.109     -1.752    623.623    624.332    624.400    623.623    623.623
 16.970    545.000    624.681    -79.681    623.180    623.891    623.970    623.180    623.180
 17.070    630.000    624.302      5.698    622.737    623.498    623.541    622.737    622.737
 17.170    673.000    623.895     49.105    622.294    623.077    623.112    622.294    622.294
 17.270    614.000    623.467     -9.467    621.850    622.634    622.682    621.850    621.850
 17.370    583.347    623.044    -39.697    621.405    622.195    622.253    621.405    621.405
 17.470    551.000    622.682    -71.682    620.960    621.809    621.833    620.960    620.960
 17.570    584.000    622.263    -38.263    620.515    621.374    621.404    620.515    620.515
 17.670    593.637    621.835    -28.198    620.070    620.930    620.975    620.070    620.070
 17.770    617.000    621.408     -4.408    619.624    620.486    620.545    619.624    619.624
 17.870    669.513    620.980     48.532    619.178    620.042    620.116    619.178    619.178
 17.970    611.000    620.554     -9.554    618.731    619.598    619.687    618.731    618.731
 18.070    603.000    620.128    -17.128    618.285    619.155    619.258    618.285    618.285
 18.170    620.000    619.703      0.297    617.838    618.711    618.829    617.838    617.838
 18.270    600.464    619.278    -18.814    617.391    618.268    618.401    617.391    617.391
 18.370    610.000    618.856     -8.856    616.943    617.826    617.973    616.943    616.943
 18.470    627.865    618.446      9.419    616.496    617.396    617.546    616.496    616.496
 18.570    606.671    618.025    -11.354    616.049    616.955    617.119    616.049    616.049
 18.670    624.967    617.604      7.363    615.601    616.513    616.693    615.601    615.601
 18.770    641.000    617.185     23.815    615.153    616.071    616.267    615.153    615.153
 18.870    588.907    616.766    -27.859    614.706    615.630    615.842    614.706    614.706
 18.970    596.000    616.349    -20.349    614.258    615.190    615.417    614.258    614.258
 19.070    655.512    615.943     39.569    613.810    614.760    614.993    613.810    613.810
 19.170    577.000    615.548    -38.548    613.362    614.340    614.570    613.362    613.362
 19.270    609.000    615.146     -6.146    612.915    613.913    614.148    612.915    612.915
 19.370    528.000    614.734    -86.734    612.467    613.475    613.727    612.467    612.467
 19.470    616.501    614.324      2.176    612.020    613.037    613.307    612.020    612.020
 19.570    592.000    613.932    -21.932    611.572    612.616    612.888    611.572    611.572
 19.670    630.000    613.563     16.437    611.125    612.217    612.471    611.125    611.125
 19.770    641.000    613.167     27.833    610.678    611.791    612.054    610.678    610.678
 19.870    577.000    612.764    -35.764    610.231    611.357    611.639    610.231    610.231
 19.970    603.000    612.371     -9.371    609.785    610.927    611.228    609.785    609.785
 20.070    580.000    611.978    -31.978    609.338    610.501    610.815    609.338    609.338
 20.170    595.842    611.586    -15.745    608.892    610.075    610.404    608.892    608.892
 20.270    652.000    611.190     40.810    608.446    609.643    609.993    608.446    608.446
 20.370    622.246    610.800     11.446    608.001    609.216    609.585    608.001    608.001
 20.470    592.000    610.456    -18.456    607.555    608.833    609.178    607.555    607.555
 20.570    591.648    610.115    -18.467    607.110    608.452    608.773    607.110    607.110
 20.670    598.000    609.750    -11.750    606.666    608.046    608.370    606.666    606.666
 20.770    600.000    609.369     -9.369    606.222    607.623    607.968    606.222    606.222
 20.870    610.000    608.989      1.011    605.778    607.198    607.569    605.778    605.778
 20.970    645.906    608.616     37.289    605.335    606.778    607.173    605.335    605.335
 21.070    657.008    608.248     48.760    604.892    606.360    606.779    604.892    604.892
 21.170    598.000    607.884     -9.884    604.449    605.947    606.387    604.449    604.449
 21.270    619.000    607.559     11.441    604.008    605.570    605.997    604.008    604.008
 21.370    620.707    607.204     13.503    603.566    605.161    605.610    603.566    603.566
 21.470    630.591    606.849     23.742    603.125    604.749    605.225    603.125    603.125
 21.570    577.504    606.497    -28.994    602.685    604.339    604.844    602.685    602.685
 21.670    608.000    606.150      1.850    602.245    603.930    604.465    602.245    602.245
 21.770    627.000    605.810     21.190    601.806    603.525    604.090    601.806    601.806
 21.870    581.000    605.481    -24.481    601.367    603.128    603.720    601.367    601.367
 21.970    566.000    605.152    -39.152    600.929    602.730    603.352    600.929    600.929
 22.070    618.000    604.830     13.170    600.492    602.334    602.988    600.492    600.492
 22.170    652.000    604.514     47.486    600.055    601.942    602.628    600.055    600.055
 22.270    615.004    604.208     10.796    599.619    601.556    602.272    599.619    599.619
 22.370    592.000    603.909    -11.909    599.184    601.173    601.920    599.184    599.184
 22.470    575.000    603.618    -28.618    598.750    600.794    601.573    598.750    598.750
 22.570    581.325    603.337    -22.012    598.316    600.421    601.232    598.316    598.316
 22.670    603.000    603.067     -0.067    597.883    600.055    600.896    597.883    597.883
 22.770    598.000    602.813     -4.813    597.451    599.698    600.566    597.451    597.451
 22.870    603.000    602.571      0.429    597.019    599.349    600.241    597.019    597.019
 22.970    596.000    602.345     -6.345    596.588    599.010    599.924    596.588    596.588
 23.070    589.000    602.137    -13.137    596.159    598.683    599.613    596.159    596.159
 23.170    619.000    601.951     17.049    595.729    598.371    599.309    595.729    595.729
 23.270    585.311    601.790    -16.478    595.301    598.078    599.014    595.301    595.301
 23.370    587.000    601.659    -14.659    594.874    597.806    598.728    594.874    594.874
 23.470    621.000    601.564     19.436    594.448    597.562    598.450    594.448    594.448
 23.570    614.000    601.512     12.488    594.022    597.353    598.182    594.022    594.022
 23.670    645.000    601.515     43.485    593.598    597.189    597.925    593.598    593.598
 23.770    575.000    601.587    -26.587    593.174    597.083    597.679    593.174    593.174
 23.870    572.000    601.749    -29.749    592.751    597.056    597.445    592.751    592.751
 23.970    655.000    602.032     52.968    592.330    597.138    597.225    592.330    592.330
 24.070    614.000    602.487     11.513    591.909    597.379    597.019    591.909    591.909
 24.170    617.000    603.220     13.780    591.489    597.883    596.829    591.489    591.489
 24.270    645.000    604.487     40.513    591.071    598.906    596.655    591.071    591.071
 24.370    604.000    606.921     -2.921    590.653    601.079    596.501    590.653    590.653
 24.470    642.000    611.855     30.145    590.236    605.735    596.366    590.236    590.236
 24.570    624.000    621.394      2.606    589.821    614.977    596.254    589.821    589.821
 24.670    615.992    637.509    -21.516    589.407    630.777    596.166    589.407    589.407
 24.770    708.000    659.746     48.254    588.993    652.678    596.106    588.993    588.993
 24.870    776.000    682.106     93.894    588.581    674.674    596.075    588.581    588.581
 24.970    738.000    692.158     45.842    588.170    684.319    596.077    588.170    588.170
 25.070    728.840    681.792     47.049    587.760    673.496    596.116    587.760    587.760
 25.170    648.000    659.450    -11.450    587.351    650.649    596.196    587.351    587.351
 25.270    656.000    637.547     18.453    586.944    628.194    596.325    586.944    586.944
 25.370    619.000    621.882     -2.882    586.537    611.932    596.503    586.537    586.537
 25.470    616.786    612.806      3.981    586.132    602.207    596.739    586.132    586.132
 25.570    666.000    608.320     57.680    585.728    597.012    597.042    585.728    585.728
 25.670    625.473    606.344     19.129    585.325    594.254    597.419    585.325    585.325
 25.770    681.000    605.583     75.417    584.923    592.626    597.883    584.923    584.923
 25.870    654.484    605.436     49.048    584.523    591.515    598.445    584.523    584.523
 25.970    651.000    605.675     45.325    584.124    590.678    599.123    584.124    584.124
 26.070    620.000    606.223     13.777    583.726    590.016    599.934    583.726    583.726
 26.170    642.000    607.055     34.945    583.330    589.483    600.903    583.330    583.330
 26.270    616.000    608.170      7.830    582.935    589.052    602.052    582.935    582.935
 26.370    587.504    609.589    -22.085    582.541    588.709    603.420    582.541    582.541
 26.470    603.000    611.348     -8.348    582.148    588.448    605.048    582.148    582.148
 26.570    649.742    613.501     36.241    581.757    588.265    606.991    581.757    581.757
 26.670    619.821    616.117      3.704    581.367    588.165    609.318    581.367    581.367
 26.770    583.000    619.296    -36.296    580.978    588.154    612.119    580.978    580.978
 26.870    654.000    623.165     30.835    580.591    588.244    615.510    580.591    580.591
 26.970    689.000    627.900     61.100    580.206    588.456    619.647    580.206    580.206
 27.070    623.000    633.740    -10.740    579.821    588.815    624.744    579.821    579.821
 27.170    641.000    641.018     -0.018    579.438    589.361    631.091    579.438    579.438
 27.270    679.836    650.203     29.633    579.057    590.149    639.105    579.057    579.057
 27.370    653.000    661.994     -8.994    578.677    591.264    649.400    578.677    578.677
 27.470    727.000    677.527     49.473    578.298    592.841    662.975    578.298    578.298
 27.570    764.000    699.062     64.938    577.921    595.151    681.821    577.921    577.921
 27.670    683.155    732.214    -49.058    577.545    598.859    710.884    577.545    577.545
 27.770    809.695    791.875     17.820    577.171    605.731    763.288    577.171    577.171
 27.870    909.050    912.760     -3.710    576.798    619.874    869.633    576.798    576.798
 27.970   1034.000   1156.709   -122.709    576.426    648.601   1084.434    576.426    576.426
 28.070   1462.000   1594.317   -132.317    576.057    700.270   1469.925    576.057    576.057
 28.170   2150.000   2240.596    -90.596    575.688    776.687   2039.327    575.688    575.688
 28.270   3040.681   2960.033     80.648    575.322    861.925   2673.108    575.322    575.322
 28.370   3448.000   3424.373     23.627    574.956    917.392   3081.671    574.956    574.956
 28.470   3439.264   3341.682     97.583    574.593    909.009   3007.150    574.593    574.593
 28.570   2839.000   2826.262     12.738    574.230    851.074   2549.426    574.230    574.230
 28.670   2297.173   2258.660     38.513    573.870    789.785   2042.791    573.870    573.870
 28.770   1721.000   1924.548   -203.548    573.511    760.121   1737.968    573.511    573.511
 28.870   1781.000   1892.709   -111.709    573.153    770.207   1695.659    573.153    573.153
 28.970   2005.806   2051.724    -45.919    572.798    803.937   1820.589    572.798    572.798
 29.070   2283.000   2179.105    103.895    572.443    828.328   1923.266    572.443    572.443
 29.170   2125.000   2085.288     39.712    572.091    814.875   1842.611    572.091    572.091
 29.270   1905.000   1781.670    123.330    571.740    766.556   1586.987    571.740    571.740
 29.370   1491.038   1417.358     73.679    571.390    708.019   1280.846    571.390    571.390
 29.470   1111.602   1112.643     -1.041    571.042    658.958   1024.809    571.042    571.042
 29.570    917.489    906.981     10.508    570.696    625.852    851.874    570.696    570.696
 29.670    830.064    786.946     43.118    570.352    606.569    750.755    570.352    570.352
 29.770    800.000    722.017     77.983    570.009    596.188    695.851    570.009    570.009
 29.870    777.000    686.346     90.654    569.668    590.541    665.480    569.668    569.668
 29.970    706.000    664.737     41.263    569.328    587.185    646.885    569.328    569.328
 30.070    660.684    650.067     10.617    568.990    584.990    634.069    568.990    568.990
 30.170    772.000    639.367    132.633    568.654    583.512    624.510    568.654    568.654
 30.270    576.879    631.422    -54.542    568.320    582.620    617.120    568.320    568.320
 30.370    599.183    625.813    -26.630    567.987    582.395    611.403    567.987    567.987
