neutron_powder_diffraction_0155
R_wp: 3.920
Temperature (K): 1074.000
Counts: 83458.00
Wavelength (Ã…): 2.52098
COMMENTS
Test file for demonstrating the .xyy file format in Reel1.0
END OF HEADER
   tth       Y_obs     Y_calc      Y_res    Background    Phase_1_Nuc    Phase_1_Mag    Phase_2_Nuc    Phase_2_Mag
  9.970    600.000    568.819     31.181    568.067    568.741    568.067    568.144    568.067
 10.070    590.000    568.933     21.067    568.119    568.855    568.119    568.197    568.119
 10.170    543.112    569.048    -25.935    568.166    568.969    568.166    568.244    568.166
 10.270    575.000    569.167      5.833    568.207    569.089    568.207    568.285    568.207
 10.370    526.571    569.294    -42.724    568.243    569.215    568.243    568.322    568.243
 10.470    574.695    569.431      5.264    568.275    569.352    568.275    568.353    568.275
 10.570    566.000    569.583     -3.583    568.301    569.503    568.301    568.380    568.301
 10.670    547.000    569.754    -22.754    568.322    569.673    568.322    568.401    568.322
 10.770    525.933    569.950    -44.017    568.338    569.870    568.338    568.417    568.338
 10.870    589.672    570.182     19.490    568.349    570.101    568.349    568.429    568.349
 10.970    613.048    570.462     42.586    568.355    570.380    568.355    568.435    568.355
 11.070    595.000    570.808     24.192    568.356    570.726    568.356    568.437    568.356
 11.170    577.000    571.246      5.754    568.352    571.164    568.352    568.434    568.352
 11.270    617.989    571.820     46.169    568.344    571.737    568.344    568.426    568.344
 11.370    571.000    572.599     -1.599    568.331    572.514    568.331    568.413    568.331
 11.470    611.000    573.739     37.261    568.314    573.654    568.314    568.396    568.314
 11.570    672.000    575.673     96.327    568.291    575.586    568.291    568.374    568.291
 11.670    626.543    579.593     46.950    568.264    579.504    568.264    568.347    568.264
 11.770    633.000    588.185     44.815    568.233    588.091    568.233    568.316    568.233
 11.870    634.208    605.651     28.558    568.197    605.546    568.197    568.281    568.197
 11.970    686.000    635.103     50.897    568.157    634.981    568.157    568.241    568.157
 12.070    726.000    672.647     53.353    568.112    672.503    568.112    568.197    568.112
 12.170    663.000    702.027    -39.027    568.063    701.865    568.063    568.148    568.063
 12.270    747.825    702.932     44.893    568.010    702.770    568.010    568.095    568.010
 12.370    702.121    674.506     27.615    567.953    674.360    567.953    568.038    567.953
 12.470    605.947    636.702    -30.755    567.891    636.577    567.891    567.977    567.891
 12.570    577.000    606.495    -29.495    567.825    606.387    567.825    567.912    567.825
 12.670    621.321    588.341     32.979    567.755    588.243    567.755    567.842    567.755
 12.770    590.000    579.306     10.694    567.681    579.213    567.681    567.769    567.681
 12.870    589.514    575.134     14.380    567.603    575.042    567.603    567.691    567.603
 12.970    537.000    573.040    -36.040    567.521    572.949    567.521    567.609    567.521
 13.070    530.000    571.774    -41.774    567.435    571.683    567.435    567.524    567.435
 13.170    544.000    570.882    -26.882    567.346    570.792    567.346    567.435    567.346
 13.270    545.000    570.202    -25.202    567.252    570.111    567.252    567.341    567.252
 13.370    608.000    569.659     38.341    567.155    569.568    567.155    567.244    567.155
 13.470    527.000    569.212    -42.212    567.053    569.121    567.053    567.144    567.053
 13.570    543.000    568.833    -25.833    566.949    568.741    566.949    567.039    566.949
 13.670    581.000    568.504     12.496    566.840    568.412    566.840    566.931    566.840
 13.770    554.000    568.212    -14.212    566.728    568.120    566.728    566.819    566.728
 13.870    544.000    567.948    -23.948    566.612    567.855    566.612    566.704    566.612
 13.970    593.000    567.705     25.295    566.493    567.612    566.493    566.585    566.493
 14.070    589.330    567.478     21.853    566.370    567.384    566.370    566.463    566.370
 14.170    581.149    567.263     13.887    566.244    567.169    566.244    566.337    566.244
 14.270    596.000    567.057     28.943    566.114    566.963    566.114    566.208    566.114
 14.370    589.000    566.859     22.141    565.981    566.764    565.981    566.075    565.981
 14.470    583.000    566.666     16.334    565.845    566.571    565.845    565.939    565.845
 14.570    544.000    566.477    -22.477    565.705    566.382    565.705    565.800    565.705
 14.670    576.774    566.294     10.480    565.562    566.198    565.562    565.658    565.562
 14.770    608.044    566.112     41.932    565.416    566.015    565.416    565.512    565.416
 14.870    545.000    565.931    -20.931    565.267    565.832    565.267    565.366    565.267
 14.970    548.000    565.750    -17.750    565.114    565.649    565.114    565.215    565.114
 15.070    576.493    565.568     10.925    564.959    565.467    564.959    565.060    564.959
 15.170    572.079    565.386      6.693    564.800    565.284    564.800    564.902    564.800
 15.270    546.000    565.203    -19.203    564.639    565.101    564.639    564.741    564.639
 15.370    586.611    565.020     21.591    564.474    564.917    564.474    564.577    564.474
 15.470    572.000    564.836      7.164    564.307    564.733    564.307    564.410    564.307
 15.570    580.000    564.650     15.350    564.136    564.547    564.136    564.240    564.136
 15.670    563.000    564.464     -1.464    563.963    564.359    563.963    564.067    563.963
 15.770    558.000    564.276     -6.276    563.787    564.171    563.787    563.892    563.787
 15.870    597.477    564.086     33.391    563.608    563.980    563.608    563.714    563.608
 15.970    556.000    563.895     -7.895    563.427    563.788    563.427    563.533    563.427
 16.070    529.000    563.702    -34.702    563.242    563.595    563.242    563.349    563.242
 16.170    607.837    563.507     44.330    563.056    563.399    563.056    563.163    563.056
 16.270    556.000    563.311     -7.311    562.866    563.203    562.866    562.974    562.866
 16.370    557.998    563.115     -5.117    562.674    563.006    562.674    562.782    562.674
 16.470    600.434    562.915     37.519    562.479    562.806    562.479    562.588    562.479
 16.570    560.000    562.713     -2.713    562.282    562.603    562.282    562.392    562.282
 16.670    559.009    562.509     -3.500    562.082    562.399    562.082    562.193    562.082
 16.770    543.000    562.303    -19.303    561.880    562.192    561.880    561.991    561.880
 16.870    543.000    562.096    -19.096    561.676    561.984    561.676    561.788    561.676
 16.970    605.666    561.886     43.780    561.469    561.773    561.469    561.581    561.469
 17.070    580.869    561.675     19.195    561.260    561.561    561.260    561.373    561.260
 17.170    522.854    561.461    -38.608    561.048    561.347    561.048    561.162    561.048
 17.270    556.000    561.246     -5.246    560.834    561.131    560.834    560.949    560.834
 17.370    538.000    561.029    -23.029    560.619    560.914    560.619    560.734    560.619
 17.470    600.990    560.813     40.177    560.400    560.696    560.400    560.516    560.400
 17.570    593.385    560.593     32.792    560.180    560.476    560.180    560.297    560.180
 17.670    564.000    560.370      3.630    559.958    560.253    559.958    560.075    559.958
 17.770    541.000    560.146    -19.146    559.733    560.028    559.733    559.851    559.733
 17.870    586.144    559.920     26.224    559.506    559.801    559.506    559.626    559.506
 17.970    550.000    559.693     -9.693    559.278    559.572    559.278    559.398    559.278
 18.070    598.978    559.463     39.515    559.047    559.342    559.047    559.168    559.047
 18.170    565.000    559.233      5.767    558.815    559.111    558.815    558.936    558.815
 18.270    550.000    559.001     -9.001    558.580    558.878    558.580    558.703    558.580
 18.370    565.000    558.767      6.233    558.344    558.643    558.344    558.467    558.344
 18.470    569.000    558.531     10.469    558.106    558.407    558.106    558.230    558.106
 18.570    565.000    558.294      6.706    557.866    558.169    557.866    557.991    557.866
 18.670    589.428    558.055     31.372    557.624    557.929    557.624    557.750    557.624
 18.770    538.000    557.815    -19.815    557.380    557.688    557.380    557.507    557.380
 18.870    556.000    557.573     -1.573    557.135    557.445    557.135    557.263    557.135
 18.970    582.000    557.330     24.670    556.888    557.201    556.888    557.017    556.888
 19.070    504.000    557.086    -53.086    556.639    556.956    556.639    556.769    556.639
 19.170    533.000    556.841    -23.841    556.389    556.710    556.389    556.520    556.389
 19.270    551.000    556.596     -5.596    556.137    556.463    556.137    556.269    556.137
 19.370    600.333    556.347     43.986    555.884    556.214    555.884    556.017    555.884
 19.470    542.000    556.098    -14.098    555.629    555.964    555.629    555.763    555.629
 19.570    511.766    555.848    -44.082    555.373    555.712    555.373    555.508    555.373
 19.670    541.000    555.596    -14.596    555.115    555.460    555.115    555.251    555.115
 19.770    566.000    555.343     10.657    554.855    555.206    554.855    554.993    554.855
 19.870    510.217    555.090    -44.873    554.595    554.951    554.595    554.733    554.595
 19.970    518.000    554.835    -36.835    554.333    554.695    554.333    554.473    554.333
 20.070    524.000    554.581    -30.581    554.069    554.440    554.069    554.210    554.069
 20.170    528.000    554.338    -26.338    553.804    554.196    553.804    553.947    553.804
 20.270    519.000    554.092    -35.092    553.538    553.948    553.538    553.682    553.538
 20.370    592.104    553.835     38.269    553.271    553.690    553.271    553.416    553.271
 20.470    579.140    553.576     25.563    553.003    553.430    553.003    553.149    553.003
 20.570    576.237    553.317     22.919    552.733    553.170    552.733    552.881    552.733
 20.670    534.991    553.058    -18.066    552.462    552.909    552.462    552.611    552.462
 20.770    612.000    552.798     59.202    552.190    552.647    552.190    552.341    552.190
 20.870    552.000    552.538     -0.538    551.917    552.386    551.917    552.069    551.917
 20.970    489.000    552.277    -63.277    551.643    552.124    551.643    551.796    551.643
 21.070    565.000    552.024     12.976    551.367    551.869    551.367    551.522    551.367
 21.170    516.744    551.845    -35.101    551.091    551.689    551.091    551.248    551.091
 21.270    565.000    551.606     13.394    550.814    551.448    550.814    550.972    550.814
 21.370    545.430    551.347     -5.917    550.535    551.187    550.535    550.696    550.535
 21.470    538.000    551.087    -13.087    550.256    550.925    550.256    550.418    550.256
 21.570    574.330    550.827     23.503    549.976    550.664    549.976    550.140    549.976
 21.670    509.166    550.568    -41.402    549.695    550.403    549.695    549.861    549.695
 21.770    554.000    550.310      3.690    549.413    550.143    549.413    549.581    549.413
 21.870    589.000    550.053     38.947    549.130    549.884    549.130    549.300    549.130
 21.970    585.699    549.798     35.901    548.847    549.626    548.847    549.019    548.847
 22.070    577.000    549.544     27.456    548.563    549.370    548.563    548.736    548.563
 22.170    575.000    549.292     25.708    548.278    549.116    548.278    548.453    548.278
 22.270    571.000    549.044     21.956    547.992    548.866    547.992    548.170    547.992
 22.370    543.000    548.817     -5.817    547.705    548.637    547.705    547.886    547.705
 22.470    549.000    548.604      0.396    547.418    548.422    547.418    547.601    547.418
 22.570    542.000    548.413     -6.413    547.130    548.228    547.130    547.316    547.130
 22.670    550.000    548.200      1.800    546.842    548.013    546.842    547.030    546.842
 22.770    536.000    547.979    -11.979    546.553    547.789    546.553    546.743    546.553
 22.870    524.000    547.760    -23.760    546.263    547.567    546.263    546.457    546.263
 22.970    528.593    547.550    -18.957    545.973    547.354    545.973    546.169    545.973
 23.070    543.107    547.352     -4.245    545.683    547.153    545.683    545.882    545.683
 23.170    537.000    547.168    -10.168    545.391    546.966    545.391    545.594    545.391
 23.270    524.000    547.002    -23.002    545.100    546.797    545.100    545.305    545.100
 23.370    577.000    546.859     30.141    544.808    546.650    544.808    545.016    544.808
 23.470    537.000    546.745     -9.745    544.515    546.534    544.515    544.727    544.515
 23.570    545.000    546.672     -1.672    544.222    546.457    544.222    544.438    544.222
 23.670    563.077    546.654     16.423    543.929    546.436    543.929    544.149    543.929
 23.770    575.000    546.707     28.293    543.635    546.484    543.635    543.859    543.635
 23.870    551.000    546.863      4.137    543.341    546.637    543.341    543.569    543.341
 23.970    568.293    547.181     21.112    543.047    546.951    543.047    543.279    543.047
 24.070    555.465    547.798      7.667    542.752    547.564    542.752    542.989    542.752
 24.170    505.517    549.095    -43.577    542.458    548.857    542.458    542.699    542.458
 24.270    558.000    552.063      5.937    542.163    551.822    542.163    542.409    542.163
 24.370    578.000    558.728     19.272    541.867    558.487    541.867    542.119    541.867
 24.470    553.000    571.829    -18.829    541.572    571.592    541.572    541.829    541.572
 24.570    599.813    592.646      7.166    541.276    592.418    541.276    541.539    541.276
 24.670    649.000    617.106     31.894    540.980    616.890    540.980    541.249    540.980
 24.770    638.000    633.265      4.735    540.684    633.054    540.684    540.960    540.684
 24.870    601.498    629.316    -27.818    540.388    629.096    540.388    540.671    540.388
 24.970    619.000    608.461     10.539    540.092    608.219    540.092    540.382    540.092
 25.070    565.000    583.972    -18.972    539.796    583.705    539.796    540.093    539.796
 25.170    541.000    565.147    -24.147    539.500    564.858    539.500    539.805    539.500
 25.270    578.960    553.892     25.067    539.203    553.587    539.203    539.518    539.203
 25.370    540.000    548.162     -8.162    538.907    547.844    538.907    539.231    538.907
 25.470    505.380    545.372    -39.992    538.611    545.042    538.611    538.944    538.611
 25.570    579.128    543.860     35.268    538.315    543.518    538.315    538.659    538.315
 25.670    535.000    542.881     -7.881    538.019    542.528    538.019    538.374    538.019
 25.770    529.000    542.156    -13.156    537.723    541.789    537.723    538.090    537.723
 25.870    532.000    541.577     -9.577    537.427    541.198    537.427    537.807    537.427
 25.970    563.075    541.103     21.972    537.131    540.709    537.131    537.525    537.131
 26.070    567.000    540.709     26.291    536.835    540.300    536.835    537.245    536.835
 26.170    534.000    540.382     -6.382    536.540    539.956    536.540    536.966    536.540
 26.270    535.000    540.132     -5.132    536.244    539.688    536.244    536.688    536.244
 26.370    554.152    539.931     14.221    535.949    539.468    535.949    536.412    535.949
 26.470    541.000    539.759      1.241    535.654    539.275    535.654    536.138    535.654
 26.570    538.000    539.628     -1.628    535.359    539.121    535.359    535.867    535.359
 26.670    528.876    539.549    -10.673    535.065    539.017    535.065    535.597    535.065
 26.770    557.864    539.531     18.333    534.771    538.971    534.771    535.331    534.771
 26.870    567.000    539.583     27.417    534.477    538.992    534.477    535.067    534.477
 26.970    552.043    539.723     12.320    534.184    539.099    534.184    534.808    534.184
 27.070    560.422    539.989     20.432    533.890    539.327    533.890    534.552    533.890
 27.170    565.000    540.418     24.582    533.597    539.714    533.597    534.301    533.597
 27.270    592.000    541.004     50.996    533.305    540.253    533.305    534.055    533.305
 27.370    550.000    541.853      8.147    533.013    541.049    533.013    533.815    533.013
 27.470    582.932    543.107     39.825    532.721    542.243    532.721    533.583    532.721
 27.570    533.592    545.127    -11.535    532.430    544.196    532.430    533.359    532.430
 27.670    537.000    549.230    -12.230    532.139    548.220    532.139    533.146    532.139
 27.770    586.000    560.009     25.991    531.849    558.906    531.849    532.944    531.849
 27.870    588.000    589.373     -1.373    531.559    588.159    531.559    532.756    531.559
 27.970    631.569    656.227    -24.658    531.269    654.871    531.269    532.586    531.269
 28.070    784.000    769.267     14.733    530.981    767.738    530.981    532.438    530.981
 28.170    849.357    896.145    -46.789    530.692    894.421    530.692    532.316    530.692
 28.270    968.288    958.614      9.674    530.404    956.692    530.404    532.228    530.404
 28.370    944.798    905.472     39.325    530.117    903.341    530.117    532.186    530.117
 28.470    750.486    791.047    -40.561    529.830    788.647    529.830    532.205    529.830
 28.570    703.000    702.810      0.190    529.544    700.032    529.544    532.311    529.544
 28.670    698.000    685.699     12.301    529.259    682.405    529.259    532.538    529.259
 28.770    691.010    734.056    -43.046    528.974    730.070    528.974    532.939    528.974
 28.870    761.975    805.958    -43.983    528.689    801.051    528.689    533.582    528.689
 28.970    834.066    839.975     -5.910    528.406    833.831    528.406    534.551    528.406
 29.070    784.000    800.121    -16.121    528.123    792.318    528.123    535.937    528.123
 29.170    724.431    717.900      6.531    527.841    707.934    527.841    537.818    527.841
 29.270    654.000    642.205     11.795    527.559    629.544    527.559    540.226    527.559
 29.370    596.000    595.082      0.918    527.278    579.293    527.278    543.070    527.278
 29.470    586.000    573.475     12.525    526.998    554.461    526.998    546.011    526.998
 29.570    606.000    565.589     40.411    526.719    543.950    526.719    548.355    526.719
 29.670    597.000    562.185     34.815    526.440    539.402    526.440    549.220    526.440
 29.770    577.000    558.958     18.042    526.162    536.990    526.162    548.127    526.162
 29.870    547.000    554.976     -7.976    525.885    535.426    525.885    545.432    525.885
 29.970    578.000    550.715     27.285    525.609    534.329    525.609    541.992    525.609
 30.070    527.797    546.795    -18.998    525.333    533.577    525.333    538.549    525.333
 30.170    545.000    543.592      1.408    525.058    533.149    525.058    535.499    525.058
 30.270    600.000    541.343     58.657    524.785    533.156    524.785    532.969    524.785
 30.370    572.963    540.472     32.491    524.512    534.035    524.512    530.945    524.512
