neutron_powder_diffraction_0038
R_wp: 3.790
Temperature (K): 583.157
Counts: 83501.00
Wavelength (Ã…): 2.52098
COMMENTS
Test file for demonstrating the .xyy file format in Reel1.0
END OF HEADER
   tth       Y_obs     Y_calc      Y_res    Background    Phase_1_Nuc    Phase_1_Mag    Phase_2_Nuc    Phase_2_Mag
  9.970    706.000    688.639     17.361    687.188    688.158    687.667    687.188    687.188
 10.070    732.939    688.024     44.915    686.490    687.539    686.974    686.490    686.490
 10.170    729.455    687.421     42.033    685.793    686.931    686.282    685.793    685.793
 10.270    675.000    686.832    -11.832    685.096    686.337    685.591    685.096    685.096
 10.370    748.000    686.260     61.740    684.401    685.759    684.901    684.401    684.401
 10.470    638.840    685.708    -46.868    683.706    685.201    684.212    683.706    683.706
 10.570    738.000    685.180     52.820    683.013    684.668    683.524    683.013    683.013
 10.670    734.443    684.682     49.761    682.320    684.164    682.837    682.320    682.320
 10.770    738.000    684.221     53.779    681.629    683.697    682.151    681.629    681.629
 10.870    689.000    683.807      5.193    680.938    683.277    681.467    680.938    680.938
 10.970    642.639    683.454    -40.815    680.249    682.918    680.783    680.249    680.249
 11.070    683.000    683.180     -0.180    679.560    682.638    680.100    679.560    679.560
 11.170    714.000    683.011     30.989    678.873    682.462    679.419    678.873    678.873
 11.270    746.000    682.986     63.014    678.186    682.431    678.739    678.186    678.186
 11.370    719.000    683.169     35.831    677.501    682.607    678.060    677.501    677.501
 11.470    654.300    683.678    -29.378    676.817    683.109    677.382    676.817    676.817
 11.570    712.000    684.773     27.227    676.134    684.197    676.706    676.134    676.134
 11.670    758.000    687.062     70.938    675.452    686.478    676.030    675.452    675.452
 11.770    729.000    691.812     37.188    674.771    691.218    675.356    674.771    674.771
 11.870    748.535    701.153     47.382    674.092    700.546    674.684    674.092    674.092
 11.970    807.000    717.571     89.429    673.413    716.948    674.012    673.413    673.413
 12.070    868.000    742.082    125.918    672.736    741.438    673.342    672.736    672.736
 12.170    776.000    770.965      5.035    672.060    770.297    672.674    672.060    672.060
 12.270    826.547    792.778     33.768    671.386    792.090    672.007    671.386    671.386
 12.370    852.000    793.622     58.378    670.713    792.925    671.341    670.713    670.713
 12.470    820.000    772.276     47.724    670.041    771.583    670.677    670.041    670.041
 12.570    740.000    742.050     -2.050    669.370    741.366    670.014    669.370    669.370
 12.670    675.000    715.348    -40.348    668.701    714.671    669.353    668.701    668.701
 12.770    670.000    696.680    -26.680    668.033    696.004    668.693    668.033    668.033
 12.870    648.000    685.450    -37.450    667.366    684.772    668.035    667.366    667.366
 12.970    638.931    679.023    -40.092    666.701    678.340    667.378    666.701    666.701
 13.070    612.000    675.221    -63.221    666.037    674.531    666.723    666.037    666.037
 13.170    663.000    672.710     -9.710    665.375    672.012    666.069    665.375    665.375
 13.270    661.000    670.828     -9.828    664.714    670.122    665.417    664.714    664.714
 13.370    683.843    669.291     14.552    664.054    668.577    664.767    664.054    664.054
 13.470    627.000    667.971    -40.971    663.396    667.247    664.118    663.396    663.396
 13.570    630.000    666.801    -36.801    662.740    666.068    663.471    662.740    662.740
 13.670    662.000    665.740     -3.740    662.085    664.999    662.825    662.085    662.085
 13.770    685.000    664.762     20.238    661.431    664.010    662.182    661.431    661.431
 13.870    719.000    663.846     55.154    660.779    663.085    661.540    660.779    660.779
 13.970    642.000    662.980    -20.980    660.129    662.208    660.899    660.129    660.129
 14.070    673.000    662.152     10.848    659.480    661.371    660.261    659.480    659.480
 14.170    684.814    661.356     23.458    658.833    660.564    659.624    658.833    658.833
 14.270    662.097    660.586      1.511    658.187    659.783    658.989    658.187    658.187
 14.370    634.000    659.837    -25.837    657.543    659.022    658.356    657.543    657.543
 14.470    666.000    659.106      6.894    656.900    658.281    657.725    656.900    656.900
 14.570    655.000    658.394     -3.394    656.260    657.558    657.096    656.260    656.260
 14.670    640.000    657.691    -17.691    655.620    656.843    656.469    655.620    655.620
 14.770    644.732    656.999    -12.267    654.983    656.139    655.843    654.983    654.983
 14.870    648.000    656.317     -8.317    654.347    655.444    655.220    654.347    654.347
 14.970    660.000    655.644      4.356    653.713    654.759    654.598    653.713    653.713
 15.070    670.000    654.987     15.013    653.081    654.088    653.979    653.081    653.081
 15.170    618.000    654.352    -36.352    652.450    653.440    653.361    652.450    652.450
 15.270    679.000    653.702     25.298    651.821    652.777    652.746    651.821    651.821
 15.370    643.000    653.056    -10.056    651.194    652.117    652.132    651.194    651.194
 15.470    631.000    652.416    -21.416    650.568    651.463    651.521    650.568    650.568
 15.570    602.000    651.780    -49.780    649.945    650.813    650.912    649.945    649.945
 15.670    650.247    651.149     -0.903    649.323    650.167    650.305    649.323    649.323
 15.770    642.000    650.523     -8.523    648.703    649.526    649.699    648.703    648.703
 15.870    698.762    649.901     48.861    648.084    648.889    649.097    648.084    648.084
 15.970    609.000    649.284    -40.284    647.468    648.255    648.496    647.468    647.468
 16.070    655.404    648.671      6.733    646.853    647.627    647.897    646.853    646.853
 16.170    626.049    648.065    -22.016    646.241    647.004    647.301    646.241    646.241
 16.270    678.226    647.459     30.768    645.630    646.381    646.707    645.630    645.630
 16.370    689.635    646.856     42.779    645.021    645.761    646.116    645.021    645.021
 16.470    610.800    646.256    -35.456    644.414    645.144    645.526    644.414    644.414
 16.570    601.000    645.660    -44.660    643.809    644.530    644.939    643.809    643.809
 16.670    606.000    645.067    -39.067    643.205    643.918    644.355    643.205    643.205
 16.770    608.132    644.478    -36.347    642.604    643.310    643.772    642.604    642.604
 16.870    634.000    643.892     -9.892    642.005    642.704    643.192    642.005    642.005
 16.970    632.000    643.309    -11.309    641.407    642.101    642.615    641.407    641.407
 17.070    598.000    642.729    -44.729    640.812    641.501    642.040    640.812    640.812
 17.170    618.261    642.153    -23.892    640.218    640.903    641.468    640.218    640.218
 17.270    631.000    641.579    -10.579    639.627    640.308    640.898    639.627    639.627
 17.370    597.341    641.009    -43.668    639.037    639.716    640.330    639.037    639.037
 17.470    652.000    640.442     11.558    638.450    639.126    639.766    638.450    638.450
 17.570    602.000    639.881    -37.881    637.864    638.541    639.204    637.864    637.864
 17.670    607.000    639.326    -32.326    637.281    637.962    638.645    637.281    637.281
 17.770    623.000    638.775    -15.775    636.699    637.385    638.088    636.699    636.699
 17.870    596.000    638.277    -42.277    636.120    636.861    637.535    636.120    636.120
 17.970    623.000    637.746    -14.746    635.543    636.304    636.984    635.543    635.543
 18.070    626.626    637.200    -10.574    634.967    635.731    636.436    634.967    634.967
 18.170    640.000    636.657      3.343    634.394    635.160    635.891    634.394    634.394
 18.270    619.000    636.127    -17.127    633.823    634.602    635.348    633.823    633.823
 18.370    669.408    635.593     33.815    633.254    634.039    634.808    633.254    633.254
 18.470    663.085    635.059     28.025    632.687    633.475    634.271    632.687    632.687
 18.570    623.000    634.529    -11.529    632.122    632.914    633.738    632.122    632.122
 18.670    657.000    634.002     22.998    631.560    632.355    633.207    631.560    631.560
 18.770    625.000    633.478     -8.478    630.999    631.798    632.679    630.999    630.999
 18.870    610.000    632.959    -22.959    630.441    631.245    632.155    630.441    630.441
 18.970    628.000    632.442     -4.442    629.885    630.694    631.633    629.885    629.885
 19.070    593.000    631.934    -38.934    629.331    630.149    631.115    629.331    629.331
 19.170    624.000    631.450     -7.450    628.779    629.629    630.600    628.779    628.779
 19.270    596.558    630.948    -34.390    628.229    629.088    630.089    628.229    628.229
 19.370    670.528    630.447     40.081    627.682    628.547    629.581    627.682    627.682
 19.470    628.000    629.951     -1.951    627.136    628.010    629.077    627.136    627.136
 19.570    576.000    629.480    -53.480    626.593    627.492    628.581    626.593    626.593
 19.670    656.000    629.053     26.947    626.052    627.008    628.097    626.052    626.052
 19.770    575.000    628.575    -53.575    625.514    626.483    627.605    625.514    625.514
 19.870    615.000    628.095    -13.095    624.977    625.957    627.115    624.977    624.977
 19.970    615.000    627.619    -12.619    624.443    625.433    626.629    624.443    624.443
 20.070    607.000    627.148    -20.148    623.911    624.911    626.147    623.911    623.911
 20.170    599.891    626.681    -26.790    623.381    624.393    625.669    623.381    623.381
 20.270    613.667    626.219    -12.552    622.854    623.878    625.195    622.854    622.854
 20.370    596.000    625.762    -29.762    622.329    623.365    624.725    622.329    622.329
 20.470    609.000    625.310    -16.310    621.806    622.856    624.260    621.806    621.806
 20.570    629.356    624.867      4.489    621.285    622.353    623.799    621.285    621.285
 20.670    619.000    624.466     -5.466    620.767    621.886    623.347    620.767    620.767
 20.770    575.484    624.065    -48.581    620.251    621.408    622.908    620.251    620.251
 20.870    658.000    623.642     34.358    619.737    620.916    622.463    619.737    619.737
 20.970    591.275    623.246    -31.971    619.226    620.451    622.021    619.226    619.226
 21.070    628.000    622.887      5.113    618.717    620.019    621.585    618.717    618.717
 21.170    601.000    622.509    -21.509    618.210    619.565    621.153    618.210    618.210
 21.270    614.000    622.107     -8.107    617.706    619.086    620.727    617.706    617.706
 21.370    589.187    621.712    -32.525    617.203    618.610    620.306    617.203    617.203
 21.470    593.000    621.327    -28.327    616.704    618.140    619.890    616.704    616.704
 21.570    608.068    620.979    -12.911    616.206    617.703    619.482    616.206    616.206
 21.670    604.000    620.626    -16.626    615.711    617.258    619.079    615.711    615.711
 21.770    652.693    620.266     32.426    615.218    616.802    618.682    615.218    615.218
 21.870    664.292    619.909     44.382    614.728    616.345    618.292    614.728    614.728
 21.970    615.100    619.562     -4.463    614.240    615.894    617.909    614.240    614.240
 22.070    607.000    619.235    -12.235    613.755    615.454    617.536    613.755    613.755
 22.170    620.000    618.912      1.088    613.271    615.015    617.168    613.271    613.271
 22.270    612.000    618.598     -6.598    612.791    614.582    616.807    612.791    612.791
 22.370    619.000    618.298      0.702    612.312    614.157    616.454    612.312    612.312
 22.470    646.000    618.009     27.991    611.836    613.736    616.109    611.836    611.836
 22.570    598.000    617.732    -19.732    611.362    613.322    615.773    611.362    611.362
 22.670    616.000    617.473     -1.473    610.891    612.918    615.446    610.891    610.891
 22.770    649.000    617.229     31.771    610.422    612.522    615.130    610.422    610.422
 22.870    612.000    617.008     -5.008    609.956    612.140    614.824    609.956    609.956
 22.970    623.760    616.809      6.952    609.492    611.771    614.530    609.492    609.492
 23.070    594.000    616.629    -22.629    609.030    611.414    614.245    609.030    609.030
 23.170    624.000    616.476      7.524    608.571    611.074    613.973    608.571    608.571
 23.270    647.000    616.352     30.648    608.115    610.753    613.714    608.115    608.115
 23.370    616.982    616.263      0.718    607.660    610.456    613.468    607.660    607.660
 23.470    631.000    616.216     14.784    607.209    610.189    613.237    607.209    607.209
 23.570    600.000    616.219    -16.219    606.759    609.958    613.021    606.759    606.759
 23.670    663.914    616.282     47.633    606.312    609.773    612.822    606.312    606.312
 23.770    625.000    616.420      8.580    605.868    609.648    612.640    605.868    605.868
 23.870    570.339    616.653    -46.315    605.426    609.603    612.478    605.426    605.426
 23.970    573.000    617.014    -44.014    604.986    609.666    612.337    604.986    604.986
 24.070    615.000    617.550     -2.550    604.549    609.884    612.216    604.549    604.549
 24.170    653.000    618.357     34.643    604.114    610.354    612.120    604.114    604.114
 24.270    621.000    619.650      1.350    603.682    611.287    612.049    603.682    603.682
 24.370    617.000    621.911     -4.911    603.253    613.162    612.007    603.253    603.253
 24.470    647.000    626.088     20.912    602.825    616.927    611.995    602.825    602.825
 24.570    676.945    633.655     43.290    602.401    624.054    612.015    602.401    602.401
 24.670    600.463    646.139    -45.675    601.978    636.066    612.073    601.978    601.978
 24.770    688.028    663.805     24.222    601.559    653.228    612.171    601.559    601.559
 24.870    692.633    683.532      9.101    601.141    672.411    612.312    601.141    601.141
 24.970    702.000    697.249      4.751    600.726    685.533    612.501    600.726    600.726
 25.070    697.000    696.520      0.480    600.314    684.148    612.745    600.314    600.314
 25.170    683.000    682.161      0.839    599.904    669.065    613.048    599.904    599.904
 25.270    685.000    663.039     21.961    599.497    649.152    613.417    599.497    599.497
 25.370    675.000    646.612     28.388    599.092    631.863    613.862    599.092    599.092
 25.470    639.000    635.487      3.513    598.690    619.799    614.390    598.690    598.690
 25.570    611.000    629.179    -18.179    598.290    612.462    615.014    598.290    598.290
 25.670    669.039    626.142     42.897    597.892    608.294    615.745    597.892    597.892
 25.770    598.313    624.980    -26.667    597.498    605.881    616.599    597.498    597.498
 25.870    664.569    624.831     39.739    597.105    604.344    617.594    597.105    597.105
 25.970    642.000    625.281     16.719    596.715    603.247    618.750    596.715    596.715
 26.070    632.249    626.165      6.084    596.328    602.399    620.094    596.328    596.328
 26.170    614.000    627.429    -13.429    595.943    601.715    621.658    595.943    595.943
 26.270    595.289    629.069    -33.780    595.561    601.152    623.478    595.561    595.561
 26.370    585.013    631.108    -46.096    595.181    600.686    625.602    595.181    595.181
 26.470    615.000    633.593    -18.593    594.804    600.305    628.090    594.804    594.804
 26.570    589.000    636.589    -47.589    594.429    600.001    631.014    594.429    594.429
 26.670    630.000    640.184    -10.184    594.057    599.772    634.465    594.057    594.057
 26.770    666.000    644.493     21.507    593.687    599.613    638.564    593.687    593.687
 26.870    617.555    649.683    -32.128    593.320    599.533    643.466    593.320    593.320
 26.970    679.868    655.973     23.895    592.955    599.544    649.380    592.955    592.955
 27.070    652.000    663.657    -11.657    592.593    599.661    656.583    592.593    592.593
 27.170    700.495    673.142     27.353    592.233    599.910    665.458    592.233    592.233
 27.270    652.000    684.999    -32.999    591.876    600.324    676.542    591.876    591.876
 27.370    667.000    700.058    -33.058    591.521    600.956    690.613    591.521    591.521
 27.470    712.000    719.587     -7.587    591.169    601.885    708.857    591.169    591.169
 27.570    776.000    745.835     30.165    590.819    603.253    733.384    590.819    590.819
 27.670    759.000    784.101    -25.101    590.472    605.391    769.157    590.472    590.472
 27.770    870.221    850.060     20.161    590.127    609.273    830.872    590.127    590.127
 27.870    979.626    989.512     -9.886    589.785    617.744    961.469    589.785    589.785
 27.970   1271.000   1310.622    -39.622    589.446    637.515   1262.372    589.446    589.446
 28.070   1981.060   1992.506    -11.447    589.109    679.697   1901.560    589.109    589.109
 28.170   2997.000   3187.805   -190.805    588.774    753.774   3022.218    588.774    588.774
 28.270   4716.000   4784.297    -68.297    588.442    852.842   4519.145    588.442    588.442
 28.370   6140.000   6192.013    -52.013    588.112    940.451   5838.990    588.112    588.112
 28.470   6633.000   6568.084     64.916    587.785    964.639   6190.845    587.785    587.785
 28.570   5558.594   5668.602   -110.008    587.461    910.944   5345.013    587.461    587.461
 28.670   4355.000   4249.921    105.079    587.139    827.548   4009.514    587.139    587.139
 28.770   3244.000   3196.560     47.440    586.819    771.105   3012.252    586.819    586.819
 28.870   2866.000   2881.997    -15.997    586.502    765.981   2702.440    586.502    586.502
 28.970   3199.000   3172.000     27.000    586.188    802.249   2955.859    586.188    586.188
 29.070   3565.594   3619.012    -53.418    585.876    845.800   3359.107    585.876    585.876
 29.170   3666.000   3710.187    -44.187    585.566    855.623   3440.298    585.566    585.566
 29.270   3390.000   3241.131    148.869    585.259    815.649   3010.983    585.259    585.259
 29.370   2470.000   2477.506     -7.506    584.955    749.636   2313.044    584.955    584.955
 29.470   1742.001   1767.487    -25.486    584.653    688.109   1664.182    584.653    584.653
 29.570   1235.000   1271.903    -36.903    584.353    645.154   1211.187    584.353    584.353
 29.670   1020.000    988.076     31.924    584.056    620.580    951.593    584.056    584.056
 29.770    881.000    844.600     36.400    583.762    608.197    820.183    583.762    583.762
 29.870    789.000    773.282     15.718    583.469    602.087    754.673    583.469    583.469
 29.970    740.677    733.834      6.843    583.180    598.760    718.259    583.180    583.180
 30.070    755.000    708.361     46.639    582.893    596.679    694.576    582.893    582.893
 30.170    729.000    690.055     38.945    582.608    595.278    677.386    582.608    582.608
 30.270    683.000    676.300      6.700    582.326    594.370    664.256    582.326    582.326
 30.370    712.972    665.976     46.997    582.046    593.947    654.073    582.046    582.046
