neutron_powder_diffraction_0232
R_wp: 3.945
Temperature (K): 1048.297
Counts: 83616.00
Wavelength (Ã…): 2.52098
COMMENTS
Test file for demonstrating the .xyy file format in Reel1.0
END OF HEADER
   tth       Y_obs     Y_calc      Y_res    Background    Phase_1_Nuc    Phase_1_Mag    Phase_2_Nuc    Phase_2_Mag
  9.970    628.000    578.948     49.052    578.315    578.925    578.315    578.339    578.315
 10.070    648.000    578.887     69.113    578.199    578.863    578.199    578.222    578.199
 10.170    654.000    578.829     75.171    578.079    578.806    578.079    578.103    578.079
 10.270    596.000    578.779     17.221    577.956    578.754    577.956    577.980    577.956
 10.370    599.031    578.738     20.294    577.830    578.713    577.830    577.854    577.830
 10.470    614.000    578.725     35.275    577.701    578.697    577.701    577.728    577.701
 10.570    627.000    578.714     48.286    577.568    578.684    577.568    577.597    577.568
 10.670    563.000    578.717    -15.717    577.432    578.687    577.432    577.461    577.432
 10.770    590.000    578.745     11.255    577.293    578.716    577.293    577.322    577.293
 10.870    584.599    578.808      5.792    577.152    578.778    577.152    577.181    577.152
 10.970    533.774    578.916    -45.142    577.007    578.886    577.007    577.036    577.007
 11.070    578.253    579.087     -0.834    576.859    579.057    576.859    576.888    576.859
 11.170    589.000    579.346      9.654    576.708    579.315    576.708    576.738    576.708
 11.270    604.272    579.729     24.544    576.554    579.697    576.554    576.584    576.554
 11.370    636.000    580.302     55.698    576.398    580.270    576.398    576.428    576.398
 11.470    552.000    581.205    -29.205    576.238    581.172    576.238    576.268    576.238
 11.570    653.000    582.827     70.173    576.076    582.794    576.076    576.106    576.076
 11.670    574.000    586.269    -12.269    575.911    586.233    575.911    575.941    575.911
 11.770    649.000    594.097     54.903    575.743    594.055    575.743    575.775    575.743
 11.870    603.198    610.497     -7.299    575.573    610.444    575.573    575.605    575.573
 11.970    655.000    638.847     16.153    575.400    638.778    575.400    575.433    575.400
 12.070    641.000    675.800    -34.800    575.224    675.710    575.224    575.257    575.224
 12.170    680.000    705.642    -25.642    575.046    705.534    575.046    575.079    575.046
 12.270    745.644    707.765     37.879    574.865    707.656    574.865    574.898    574.865
 12.370    632.000    680.095    -48.095    574.681    680.001    574.681    574.715    574.681
 12.470    689.708    642.380     47.329    574.495    642.307    574.495    574.529    574.495
 12.570    612.000    612.083     -0.083    574.307    612.028    574.307    574.341    574.307
 12.670    595.000    593.922      1.078    574.116    593.876    574.116    574.150    574.116
 12.770    599.000    584.937     14.063    573.922    584.895    573.922    573.958    573.922
 12.870    598.000    580.801     17.199    573.727    580.752    573.727    573.772    573.727
 12.970    580.000    578.692      1.308    573.529    578.640    573.529    573.577    573.529
 13.070    553.000    577.376    -24.376    573.328    577.325    573.328    573.378    573.328
 13.170    594.581    576.416     18.164    573.126    576.365    573.126    573.175    573.126
 13.270    537.000    575.658    -38.658    572.921    575.606    572.921    572.971    572.921
 13.370    548.114    575.031    -26.917    572.714    574.979    572.714    572.765    572.714
 13.470    584.869    574.496     10.373    572.505    574.444    572.505    572.556    572.505
 13.570    534.000    574.026    -40.026    572.293    573.974    572.293    572.345    572.293
 13.670    570.000    573.606     -3.606    572.080    573.553    572.080    572.132    572.080
 13.770    552.000    573.226    -21.226    571.864    573.168    571.864    571.922    571.864
 13.870    542.000    572.870    -30.870    571.646    572.810    571.646    571.706    571.646
 13.970    583.340    572.534     10.806    571.427    572.474    571.427    571.486    571.427
 14.070    570.565    572.214     -1.649    571.205    572.154    571.205    571.265    571.205
 14.170    578.097    571.908      6.190    570.981    571.847    570.981    571.042    570.981
 14.270    603.447    571.611     31.836    570.756    571.550    570.756    570.816    570.756
 14.370    578.000    571.322      6.678    570.528    571.260    570.528    570.589    570.528
 14.470    552.000    571.039    -19.039    570.299    570.977    570.299    570.360    570.299
 14.570    603.181    570.762     32.419    570.067    570.699    570.067    570.129    570.067
 14.670    603.000    570.488     32.512    569.834    570.425    569.834    569.896    569.834
 14.770    604.000    570.217     33.783    569.600    570.155    569.600    569.662    569.600
 14.870    575.000    569.949      5.051    569.363    569.886    569.363    569.426    569.363
 14.970    613.047    569.683     43.364    569.125    569.620    569.125    569.188    569.125
 15.070    576.000    569.420      6.580    568.885    569.357    568.885    568.948    568.885
 15.170    573.650    569.158      4.492    568.643    569.094    568.643    568.707    568.643
 15.270    545.000    568.895    -23.895    568.399    568.831    568.399    568.464    568.399
 15.370    565.000    568.633     -3.633    568.154    568.568    568.154    568.219    568.154
 15.470    601.000    568.370     32.630    567.908    568.305    567.908    567.973    567.908
 15.570    563.000    568.108     -5.108    567.660    568.042    567.660    567.725    567.660
 15.670    550.000    567.846    -17.846    567.410    567.779    567.410    567.476    567.410
 15.770    585.000    567.583     17.417    567.159    567.516    567.159    567.225    567.159
 15.870    539.000    567.320    -28.320    566.906    567.253    566.906    566.973    566.906
 15.970    561.000    567.056     -6.056    566.652    566.989    566.652    566.719    566.652
 16.070    530.032    566.793    -36.761    566.397    566.725    566.397    566.464    566.397
 16.170    580.000    566.528     13.472    566.140    566.460    566.140    566.208    566.140
 16.270    561.000    566.266     -5.266    565.881    566.195    565.881    565.953    565.881
 16.370    550.000    566.004    -16.004    565.622    565.931    565.622    565.694    565.622
 16.470    607.533    565.739     41.795    565.361    565.665    565.361    565.435    565.361
 16.570    567.000    565.472      1.528    565.098    565.397    565.098    565.173    565.098
 16.670    560.000    565.205     -5.205    564.835    565.129    564.835    564.910    564.835
 16.770    599.000    564.937     34.063    564.570    564.860    564.570    564.646    564.570
 16.870    562.987    564.668     -1.681    564.304    564.591    564.304    564.381    564.304
 16.970    605.920    564.398     41.522    564.037    564.320    564.037    564.114    564.037
 17.070    537.957    564.127    -26.170    563.769    564.049    563.769    563.847    563.769
 17.170    529.000    563.856    -34.856    563.499    563.777    563.499    563.578    563.499
 17.270    550.000    563.584    -13.584    563.229    563.505    563.229    563.308    563.229
 17.370    531.000    563.311    -32.311    562.957    563.232    562.957    563.037    562.957
 17.470    534.000    563.038    -29.038    562.684    562.958    562.684    562.765    562.684
 17.570    573.000    562.764     10.236    562.411    562.683    562.411    562.491    562.411
 17.670    548.506    562.489    -13.983    562.136    562.408    562.136    562.217    562.136
 17.770    550.000    562.215    -12.215    561.860    562.133    561.860    561.942    561.860
 17.870    567.000    561.940      5.060    561.584    561.857    561.584    561.666    561.584
 17.970    587.000    561.663     25.337    561.306    561.580    561.306    561.389    561.306
 18.070    550.000    561.386    -11.386    561.027    561.302    561.027    561.111    561.027
 18.170    547.000    561.108    -14.108    560.748    561.024    560.748    560.832    560.748
 18.270    540.000    560.829    -20.829    560.468    560.744    560.468    560.553    560.468
 18.370    537.000    560.550    -23.550    560.187    560.464    560.187    560.272    560.187
 18.470    602.255    560.270     41.985    559.905    560.184    559.905    559.991    559.905
 18.570    552.000    559.991     -7.991    559.622    559.903    559.622    559.710    559.622
 18.670    536.000    559.711    -23.711    559.338    559.622    559.338    559.428    559.338
 18.770    570.000    559.430     10.570    559.054    559.340    559.054    559.144    559.054
 18.870    551.522    559.148     -7.626    558.769    559.057    558.769    558.860    558.769
 18.970    565.000    558.866      6.134    558.484    558.775    558.484    558.575    558.484
 19.070    549.000    558.585     -9.585    558.197    558.493    558.197    558.289    558.197
 19.170    516.000    558.302    -42.302    557.910    558.209    557.910    558.003    557.910
 19.270    598.389    558.019     40.370    557.623    557.925    557.623    557.716    557.623
 19.370    591.000    557.736     33.264    557.334    557.641    557.334    557.429    557.334
 19.470    569.000    557.452     11.548    557.046    557.357    557.046    557.141    557.046
 19.570    568.000    557.168     10.832    556.756    557.072    556.756    556.852    556.756
 19.670    525.000    556.884    -31.884    556.466    556.787    556.466    556.563    556.466
 19.770    508.000    556.600    -48.600    556.176    556.502    556.176    556.274    556.176
 19.870    533.000    556.315    -23.315    555.885    556.217    555.885    555.984    555.885
 19.970    581.000    556.031     24.969    555.593    555.931    555.593    555.693    555.593
 20.070    565.291    555.746      9.544    555.302    555.646    555.302    555.402    555.302
 20.170    593.634    555.462     38.172    555.009    555.360    555.009    555.111    555.009
 20.270    519.919    555.182    -35.263    554.717    555.075    554.717    554.823    554.717
 20.370    511.797    554.911    -43.114    554.423    554.800    554.423    554.534    554.423
 20.470    517.000    554.639    -37.639    554.130    554.527    554.130    554.242    554.130
 20.570    595.763    554.356     41.407    553.836    554.243    553.836    553.949    553.836
 20.670    553.094    554.072     -0.978    553.542    553.959    553.542    553.656    553.542
 20.770    502.000    553.789    -51.789    553.247    553.674    553.247    553.362    553.247
 20.870    537.206    553.506    -16.300    552.953    553.390    552.953    553.069    552.953
 20.970    556.000    553.223      2.777    552.657    553.106    552.657    552.775    552.657
 21.070    551.000    552.941     -1.941    552.362    552.823    552.362    552.481    552.362
 21.170    563.000    552.660     10.340    552.067    552.540    552.067    552.186    552.067
 21.270    554.000    552.379      1.621    551.771    552.258    551.771    551.892    551.771
 21.370    598.000    552.100     45.900    551.475    551.977    551.475    551.597    551.475
 21.470    525.000    551.821    -26.821    551.179    551.697    551.179    551.302    551.179
 21.570    591.000    551.543     39.457    550.882    551.418    550.882    551.008    550.882
 21.670    592.677    551.267     41.410    550.586    551.140    550.586    550.713    550.586
 21.770    544.000    550.992     -6.992    550.289    550.864    550.289    550.418    550.289
 21.870    545.000    550.719     -5.719    549.993    550.589    549.993    550.122    549.993
 21.970    571.000    550.448     20.552    549.696    550.316    549.696    549.827    549.696
 22.070    528.000    550.179    -22.179    549.399    550.046    549.399    549.532    549.399
 22.170    534.239    549.912    -15.673    549.102    549.778    549.102    549.237    549.102
 22.270    533.000    549.648    -16.648    548.806    549.512    548.806    548.942    548.806
 22.370    585.122    549.388     35.734    548.509    549.250    548.509    548.647    548.509
 22.470    594.006    549.132     44.874    548.212    548.992    548.212    548.352    548.212
 22.570    545.684    548.880     -3.196    547.915    548.739    547.915    548.057    547.915
 22.670    542.000    548.639     -6.639    547.618    548.495    547.618    547.762    547.618
 22.770    565.000    548.453     16.547    547.322    548.308    547.322    547.467    547.322
 22.870    581.147    548.287     32.860    547.025    548.139    547.025    547.173    547.025
 22.970    569.879    548.097     21.782    546.728    547.947    546.728    546.879    546.728
 23.070    581.000    547.889     33.111    546.432    547.736    546.432    546.585    546.432
 23.170    557.000    547.695      9.305    546.136    547.540    546.136    546.291    546.136
 23.270    571.000    547.552     23.448    545.840    547.395    545.840    545.997    545.840
 23.370    527.000    547.417    -20.417    545.544    547.258    545.544    545.704    545.544
 23.470    550.372    547.290      3.082    545.248    547.128    545.248    545.411    545.248
 23.570    567.166    547.198     19.968    544.952    547.033    544.952    545.118    544.952
 23.670    571.000    547.155     23.845    544.657    546.987    544.657    544.826    544.657
 23.770    510.630    547.180    -36.550    544.362    547.010    544.362    544.534    544.362
 23.870    575.000    547.304     27.696    544.067    547.131    544.067    544.242    544.067
 23.970    538.286    547.578     -9.292    543.772    547.399    543.772    543.953    543.772
 24.070    549.495    548.121      1.374    543.478    547.938    543.478    543.663    543.478
 24.170    547.000    549.276     -2.276    543.184    549.090    543.184    543.373    543.184
 24.270    556.000    551.949      4.051    542.890    551.762    542.890    543.083    542.890
 24.370    570.000    558.038     11.962    542.597    557.851    542.597    542.794    542.597
 24.470    586.000    570.207     15.793    542.304    570.025    542.304    542.505    542.304
 24.570    578.000    589.921    -11.921    542.011    589.749    542.011    542.217    542.011
 24.670    614.000    613.696      0.304    541.719    613.536    541.719    541.930    541.719
 24.770    629.000    630.442     -1.442    541.427    630.289    541.427    541.643    541.427
 24.870    671.000    628.280     42.720    541.136    628.121    541.136    541.357    541.136
 24.970    597.319    608.867    -11.548    540.845    608.688    540.845    541.071    540.845
 25.070    554.242    584.830    -30.588    540.554    584.628    540.554    540.787    540.554
 25.170    576.000    565.899     10.101    540.264    565.678    540.264    540.503    540.264
 25.270    556.000    554.440      1.560    539.974    554.204    539.974    540.220    539.974
 25.370    499.000    548.590    -49.590    539.685    548.342    539.685    539.938    539.685
 25.470    539.000    545.764     -6.764    539.396    545.506    539.396    539.657    539.396
 25.570    554.000    544.265      9.735    539.108    543.999    539.108    539.377    539.108
 25.670    521.429    543.306    -21.877    538.820    543.030    538.820    539.098    538.820
 25.770    542.000    542.609     -0.609    538.533    542.323    538.533    538.820    538.533
 25.870    562.000    542.052     19.948    538.246    541.756    538.246    538.544    538.246
 25.970    569.000    541.604     27.396    537.960    541.296    537.960    538.269    537.960
 26.070    590.000    541.234     48.766    537.674    540.914    537.674    537.995    537.674
 26.170    543.382    540.908      2.474    537.389    540.575    537.389    537.723    537.389
 26.270    518.000    540.632    -22.632    537.105    540.286    537.105    537.452    537.105
 26.370    565.641    540.405     25.236    536.821    540.043    536.821    537.184    536.821
 26.470    519.902    540.224    -20.322    536.538    539.845    536.538    536.917    536.538
 26.570    549.474    540.086      9.387    536.256    539.689    536.256    536.653    536.256
 26.670    529.000    540.000    -11.000    535.974    539.583    535.974    536.391    535.974
 26.770    539.000    539.971     -0.971    535.693    539.532    535.693    536.131    535.693
 26.870    564.330    540.005     24.325    535.412    539.542    535.412    535.875    535.412
 26.970    550.170    540.121     10.049    535.133    539.631    535.133    535.622    535.133
 27.070    537.527    540.356     -2.829    534.853    539.837    534.853    535.372    534.853
 27.170    584.276    540.732     43.544    534.575    540.179    534.575    535.127    534.575
 27.270    546.978    541.257      5.721    534.297    540.668    534.297    534.886    534.297
 27.370    584.152    542.027     42.126    534.020    541.395    534.020    534.651    534.020
 27.470    574.000    543.169     30.831    533.744    542.489    533.744    534.423    533.744
 27.570    582.000    545.019     36.981    533.469    544.285    533.469    534.201    533.469
 27.670    534.000    548.698    -14.698    533.194    547.900    533.194    533.988    533.194
 27.770    564.000    558.453      5.547    532.920    557.582    532.920    533.786    532.920
 27.870    643.000    585.818     57.182    532.647    584.854    532.647    533.596    532.647
 27.970    691.000    650.181     40.819    532.375    649.099    532.375    533.420    532.375
 28.070    743.000    762.205    -19.205    532.104    760.976    532.104    533.264    532.104
 28.170    869.588    891.516    -21.929    531.833    890.122    531.833    533.129    531.833
 28.270   1013.000    959.031     53.969    531.563    957.475    531.563    533.024    531.563
 28.370    861.092    909.507    -48.415    531.294    907.788    531.294    532.956    531.294
 28.470    740.117    793.938    -53.821    531.026    792.008    531.026    532.936    531.026
 28.570    715.878    701.473     14.405    530.759    699.246    530.759    532.982    530.759
 28.670    634.704    680.437    -45.733    530.493    677.796    530.493    533.125    530.493
 28.770    749.000    727.478     21.522    530.227    724.266    530.227    533.422    530.227
 28.870    848.000    801.497     46.503    529.963    797.461    529.963    533.976    529.963
 28.970    830.000    839.565     -9.565    529.699    834.273    529.699    534.977    529.699
 29.070    764.000    802.544    -38.544    529.436    795.266    529.436    536.717    529.436
 29.170    731.292    720.980     10.312    529.175    710.585    529.175    539.583    529.175
 29.270    616.000    645.856    -29.856    528.914    630.834    528.914    543.950    528.914
 29.370    635.000    601.069     33.931    528.654    579.774    528.654    549.957    528.654
 29.470    601.000    583.549     17.451    528.395    554.818    528.395    557.129    528.395
 29.570    571.903    580.109     -8.205    528.137    544.454    528.137    563.791    528.137
 29.670    615.281    579.209     36.073    527.880    540.057    527.880    567.030    527.880
 29.770    613.484    574.968     38.516    527.624    537.760    527.624    564.830    527.624
 29.870    598.000    567.331     30.669    527.369    536.281    527.369    558.417    527.369
 29.970    564.793    558.826      5.968    527.115    535.246    527.115    550.693    527.115
 30.070    567.000    551.413     15.587    526.862    534.538    526.862    543.736    526.862
 30.170    554.000    545.866      8.134    526.610    534.132    526.610    538.342    526.610
 30.270    575.000    542.284     32.716    526.359    534.117    526.359    534.524    526.359
 30.370    537.565    540.739     -3.174    526.109    534.891    526.109    531.955    526.109
