neutron_powder_diffraction_0055
R_wp: 3.982
Temperature (K): 672.314
Counts: 83477.00
Wavelength (Ã…): 2.52098
COMMENTS
Test file for demonstrating the .xyy file format in Reel1.0
END OF HEADER
   tth       Y_obs     Y_calc      Y_res    Background    Phase_1_Nuc    Phase_1_Mag    Phase_2_Nuc    Phase_2_Mag
  9.970    654.000    648.959      5.041    647.632    648.622    647.968    647.632    647.632
 10.070    661.000    648.666     12.334    647.255    648.325    647.595    647.255    647.255
 10.170    647.000    648.381     -1.381    646.876    648.037    647.220    646.876    646.876
 10.270    627.000    648.108    -21.108    646.495    647.760    646.842    646.495    646.495
 10.370    686.000    647.849     38.151    646.112    647.497    646.463    646.112    646.112
 10.470    620.570    647.607    -27.038    645.726    647.251    646.082    645.726    645.726
 10.570    645.000    647.388     -2.388    645.339    647.028    645.698    645.339    645.339
 10.670    732.000    647.196     84.804    644.950    646.832    645.313    644.950    644.950
 10.770    683.352    647.040     36.311    644.558    646.672    644.925    644.558    644.558
 10.870    631.576    646.931    -15.355    644.165    646.558    644.536    644.165    644.165
 10.970    639.463    646.881     -7.418    643.770    646.505    644.145    643.770    643.770
 11.070    602.500    646.912    -44.412    643.373    646.531    643.752    643.373    643.373
 11.170    692.000    647.050     44.950    642.974    646.665    643.357    642.974    642.974
 11.270    671.000    647.339     23.661    642.573    646.949    642.961    642.573    642.573
 11.370    693.868    647.847     46.021    642.170    647.451    642.563    642.170    642.170
 11.470    652.541    648.707      3.834    641.766    648.306    642.164    641.766    641.766
 11.570    694.000    650.218     43.782    641.360    649.812    641.762    641.360    641.360
 11.670    717.000    653.103     63.897    640.953    652.690    641.360    640.953    640.953
 11.770    671.279    658.893     12.386    640.544    658.472    640.955    640.544    640.544
 11.870    727.000    670.131     56.869    640.133    669.699    640.549    640.133    640.133
 11.970    762.000    689.622     72.378    639.720    689.174    640.142    639.720    639.720
 12.070    802.000    718.025     83.975    639.307    717.556    639.733    639.307    639.307
 12.170    799.000    749.867     49.133    638.891    749.375    639.323    638.891    638.891
 12.270    758.000    770.700    -12.700    638.474    770.191    638.911    638.474    638.474
 12.370    790.000    766.256     23.744    638.056    765.744    638.498    638.056    638.056
 12.470    788.478    739.836     48.643    637.636    739.332    638.084    637.636    637.636
 12.570    674.214    707.288    -33.074    637.215    706.797    637.668    637.215    637.215
 12.670    645.314    680.434    -35.120    636.793    679.952    637.252    636.793    636.793
 12.770    628.000    662.660    -34.660    636.369    662.182    636.834    636.369    636.369
 12.870    639.889    652.494    -12.605    635.945    652.015    636.415    635.945    635.945
 12.970    622.000    646.871    -24.871    635.518    646.389    635.994    635.518    635.518
 13.070    611.000    643.630    -32.630    635.091    643.143    635.573    635.091    635.091
 13.170    601.000    641.515    -40.515    634.663    641.023    635.151    634.663    634.663
 13.270    597.711    639.949    -42.239    634.233    639.452    634.727    634.233    634.233
 13.370    691.000    638.691     52.309    633.802    638.188    634.303    633.802    633.802
 13.470    652.000    637.631     14.369    633.370    637.121    633.878    633.370    633.370
 13.570    608.000    636.708    -28.708    632.937    636.192    633.451    632.937    632.937
 13.670    676.708    635.887     40.821    632.503    635.365    633.024    632.503    632.503
 13.770    609.000    635.144    -26.144    632.068    634.615    632.596    632.068    632.068
 13.870    590.029    634.480    -44.450    631.633    633.943    632.168    631.633    631.633
 13.970    620.000    633.836    -13.836    631.196    633.293    631.739    631.196    631.196
 14.070    638.000    633.225      4.775    630.758    632.674    631.308    630.758    630.758
 14.170    638.000    632.641      5.359    630.320    632.082    630.877    630.320    630.320
 14.270    639.000    632.079      6.921    629.880    631.513    630.445    629.880    629.880
 14.370    657.000    631.535     25.465    629.440    630.961    630.013    629.440    629.440
 14.470    584.182    631.005    -46.824    628.999    630.424    629.580    628.999    628.999
 14.570    631.000    630.488      0.512    628.557    629.898    629.146    628.557    628.557
 14.670    620.341    629.981     -9.640    628.115    629.383    628.712    628.115    628.115
 14.770    606.000    629.482    -23.482    627.671    628.876    628.278    627.671    627.671
 14.870    585.000    628.991    -43.991    627.228    628.376    627.842    627.228    627.228
 14.970    574.000    628.506    -54.506    626.783    627.882    627.407    626.783    626.783
 15.070    577.573    628.026    -50.452    626.338    627.392    626.971    626.338    626.338
 15.170    596.000    627.550    -31.550    625.892    626.908    626.534    625.892    625.892
 15.270    594.000    627.078    -33.078    625.446    626.426    626.098    625.446    625.446
 15.370    628.091    626.610      1.481    624.999    625.948    625.661    624.999    624.999
 15.470    603.000    626.145    -23.145    624.552    625.473    625.223    624.552    624.552
 15.570    610.000    625.682    -15.682    624.104    625.001    624.786    624.104    624.104
 15.670    589.000    625.222    -36.222    623.656    624.530    624.348    623.656    623.656
 15.770    612.000    624.764    -12.764    623.207    624.061    623.910    623.207    623.207
 15.870    575.000    624.308    -49.308    622.758    623.594    623.472    622.758    622.758
 15.970    590.251    623.857    -33.605    622.309    623.132    623.033    622.309    622.309
 16.070    618.000    623.413     -5.413    621.859    622.677    622.595    621.859    621.859
 16.170    606.000    622.962    -16.962    621.409    622.215    622.157    621.409    621.409
 16.270    677.000    622.512     54.488    620.959    621.753    621.718    620.959    620.959
 16.370    581.000    622.064    -41.064    620.508    621.292    621.280    620.508    620.508
 16.470    571.301    621.616    -50.315    620.057    620.832    620.842    620.057    620.057
 16.570    576.000    621.170    -45.170    619.606    620.372    620.403    619.606    619.606
 16.670    657.675    620.725     36.950    619.155    619.914    619.966    619.155    619.155
 16.770    611.000    620.281     -9.281    618.703    619.456    619.528    618.703    618.703
 16.870    633.963    619.837     14.126    618.252    618.999    619.090    618.252    618.252
 16.970    592.000    619.395    -27.395    617.800    618.542    618.653    617.800    617.800
 17.070    625.310    618.958      6.352    617.348    618.091    618.215    617.348    617.348
 17.170    663.862    618.563     45.299    616.896    617.680    617.779    616.896    616.896
 17.270    594.000    618.161    -24.161    616.444    617.263    617.342    616.444    616.444
 17.370    608.000    617.753     -9.753    615.992    616.839    616.906    615.992    615.992
 17.470    636.000    617.319     18.681    615.540    616.389    616.470    615.540    615.540
 17.570    593.000    616.883    -23.883    615.088    615.936    616.035    615.088    615.088
 17.670    572.952    616.448    -43.497    614.637    615.485    615.600    614.637    614.637
 17.770    605.000    616.016    -11.016    614.185    615.034    615.166    614.185    614.185
 17.870    592.591    615.592    -23.002    613.733    614.593    614.732    613.733    613.733
 17.970    595.000    615.166    -20.166    613.281    614.148    614.299    613.281    613.281
 18.070    622.000    614.736      7.264    612.830    613.699    613.867    612.830    612.830
 18.170    587.000    614.307    -27.307    612.379    613.251    613.435    612.379    612.379
 18.270    605.934    613.886     -7.952    611.928    612.808    613.005    611.928    611.928
 18.370    609.000    613.519     -4.519    611.477    612.410    612.585    611.477    611.477
 18.470    651.104    613.106     37.998    611.026    611.974    612.158    611.026    611.026
 18.570    599.000    612.684    -13.684    610.575    611.530    611.729    610.575    610.575
 18.670    569.681    612.263    -42.581    610.125    611.086    611.302    610.125    610.125
 18.770    576.779    611.843    -35.064    609.675    610.643    610.876    609.675    609.675
 18.870    583.928    611.435    -27.507    609.226    610.210    610.450    609.226    609.226
 18.970    599.000    611.019    -12.019    608.777    609.769    610.026    608.777    608.777
 19.070    582.305    610.603    -28.297    608.328    609.328    609.603    608.328    608.328
 19.170    633.000    610.188     22.812    607.879    608.887    609.181    607.879    607.879
 19.270    567.000    609.776    -42.776    607.431    608.446    608.760    607.431    607.431
 19.370    573.000    609.364    -36.364    606.983    608.007    608.341    606.983    606.983
 19.470    619.000    608.955     10.045    606.536    607.569    607.923    606.536    606.536
 19.570    645.327    608.548     36.779    606.089    607.131    607.506    606.089    606.089
 19.670    629.251    608.143     21.108    605.643    606.695    607.091    605.643    605.643
 19.770    570.000    607.740    -37.740    605.197    606.260    606.677    605.197    605.197
 19.870    594.000    607.340    -13.340    604.752    605.827    606.265    604.752    604.752
 19.970    614.000    606.955      7.045    604.307    605.406    605.856    604.307    604.307
 20.070    589.986    606.586    -16.600    603.863    604.999    605.449    603.863    603.863
 20.170    557.000    606.223    -49.223    603.419    604.596    605.047    603.419    603.419
 20.270    590.000    605.865    -15.865    602.976    604.198    604.644    602.976    602.976
 20.370    544.000    605.491    -61.491    602.534    603.783    604.241    602.534    602.534
 20.470    603.000    605.142     -2.142    602.092    603.393    603.841    602.092    602.092
 20.570    619.000    604.793     14.207    601.651    603.001    603.443    601.651    601.651
 20.670    591.029    604.418    -13.389    601.210    602.582    603.046    601.210    601.210
 20.770    608.000    604.049      3.951    600.770    602.167    602.652    600.770    600.770
 20.870    650.694    603.701     46.993    600.331    601.771    602.261    600.331    600.331
 20.970    552.000    603.380    -51.380    599.893    601.400    601.873    599.893    599.893
 21.070    543.000    603.026    -60.026    599.455    600.995    601.487    599.455    599.455
 21.170    592.000    602.667    -10.667    599.018    600.582    601.103    599.018    599.018
 21.270    629.881    602.315     27.566    598.582    600.174    600.723    598.582    598.582
 21.370    555.755    601.965    -46.210    598.147    599.767    600.346    598.147    598.147
 21.470    635.853    601.628     34.225    597.712    599.367    599.974    597.712    597.712
 21.570    572.000    601.291    -29.291    597.279    598.966    599.603    597.279    597.279
 21.670    590.000    600.956    -10.956    596.846    598.566    599.236    596.846    596.846
 21.770    579.000    600.628    -21.628    596.414    598.169    598.873    596.414    596.414
 21.870    599.000    600.311     -1.311    595.983    597.780    598.514    595.983    595.983
 21.970    626.958    600.001     26.956    595.553    597.394    598.160    595.553    595.553
 22.070    593.000    599.693     -6.693    595.123    597.008    597.809    595.123    595.123
 22.170    632.340    599.393     32.947    594.695    596.625    597.463    594.695    594.695
 22.270    620.998    599.101     21.896    594.268    596.248    597.121    594.268    594.268
 22.370    592.000    598.821     -6.821    593.841    595.878    596.784    593.841    593.841
 22.470    633.000    598.549     34.451    593.416    595.512    596.453    593.416    593.416
 22.570    619.000    598.289     20.711    592.991    595.153    596.127    592.991    592.991
 22.670    643.000    598.042     44.958    592.568    594.802    595.808    592.568    592.568
 22.770    580.291    597.810    -17.520    592.145    594.461    595.495    592.145    592.145
 22.870    570.000    597.594    -27.594    591.724    594.130    595.188    591.724    591.724
 22.970    623.000    597.395     25.605    591.303    593.810    594.889    591.303    591.303
 23.070    572.000    597.218    -25.218    590.884    593.505    594.597    590.884    590.884
 23.170    610.000    597.064     12.936    590.465    593.217    594.313    590.465    590.465
 23.270    628.000    596.938     31.062    590.048    592.949    594.038    590.048    590.048
 23.370    582.005    596.846    -14.841    589.632    592.707    593.772    589.632    589.632
 23.470    592.000    596.794     -4.794    589.217    592.496    593.516    589.217    589.217
 23.570    605.581    596.791      8.790    588.803    592.324    593.272    588.803    588.803
 23.670    618.000    596.850     21.150    588.391    592.203    593.038    588.391    588.391
 23.770    615.323    596.985     18.338    587.979    592.149    592.817    587.979    587.979
 23.870    585.000    597.221    -12.221    587.569    592.183    592.609    587.569    587.569
 23.970    606.978    597.593      9.384    587.160    592.341    592.415    587.160    587.160
 24.070    603.000    598.164      4.836    586.752    592.682    592.236    586.752    586.752
 24.170    563.614    599.061    -35.447    586.345    593.335    592.075    586.345    586.345
 24.270    648.000    600.581     47.419    585.940    594.593    591.932    585.940    585.940
 24.370    599.769    603.378     -3.609    585.535    597.111    591.808    585.535    585.535
 24.470    627.000    608.681     18.319    585.132    602.117    591.707    585.132    585.132
 24.570    622.679    618.209      4.470    584.731    611.329    591.629    584.731    584.731
 24.670    684.000    633.363     50.637    584.330    626.144    591.577    584.330    584.330
 24.770    711.000    653.495     57.505    583.931    645.915    591.554    583.931    583.931
 24.870    724.744    673.528     51.217    583.533    665.555    591.564    583.533    583.533
 24.970    730.619    683.144     47.476    583.137    674.737    591.608    583.137    583.137
 25.070    695.378    675.273     20.105    582.741    666.382    591.692    582.741    582.741
 25.170    670.000    656.103     13.897    582.347    646.676    591.819    582.347    582.347
 25.270    625.000    636.040    -11.040    581.955    626.029    591.996    581.955    581.955
 25.370    623.000    620.676      2.324    581.564    610.030    592.227    581.564    581.564
 25.470    568.424    611.008    -42.583    581.174    599.672    592.521    581.174    581.174
 25.570    658.000    605.777     52.223    580.785    593.685    592.885    580.785    580.785
 25.670    614.361    603.271     11.089    580.398    590.346    593.328    580.398    580.398
 25.770    586.000    602.224    -16.224    580.013    588.376    593.864    580.013    580.013
 25.870    587.000    601.949    -14.949    579.629    587.074    594.506    579.629    579.629
 25.970    654.000    602.144     51.856    579.246    586.122    595.269    579.246    579.246
 26.070    596.089    602.683     -6.595    578.865    585.377    596.172    578.865    578.865
 26.170    621.000    603.531     17.469    578.485    584.777    597.239    578.485    578.485
 26.270    619.704    604.686     15.018    578.106    584.291    598.501    578.106    578.106
 26.370    615.507    606.166      9.341    577.729    583.902    599.993    577.729    577.729
 26.470    644.000    608.005     35.995    577.354    583.597    601.761    577.354    577.354
 26.570    653.978    610.256     43.722    576.980    583.374    603.862    576.980    576.980
 26.670    627.259    612.993     14.266    576.607    583.232    606.368    576.607    576.607
 26.770    576.276    616.314    -40.038    576.236    583.176    609.373    576.236    576.236
 26.870    652.720    620.354     32.366    575.867    583.218    613.002    575.867    575.867
 26.970    624.217    625.297     -1.079    575.499    583.373    617.420    575.499    575.499
 27.070    696.000    631.379     64.621    575.133    583.665    622.844    575.133    575.133
 27.170    681.502    638.947     42.555    574.768    584.127    629.584    574.768    574.768
 27.270    657.553    648.487      9.066    574.404    584.810    638.076    574.404    574.404
 27.370    722.000    660.713     61.287    574.043    585.789    648.960    574.043    574.043
 27.470    706.000    676.766     29.234    573.683    587.182    663.259    573.683    573.683
 27.570    741.000    698.862     42.138    573.324    589.219    682.957    573.324    573.324
 27.670    722.000    732.572    -10.572    572.967    592.476    713.048    572.967    572.967
 27.770    794.000    793.528      0.472    572.612    598.564    767.550    572.612    572.612
 27.870    900.000    921.078    -21.078    572.258    611.531    881.752    572.258    572.258
 27.970   1175.267   1191.293    -16.026    571.906    639.201   1123.889    571.906    571.906
 28.070   1551.000   1699.904   -148.904    571.555    691.424   1579.833    571.555    571.555
 28.170   2300.000   2481.389   -181.389    571.206    771.773   2280.511    571.206    571.206
 28.270   3288.000   3380.664    -92.664    570.859    864.391   3086.759    570.859    570.859
 28.370   3935.000   3991.275    -56.275    570.513    927.699   3633.788    570.513    570.513
 28.470   3917.000   3926.556     -9.556    570.169    922.372   3574.240    570.169    570.169
 28.570   3394.707   3292.387    102.320    569.827    860.107   3002.142    569.827    569.827
 28.670   2630.460   2565.329     65.130    569.486    791.221   2343.670    569.486    569.486
 28.770   1905.000   2126.157   -221.157    569.147    756.281   1939.070    569.147    569.147
 28.870   1971.000   2074.620   -103.620    568.810    765.744   1877.697    568.810    568.810
 28.970   2264.938   2275.306    -10.368    568.474    802.723   2041.067    568.474    568.474
 29.070   2490.000   2453.377     36.623    568.141    831.839   2189.743    568.141    568.141
 29.170   2424.000   2367.100     56.900    567.808    821.300   2113.750    567.808    567.808
 29.270   1938.518   2013.574    -75.056    567.478    771.929   1809.294    567.478    567.478
 29.370   1636.000   1573.154     62.846    567.149    709.845   1430.606    567.149    567.149
 29.470   1135.126   1201.335    -66.209    566.822    657.332   1110.927    566.822    566.822
 29.570    909.233    951.711    -42.478    566.497    622.085    896.182    566.497    566.497
 29.670    911.000    808.447    102.553    566.173    601.898    772.754    566.173    566.173
 29.770    702.490    732.908    -30.417    565.851    591.306    707.469    565.851    565.851
 29.870    777.000    692.522     84.478    565.531    585.702    672.359    565.531    565.531
 29.970    701.000    668.524     32.476    565.213    582.440    651.301    565.213    565.213
 30.070    688.000    652.372     35.628    564.896    580.331    636.940    564.896    564.896
 30.170    609.876    640.619    -30.743    564.581    578.918    626.283    564.581    564.581
 30.270    704.000    631.876     72.124    564.268    578.071    618.073    564.268    564.268
 30.370    578.793    625.639    -46.846    563.957    577.858    611.736    563.957    563.957
