neutron_powder_diffraction_0087
R_wp: 4.441
Temperature (K): 826.932
Counts: 83547.00
Wavelength (Ã…): 2.52098
COMMENTS
Test file for demonstrating the .xyy file format in Reel1.0
END OF HEADER
   tth       Y_obs     Y_calc      Y_res    Background    Phase_1_Nuc    Phase_1_Mag    Phase_2_Nuc    Phase_2_Mag
  9.970    557.403    565.426     -8.023    564.283    565.426    564.283    564.283    564.283
 10.070    593.000    566.070     26.930    564.833    566.069    564.833    564.833    564.833
 10.170    657.000    566.718     90.282    565.372    566.717    565.372    565.372    565.372
 10.270    542.204    567.368    -25.163    565.899    567.367    565.899    565.899    565.899
 10.370    644.000    568.025     75.975    566.416    568.024    566.416    566.416    566.416
 10.470    595.000    568.695     26.305    566.922    568.694    566.922    566.922    566.922
 10.570    583.000    569.382     13.618    567.416    569.381    567.416    567.416    567.416
 10.670    528.481    570.094    -41.613    567.900    570.093    567.900    567.900    567.900
 10.770    566.000    570.841     -4.841    568.373    570.840    568.373    568.373    568.373
 10.870    574.000    571.635      2.365    568.835    571.633    568.835    568.835    568.835
 10.970    625.000    572.493     52.507    569.287    572.491    569.287    569.287    569.287
 11.070    551.295    573.440    -22.145    569.728    573.438    569.728    569.728    569.728
 11.170    617.000    574.511     42.489    570.159    574.508    570.159    570.159    570.159
 11.270    593.407    575.758     17.649    570.579    575.755    570.579    570.579    570.579
 11.370    620.069    577.273     42.796    570.990    577.270    570.990    570.990    570.990
 11.470    545.937    579.239    -33.302    571.390    579.235    571.390    571.390    571.390
 11.570    632.000    582.081     49.919    571.779    582.075    571.779    571.779    571.779
 11.670    610.088    586.774     23.314    572.159    586.766    572.159    572.159    572.159
 11.770    658.000    595.235     62.765    572.529    595.222    572.529    572.529    572.529
 11.870    657.000    610.326     46.674    572.889    610.305    572.889    572.889    572.889
 11.970    659.000    634.301     24.699    573.239    634.266    573.239    573.239    573.239
 12.070    710.000    666.519     43.481    573.580    666.466    573.580    573.580    573.580
 12.170    682.075    698.816    -16.742    573.911    698.745    573.911    573.911    573.911
 12.270    673.000    713.754    -40.754    574.232    713.674    574.232    574.232    574.232
 12.370    671.000    699.601    -28.601    574.544    699.529    574.544    574.544    574.544
 12.470    602.000    667.996    -65.996    574.847    667.943    574.847    574.847    574.847
 12.570    615.000    636.392    -21.392    575.140    636.356    575.140    575.140    575.140
 12.670    563.198    613.031    -49.833    575.424    613.010    575.424    575.424    575.424
 12.770    584.478    598.669    -14.190    575.699    598.656    575.699    575.699    575.699
 12.870    585.000    590.848     -5.848    575.964    590.839    575.964    575.964    575.964
 12.970    590.000    586.783      3.217    576.221    586.778    576.221    576.221    576.221
 13.070    586.000    584.576      1.424    576.469    584.571    576.469    576.469    576.469
 13.170    534.691    583.249    -48.558    576.708    583.246    576.708    576.708    576.708
 13.270    562.479    582.377    -19.897    576.938    582.374    576.938    576.938    576.938
 13.370    579.574    581.774     -2.200    577.159    581.771    577.159    577.159    577.159
 13.470    583.000    581.350      1.650    577.372    581.348    577.372    577.372    577.372
 13.570    565.000    581.053    -16.053    577.577    581.051    577.577    577.577    577.577
 13.670    608.734    580.846     27.888    577.772    580.845    577.772    577.772    577.772
 13.770    580.000    580.707     -0.707    577.960    580.705    577.960    577.960    577.960
 13.870    548.000    580.617    -32.617    578.139    580.616    578.139    578.139    578.139
 13.970    562.000    580.566    -18.566    578.310    580.565    578.310    578.310    578.310
 14.070    581.000    580.540      0.460    578.472    580.539    578.472    578.472    578.472
 14.170    550.000    580.536    -30.536    578.627    580.535    578.627    578.627    578.627
 14.270    569.669    580.550    -10.881    578.774    580.549    578.774    578.774    578.774
 14.370    596.000    580.573     15.427    578.912    580.573    578.912    578.912    578.912
 14.470    615.121    580.603     34.517    579.043    580.602    579.043    579.043    579.043
 14.570    609.000    580.638     28.362    579.166    580.637    579.166    579.166    579.166
 14.670    579.000    580.676     -1.676    579.281    580.676    579.281    579.281    579.281
 14.770    577.000    580.716     -3.716    579.388    580.716    579.388    579.388    579.388
 14.870    624.479    580.757     43.722    579.488    580.756    579.488    579.488    579.488
 14.970    575.000    580.797     -5.797    579.580    580.796    579.580    579.580    579.580
 15.070    602.985    580.836     22.149    579.665    580.835    579.665    579.665    579.665
 15.170    565.000    580.879    -15.879    579.743    580.878    579.743    579.743    579.743
 15.270    566.005    580.921    -14.916    579.813    580.921    579.813    579.813    579.813
 15.370    575.404    581.025     -5.621    579.876    581.024    579.876    579.876    579.876
 15.470    586.612    581.059      5.554    579.932    581.058    579.932    579.932    579.932
 15.570    590.634    581.081      9.552    579.980    581.081    579.980    579.980    579.980
 15.670    621.960    581.100     40.861    580.022    581.099    580.022    580.022    580.022
 15.770    533.000    581.113    -48.113    580.056    581.113    580.056    580.056    580.056
 15.870    622.800    581.123     41.677    580.084    581.122    580.084    580.084    580.084
 15.970    568.000    581.129    -13.129    580.105    581.129    580.105    580.105    580.105
 16.070    542.000    581.141    -39.141    580.119    581.140    580.119    580.119    580.119
 16.170    560.000    581.136    -21.136    580.126    581.136    580.126    580.126    580.126
 16.270    605.125    581.125     24.000    580.127    581.125    580.127    580.127    580.127
 16.370    569.000    581.111    -12.111    580.121    581.111    580.121    580.121    580.121
 16.470    535.000    581.107    -46.107    580.108    581.107    580.108    580.108    580.108
 16.570    531.000    581.092    -50.092    580.089    581.092    580.089    580.089    580.089
 16.670    573.719    581.061     -7.342    580.064    581.061    580.064    580.064    580.064
 16.770    564.000    581.023    -17.023    580.033    581.023    580.033    580.033    580.033
 16.870    529.000    580.981    -51.981    579.995    580.981    579.995    579.995    579.995
 16.970    551.000    580.942    -29.942    579.951    580.942    579.951    579.951    579.951
 17.070    567.000    580.947    -13.947    579.900    580.947    579.900    579.900    579.900
 17.170    563.000    580.904    -17.904    579.844    580.904    579.844    579.844    579.844
 17.270    540.370    580.845    -40.476    579.782    580.845    579.782    579.782    579.782
 17.370    586.000    580.777      5.223    579.714    580.777    579.714    579.714    579.714
 17.470    560.095    580.703    -20.608    579.640    580.703    579.640    579.640    579.640
 17.570    545.000    580.624    -35.624    579.560    580.624    579.560    579.560    579.560
 17.670    583.000    580.540      2.460    579.474    580.540    579.474    579.474    579.474
 17.770    554.000    580.451    -26.451    579.383    580.450    579.383    579.383    579.383
 17.870    565.000    580.356    -15.356    579.286    580.356    579.286    579.286    579.286
 17.970    575.000    580.257     -5.257    579.184    580.257    579.184    579.184    579.184
 18.070    611.000    580.152     30.848    579.076    580.152    579.076    579.076    579.076
 18.170    565.000    580.046    -15.046    578.962    580.046    578.962    578.962    578.962
 18.270    555.763    579.959    -24.196    578.843    579.959    578.843    578.843    578.843
 18.370    548.000    579.852    -31.852    578.719    579.852    578.719    578.719    578.719
 18.470    553.000    579.754    -26.754    578.590    579.754    578.590    578.590    578.590
 18.570    605.503    579.664     25.839    578.455    579.664    578.455    578.455    578.455
 18.670    580.000    579.561      0.439    578.316    579.560    578.316    578.316    578.316
 18.770    586.000    579.470      6.530    578.171    579.470    578.171    578.171    578.171
 18.870    603.687    579.335     24.352    578.021    579.335    578.021    578.021    578.021
 18.970    563.000    579.190    -16.190    577.866    579.190    577.866    577.866    577.866
 19.070    591.567    579.044     12.522    577.706    579.044    577.706    577.706    577.706
 19.170    591.000    578.943     12.057    577.542    578.943    577.542    577.542    577.542
 19.270    543.000    578.814    -35.814    577.372    578.814    577.372    577.372    577.372
 19.370    584.000    578.658      5.342    577.198    578.658    577.198    577.198    577.198
 19.470    581.000    578.492      2.508    577.019    578.492    577.019    577.019    577.019
 19.570    563.000    578.324    -15.324    576.836    578.324    576.836    576.836    576.836
 19.670    580.411    578.154      2.257    576.648    578.154    576.648    576.648    576.648
 19.770    581.000    577.979      3.021    576.455    577.979    576.455    576.455    576.455
 19.870    552.000    577.798    -25.798    576.258    577.798    576.258    576.258    576.258
 19.970    602.550    577.618     24.932    576.057    577.618    576.057    576.057    576.057
 20.070    537.000    577.431    -40.431    575.851    577.431    575.851    575.851    575.851
 20.170    570.000    577.238     -7.238    575.641    577.238    575.641    575.641    575.641
 20.270    565.929    577.042    -11.114    575.427    577.042    575.427    575.427    575.427
 20.370    567.000    576.844     -9.844    575.208    576.844    575.208    575.208    575.208
 20.470    560.000    576.641    -16.641    574.986    576.641    574.986    574.986    574.986
 20.570    601.287    576.441     24.847    574.759    576.441    574.759    574.759    574.759
 20.670    556.000    576.234    -20.234    574.528    576.234    574.528    574.528    574.528
 20.770    563.000    576.023    -13.023    574.293    576.023    574.293    574.293    574.293
 20.870    556.000    575.810    -19.810    574.055    575.810    574.055    574.055    574.055
 20.970    553.035    575.595    -22.559    573.812    575.595    573.812    573.812    573.812
 21.070    562.114    575.377    -13.263    573.566    575.378    573.566    573.566    573.566
 21.170    566.000    575.156     -9.156    573.316    575.156    573.316    573.316    573.316
 21.270    590.000    574.933     15.067    573.062    574.933    573.062    573.062    573.062
 21.370    572.528    574.708     -2.179    572.805    574.708    572.805    572.805    572.805
 21.470    566.530    574.481     -7.950    572.544    574.481    572.544    572.544    572.544
 21.570    564.000    574.252    -10.252    572.279    574.253    572.279    572.279    572.279
 21.670    592.000    574.023     17.977    572.011    574.023    572.011    572.011    572.011
 21.770    503.000    573.793    -70.793    571.739    573.793    571.739    571.739    571.739
 21.870    581.000    573.563      7.437    571.464    573.563    571.464    571.464    571.464
 21.970    522.569    573.332    -50.764    571.186    573.333    571.186    571.186    571.186
 22.070    528.000    573.103    -45.103    570.904    573.103    570.904    570.904    570.904
 22.170    584.000    572.874     11.126    570.619    572.874    570.619    570.619    570.619
 22.270    602.541    572.646     29.895    570.331    572.647    570.331    570.331    570.331
 22.370    555.000    572.421    -17.421    570.040    572.422    570.040    570.040    570.040
 22.470    607.000    572.200     34.800    569.745    572.200    569.745    569.745    569.745
 22.570    534.000    571.982    -37.982    569.448    571.982    569.448    569.448    569.448
 22.670    615.000    571.771     43.229    569.148    571.771    569.148    569.148    569.148
 22.770    551.023    571.567    -20.544    568.844    571.567    568.844    568.844    568.844
 22.870    596.959    571.370     25.589    568.538    571.371    568.538    568.538    568.538
 22.970    580.000    571.185      8.815    568.228    571.186    568.228    568.228    568.228
 23.070    563.000    571.014     -8.014    567.916    571.014    567.916    567.916    567.916
 23.170    563.000    570.860     -7.860    567.601    570.861    567.601    567.601    567.601
 23.270    537.000    570.729    -33.729    567.284    570.730    567.284    567.284    567.284
 23.370    522.000    570.627    -48.627    566.963    570.628    566.963    566.963    566.963
 23.470    539.000    570.562    -31.562    566.640    570.563    566.640    566.640    566.640
 23.570    572.000    570.545      1.455    566.315    570.547    566.315    566.315    566.315
 23.670    562.000    570.592     -8.592    565.987    570.594    565.987    565.987    565.987
 23.770    555.000    570.725    -15.725    565.656    570.727    565.656    565.656    565.656
 23.870    587.007    570.979     16.029    565.323    570.981    565.323    565.323    565.323
 23.970    624.000    571.410     52.590    564.987    571.413    564.987    564.987    564.987
 24.070    573.523    572.137      1.386    564.650    572.141    564.650    564.650    564.650
 24.170    554.000    573.421    -19.421    564.309    573.426    564.309    564.309    564.309
 24.270    572.000    575.837     -3.837    563.967    575.843    563.967    563.967    563.967
 24.370    545.161    580.470    -35.309    563.622    580.480    563.622    563.622    563.622
 24.470    666.000    588.911     77.089    563.275    588.927    563.275    563.275    563.275
 24.570    610.000    602.634      7.366    562.926    602.660    562.926    562.926    562.926
 24.670    627.000    621.550      5.450    562.575    621.589    562.575    562.575    562.575
 24.770    682.000    641.753     40.247    562.221    641.806    562.221    562.221    562.221
 24.870    617.727    654.156    -36.429    561.866    654.218    561.866    561.866    561.866
 24.970    631.894    650.522    -18.628    561.508    650.582    561.508    561.508    561.508
 25.070    660.000    633.455     26.545    561.149    633.504    561.149    561.149    561.149
 25.170    628.000    612.576     15.424    560.788    612.609    560.788    560.788    560.788
 25.270    591.956    594.962     -3.006    560.425    594.983    560.425    560.425    560.425
 25.370    653.000    582.827     70.173    560.060    582.840    560.060    560.060    560.060
 25.470    589.000    575.482     13.518    559.693    575.490    559.693    559.693    559.693
 25.570    615.000    571.311     43.689    559.324    571.317    559.324    559.324    559.324
 25.670    602.000    568.902     33.098    558.954    568.907    558.954    558.954    558.954
 25.770    572.000    567.384      4.616    558.582    567.387    558.582    558.582    558.582
 25.870    593.000    566.322     26.678    558.209    566.324    558.209    558.209    558.209
 25.970    623.000    565.523     57.477    557.834    565.524    557.834    557.834    557.834
 26.070    554.000    564.901    -10.901    557.457    564.902    557.457    557.457    557.457
 26.170    533.022    564.414    -31.392    557.079    564.415    557.079    557.079    557.079
 26.270    522.724    564.038    -41.314    556.699    564.039    556.699    556.699    556.699
 26.370    593.000    563.761     29.239    556.318    563.761    556.318    556.318    556.318
 26.470    583.000    563.577     19.423    555.936    563.577    555.936    555.936    555.936
 26.570    532.848    563.486    -30.638    555.552    563.486    555.552    555.552    555.552
 26.670    584.000    563.495     20.505    555.167    563.495    555.167    555.167    555.167
 26.770    592.000    563.616     28.384    554.780    563.615    554.780    554.780    554.780
 26.870    608.690    563.866     44.824    554.392    563.866    554.392    554.392    554.392
 26.970    586.932    564.274     22.658    554.004    564.273    554.004    554.004    554.004
 27.070    581.000    564.879     16.121    553.613    564.877    553.613    553.613    553.613
 27.170    656.000    565.735     90.265    553.222    565.734    553.222    553.222    553.222
 27.270    604.000    566.927     37.073    552.830    566.925    552.830    552.830    552.830
 27.370    604.538    568.581     35.957    552.436    568.579    552.436    552.436    552.436
 27.470    574.975    570.933      4.042    552.042    570.930    552.042    552.042    552.042
 27.570    581.000    574.512      6.488    551.646    574.507    551.646    551.646    551.646
 27.670    607.000    580.671     26.329    551.250    580.665    551.250    551.250    551.250
 27.770    607.000    592.675     14.325    550.853    592.664    550.853    550.853    550.853
 27.870    616.946    616.927      0.019    550.454    616.907    550.454    550.454    550.454
 27.970    652.000    662.374    -10.374    550.055    662.339    550.055    550.055    550.055
 28.070    729.412    735.134     -5.722    549.655    735.078    549.655    549.655    549.655
 28.170    792.897    827.845    -34.949    549.255    827.770    549.255    549.255    549.255
 28.270    956.847    909.749     47.099    548.853    909.669    548.853    548.853    548.853
 28.370    971.000    936.029     34.971    548.451    935.962    548.451    548.451    548.451
 28.470    865.839    892.644    -26.805    548.048    892.597    548.048    548.048    548.048
 28.570    847.000    821.017     25.983    547.644    820.985    547.644    547.644    547.644
 28.670    766.000    770.181     -4.181    547.240    770.156    547.240    547.240    547.240
 28.770    749.000    761.677    -12.677    546.835    761.653    546.835    546.835    546.835
 28.870    822.000    788.673     33.327    546.430    788.650    546.430    546.430    546.430
 28.970    822.000    822.682     -0.682    546.024    822.667    546.024    546.024    546.024
 29.070    889.913    827.589     62.324    545.618    827.585    545.618    545.618    545.618
 29.170    845.000    788.708     56.292    545.211    788.712    545.211    545.211    545.211
 29.270    761.000    726.227     34.773    544.803    726.234    544.803    544.803    544.803
 29.370    662.000    666.544     -4.544    544.396    666.549    544.396    544.396    544.396
 29.470    623.000    622.287      0.713    543.988    622.290    543.988    543.988    543.988
 29.570    552.917    594.461    -41.544    543.579    594.462    543.579    543.579    543.579
 29.670    642.000    578.727     63.273    543.170    578.726    543.170    543.170    543.170
 29.770    618.000    570.104     47.896    542.761    570.103    542.761    542.761    542.761
 29.870    544.995    565.122    -20.127    542.352    565.121    542.352    542.352    542.352
 29.970    573.000    561.958     11.042    541.943    561.956    541.943    541.943    541.943
 30.070    556.675    559.819     -3.144    541.533    559.817    541.533    541.533    541.533
 30.170    647.000    558.421     88.579    541.123    558.418    541.123    541.123    541.123
 30.270    620.000    557.749     62.251    540.713    557.745    540.713    540.713    540.713
 30.370    590.225    558.040     32.185    540.303    558.034    540.303    540.303    540.303
