neutron_powder_diffraction_0192
R_wp: 3.930
Temperature (K): 1074.000
Counts: 83537.00
Wavelength (Ã…): 2.52098
COMMENTS
Test file for demonstrating the .xyy file format in Reel1.0
END OF HEADER
   tth       Y_obs     Y_calc      Y_res    Background    Phase_1_Nuc    Phase_1_Mag    Phase_2_Nuc    Phase_2_Mag
  9.970    604.481    579.397     25.084    578.695    579.366    578.695    578.725    578.695
 10.070    599.000    579.402     19.598    578.642    579.371    578.642    578.672    578.642
 10.170    593.000    579.411     13.589    578.584    579.380    578.584    578.615    578.584
 10.270    568.844    579.427    -10.583    578.522    579.394    578.522    578.554    578.522
 10.370    579.000    579.459     -0.459    578.455    579.416    578.455    578.497    578.455
 10.470    632.000    579.493     52.507    578.384    579.449    578.384    578.428    578.384
 10.570    596.000    579.541     16.459    578.308    579.496    578.308    578.352    578.308
 10.670    593.150    579.607     13.542    578.228    579.563    578.228    578.272    578.228
 10.770    614.387    579.700     34.687    578.143    579.655    578.143    578.187    578.143
 10.870    586.000    579.828      6.172    578.054    579.782    578.054    578.099    578.054
 10.970    601.000    580.004     20.996    577.961    579.958    577.961    578.005    577.961
 11.070    582.000    580.245      1.755    577.863    580.198    577.863    577.908    577.863
 11.170    574.000    580.577     -6.577    577.761    580.530    577.761    577.806    577.761
 11.270    568.000    581.042    -13.042    577.655    580.994    577.655    577.701    577.655
 11.370    589.000    581.714      7.286    577.545    581.660    577.545    577.596    577.545
 11.470    600.000    582.738     17.262    577.431    582.683    577.431    577.483    577.431
 11.570    560.000    584.546    -24.546    577.313    584.489    577.313    577.365    577.313
 11.670    607.801    588.317     19.484    577.190    588.258    577.190    577.243    577.190
 11.770    654.000    596.718     57.282    577.064    596.654    577.064    577.117    577.064
 11.870    634.000    613.913     20.087    576.934    613.839    576.934    576.987    576.934
 11.970    685.000    642.988     42.012    576.800    642.898    576.800    576.854    576.800
 12.070    664.000    680.075    -16.075    576.663    679.962    576.663    576.716    576.663
 12.170    721.976    709.065     12.911    576.521    708.936    576.521    576.575    576.521
 12.270    646.000    709.868    -63.868    576.376    709.738    576.376    576.430    576.376
 12.370    690.000    681.638      8.362    576.227    681.523    576.227    576.282    576.227
 12.470    661.750    644.110     17.640    576.075    644.017    576.075    576.130    576.075
 12.570    629.000    614.102     14.898    575.919    614.025    575.919    575.974    575.919
 12.670    588.741    596.040     -7.299    575.759    595.973    575.759    575.814    575.759
 12.770    595.000    587.017      7.983    575.596    586.955    575.596    575.652    575.596
 12.870    591.000    582.810      8.190    575.429    582.750    575.429    575.485    575.429
 12.970    601.000    580.659     20.341    575.259    580.600    575.259    575.316    575.259
 13.070    552.873    579.327    -26.454    575.086    579.267    575.086    575.143    575.086
 13.170    616.876    578.365     38.511    574.909    578.304    574.909    574.969    574.909
 13.270    565.000    577.610    -12.610    574.729    577.547    574.729    574.790    574.729
 13.370    570.000    576.990     -6.990    574.546    576.926    574.546    574.608    574.546
 13.470    565.000    576.463    -11.463    574.360    576.400    574.360    574.422    574.360
 13.570    535.311    576.005    -40.694    574.170    575.941    574.170    574.233    574.170
 13.670    577.000    575.596      1.404    573.977    575.532    573.977    574.041    573.977
 13.770    573.000    575.223     -2.223    573.781    575.159    573.781    573.845    573.781
 13.870    578.000    574.879      3.121    573.583    574.814    573.583    573.647    573.583
 13.970    553.000    574.556    -21.556    573.381    574.491    573.381    573.445    573.381
 14.070    582.000    574.252      7.748    573.176    574.187    573.176    573.241    573.176
 14.170    593.000    573.961     19.039    572.968    573.895    572.968    573.033    572.968
 14.270    559.000    573.676    -14.676    572.757    573.610    572.757    572.823    572.757
 14.370    562.000    573.399    -11.399    572.544    573.332    572.544    572.610    572.544
 14.470    557.000    573.127    -16.127    572.328    573.060    572.328    572.394    572.328
 14.570    535.000    572.859    -37.859    572.108    572.792    572.108    572.175    572.108
 14.670    574.000    572.595      1.405    571.887    572.528    571.887    571.954    571.887
 14.770    614.714    572.333     42.381    571.662    572.266    571.662    571.729    571.662
 14.870    567.000    572.073     -5.073    571.435    572.005    571.435    571.503    571.435
 14.970    545.996    571.814    -25.818    571.205    571.746    571.205    571.273    571.205
 15.070    532.000    571.556    -39.556    570.973    571.488    570.973    571.041    570.973
 15.170    560.000    571.298    -11.298    570.738    571.229    570.738    570.807    570.738
 15.270    544.198    571.040    -26.842    570.501    570.971    570.501    570.570    570.501
 15.370    572.443    570.782      1.661    570.261    570.712    570.261    570.331    570.261
 15.470    547.000    570.524    -23.524    570.019    570.453    570.019    570.089    570.019
 15.570    553.000    570.264    -17.264    569.774    570.194    569.774    569.844    569.774
 15.670    560.000    570.004    -10.004    569.527    569.933    569.527    569.598    569.527
 15.770    594.948    569.744     25.203    569.278    569.671    569.278    569.351    569.278
 15.870    535.000    569.482    -34.482    569.026    569.409    569.026    569.100    569.026
 15.970    578.000    569.219      8.781    568.772    569.145    568.772    568.846    568.772
 16.070    532.000    568.954    -36.954    568.516    568.880    568.516    568.591    568.516
 16.170    551.000    568.689    -17.689    568.258    568.614    568.258    568.333    568.258
 16.270    576.000    568.421      7.579    567.998    568.346    567.998    568.073    567.998
 16.370    595.000    568.153     26.847    567.735    568.077    567.735    567.811    567.735
 16.470    550.000    567.883    -17.883    567.471    567.807    567.471    567.547    567.471
 16.570    583.606    567.612     15.994    567.204    567.535    567.204    567.281    567.204
 16.670    533.000    567.342    -34.342    566.936    567.265    566.936    567.013    566.936
 16.770    510.000    567.069    -57.069    566.665    566.991    566.665    566.743    566.665
 16.870    504.000    566.793    -62.793    566.393    566.715    566.393    566.471    566.393
 16.970    575.000    566.516      8.484    566.119    566.438    566.119    566.197    566.119
 17.070    591.000    566.238     24.762    565.842    566.159    565.842    565.922    565.842
 17.170    581.000    565.958     15.042    565.565    565.879    565.565    565.644    565.565
 17.270    522.672    565.677    -43.006    565.285    565.597    565.285    565.365    565.285
 17.370    546.000    565.395    -19.395    565.003    565.314    565.003    565.084    565.003
 17.470    572.836    565.111      7.724    564.720    565.030    564.720    564.801    564.720
 17.570    562.000    564.826     -2.826    564.435    564.744    564.435    564.517    564.435
 17.670    581.318    564.540     16.778    564.149    564.457    564.149    564.231    564.149
 17.770    549.000    564.252    -15.252    563.860    564.169    563.860    563.943    563.860
 17.870    552.000    563.963    -11.963    563.571    563.880    563.571    563.654    563.571
 17.970    592.651    563.674     28.977    563.279    563.589    563.279    563.364    563.279
 18.070    551.000    563.387    -12.387    562.986    563.297    562.986    563.076    562.986
 18.170    572.072    563.097      8.975    562.692    563.005    562.692    562.784    562.692
 18.270    541.000    562.804    -21.804    562.396    562.711    562.396    562.489    562.396
 18.370    558.000    562.509     -4.509    562.099    562.416    562.099    562.192    562.099
 18.470    528.000    562.213    -34.213    561.800    562.119    561.800    561.894    561.800
 18.570    538.000    561.916    -23.916    561.500    561.822    561.500    561.595    561.500
 18.670    563.000    561.619      1.381    561.199    561.523    561.199    561.294    561.199
 18.770    555.000    561.320     -6.320    560.896    561.224    560.896    560.992    560.896
 18.870    525.000    561.020    -36.020    560.592    560.923    560.592    560.689    560.592
 18.970    562.000    560.719      1.281    560.287    560.621    560.287    560.385    560.287
 19.070    559.000    560.418     -1.418    559.981    560.320    559.981    560.079    559.981
 19.170    593.000    560.129     32.871    559.673    560.030    559.673    559.772    559.673
 19.270    545.000    559.836    -14.836    559.365    559.736    559.365    559.464    559.365
 19.370    565.541    559.533      6.008    559.055    559.432    559.055    559.155    559.055
 19.470    589.021    559.228     29.793    558.744    559.126    558.744    558.845    558.744
 19.570    573.000    558.922     14.078    558.432    558.819    558.432    558.534    558.432
 19.670    579.000    558.615     20.385    558.119    558.512    558.119    558.222    558.119
 19.770    591.000    558.309     32.691    557.805    558.204    557.805    557.909    557.805
 19.870    541.000    558.001    -17.001    557.490    557.896    557.490    557.595    557.490
 19.970    559.000    557.693      1.307    557.174    557.587    557.174    557.280    557.174
 20.070    514.510    557.384    -42.874    556.857    557.277    556.857    556.964    556.857
 20.170    566.000    557.075      8.925    556.539    556.968    556.539    556.647    556.539
 20.270    600.000    556.766     43.234    556.220    556.657    556.220    556.329    556.220
 20.370    612.000    556.457     55.543    555.901    556.347    555.901    556.011    555.901
 20.470    563.000    556.147      6.853    555.580    556.036    555.580    555.691    555.580
 20.570    545.000    555.837    -10.837    555.259    555.725    555.259    555.371    555.259
 20.670    578.974    555.527     23.447    554.937    555.414    554.937    555.051    554.937
 20.770    560.449    555.217      5.233    554.615    555.102    554.615    554.729    554.615
 20.870    566.646    554.907     11.740    554.292    554.791    554.292    554.407    554.292
 20.970    531.000    554.597    -23.597    553.968    554.480    553.968    554.084    553.968
 21.070    563.000    554.287      8.713    553.643    554.169    553.643    553.761    553.643
 21.170    564.106    553.978     10.128    553.318    553.859    553.318    553.437    553.318
 21.270    585.908    553.669     32.239    552.992    553.549    552.992    553.112    552.992
 21.370    543.175    553.361    -10.185    552.666    553.239    552.666    552.787    552.666
 21.470    567.000    553.053     13.947    552.339    552.930    552.339    552.462    552.339
 21.570    536.875    552.757    -15.883    552.011    552.633    552.011    552.136    552.011
 21.670    591.582    552.540     39.042    551.683    552.414    551.683    551.809    551.683
 21.770    557.429    552.258      5.171    551.355    552.131    551.355    551.482    551.355
 21.870    536.000    551.959    -15.959    551.026    551.830    551.026    551.155    551.026
 21.970    527.000    551.681    -24.681    550.697    551.551    550.697    550.827    550.697
 22.070    561.609    551.414     10.195    550.367    551.282    550.367    550.499    550.367
 22.170    535.000    551.126    -16.126    550.037    550.992    550.037    550.171    550.037
 22.270    592.611    550.881     41.730    549.707    550.743    549.707    549.845    549.707
 22.370    553.000    550.611      2.389    549.376    550.471    549.376    549.517    549.376
 22.470    543.000    550.328     -7.328    549.045    550.185    549.045    549.188    549.045
 22.570    563.580    550.047     13.533    548.714    549.903    548.714    548.858    548.714
 22.670    531.000    549.772    -18.772    548.383    549.626    548.383    548.529    548.383
 22.770    513.000    549.504    -36.504    548.051    549.356    548.051    548.199    548.051
 22.870    536.711    549.244    -12.533    547.719    549.094    547.719    547.870    547.719
 22.970    506.000    548.994    -42.994    547.387    548.841    547.387    547.540    547.387
 23.070    545.000    548.755     -3.755    547.055    548.601    547.055    547.210    547.055
 23.170    594.255    548.532     45.723    546.722    548.375    546.722    546.880    546.722
 23.270    542.000    548.327     -6.327    546.390    548.167    546.390    546.550    546.390
 23.370    545.000    548.145     -3.145    546.057    547.983    546.057    546.220    546.057
 23.470    592.864    547.994     44.871    545.725    547.829    545.725    545.890    545.725
 23.570    504.000    547.883    -43.883    545.392    547.715    545.392    545.560    545.392
 23.670    521.000    547.825    -26.825    545.060    547.655    545.060    545.231    545.060
 23.770    560.000    547.841     12.159    544.727    547.668    544.727    544.901    544.727
 23.870    580.192    547.963     32.229    544.394    547.787    544.394    544.572    544.394
 23.970    572.000    548.248     23.752    544.062    548.069    544.062    544.243    544.062
 24.070    539.938    548.838     -8.900    543.729    548.657    543.729    543.914    543.729
 24.170    529.188    550.124    -20.936    543.397    549.940    543.397    543.585    543.397
 24.270    515.644    553.099    -37.455    543.065    552.913    543.065    543.257    543.065
 24.370    589.000    559.738     29.262    542.732    559.553    542.732    542.929    542.732
 24.470    606.604    572.630     33.974    542.400    572.450    542.400    542.601    542.400
 24.570    636.786    592.861     43.925    542.069    592.691    542.069    542.274    542.069
 24.670    600.932    616.410    -15.477    541.737    616.252    541.737    541.947    541.737
 24.770    655.312    631.861     23.451    541.406    631.709    541.406    541.621    541.406
 24.870    666.000    628.057     37.943    541.074    627.898    541.074    541.295    541.074
 24.970    559.669    608.011    -48.342    540.744    607.832    540.744    540.970    540.744
 25.070    567.000    584.283    -17.283    540.413    584.081    540.413    540.645    540.413
 25.170    572.000    565.833      6.167    540.083    565.612    540.083    540.321    540.083
 25.270    581.298    554.645     26.653    539.753    554.409    539.753    539.998    539.753
 25.370    585.186    548.859     36.327    539.423    548.612    539.423    539.675    539.423
 25.470    574.000    546.003     27.997    539.094    545.746    539.094    539.354    539.094
 25.570    570.000    544.448     25.552    538.765    544.182    538.765    539.033    538.765
 25.670    563.000    543.438     19.562    538.436    543.162    538.436    538.713    538.436
 25.770    513.398    542.689    -29.291    538.108    542.404    538.108    538.395    538.108
 25.870    580.000    542.100     37.900    537.780    541.804    537.780    538.077    537.780
 25.970    547.000    541.625      5.375    537.453    541.317    537.453    537.761    537.453
 26.070    559.743    541.242     18.501    537.126    540.922    537.126    537.446    537.126
 26.170    534.966    540.921     -5.955    536.800    540.588    536.800    537.133    536.800
 26.270    559.000    540.638     18.362    536.474    540.291    536.474    536.821    536.474
 26.370    574.000    540.409     33.591    536.149    540.047    536.149    536.511    536.149
 26.470    519.570    540.226    -20.656    535.824    539.847    535.824    536.203    535.824
 26.570    518.000    540.097    -22.097    535.500    539.700    535.500    535.897    535.500
 26.670    542.000    540.028      1.972    535.176    539.611    535.176    535.593    535.176
 26.770    548.000    540.038      7.962    534.853    539.599    534.853    535.292    534.853
 26.870    513.000    540.141    -27.141    534.531    539.678    534.531    534.993    534.531
 26.970    570.000    540.322     29.678    534.209    539.832    534.209    534.698    534.209
 27.070    557.000    540.626     16.374    533.888    540.106    533.888    534.407    533.888
 27.170    518.000    541.095    -23.095    533.567    540.542    533.567    534.120    533.567
 27.270    598.000    541.786     56.214    533.247    541.196    533.247    533.837    533.247
 27.370    573.000    542.789     30.211    532.928    542.156    532.928    533.560    532.928
 27.470    589.000    544.265     44.735    532.610    543.584    532.610    533.289    532.610
 27.570    580.071    546.640     33.430    532.292    545.904    532.292    533.026    532.292
 27.670    552.000    551.359      0.641    531.975    550.560    531.975    532.771    531.975
 27.770    571.000    563.210      7.790    531.659    562.335    531.659    532.526    531.659
 27.870    598.000    593.969      4.031    531.343    593.001    531.343    532.294    531.343
 27.970    660.000    661.450     -1.450    531.029    660.363    531.029    532.076    531.029
 28.070    787.000    772.958     14.042    530.715    771.725    530.715    531.877    530.715
 28.170    909.000    897.005     11.995    530.402    895.609    530.402    531.701    530.402
 28.270    880.000    958.231    -78.231    530.090    956.673    530.090    531.553    530.090
 28.370    964.000    906.796     57.204    529.778    905.074    529.778    531.442    529.778
 28.470    756.000    795.875    -39.875    529.468    793.939    529.468    531.380    529.468
 28.570    684.000    709.869    -25.869    529.158    707.630    529.158    531.386    529.158
 28.670    671.000    692.110    -21.110    528.849    689.453    528.849    531.492    528.849
 28.770    709.442    737.752    -28.310    528.542    734.518    528.542    531.757    528.542
 28.870    780.431    806.708    -26.276    528.235    802.649    528.235    532.282    528.235
 28.970    805.000    839.287    -34.287    527.929    833.989    527.929    533.229    527.929
 29.070    775.000    800.137    -25.137    527.624    792.940    527.624    534.834    527.624
 29.170    712.477    720.108     -7.631    527.320    710.070    527.320    537.370    527.320
 29.270    641.000    646.732     -5.732    527.016    632.683    527.016    541.073    527.016
 29.370    603.772    601.509      2.263    526.714    582.253    526.714    545.973    526.714
 29.470    587.162    581.833      5.329    526.413    556.635    526.413    551.610    526.413
 29.570    631.000    575.892     55.108    526.113    545.393    526.113    556.609    526.113
 29.670    627.000    573.309     53.691    525.814    540.360    525.814    558.760    525.814
 29.770    574.000    568.823      5.177    525.516    537.645    525.516    556.691    525.516
 29.870    610.000    562.109     47.891    525.219    535.877    525.219    551.448    525.219
 29.970    576.000    554.937     21.063    524.923    534.634    524.923    545.224    524.923
 30.070    536.000    548.705    -12.705    524.628    533.776    524.628    539.555    524.628
 30.170    561.255    543.985     17.270    524.334    533.279    524.334    535.038    524.334
 30.270    550.729    540.926      9.803    524.042    533.255    524.042    531.710    524.042
 30.370    510.135    539.765    -29.630    523.750    534.150    523.750    529.361    523.750
