neutron_powder_diffraction_0240
R_wp: 4.065
Temperature (K): 997.406
Counts: 83914.00
Wavelength (Ã…): 2.52098
COMMENTS
Test file for demonstrating the .xyy file format in Reel1.0
END OF HEADER
   tth       Y_obs     Y_calc      Y_res    Background    Phase_1_Nuc    Phase_1_Mag    Phase_2_Nuc    Phase_2_Mag
  9.970    631.000    580.064     50.936    579.432    580.043    579.432    579.452    579.432
 10.070    579.000    580.018     -1.018    579.334    579.997    579.334    579.355    579.334
 10.170    590.000    579.975     10.025    579.232    579.954    579.232    579.253    579.232
 10.270    584.000    579.937      4.063    579.126    579.916    579.126    579.146    579.126
 10.370    579.000    579.906     -0.906    579.015    579.885    579.015    579.036    579.015
 10.470    650.000    579.884     70.116    578.900    579.862    578.900    578.921    578.900
 10.570    550.929    579.874    -28.945    578.781    579.853    578.781    578.802    578.781
 10.670    581.000    579.882      1.118    578.657    579.860    578.657    578.678    578.657
 10.770    590.000    579.912     10.088    578.530    579.890    578.530    578.551    578.530
 10.870    586.000    579.972      6.028    578.398    579.950    578.398    578.419    578.398
 10.970    538.786    580.075    -41.289    578.262    580.052    578.262    578.284    578.262
 11.070    630.000    580.234     49.766    578.122    580.212    578.122    578.144    578.122
 11.170    585.000    580.474      4.526    577.979    580.451    577.979    578.000    577.979
 11.270    623.161    580.829     42.332    577.831    580.806    577.831    577.853    577.831
 11.370    590.000    581.357      8.643    577.680    581.333    577.680    577.702    577.680
 11.470    623.789    582.181     41.608    577.524    582.157    577.524    577.546    577.524
 11.570    563.000    583.637    -20.637    577.365    583.612    577.365    577.387    577.365
 11.670    569.598    586.722    -17.124    577.202    586.695    577.202    577.225    577.202
 11.770    671.000    593.926     77.074    577.036    593.895    577.036    577.058    577.036
 11.870    622.000    609.683     12.317    576.866    609.642    576.866    576.888    576.866
 11.970    674.977    638.213     36.764    576.692    638.156    576.692    576.715    576.692
 12.070    663.000    677.219    -14.219    576.514    677.140    576.514    576.537    576.514
 12.170    688.000    711.063    -23.063    576.333    710.965    576.333    576.357    576.333
 12.270    760.684    716.696     43.988    576.149    716.595    576.149    576.172    576.149
 12.370    625.000    688.814    -63.814    575.961    688.729    575.961    575.985    575.961
 12.470    655.000    648.294      6.706    575.770    648.230    575.770    575.794    575.770
 12.570    617.802    615.306      2.496    575.576    615.260    575.576    575.599    575.576
 12.670    579.000    595.671    -16.671    575.378    595.636    575.378    575.401    575.378
 12.770    565.614    586.173    -20.560    575.177    586.143    575.177    575.201    575.177
 12.870    590.628    581.924      8.704    574.972    581.896    574.972    574.996    574.972
 12.970    555.000    579.807    -24.807    574.765    579.780    574.765    574.789    574.765
 13.070    567.000    578.495    -11.495    574.554    578.469    574.554    574.579    574.554
 13.170    535.000    577.540    -42.540    574.340    577.511    574.340    574.368    574.340
 13.270    546.000    576.781    -30.781    574.123    576.751    574.123    574.152    574.123
 13.370    587.000    576.150     10.850    573.903    576.120    573.903    573.933    573.903
 13.470    564.000    575.609    -11.609    573.681    575.578    573.681    573.710    573.681
 13.570    557.000    575.133    -18.133    573.455    575.101    573.455    573.486    573.455
 13.670    505.000    574.703    -69.703    573.226    574.670    573.226    573.258    573.226
 13.770    574.000    574.307     -0.307    572.994    574.274    572.994    573.026    572.994
 13.870    602.000    573.937     28.063    572.760    573.904    572.760    572.792    572.760
 13.970    534.000    573.587    -39.587    572.523    573.554    572.523    572.555    572.523
 14.070    569.980    573.252     -3.272    572.283    573.219    572.283    572.315    572.283
 14.170    608.439    572.929     35.510    572.040    572.896    572.040    572.073    572.040
 14.270    588.000    572.615     15.385    571.795    572.581    571.795    571.828    571.795
 14.370    542.862    572.308    -29.445    571.547    572.274    571.547    571.580    571.547
 14.470    562.121    572.007     -9.886    571.296    571.974    571.296    571.330    571.296
 14.570    543.000    571.712    -28.712    571.043    571.679    571.043    571.077    571.043
 14.670    565.255    571.418     -6.163    570.788    571.384    570.788    570.821    570.788
 14.770    602.000    571.126     30.874    570.529    571.092    570.529    570.563    570.529
 14.870    569.000    570.835     -1.835    570.269    570.801    570.269    570.303    570.269
 14.970    548.395    570.546    -22.151    570.006    570.511    570.006    570.041    570.006
 15.070    578.000    570.263      7.737    569.741    570.221    569.741    569.782    569.741
 15.170    589.713    569.981     19.732    569.473    569.932    569.473    569.521    569.473
 15.270    503.000    569.692    -66.692    569.203    569.643    569.203    569.252    569.203
 15.370    566.000    569.404     -3.404    568.931    569.354    568.931    568.980    568.931
 15.470    562.000    569.116     -7.116    568.656    569.066    568.656    568.706    568.656
 15.570    570.224    568.827      1.397    568.380    568.777    568.380    568.430    568.380
 15.670    539.258    568.536    -29.278    568.101    568.486    568.101    568.151    568.101
 15.770    579.000    568.248     10.752    567.820    568.194    567.820    567.874    567.820
 15.870    570.000    567.958      2.042    567.537    567.901    567.537    567.594    567.537
 15.970    550.000    567.665    -17.665    567.252    567.607    567.252    567.310    567.252
 16.070    566.000    567.370     -1.370    566.965    567.312    566.965    567.023    566.965
 16.170    535.000    567.074    -32.074    566.676    567.015    566.676    566.734    566.676
 16.270    549.000    566.777    -17.777    566.385    566.718    566.385    566.444    566.385
 16.370    557.829    566.480     -8.651    566.092    566.419    566.092    566.152    566.092
 16.470    544.000    566.180    -22.180    565.797    566.120    565.797    565.858    565.797
 16.570    572.000    565.880      6.120    565.500    565.818    565.500    565.562    565.500
 16.670    537.000    565.578    -28.578    565.202    565.516    565.202    565.264    565.202
 16.770    593.000    565.274     27.726    564.902    565.212    564.902    564.964    564.902
 16.870    547.000    564.970    -17.970    564.600    564.907    564.600    564.662    564.600
 16.970    555.000    564.664     -9.664    564.296    564.601    564.296    564.359    564.296
 17.070    544.000    564.357    -20.357    563.991    564.294    563.991    564.054    563.991
 17.170    561.466    564.050     -2.584    563.684    563.986    563.684    563.748    563.684
 17.270    596.000    563.742     32.258    563.375    563.678    563.375    563.440    563.375
 17.370    586.000    563.432     22.568    563.065    563.367    563.065    563.130    563.065
 17.470    606.000    563.120     42.880    562.754    563.055    562.754    562.819    562.754
 17.570    605.000    562.807     42.193    562.440    562.741    562.440    562.506    562.440
 17.670    595.000    562.493     32.507    562.126    562.427    562.126    562.192    562.126
 17.770    529.446    562.178    -32.731    561.810    562.111    561.810    561.876    561.810
 17.870    570.000    561.861      8.139    561.492    561.794    561.492    561.559    561.492
 17.970    535.000    561.543    -26.543    561.173    561.476    561.173    561.241    561.173
 18.070    541.000    561.225    -20.225    560.853    561.157    560.853    560.921    560.853
 18.170    567.277    560.905      6.372    560.531    560.836    560.531    560.600    560.531
 18.270    553.000    560.584     -7.584    560.208    560.515    560.208    560.278    560.208
 18.370    541.797    560.263    -18.466    559.884    560.193    559.884    559.954    559.884
 18.470    600.867    559.940     40.927    559.559    559.870    559.559    559.629    559.559
 18.570    579.000    559.616     19.384    559.232    559.545    559.232    559.303    559.232
 18.670    536.000    559.292    -23.292    558.904    559.220    558.904    558.976    558.904
 18.770    507.000    558.966    -51.966    558.575    558.894    558.575    558.648    558.575
 18.870    546.000    558.641    -12.641    558.245    558.568    558.245    558.319    558.245
 18.970    542.000    558.317    -16.317    557.914    558.240    557.914    557.991    557.914
 19.070    584.000    557.989     26.011    557.582    557.912    557.582    557.660    557.582
 19.170    541.000    557.662    -16.662    557.249    557.583    557.249    557.327    557.249
 19.270    541.533    557.334    -15.801    556.915    557.254    556.915    556.995    556.915
 19.370    571.428    557.004     14.424    556.580    556.923    556.580    556.660    556.580
 19.470    598.632    556.674     41.958    556.244    556.593    556.244    556.325    556.244
 19.570    554.000    556.345     -2.345    555.907    556.262    555.907    555.989    555.907
 19.670    591.397    556.014     35.383    555.569    555.930    555.569    555.652    555.569
 19.770    563.572    555.682      7.890    555.230    555.598    555.230    555.314    555.230
 19.870    571.000    555.354     15.646    554.890    555.269    554.890    554.975    554.890
 19.970    538.783    555.041    -16.257    554.550    554.955    554.550    554.636    554.550
 20.070    528.000    554.710    -26.710    554.209    554.623    554.209    554.295    554.209
 20.170    569.000    554.376     14.624    553.867    554.289    553.867    553.954    553.867
 20.270    551.511    554.043     -2.532    553.524    553.955    553.524    553.613    553.524
 20.370    531.544    553.709    -22.165    553.181    553.620    553.181    553.270    553.181
 20.470    546.362    553.375     -7.013    552.837    553.285    552.837    552.927    552.837
 20.570    534.000    553.041    -19.041    552.493    552.950    552.493    552.583    552.493
 20.670    591.000    552.707     38.293    552.147    552.616    552.147    552.239    552.147
 20.770    573.000    552.374     20.626    551.802    552.281    551.802    551.894    551.802
 20.870    521.000    552.040    -31.040    551.455    551.946    551.455    551.549    551.455
 20.970    560.483    551.708      8.774    551.108    551.612    551.108    551.205    551.108
 21.070    556.261    551.375      4.886    550.761    551.278    550.761    550.859    550.761
 21.170    584.000    551.042     32.958    550.413    550.944    550.413    550.512    550.413
 21.270    542.000    550.710     -8.710    550.065    550.611    550.065    550.165    550.065
 21.370    590.953    550.379     40.574    549.716    550.278    549.716    549.817    549.716
 21.470    552.000    550.048      1.952    549.367    549.946    549.367    549.469    549.367
 21.570    575.000    549.718     25.282    549.017    549.615    549.017    549.121    549.017
 21.670    565.000    549.390     15.610    548.668    549.286    548.668    548.772    548.668
 21.770    555.094    549.072      6.022    548.317    548.966    548.317    548.423    548.317
 21.870    523.164    548.789    -25.625    547.967    548.682    547.967    548.074    547.967
 21.970    571.000    548.477     22.523    547.616    548.369    547.616    547.724    547.616
 22.070    571.000    548.235     22.765    547.265    548.125    547.265    547.375    547.265
 22.170    589.000    547.947     41.053    546.914    547.835    546.914    547.026    546.914
 22.270    536.955    547.638    -10.683    546.562    547.519    546.562    546.681    546.562
 22.370    591.798    547.331     44.467    546.211    547.210    546.211    546.332    546.211
 22.470    568.000    547.047     20.953    545.859    546.925    545.859    545.981    545.859
 22.570    555.733    546.783      8.951    545.507    546.659    545.507    545.631    545.507
 22.670    538.070    546.487     -8.416    545.155    546.361    545.155    545.281    545.155
 22.770    587.515    546.192     41.322    544.802    546.065    544.802    544.930    544.802
 22.870    520.000    545.906    -25.906    544.450    545.776    544.450    544.580    544.450
 22.970    542.244    545.627     -3.383    544.098    545.496    544.098    544.229    544.098
 23.070    573.000    545.360     27.640    543.745    545.227    543.745    543.879    543.745
 23.170    531.259    545.108    -13.849    543.393    544.973    543.393    543.529    543.393
 23.270    563.673    544.870     18.803    543.041    544.733    543.041    543.179    543.041
 23.370    553.000    544.653      8.347    542.688    544.513    542.688    542.829    542.688
 23.470    560.561    544.461     16.100    542.336    544.319    542.336    542.479    542.336
 23.570    549.000    544.303      4.697    541.984    544.159    541.984    542.129    541.984
 23.670    548.000    544.192      3.808    541.632    544.045    541.632    541.779    541.632
 23.770    564.000    544.143     19.857    541.280    543.993    541.280    541.430    541.280
 23.870    510.800    544.181    -33.381    540.928    544.030    540.928    541.081    540.928
 23.970    588.339    544.353     43.986    540.577    544.199    540.577    540.733    540.577
 24.070    545.342    544.758      0.583    540.225    544.601    540.225    540.384    540.225
 24.170    522.000    545.677    -23.677    539.874    545.517    539.874    540.036    539.874
 24.270    541.000    547.892     -6.892    539.523    547.731    539.523    539.689    539.523
 24.370    511.348    553.188    -41.840    539.172    553.027    539.172    539.341    539.172
 24.470    603.911    564.392     39.520    538.822    564.236    538.822    538.995    538.822
 24.570    649.000    583.691     65.309    538.471    583.546    538.471    538.648    538.471
 24.670    588.000    608.725    -20.725    538.121    608.594    538.121    538.303    538.121
 24.770    628.540    629.043     -0.503    537.772    628.923    537.772    537.957    537.772
 24.870    692.000    630.924     61.076    537.423    630.800    537.423    537.613    537.423
 24.970    595.000    612.469    -17.469    537.074    612.328    537.074    537.269    537.074
 25.070    608.000    586.551     21.449    536.725    586.386    536.725    536.926    536.725
 25.170    582.000    565.198     16.802    536.377    565.012    536.377    536.583    536.377
 25.270    531.000    552.051    -21.051    536.030    551.849    536.030    536.241    536.030
 25.370    576.805    545.376     31.429    535.682    545.163    535.682    535.901    535.682
 25.470    498.501    542.232    -43.731    535.336    542.008    535.336    535.563    535.336
 25.570    516.237    540.610    -24.373    534.989    540.377    534.989    535.224    534.989
 25.670    544.000    539.593      4.407    534.644    539.352    534.644    534.886    534.644
 25.770    552.000    538.838     13.162    534.298    538.588    534.298    534.549    534.298
 25.870    530.352    538.235     -7.884    533.954    537.976    533.954    534.213    533.954
 25.970    508.056    537.739    -29.683    533.609    537.471    533.609    533.879    533.609
 26.070    554.699    537.325     17.374    533.266    537.046    533.266    533.545    533.266
 26.170    540.000    536.976      3.024    532.923    536.686    532.923    533.214    532.923
 26.270    529.000    536.686     -7.686    532.580    536.383    532.580    532.883    532.580
 26.370    518.504    536.455    -17.950    532.239    536.139    532.239    532.554    532.239
 26.470    541.000    536.317      4.683    531.897    535.987    531.897    532.228    531.897
 26.570    545.000    536.193      8.807    531.557    535.847    531.557    531.903    531.557
 26.670    545.000    536.126      8.874    531.217    535.763    531.217    531.580    531.217
 26.770    550.000    536.128     13.872    530.878    535.746    530.878    531.260    530.878
 26.870    512.000    536.219    -24.219    530.539    535.816    530.539    530.942    530.539
 26.970    539.000    536.428      2.572    530.202    536.002    530.202    530.627    530.202
 27.070    558.000    536.756     21.244    529.865    536.304    529.865    530.316    529.865
 27.170    546.000    537.250      8.750    529.528    536.769    529.528    530.008    529.528
 27.270    555.000    537.995     17.005    529.193    537.482    529.193    529.705    529.193
 27.370    512.836    539.049    -26.214    528.858    538.500    528.858    529.406    528.858
 27.470    516.335    540.579    -24.245    528.524    539.989    528.524    529.113    528.524
 27.570    551.880    543.004      8.876    528.191    542.366    528.191    528.827    528.191
 27.670    564.000    547.672     16.328    527.859    546.980    527.859    528.548    527.859
 27.770    515.253    558.885    -43.633    527.528    558.127    527.528    528.278    527.528
 27.870    569.337    587.084    -17.746    527.197    586.245    527.197    528.018    527.197
 27.970    672.270    648.326     23.943    526.867    647.384    526.867    527.772    526.867
 28.070    731.000    750.859    -19.859    526.538    749.789    526.538    527.542    526.538
 28.170    866.179    870.337     -4.158    526.211    869.124    526.211    527.331    526.211
 28.270    984.000    940.901     43.099    525.884    939.547    525.884    527.145    525.884
 28.370    953.000    909.620     43.380    525.558    908.125    525.558    526.991    525.558
 28.470    845.000    811.216     33.784    525.232    809.543    525.232    526.879    525.232
 28.570    687.224    722.847    -35.623    524.908    720.922    524.908    526.822    524.908
 28.670    646.136    693.920    -47.784    524.585    691.648    524.585    526.845    524.585
 28.770    737.691    728.459      9.232    524.263    725.711    524.263    526.991    524.263
 28.870    799.000    793.460      5.540    523.942    790.030    523.942    527.348    523.942
 28.970    839.714    832.593      7.121    523.621    828.117    523.621    528.081    523.621
 29.070    750.000    805.503    -55.503    523.302    799.322    523.302    529.485    523.302
 29.170    719.000    732.051    -13.051    522.984    723.060    522.984    531.987    522.984
 29.270    614.000    657.535    -43.535    522.667    644.145    522.667    536.070    522.667
 29.370    649.000    608.169     40.831    522.351    588.499    522.351    542.028    522.351
 29.470    550.373    585.590    -35.218    522.036    558.089    522.036    549.540    522.036
 29.570    576.000    579.272     -3.272    521.722    543.974    521.722    557.019    521.722
 29.670    618.000    577.560     40.440    521.410    537.599    521.410    561.366    521.410
 29.770    574.876    573.158      1.718    521.098    534.301    521.098    559.952    521.098
 29.870    609.597    564.963     44.634    520.787    532.237    520.787    553.509    520.787
 29.970    577.948    555.491     22.457    520.478    530.803    520.478    545.164    520.478
 30.070    592.000    547.126     44.874    520.170    529.799    520.170    537.494    520.170
 30.170    550.000    540.886      9.114    519.863    529.170    519.863    531.576    519.863
 30.270    533.000    536.908     -3.908    519.557    528.997    519.557    527.465    519.557
 30.370    558.281    535.169     23.112    519.252    529.649    519.252    524.768    519.252
