neutron_powder_diffraction_0035
R_wp: 3.764
Temperature (K): 568.490
Counts: 83981.00
Wavelength (Ã…): 2.52098
COMMENTS
Test file for demonstrating the .xyy file format in Reel1.0
END OF HEADER
   tth       Y_obs     Y_calc      Y_res    Background    Phase_1_Nuc    Phase_1_Mag    Phase_2_Nuc    Phase_2_Mag
  9.970    685.460    699.652    -14.193    698.043    699.145    698.550    698.043    698.043
 10.070    719.000    698.866     20.134    697.162    698.353    697.675    697.162    697.162
 10.170    753.000    698.095     54.905    696.284    697.576    696.802    696.284    696.284
 10.270    659.278    697.342    -38.064    695.410    696.818    695.933    695.410    695.410
 10.370    727.000    696.610     30.390    694.538    696.081    695.067    694.538    694.538
 10.470    740.000    695.908     44.092    693.670    695.372    694.205    693.670    693.670
 10.570    709.000    695.232     13.768    692.805    694.690    693.346    692.805    692.805
 10.670    730.000    694.591     35.409    691.944    694.043    692.490    691.944    691.944
 10.770    689.000    693.997     -4.997    691.085    693.443    691.638    691.085    691.085
 10.870    749.000    693.456     55.544    690.230    692.895    690.789    690.230    690.230
 10.970    694.000    692.984      1.016    689.378    692.417    689.944    689.378    689.378
 11.070    675.000    692.603    -17.603    688.530    692.030    689.101    688.530    688.530
 11.170    672.226    692.344    -20.119    687.684    691.764    688.262    687.684    687.684
 11.270    745.478    692.249     53.230    686.842    691.661    687.427    686.842    686.842
 11.370    744.000    692.390     51.610    686.004    691.795    686.595    686.004    686.004
 11.470    732.000    692.907     39.093    685.168    692.305    685.766    685.168    685.168
 11.570    725.000    694.102     30.898    684.336    693.492    684.941    684.336    684.336
 11.670    729.000    696.621     32.379    683.507    696.003    684.119    683.507    683.507
 11.770    755.461    701.702     53.760    682.681    701.073    683.300    682.681    682.681
 11.870    735.000    711.242     23.758    681.859    710.599    682.485    681.859    681.859
 11.970    730.768    727.259      3.509    681.040    726.600    681.674    681.040    681.040
 12.070    808.216    750.345     57.871    680.224    749.666    680.865    680.224    680.224
 12.170    851.000    776.990     74.010    679.412    776.287    680.060    679.412    679.412
 12.270    823.000    797.102     25.898    678.602    796.380    679.259    678.602    678.602
 12.370    876.000    798.366     77.634    677.797    797.635    678.461    677.797    677.797
 12.470    767.000    779.190    -12.190    676.994    778.461    677.667    676.994    676.994
 12.570    748.000    751.048     -3.048    676.195    750.326    676.876    676.195    676.195
 12.670    722.000    725.272     -3.272    675.399    724.556    676.088    675.399    675.399
 12.770    680.000    706.401    -26.401    674.606    705.686    675.304    674.606    674.606
 12.870    710.000    694.320     15.680    673.817    693.602    674.524    673.817    673.817
 12.970    677.000    687.052    -10.052    673.031    686.328    673.747    673.031    673.031
 13.070    631.000    682.624    -51.624    672.248    681.894    672.973    672.248    672.248
 13.170    662.000    679.686    -17.686    671.469    678.947    672.203    671.469    671.469
 13.270    599.000    677.563    -78.563    670.693    676.816    671.436    670.693    670.693
 13.370    684.000    675.856      8.144    669.920    675.100    670.673    669.920    669.920
 13.470    662.000    674.335    -12.335    669.151    673.569    669.914    669.151    669.151
 13.570    643.000    672.981    -29.981    668.385    672.206    669.158    668.385    668.385
 13.670    645.000    671.753    -26.753    667.622    670.968    668.405    667.622    667.622
 13.770    647.000    670.621    -23.621    666.862    669.826    667.656    666.862    666.862
 13.870    655.594    669.562    -13.968    666.106    668.756    666.910    666.106    666.106
 13.970    642.000    668.560    -26.560    665.353    667.744    666.168    665.353    665.353
 14.070    731.000    667.605     63.395    664.604    666.778    665.430    664.604    664.604
 14.170    634.359    666.687    -32.329    663.858    665.849    664.695    663.858    663.858
 14.270    656.401    665.800     -9.399    663.115    664.951    663.963    663.115    663.115
 14.370    643.000    664.939    -21.939    662.376    664.078    663.236    662.376    662.376
 14.470    663.000    664.100     -1.100    661.639    663.227    662.511    661.639    661.639
 14.570    626.000    663.280    -37.280    660.907    662.395    661.791    660.907    660.907
 14.670    625.261    662.476    -37.215    660.177    661.579    661.074    660.177    660.177
 14.770    641.000    661.688    -20.688    659.451    660.778    660.360    659.451    659.451
 14.870    655.000    660.917     -5.917    658.728    659.994    659.651    658.728    658.728
 14.970    706.854    660.152     46.702    658.009    659.216    658.944    658.009    658.009
 15.070    682.000    659.396     22.604    657.292    658.447    658.242    657.292    657.292
 15.170    644.000    658.651    -14.651    656.580    657.687    657.543    656.580    656.580
 15.270    681.462    657.913     23.549    655.870    656.935    656.847    655.870    655.870
 15.370    645.564    657.184    -11.620    655.164    656.192    656.156    655.164    655.164
 15.470    611.000    656.462    -45.462    654.461    655.455    655.468    654.461    654.461
 15.570    621.000    655.748    -34.748    653.762    654.726    654.783    653.762    653.762
 15.670    668.793    655.045     13.748    653.065    654.007    654.103    653.065    653.065
 15.770    642.000    654.344    -12.344    652.372    653.291    653.426    652.372    652.372
 15.870    674.000    653.649     20.351    651.683    652.580    652.752    651.683    651.683
 15.970    601.422    652.964    -51.542    650.997    651.878    652.083    650.997    650.997
 16.070    662.000    652.302      9.698    650.314    651.199    651.417    650.314    650.314
 16.170    628.045    651.633    -23.588    649.634    650.513    650.754    649.634    649.634
 16.270    676.000    650.961     25.039    648.958    649.823    650.096    648.958    648.958
 16.370    674.000    650.293     23.707    648.285    649.137    649.441    648.285    648.285
 16.470    630.000    649.631    -19.631    647.616    648.456    648.790    647.616    647.616
 16.570    683.660    648.973     34.687    646.949    647.779    648.143    646.949    646.949
 16.670    633.309    648.320    -15.011    646.286    647.107    647.500    646.286    646.286
 16.770    668.000    647.672     20.328    645.627    646.439    646.860    645.627    645.627
 16.870    606.000    647.029    -41.029    644.970    645.775    646.225    644.970    644.970
 16.970    640.223    646.391     -6.168    644.318    645.115    645.593    644.318    644.318
 17.070    638.000    645.758     -7.758    643.668    644.461    644.965    643.668    643.668
 17.170    591.760    645.136    -53.376    643.022    643.817    644.341    643.022    643.022
 17.270    667.043    644.519     22.524    642.378    643.177    643.721    642.378    642.378
 17.370    608.000    643.905    -35.905    641.739    642.539    643.105    641.739    641.739
 17.470    650.000    643.341      6.659    641.102    641.949    642.494    641.102    641.102
 17.570    672.033    642.758     29.274    640.469    641.342    641.886    640.469    640.469
 17.670    677.785    642.156     35.630    639.839    640.713    641.282    639.839    639.839
 17.770    617.000    641.555    -24.555    639.213    640.086    640.681    639.213    639.213
 17.870    605.591    640.958    -35.368    638.590    639.463    640.085    638.590    638.590
 17.970    644.308    640.366      3.942    637.970    638.844    639.492    637.970    637.970
 18.070    630.000    639.779     -9.779    637.353    638.228    638.904    637.353    637.353
 18.170    675.000    639.197     35.803    636.740    637.617    638.320    636.740    636.740
 18.270    607.000    638.619    -31.619    636.130    637.009    637.740    636.130    636.130
 18.370    672.000    638.045     33.955    635.523    636.405    637.164    635.523    635.523
 18.470    607.000    637.476    -30.476    634.920    635.804    636.592    634.920    634.920
 18.570    585.000    636.913    -51.913    634.320    635.208    636.025    634.320    634.320
 18.670    586.580    636.364    -49.783    633.723    634.625    635.462    633.723    633.723
 18.770    656.108    635.813     20.296    633.130    634.039    634.903    633.130    633.130
 18.870    606.000    635.263    -29.263    632.539    633.454    634.348    632.539    632.539
 18.970    638.000    634.720      3.280    631.952    632.874    633.798    631.952    631.952
 19.070    686.700    634.183     52.517    631.369    632.299    633.252    631.369    631.369
 19.170    656.000    633.648     22.352    630.788    631.726    632.711    630.788    630.788
 19.270    658.000    633.118     24.882    630.211    631.155    632.174    630.211    630.211
 19.370    641.000    632.593      8.407    629.637    630.589    631.642    629.637    629.637
 19.470    645.043    632.073     12.970    629.066    630.026    631.114    629.066    629.066
 19.570    613.000    631.558    -18.558    628.499    629.467    630.591    628.499    628.499
 19.670    628.864    631.050     -2.186    627.935    628.912    630.073    627.935    627.935
 19.770    586.898    630.563    -43.665    627.374    628.374    629.563    627.374    627.374
 19.870    597.561    630.141    -32.579    626.816    627.887    629.070    626.816    626.816
 19.970    610.000    629.663    -19.663    626.262    627.357    628.569    626.262    626.262
 20.070    596.000    629.177    -33.177    625.711    626.818    628.070    625.711    625.711
 20.170    615.834    628.696    -12.862    625.163    626.282    627.576    625.163    625.163
 20.270    575.465    628.221    -52.756    624.619    625.751    627.088    624.619    624.619
 20.370    662.000    627.755     34.245    624.077    625.226    626.606    624.077    624.077
 20.470    619.000    627.321     -8.321    623.539    624.721    626.139    623.539    623.539
 20.570    600.000    626.921    -26.921    623.004    624.249    625.676    623.004    623.004
 20.670    601.893    626.513    -24.620    622.472    623.774    625.211    622.472    622.472
 20.770    575.000    626.078    -51.078    621.944    623.271    624.750    621.944    621.944
 20.870    622.000    625.684     -3.684    621.418    622.806    624.296    621.418    621.418
 20.970    644.309    625.304     19.005    620.896    622.353    623.848    620.896    620.896
 21.070    642.585    624.904     17.680    620.378    621.874    623.408    620.378    620.378
 21.170    608.000    624.496    -16.496    619.862    621.385    622.973    619.862    619.862
 21.270    618.000    624.090     -6.090    619.349    620.897    622.543    619.349    619.349
 21.370    573.753    623.692    -49.940    618.840    620.414    622.119    618.840    618.840
 21.470    651.587    623.303     28.284    618.334    619.936    621.701    618.334    618.334
 21.570    600.215    622.924    -22.709    617.831    619.464    621.291    617.831    617.831
 21.670    669.600    622.556     47.045    617.332    618.999    620.888    617.332    617.332
 21.770    592.950    622.200    -29.250    616.835    618.543    620.492    616.835    616.835
 21.870    604.000    621.856    -17.856    616.342    618.094    620.104    616.342    616.342
 21.970    639.000    621.515     17.485    615.852    617.644    619.723    615.852    615.852
 22.070    638.627    621.186     17.441    615.365    617.200    619.351    615.365    615.365
 22.170    629.609    620.868      8.741    614.881    616.762    618.987    614.881    614.881
 22.270    554.000    620.564    -66.564    614.400    616.332    618.632    614.400    614.400
 22.370    618.000    620.273     -2.273    613.922    615.910    618.286    613.922    613.922
 22.470    599.352    619.997    -20.645    613.448    615.496    617.949    613.448    613.448
 22.570    575.581    619.737    -44.157    612.977    615.092    617.622    612.977    612.977
 22.670    623.000    619.497      3.503    612.509    614.700    617.306    612.509    612.509
 22.770    618.000    619.274     -1.274    612.044    614.318    617.000    612.044    612.044
 22.870    598.118    619.074    -20.956    611.582    613.950    616.706    611.582    611.582
 22.970    570.553    618.896    -48.343    611.123    613.595    616.424    611.123    611.123
 23.070    567.643    618.744    -51.101    610.668    613.258    616.154    610.668    610.668
 23.170    624.000    618.625      5.375    610.215    612.942    615.899    610.215    610.215
 23.270    577.000    618.542    -41.542    609.766    612.650    615.658    609.766    609.766
 23.370    619.558    618.494      1.064    609.319    612.384    615.430    609.319    609.319
 23.470    624.000    618.492      5.508    608.876    612.151    615.218    608.876    608.876
 23.570    626.000    618.547      7.453    608.436    611.960    615.023    608.436    608.436
 23.670    615.000    618.669     -3.669    607.999    611.823    614.846    607.999    607.999
 23.770    627.000    618.877      8.123    607.565    611.755    614.689    607.565    607.565
 23.870    617.000    619.192     -2.192    607.134    611.777    614.551    607.134    607.134
 23.970    600.177    619.650    -19.473    606.707    611.924    614.435    606.707    606.707
 24.070    616.000    620.312     -4.312    606.282    612.254    614.342    606.282    606.282
 24.170    649.000    621.298     27.702    605.860    612.886    614.275    605.860    605.860
 24.270    625.000    622.858      2.142    605.442    614.069    614.235    605.442    605.442
 24.370    577.316    625.496    -48.180    605.026    616.303    614.225    605.026    605.026
 24.470    637.000    630.082      6.918    604.614    620.458    614.247    604.614    604.614
 24.570    651.000    637.802     13.198    604.204    627.717    614.304    604.204    604.204
 24.670    640.322    649.714     -9.392    603.798    639.135    614.400    603.798    603.798
 24.770    711.000    665.760     45.240    603.394    654.651    614.538    603.394    603.394
 24.870    667.806    683.221    -15.415    602.994    671.540    614.721    602.994    602.994
 24.970    669.000    695.591    -26.591    602.596    683.287    614.956    602.596    602.596
 25.070    708.000    695.942     12.058    602.202    682.953    615.247    602.202    602.202
 25.170    642.513    684.280    -41.767    601.811    670.537    615.601    601.811    601.811
 25.270    690.000    667.548     22.452    601.422    652.980    616.025    601.422    601.422
 25.370    652.131    652.266     -0.135    601.037    636.799    616.526    601.037    601.037
 25.470    682.878    641.168     41.710    600.654    624.720    617.116    600.654    600.654
 25.570    650.000    634.325     15.675    600.275    616.804    617.805    600.275    600.275
 25.670    642.000    630.700     11.300    599.898    611.998    618.606    599.898    599.898
 25.770    588.580    629.125    -40.545    599.525    609.117    619.536    599.525    599.525
 25.870    605.545    628.752    -23.207    599.154    607.297    620.611    599.154    599.154
 25.970    670.000    629.105     40.895    598.787    606.037    621.856    598.787    598.787
 26.070    626.000    629.963     -3.963    598.422    605.090    623.295    598.422    598.422
 26.170    589.522    631.244    -41.722    598.060    604.342    624.962    598.060    598.060
 26.270    656.000    632.930     23.070    597.701    603.734    626.896    597.701    597.701
 26.370    685.710    635.038     50.672    597.345    603.238    629.145    597.345    597.345
 26.470    616.000    637.612    -21.612    596.992    602.834    631.769    596.992    596.992
 26.570    644.000    640.717      3.283    596.642    602.514    634.844    596.642    596.642
 26.670    617.000    644.447    -27.447    596.295    602.272    638.467    596.295    596.295
 26.770    659.000    648.923     10.077    595.951    602.110    642.761    595.951    595.951
 26.870    627.000    654.307    -27.307    595.609    602.030    647.883    595.609    595.609
 26.970    685.000    660.828     24.172    595.271    602.047    654.047    595.271    595.271
 27.070    642.835    668.775    -25.940    594.935    602.166    661.539    594.935    594.935
 27.170    698.189    678.568     19.621    594.602    602.415    670.749    594.602    594.602
 27.270    716.130    690.790     25.340    594.272    602.827    682.227    594.272    594.272
 27.370    660.192    706.282    -46.089    593.945    603.452    696.765    593.945    593.945
 27.470    729.000    726.321      2.679    593.621    604.366    715.562    593.621    593.621
 27.570    716.000    753.125    -37.125    593.300    605.701    740.707    593.300    593.300
 27.670    774.810    791.777    -16.967    592.981    607.758    776.977    592.981    592.981
 27.770    881.047    857.267     23.780    592.665    611.420    838.472    592.665    592.665
 27.870   1046.149    994.313     51.836    592.352    619.320    967.263    592.352    592.352
 27.970   1271.784   1312.368    -40.584    592.042    637.891   1266.338    592.042    592.042
 28.070   1952.000   2001.423    -49.423    591.735    678.300   1914.496    591.735    591.735
 28.170   3311.511   3239.196     72.314    591.430    751.005   3079.025    591.430    591.430
 28.270   4799.836   4937.859   -138.023    591.129    850.899   4677.328    591.129    591.129
 28.370   6312.000   6494.574   -182.574    590.830    942.693   6142.028    590.830    590.830
 28.470   6972.852   6982.607     -9.755    590.533    972.230   6600.544    590.533    590.533
 28.570   6123.000   6065.902     57.098    590.240    920.403   5735.659    590.240    590.240
 28.670   4822.000   4535.452    286.548    589.949    834.934   4290.491    589.949    589.949
 28.770   3287.000   3368.408    -81.408    589.661    775.048   3183.013    589.661    589.661
 28.870   2995.000   2993.990      1.010    589.376    767.291   2816.006    589.376    589.376
 28.970   3301.000   3286.384     14.616    589.094    802.917   3072.493    589.094    589.094
 29.070   3843.025   3778.011     65.015    588.814    848.346   3518.521    588.814    588.814
 29.170   3977.000   3912.899     64.101    588.537    861.444   3640.194    588.537    588.537
 29.270   3457.000   3442.102     14.898    588.262    823.439   3207.205    588.262    588.262
 29.370   2593.000   2636.442    -43.442    587.991    757.360   2467.322    587.991    587.991
 29.470   1865.000   1874.413     -9.413    587.722    694.705   1767.600    587.722    587.722
 29.570   1331.000   1336.796     -5.796    587.455    650.499   1273.849    587.455    587.455
 29.670   1051.660   1026.521     25.139    587.192    625.028    988.733    587.192    587.192
 29.770    927.000    869.057     57.943    586.931    612.157    843.854    586.931    586.931
 29.870    814.000    790.909     23.091    586.673    605.833    771.761    586.673    586.673
 29.970    760.132    747.959     12.173    586.417    602.428    731.955    586.417    586.417
 30.070    734.000    720.408     13.592    586.164    600.326    706.249    586.164    586.164
 30.170    746.151    700.691     45.460    585.914    598.929    687.677    585.914    585.914
 30.270    632.453    685.910    -53.457    585.666    598.041    673.536    585.666    585.666
 30.370    693.000    674.823     18.177    585.421    597.648    662.594    585.421    585.421
