neutron_powder_diffraction_0129
R_wp: 3.821
Temperature (K): 1032.401
Counts: 83675.00
Wavelength (Ã…): 2.52098
COMMENTS
Test file for demonstrating the .xyy file format in Reel1.0
END OF HEADER
   tth       Y_obs     Y_calc      Y_res    Background    Phase_1_Nuc    Phase_1_Mag    Phase_2_Nuc    Phase_2_Mag
  9.970    584.000    567.848     16.152    566.919    567.763    566.919    567.003    566.919
 10.070    597.000    568.095     28.905    567.092    568.010    567.092    567.177    567.092
 10.170    592.214    568.346     23.868    567.259    568.260    567.259    567.344    567.259
 10.270    576.000    568.602      7.398    567.419    568.516    567.419    567.505    567.419
 10.370    528.503    568.867    -40.364    567.572    568.780    567.572    567.658    567.572
 10.470    553.391    569.144    -15.753    567.718    569.057    567.718    567.804    567.718
 10.570    577.742    569.438      8.304    567.857    569.351    567.857    567.944    567.857
 10.670    542.881    569.755    -26.874    567.989    569.667    567.989    568.076    567.989
 10.770    605.000    570.103     34.897    568.115    570.015    568.115    568.202    568.115
 10.870    536.015    570.493    -34.478    568.234    570.404    568.234    568.322    568.234
 10.970    561.000    570.941     -9.941    568.346    570.852    568.346    568.435    568.346
 11.070    544.016    571.469    -27.453    568.453    571.379    568.453    568.541    568.453
 11.170    569.000    572.108     -3.108    568.552    572.017    568.552    568.641    568.552
 11.270    558.856    572.908    -14.053    568.645    572.817    568.645    568.735    568.645
 11.370    565.000    573.960     -8.960    568.732    573.867    568.732    568.822    568.732
 11.470    577.982    575.462      2.520    568.813    575.368    568.813    568.903    568.813
 11.570    597.708    577.920     19.788    568.887    577.824    568.887    568.978    568.887
 11.670    639.000    582.557     56.443    568.955    582.458    568.955    569.046    568.955
 11.770    556.000    591.778    -35.778    569.018    591.675    569.018    569.109    569.018
 11.870    650.000    608.906     41.094    569.074    608.793    569.074    569.165    569.074
 11.970    648.000    636.027     11.973    569.124    635.897    569.124    569.216    569.124
 12.070    651.148    669.629    -18.480    569.168    669.481    569.168    569.261    569.168
 12.170    689.327    696.463     -7.136    569.206    696.300    569.206    569.299    569.206
 12.270    740.376    699.273     41.103    569.239    699.108    569.239    569.332    569.239
 12.370    652.000    675.688    -23.688    569.266    675.535    569.266    569.360    569.266
 12.470    589.000    641.910    -52.910    569.287    641.775    569.287    569.381    569.287
 12.570    587.000    613.116    -26.116    569.303    612.997    569.303    569.397    569.303
 12.670    601.000    594.337      6.663    569.313    594.228    569.313    569.408    569.313
 12.770    551.454    584.066    -32.613    569.317    583.963    569.317    569.412    569.317
 12.870    606.418    578.935     27.483    569.316    578.834    569.316    569.412    569.316
 12.970    565.000    576.301    -11.301    569.310    576.201    569.310    569.406    569.310
 13.070    606.000    574.761     31.239    569.298    574.662    569.298    569.395    569.298
 13.170    570.000    573.725     -3.725    569.281    573.626    569.281    569.378    569.281
 13.270    592.000    572.963     19.037    569.259    572.864    569.259    569.356    569.259
 13.370    609.000    572.375     36.625    569.231    572.275    569.231    569.329    569.231
 13.470    548.000    571.907    -23.907    569.198    571.807    569.198    569.297    569.198
 13.570    566.796    571.524     -4.727    569.161    571.423    569.161    569.260    569.161
 13.670    594.000    571.203     22.797    569.118    571.102    569.118    569.218    569.118
 13.770    577.000    570.929      6.071    569.070    570.828    569.070    569.171    569.070
 13.870    531.000    570.689    -39.689    569.018    570.587    569.018    569.118    569.018
 13.970    550.389    570.475    -20.086    568.960    570.373    568.960    569.061    568.960
 14.070    593.000    570.281     22.719    568.898    570.179    568.898    569.000    568.898
 14.170    557.202    570.102    -12.900    568.831    570.000    568.831    568.933    568.831
 14.270    577.325    569.935      7.390    568.759    569.832    568.759    568.862    568.759
 14.370    562.000    569.776     -7.776    568.683    569.673    568.683    568.786    568.683
 14.470    608.880    569.624     39.256    568.602    569.520    568.602    568.706    568.602
 14.570    592.000    569.476     22.524    568.517    569.372    568.517    568.621    568.517
 14.670    573.000    569.332      3.668    568.426    569.227    568.426    568.531    568.426
 14.770    553.000    569.190    -16.190    568.332    569.084    568.332    568.437    568.332
 14.870    583.542    569.049     14.493    568.233    568.942    568.233    568.339    568.233
 14.970    541.896    568.908    -27.012    568.130    568.801    568.130    568.236    568.130
 15.070    584.000    568.767     15.233    568.022    568.660    568.022    568.129    568.022
 15.170    532.769    568.626    -35.857    567.911    568.518    567.911    568.018    567.911
 15.270    544.000    568.485    -24.485    567.795    568.376    567.795    567.903    567.795
 15.370    583.000    568.342     14.658    567.675    568.233    567.675    567.783    567.675
 15.470    593.000    568.197     24.803    567.550    568.087    567.550    567.660    567.550
 15.570    558.461    568.049     -9.589    567.422    567.939    567.422    567.532    567.422
 15.670    580.757    567.900     12.858    567.290    567.789    567.290    567.400    567.290
 15.770    536.000    567.748    -31.748    567.154    567.637    567.154    567.265    567.154
 15.870    557.000    567.594    -10.594    567.014    567.482    567.014    567.125    567.014
 15.970    589.000    567.438     21.562    566.870    567.325    566.870    566.982    566.870
 16.070    556.552    567.279    -10.726    566.722    567.165    566.722    566.835    566.722
 16.170    586.000    567.117     18.883    566.570    567.003    566.570    566.684    566.570
 16.270    549.558    566.953    -17.394    566.415    566.838    566.415    566.529    566.415
 16.370    593.714    566.786     26.929    566.256    566.670    566.256    566.371    566.256
 16.470    570.000    566.616      3.384    566.094    566.500    566.094    566.209    566.094
 16.570    599.703    566.443     33.260    565.927    566.327    565.927    566.044    565.927
 16.670    526.000    566.268    -40.268    565.758    566.151    565.758    565.875    565.758
 16.770    602.556    566.090     36.466    565.585    565.972    565.585    565.703    565.585
 16.870    560.000    565.909     -5.909    565.408    565.790    565.408    565.527    565.408
 16.970    560.000    565.726     -5.726    565.228    565.606    565.228    565.348    565.228
 17.070    534.304    565.539    -31.235    565.045    565.419    565.045    565.165    565.045
 17.170    541.000    565.351    -24.351    564.858    565.230    564.858    564.979    564.858
 17.270    531.000    565.160    -34.160    564.668    565.038    564.668    564.790    564.668
 17.370    554.445    564.966    -10.521    564.475    564.843    564.475    564.598    564.475
 17.470    556.000    564.768     -8.768    564.279    564.645    564.279    564.402    564.279
 17.570    562.000    564.568     -2.568    564.080    564.444    564.080    564.204    564.080
 17.670    531.208    564.366    -33.157    563.877    564.241    563.877    564.002    563.877
 17.770    529.317    564.160    -34.843    563.672    564.035    563.672    563.798    563.672
 17.870    523.146    563.953    -40.807    563.463    563.827    563.463    563.590    563.463
 17.970    556.000    563.756     -7.756    563.252    563.628    563.252    563.379    563.252
 18.070    605.000    563.599     41.401    563.038    563.471    563.038    563.166    563.038
 18.170    586.165    563.459     22.707    562.820    563.329    562.820    562.950    562.820
 18.270    524.000    563.248    -39.248    562.600    563.118    562.600    562.731    562.600
 18.370    527.000    563.028    -36.028    562.378    562.897    562.378    562.509    562.378
 18.470    576.000    562.806     13.194    562.152    562.674    562.152    562.284    562.152
 18.570    547.829    562.581    -14.752    561.924    562.448    561.924    562.057    561.924
 18.670    544.412    562.354    -17.942    561.693    562.220    561.693    561.827    561.693
 18.770    551.447    562.125    -10.678    561.460    561.990    561.460    561.594    561.460
 18.870    541.963    561.893    -19.931    561.223    561.757    561.223    561.359    561.223
 18.970    519.000    561.660    -42.660    560.985    561.523    560.985    561.122    560.985
 19.070    594.024    561.424     32.600    560.744    561.286    560.744    560.882    560.744
 19.170    566.000    561.186      4.814    560.500    561.047    560.500    560.639    560.500
 19.270    560.000    560.946     -0.946    560.254    560.806    560.254    560.395    560.254
 19.370    546.000    560.704    -14.704    560.006    560.563    560.006    560.147    560.006
 19.470    549.000    560.461    -11.461    559.755    560.318    559.755    559.898    559.755
 19.570    533.000    560.215    -27.215    559.502    560.071    559.502    559.646    559.502
 19.670    530.000    559.968    -29.968    559.247    559.823    559.247    559.392    559.247
 19.770    522.000    559.718    -37.718    558.990    559.572    558.990    559.136    558.990
 19.870    562.000    559.468      2.532    558.730    559.320    558.730    558.878    558.730
 19.970    530.512    559.215    -28.704    558.469    559.067    558.469    558.617    558.469
 20.070    552.189    558.963     -6.775    558.205    558.813    558.205    558.355    558.205
 20.170    535.000    558.710    -23.710    557.939    558.559    557.939    558.090    557.939
 20.270    536.039    558.453    -22.414    557.671    558.301    557.671    557.824    557.671
 20.370    537.000    558.195    -21.195    557.401    558.041    557.401    557.555    557.401
 20.470    524.000    557.936    -33.936    557.129    557.781    557.129    557.285    557.129
 20.570    557.000    557.685     -0.685    556.855    557.528    556.855    557.012    556.855
 20.670    569.000    557.460     11.540    556.580    557.302    556.580    556.738    556.580
 20.770    547.585    557.229     -9.644    556.302    557.069    556.302    556.462    556.302
 20.870    573.000    556.968     16.032    556.023    556.807    556.023    556.185    556.023
 20.970    522.000    556.704    -34.704    555.742    556.541    555.742    555.905    555.742
 21.070    579.000    556.439     22.561    555.459    556.275    555.459    555.624    555.459
 21.170    526.000    556.174    -30.174    555.175    556.008    555.175    555.341    555.175
 21.270    574.000    555.910     18.090    554.889    555.742    554.889    555.057    554.889
 21.370    530.657    555.661    -25.004    554.601    555.491    554.601    554.771    554.601
 21.470    555.000    555.431     -0.431    554.312    555.259    554.312    554.484    554.312
 21.570    517.196    555.169    -37.973    554.021    554.995    554.021    554.195    554.021
 21.670    581.843    554.904     26.939    553.729    554.728    553.729    553.904    553.729
 21.770    533.000    554.639    -21.639    553.435    554.462    553.435    553.613    553.435
 21.870    558.000    554.376      3.624    553.139    554.196    553.139    553.319    553.139
 21.970    568.000    554.113     13.887    552.843    553.931    552.843    553.025    552.843
 22.070    551.000    553.852     -2.852    552.545    553.668    552.545    552.729    552.545
 22.170    550.000    553.594     -3.594    552.245    553.407    552.245    552.432    552.245
 22.270    534.279    553.337    -19.058    551.944    553.148    551.944    552.133    551.944
 22.370    498.000    553.084    -55.084    551.642    552.893    551.642    551.834    551.642
 22.470    574.000    552.835     21.165    551.339    552.641    551.339    551.533    551.339
 22.570    530.266    552.590    -22.324    551.034    552.394    551.034    551.231    551.034
 22.670    561.000    552.358      8.642    550.729    552.159    550.729    550.928    550.729
 22.770    547.000    552.130     -5.130    550.422    551.929    550.422    550.624    550.422
 22.870    558.000    551.908      6.092    550.114    551.703    550.114    550.319    550.114
 22.970    594.000    551.696     42.304    549.805    551.488    549.805    550.013    549.805
 23.070    576.000    551.498     24.502    549.495    551.287    549.495    549.706    549.495
 23.170    548.546    551.325     -2.779    549.184    551.111    549.184    549.398    549.184
 23.270    575.000    551.169     23.831    548.872    550.951    548.872    549.090    548.872
 23.370    555.000    551.049      3.951    548.559    550.828    548.559    548.780    548.559
 23.470    551.000    550.979      0.021    548.245    550.754    548.245    548.470    548.245
 23.570    509.329    550.940    -41.610    547.930    550.712    547.930    548.159    547.930
 23.670    536.071    550.954    -14.882    547.614    550.722    547.614    547.847    547.614
 23.770    567.233    551.052     16.182    547.297    550.816    547.297    547.535    547.297
 23.870    535.952    551.289    -15.337    546.980    551.049    546.980    547.222    546.980
 23.970    555.000    551.719      3.281    546.662    551.475    546.662    546.908    546.662
 24.070    521.000    552.507    -31.507    546.343    552.259    546.343    546.594    546.343
 24.170    565.000    554.083     10.917    546.023    553.831    546.023    546.279    546.023
 24.270    570.000    557.332     12.668    545.703    557.078    545.703    545.964    545.703
 24.370    572.000    563.986      8.014    545.382    563.731    545.382    545.649    545.382
 24.470    589.242    576.133     13.109    545.060    575.881    545.060    545.333    545.060
 24.570    599.000    594.636      4.364    544.738    594.392    544.738    545.017    544.738
 24.670    623.000    616.335      6.665    544.415    616.100    544.415    544.701    544.415
 24.770    635.572    631.889      3.683    544.092    631.659    544.092    544.384    544.092
 24.870    638.259    630.981      7.278    543.768    630.743    543.768    544.067    543.768
 24.970    660.331    614.111     46.219    543.443    613.854    543.443    543.751    543.443
 25.070    578.000    591.924    -13.924    543.118    591.643    543.118    543.434    543.118
 25.170    536.387    573.296    -36.909    542.793    572.993    542.793    543.117    542.793
 25.270    604.000    561.041     42.959    542.468    560.720    542.468    542.801    542.468
 25.370    582.000    554.157     27.843    542.141    553.821    542.141    542.484    542.141
 25.470    576.000    550.542     25.458    541.815    550.193    541.815    542.168    541.815
 25.570    558.929    548.554     10.375    541.488    548.193    541.488    541.852    541.488
 25.670    551.000    547.305      3.695    541.161    546.931    541.161    541.537    541.161
 25.770    555.658    546.403      9.255    540.834    546.017    540.834    541.222    540.834
 25.870    576.000    545.699     30.301    540.506    545.299    540.506    540.908    540.506
 25.970    569.000    545.128     23.872    540.178    544.713    540.178    540.595    540.178
 26.070    578.000    544.657     33.343    539.850    544.226    539.850    540.283    539.850
 26.170    564.000    544.265     19.735    539.522    543.817    539.522    539.972    539.522
 26.270    526.000    543.939    -17.939    539.194    543.472    539.194    539.662    539.194
 26.370    557.000    543.669     13.331    538.865    543.182    538.865    539.353    538.865
 26.470    556.000    543.455     12.545    538.537    542.946    538.537    539.046    538.537
 26.570    534.000    543.298     -9.298    538.208    542.766    538.208    538.741    538.208
 26.670    586.289    543.203     43.085    537.880    542.645    537.880    538.438    537.880
 26.770    569.000    543.176     25.824    537.551    542.589    537.551    538.138    537.551
 26.870    510.078    543.228    -33.150    537.222    542.610    537.222    537.840    537.222
 26.970    586.324    543.378     42.945    536.894    542.726    536.894    537.545    536.894
 27.070    568.000    543.649     24.351    536.565    542.958    536.565    537.255    536.565
 27.170    586.920    544.077     42.843    536.236    543.344    536.236    536.968    536.236
 27.270    548.022    544.716      3.306    535.908    543.936    535.908    536.687    535.908
 27.370    529.000    545.650    -16.650    535.580    544.818    535.580    536.411    535.580
 27.470    590.000    547.035     42.965    535.251    546.143    535.251    536.141    535.251
 27.570    483.000    549.287    -66.287    534.923    548.328    534.923    535.880    534.923
 27.670    535.000    553.856    -18.856    534.595    552.820    534.595    535.628    534.595
 27.770    559.000    565.419     -6.419    534.268    564.293    534.268    535.386    534.268
 27.870    569.021    595.222    -26.201    533.940    593.987    533.940    535.158    533.940
 27.970    689.000    659.952     29.048    533.613    658.580    533.613    534.947    533.613
 28.070    762.000    766.484     -4.484    533.286    764.947    533.286    534.755    533.286
 28.170    871.000    886.268    -15.268    532.960    884.545    532.960    534.589    532.960
 28.270    966.000    950.601     15.399    532.633    948.690    532.633    534.454    532.633
 28.370    904.000    910.833     -6.833    532.307    908.724    532.307    534.358    532.307
 28.470    844.687    808.844     35.843    531.982    806.490    531.982    534.312    531.982
 28.570    706.000    722.973    -16.973    531.657    720.293    531.657    534.328    531.657
 28.670    697.000    698.985     -1.985    531.332    695.888    531.332    534.421    531.332
 28.770    735.000    736.205     -1.205    531.007    732.591    531.007    534.606    531.007
 28.870    799.000    798.800      0.200    530.683    794.564    530.683    534.900    530.683
 28.970    845.000    831.800     13.200    530.360    826.828    530.360    535.321    530.360
 29.070    764.000    799.861    -35.861    530.037    794.025    530.037    535.878    530.037
 29.170    746.112    725.609     20.503    529.714    718.767    529.714    536.572    529.714
 29.270    674.000    651.540     22.460    529.392    643.574    529.392    537.374    529.392
 29.370    607.588    600.417      7.172    529.071    591.281    529.071    538.217    529.071
 29.470    614.148    573.086     41.061    528.750    562.869    528.750    538.973    528.750
 29.570    588.000    560.744     27.256    528.430    549.709    528.430    539.466    528.430
 29.670    575.000    555.182     19.818    528.110    543.773    528.110    539.520    528.110
 29.770    590.000    551.963     38.037    527.791    540.711    527.791    539.043    527.791
 29.870    514.549    549.407    -34.858    527.473    538.804    527.473    538.076    527.473
 29.970    559.000    547.108     11.892    527.155    537.492    527.155    536.770    527.155
 30.070    623.000    545.073     77.927    526.838    536.599    526.838    535.311    526.838
 30.170    549.000    543.420      5.580    526.521    536.094    526.521    533.846    526.521
 30.270    539.384    542.370     -2.986    526.205    536.107    526.205    532.467    526.205
 30.370    518.853    542.426    -23.573    525.890    537.097    525.890    531.216    525.890
