neutron_powder_diffraction_0073
R_wp: 4.813
Temperature (K): 760.582
Counts: 83250.00
Wavelength (Ã…): 2.52098
COMMENTS
Test file for demonstrating the .xyy file format in Reel1.0
END OF HEADER
   tth       Y_obs     Y_calc      Y_res    Background    Phase_1_Nuc    Phase_1_Mag    Phase_2_Nuc    Phase_2_Mag
  9.970    586.586    608.125    -21.538    607.173    608.124    607.173    607.173    607.173
 10.070    586.784    608.968    -22.184    607.941    608.968    607.941    607.941    607.941
 10.170    642.000    609.808     32.192    608.696    609.807    608.696    608.696    608.696
 10.270    670.000    610.652     59.348    609.436    610.652    609.436    609.436    609.436
 10.370    601.211    611.566    -10.355    610.162    611.565    610.162    610.162    610.162
 10.470    646.000    612.504     33.496    610.874    612.503    610.874    610.874    610.874
 10.570    703.000    613.366     89.634    611.573    613.365    611.573    611.573    611.573
 10.670    623.940    614.234      9.706    612.258    614.233    612.258    612.258    612.258
 10.770    667.000    615.125     51.875    612.929    615.124    612.929    612.929    612.929
 10.870    611.135    616.048     -4.913    613.587    616.047    613.587    613.587    613.587
 10.970    667.948    617.018     50.930    614.231    617.017    614.231    614.231    614.231
 11.070    668.000    618.054     49.946    614.862    618.053    614.862    614.862    614.862
 11.170    658.030    619.186     38.844    615.480    619.184    615.480    615.480    615.480
 11.270    678.000    620.453     57.547    616.085    620.451    616.085    616.085    616.085
 11.370    642.000    621.920     20.080    616.677    621.917    616.677    616.677    616.677
 11.470    653.886    623.716     30.170    617.256    623.713    617.256    617.256    617.256
 11.570    601.988    626.145    -24.157    617.822    626.140    617.822    617.822    617.822
 11.670    675.000    629.998     45.002    618.375    629.991    618.375    618.375    618.375
 11.770    685.000    637.137     47.863    618.916    637.127    618.916    618.916    618.916
 11.870    600.422    650.927    -50.505    619.445    650.910    619.445    619.445    619.445
 11.970    758.000    675.252     82.748    619.961    675.221    619.961    619.961    619.961
 12.070    680.726    710.874    -30.147    620.465    710.823    620.465    620.465    620.465
 12.170    791.000    749.654     41.346    620.956    749.581    620.956    620.956    620.956
 12.270    763.340    771.374     -8.034    621.436    771.290    621.436    621.436    621.436
 12.370    811.000    759.581     51.419    621.903    759.503    621.903    621.903    621.903
 12.470    711.000    724.761    -13.761    622.359    724.704    622.359    622.359    622.359
 12.570    732.152    688.033     44.120    622.803    687.996    622.803    622.803    622.803
 12.670    664.000    661.087      2.913    623.235    661.066    623.235    623.235    623.235
 12.770    617.000    645.327    -28.327    623.655    645.315    623.655    623.655    623.655
 12.870    666.120    637.417     28.703    624.064    637.410    624.064    624.064    624.064
 12.970    649.748    633.695     16.054    624.462    633.690    624.462    624.462    624.462
 13.070    588.524    631.867    -43.342    624.848    631.863    624.848    624.848    624.848
 13.170    596.593    630.861    -34.269    625.223    630.858    625.223    625.223    625.223
 13.270    637.000    630.261      6.739    625.587    630.259    625.587    625.587    625.587
 13.370    627.000    629.898     -2.898    625.940    629.896    625.940    625.940    625.940
 13.470    604.000    629.690    -25.690    626.282    629.689    626.282    626.282    626.282
 13.570    596.000    629.590    -33.590    626.613    629.589    626.613    626.613    626.613
 13.670    644.000    629.567     14.433    626.933    629.566    626.933    626.933    626.933
 13.770    660.375    629.599     30.776    627.242    629.597    627.242    627.242    627.242
 13.870    678.151    629.672     48.479    627.541    629.671    627.541    627.541    627.541
 13.970    601.525    629.797    -28.272    627.830    629.796    627.830    627.830    627.830
 14.070    600.000    629.921    -29.921    628.108    629.920    628.108    628.108    628.108
 14.170    597.000    630.055    -33.055    628.376    630.055    628.376    628.376    628.376
 14.270    586.000    630.199    -44.199    628.633    630.198    628.633    628.633    628.633
 14.370    589.000    630.349    -41.349    628.881    630.349    628.881    628.881    628.881
 14.470    595.472    630.504    -35.032    629.118    630.504    629.118    629.118    629.118
 14.570    627.000    630.663     -3.663    629.345    630.662    629.345    629.345    629.345
 14.670    613.000    630.817    -17.817    629.563    630.816    629.563    629.563    629.563
 14.770    621.889    630.969     -9.080    629.771    630.969    629.771    629.771    629.771
 14.870    565.000    631.118    -66.118    629.969    631.118    629.969    629.969    629.969
 14.970    602.000    631.264    -29.264    630.157    631.263    630.157    630.157    630.157
 15.070    655.168    631.405     23.763    630.336    631.404    630.336    630.336    630.336
 15.170    568.000    631.540    -63.540    630.506    631.540    630.506    630.506    630.506
 15.270    602.000    631.674    -29.674    630.666    631.673    630.666    630.666    630.666
 15.370    589.318    631.834    -42.516    630.817    631.833    630.817    630.817    630.817
 15.470    617.000    632.000    -15.000    630.958    631.999    630.958    630.958    630.958
 15.570    668.809    632.120     36.690    631.091    632.119    631.091    631.091    631.091
 15.670    641.320    632.264      9.056    631.215    632.264    631.215    631.215    631.215
 15.770    628.000    632.394     -4.394    631.329    632.394    631.329    631.329    631.329
 15.870    684.985    632.489     52.496    631.435    632.489    631.435    631.435    631.435
 15.970    634.407    632.574      1.834    631.532    632.573    631.532    631.532    631.532
 16.070    655.000    632.651     22.349    631.620    632.651    631.620    631.620    631.620
 16.170    576.089    632.721    -56.633    631.700    632.721    631.700    631.700    631.700
 16.270    659.106    632.785     26.322    631.771    632.785    631.771    631.771    631.771
 16.370    588.000    632.844    -44.844    631.834    632.844    631.834    631.834    631.834
 16.470    620.974    632.899    -11.925    631.889    632.899    631.889    631.889    631.889
 16.570    589.283    632.941    -43.657    631.935    632.940    631.935    631.935    631.935
 16.670    558.000    632.975    -74.975    631.973    632.975    631.973    631.973    631.973
 16.770    669.352    633.011     36.341    632.003    633.011    632.003    632.003    632.003
 16.870    604.000    633.036    -29.036    632.024    633.036    632.024    632.024    632.024
 16.970    606.000    633.049    -27.049    632.038    633.049    632.038    632.038    632.038
 17.070    593.000    633.054    -40.054    632.044    633.054    632.044    632.044    632.044
 17.170    566.000    633.052    -67.052    632.042    633.052    632.042    632.042    632.042
 17.270    644.000    633.042     10.958    632.033    633.042    632.033    632.033    632.033
 17.370    565.000    633.026    -68.026    632.016    633.026    632.016    632.016    632.016
 17.470    592.073    633.003    -40.930    631.991    633.003    631.991    631.991    631.991
 17.570    588.000    632.979    -44.979    631.959    632.979    631.959    631.959    631.959
 17.670    543.000    632.977    -89.977    631.919    632.977    631.919    631.919    631.919
 17.770    597.000    632.940    -35.940    631.872    632.940    631.872    631.872    631.872
 17.870    644.000    632.914     11.086    631.818    632.914    631.818    631.818    631.818
 17.970    591.000    632.900    -41.900    631.756    632.900    631.756    631.756    631.756
 18.070    605.000    632.841    -27.841    631.688    632.841    631.688    631.688    631.688
 18.170    631.392    632.771     -1.380    631.612    632.771    631.612    631.612    631.612
 18.270    576.901    632.703    -55.802    631.530    632.703    631.530    631.530    631.530
 18.370    642.467    632.633      9.834    631.440    632.633    631.440    631.440    631.440
 18.470    610.000    632.545    -22.545    631.344    632.545    631.344    631.344    631.344
 18.570    630.448    632.450     -2.001    631.241    632.450    631.241    631.241    631.241
 18.670    585.000    632.348    -47.348    631.132    632.348    631.132    631.132    631.132
 18.770    603.000    632.244    -29.244    631.015    632.244    631.015    631.015    631.015
 18.870    597.000    632.172    -35.172    630.893    632.171    630.893    630.893    630.893
 18.970    600.000    632.104    -32.104    630.763    632.104    630.763    630.763    630.763
 19.070    590.000    632.007    -42.007    630.628    632.007    630.628    630.628    630.628
 19.170    604.000    631.880    -27.880    630.486    631.880    630.486    630.486    630.486
 19.270    596.000    631.749    -35.749    630.338    631.749    630.338    630.338    630.338
 19.370    632.000    631.607      0.393    630.183    631.607    630.183    630.183    630.183
 19.470    559.000    631.459    -72.459    630.023    631.459    630.023    630.023    630.023
 19.570    599.579    631.310    -31.731    629.857    631.310    629.857    629.857    629.857
 19.670    684.295    631.196     53.099    629.684    631.196    629.684    629.684    629.684
 19.770    689.726    631.037     58.689    629.506    631.037    629.506    629.506    629.506
 19.870    591.000    630.869    -39.869    629.322    630.869    629.322    629.322    629.322
 19.970    614.000    630.698    -16.698    629.132    630.698    629.132    629.132    629.132
 20.070    593.000    630.520    -37.520    628.936    630.520    628.936    628.936    628.936
 20.170    632.250    630.337      1.913    628.735    630.337    628.735    628.735    628.735
 20.270    608.000    630.153    -22.153    628.529    630.153    628.529    628.529    628.529
 20.370    658.629    629.966     28.663    628.316    629.966    628.316    628.316    628.316
 20.470    633.881    629.770      4.112    628.099    629.770    628.099    628.099    628.099
 20.570    586.000    629.567    -43.567    627.876    629.567    627.876    627.876    627.876
 20.670    586.000    629.361    -43.361    627.648    629.361    627.648    627.648    627.648
 20.770    548.000    629.154    -81.154    627.414    629.154    627.414    627.414    627.414
 20.870    619.000    628.942     -9.942    627.176    628.942    627.176    627.176    627.176
 20.970    564.000    628.723    -64.723    626.932    628.723    626.932    626.932    626.932
 21.070    610.078    628.501    -18.423    626.683    628.501    626.683    626.683    626.683
 21.170    585.000    628.277    -43.277    626.430    628.277    626.430    626.430    626.430
 21.270    626.000    628.047     -2.047    626.171    628.047    626.171    626.171    626.171
 21.370    588.000    627.814    -39.814    625.908    627.814    625.908    625.908    625.908
 21.470    617.000    627.578    -10.578    625.639    627.578    625.639    625.639    625.639
 21.570    653.796    627.340     26.457    625.367    627.340    625.367    625.367    625.367
 21.670    635.000    627.099      7.901    625.089    627.099    625.089    625.089    625.089
 21.770    634.000    626.856      7.144    624.807    626.856    624.807    624.807    624.807
 21.870    571.375    626.611    -55.236    624.520    626.611    624.520    624.520    624.520
 21.970    614.332    626.365    -12.034    624.229    626.366    624.229    624.229    624.229
 22.070    679.489    626.117     53.372    623.934    626.117    623.934    623.934    623.934
 22.170    576.000    625.868    -49.868    623.634    625.869    623.634    623.634    623.634
 22.270    568.000    625.620    -57.620    623.330    625.620    623.330    623.330    623.330
 22.370    670.000    625.372     44.628    623.022    625.372    623.022    623.022    623.022
 22.470    573.000    625.125    -52.125    622.709    625.125    622.709    622.709    622.709
 22.570    624.317    624.879     -0.562    622.393    624.879    622.393    622.393    622.393
 22.670    602.000    624.636    -22.636    622.072    624.636    622.072    622.072    622.072
 22.770    612.000    624.397    -12.397    621.748    624.398    621.748    621.748    621.748
 22.870    613.825    624.165    -10.340    621.419    624.165    621.419    621.419    621.419
 22.970    564.491    623.940    -59.449    621.087    623.940    621.087    621.087    621.087
 23.070    550.000    623.724    -73.724    620.751    623.724    620.751    620.751    620.751
 23.170    607.333    623.521    -16.188    620.411    623.521    620.411    620.411    620.411
 23.270    641.000    623.334     17.666    620.067    623.334    620.067    620.067    620.067
 23.370    657.423    623.168     34.254    619.720    623.169    619.720    619.720    619.720
 23.470    617.000    623.030     -6.030    619.369    623.031    619.369    619.369    619.369
 23.570    615.000    622.934     -7.934    619.015    622.934    619.015    619.015    619.015
 23.670    612.285    622.886    -10.600    618.657    622.887    618.657    618.657    618.657
 23.770    607.000    622.897    -15.897    618.296    622.899    618.296    618.296    618.296
 23.870    620.000    622.998     -2.998    617.931    623.000    617.931    617.931    617.931
 23.970    571.533    623.228    -51.695    617.563    623.230    617.563    617.563    617.563
 24.070    650.475    623.658     26.817    617.192    623.661    617.192    617.192    617.192
 24.170    599.000    624.453    -25.453    616.818    624.456    616.818    616.818    616.818
 24.270    609.000    626.017    -17.017    616.441    626.022    616.441    616.441    616.441
 24.370    616.106    629.283    -13.177    616.060    629.290    616.060    616.060    616.060
 24.470    654.000    635.980     18.020    615.677    635.992    615.677    615.677    615.677
 24.570    597.296    648.361    -51.065    615.290    648.382    615.290    615.290    615.290
 24.670    620.135    667.695    -47.560    614.901    667.730    614.901    614.901    614.901
 24.770    654.668    691.430    -36.762    614.508    691.482    614.508    614.508    614.508
 24.870    684.000    710.576    -26.576    614.113    710.642    614.113    614.113    614.113
 24.970    761.000    713.228     47.772    613.715    713.297    613.715    613.715    613.715
 25.070    702.000    696.976      5.024    613.315    697.034    613.315    613.315    613.315
 25.170    717.358    672.548     44.810    612.912    672.588    612.912    612.912    612.912
 25.270    635.577    650.841    -15.264    612.506    650.866    612.506    612.506    612.506
 25.370    691.300    636.002     55.297    612.097    636.016    612.097    612.097    612.097
 25.470    649.000    627.440     21.560    611.686    627.448    611.686    611.686    611.686
 25.570    680.572    622.924     57.648    611.273    622.929    611.273    611.273    611.273
 25.670    625.000    620.495      4.505    610.857    620.498    610.857    610.857    610.857
 25.770    631.000    619.023     11.977    610.439    619.026    610.439    610.439    610.439
 25.870    649.449    618.004     31.445    610.019    618.006    610.019    610.019    610.019
 25.970    681.000    617.235     63.765    609.596    617.237    609.596    609.596    609.596
 26.070    590.024    616.635    -26.611    609.171    616.636    609.171    609.171    609.171
 26.170    628.987    616.164     12.822    608.744    616.165    608.744    608.744    608.744
 26.270    646.758    615.801     30.957    608.314    615.801    608.314    608.314    608.314
 26.370    656.000    615.534     40.466    607.883    615.534    607.883    607.883    607.883
 26.470    551.539    615.359    -63.820    607.450    615.359    607.450    607.450    607.450
 26.570    609.982    615.278     -5.296    607.014    615.278    607.014    607.014    607.014
 26.670    641.000    615.299     25.701    606.577    615.299    606.577    606.577    606.577
 26.770    729.000    615.435    113.565    606.138    615.434    606.138    606.138    606.138
 26.870    702.000    615.706     86.294    605.697    615.705    605.697    605.697    605.697
 26.970    722.000    616.141    105.859    605.254    616.140    605.254    605.254    605.254
 27.070    650.502    616.780     33.722    604.810    616.779    604.810    604.810    604.810
 27.170    746.000    617.683    128.317    604.363    617.681    604.363    604.363    604.363
 27.270    665.000    618.931     46.069    603.915    618.929    603.915    603.915    603.915
 27.370    741.000    620.652    120.348    603.466    620.650    603.466    603.466    603.466
 27.470    686.530    623.066     63.464    603.015    623.063    603.015    603.015    603.015
 27.570    702.000    626.631     75.369    602.562    626.626    602.562    602.562    602.562
 27.670    736.000    632.455    103.545    602.108    632.448    602.108    602.108    602.108
 27.770    727.000    643.148     83.852    601.652    643.138    601.652    601.652    601.652
 27.870    745.000    663.893     81.107    601.195    663.877    601.195    601.195    601.195
 27.970    719.000    702.338     16.662    600.737    702.310    600.737    600.737    600.737
 28.070    822.000    765.020     56.980    600.277    764.973    600.277    600.277    600.277
 28.170    780.777    849.452    -68.675    599.816    849.382    599.816    599.816    599.816
 28.270    905.493    934.059    -28.567    599.354    933.973    599.354    599.354    599.354
 28.370   1057.000    976.155     80.845    598.891    976.069    598.891    598.891    598.891
 28.470   1043.000    949.087     93.913    598.426    949.025    598.426    598.426    598.426
 28.570    905.649    884.119     21.530    597.961    884.082    597.961    597.961    597.961
 28.670    912.000    829.633     82.367    597.494    829.610    597.494    597.494    597.494
 28.770    911.000    811.462     99.538    597.027    811.443    597.027    597.027    597.027
 28.870    777.717    829.953    -52.236    596.558    829.931    596.558    596.558    596.558
 28.970    976.000    864.089    111.911    596.088    864.066    596.088    596.088    596.088
 29.070    967.000    878.327     88.673    595.618    878.310    595.618    595.618    595.618
 29.170    993.000    849.298    143.702    595.146    849.293    595.146    595.146    595.146
 29.270    813.401    791.250     22.150    594.674    791.254    594.674    594.674    594.674
 29.370    827.000    731.098     95.902    594.201    731.105    594.201    594.201    594.201
 29.470    798.000    683.832    114.168    593.727    683.837    593.727    593.727    593.727
 29.570    738.000    652.497     85.503    593.253    652.499    593.253    593.253    593.253
 29.670    761.000    633.935    127.065    592.778    633.935    592.778    592.778    592.778
 29.770    724.000    623.450    100.550    592.302    623.449    592.302    592.302    592.302
 29.870    724.000    617.345    106.655    591.826    617.344    591.826    591.826    591.826
 29.970    724.000    613.484    110.516    591.349    613.481    591.349    591.349    591.349
 30.070    702.000    610.858     91.142    590.871    610.855    590.871    590.871    590.871
 30.170    703.000    609.067     93.933    590.393    609.063    590.393    590.393    590.393
 30.270    550.206    608.019    -57.813    589.915    608.015    589.915    589.915    589.915
 30.370    560.670    607.873    -47.203    589.436    607.868    589.436    589.436    589.436
