neutron_powder_diffraction_0241
R_wp: 3.995
Temperature (K): 993.018
Counts: 84121.00
Wavelength (Ã…): 2.52098
COMMENTS
Test file for demonstrating the .xyy file format in Reel1.0
END OF HEADER
   tth       Y_obs     Y_calc      Y_res    Background    Phase_1_Nuc    Phase_1_Mag    Phase_2_Nuc    Phase_2_Mag
  9.970    589.000    576.790     12.210    576.093    576.766    576.093    576.117    576.093
 10.070    648.000    576.859     71.141    576.105    576.835    576.105    576.129    576.105
 10.170    600.000    576.931     23.069    576.111    576.907    576.111    576.135    576.111
 10.270    604.540    577.009     27.531    576.113    576.984    576.113    576.136    576.113
 10.370    574.639    577.093     -2.454    576.108    577.068    576.108    576.132    576.108
 10.470    597.000    577.187     19.813    576.099    577.162    576.099    576.123    576.099
 10.570    615.110    577.294     37.816    576.085    577.270    576.085    576.109    576.085
 10.670    578.000    577.420      0.580    576.065    577.395    576.065    576.090    576.065
 10.770    604.347    577.571     26.776    576.041    577.546    576.041    576.065    576.041
 10.870    619.263    577.758     41.504    576.011    577.730    576.011    576.039    576.011
 10.970    566.000    577.989    -11.989    575.977    577.959    575.977    576.006    575.977
 11.070    592.000    578.282     13.718    575.938    578.252    575.938    575.967    575.938
 11.170    572.000    578.664     -6.664    575.894    578.633    575.894    575.923    575.894
 11.270    546.376    579.171    -32.795    575.845    579.139    575.845    575.874    575.845
 11.370    554.901    579.871    -24.970    575.791    579.839    575.791    575.821    575.791
 11.470    556.988    580.903    -23.915    575.733    580.870    575.733    575.763    575.733
 11.570    568.483    582.645    -14.162    575.670    582.611    575.670    575.700    575.670
 11.670    588.000    586.126      1.874    575.602    586.090    575.602    575.633    575.602
 11.770    636.000    593.699     42.301    575.530    593.658    575.530    575.561    575.530
 11.870    671.000    609.197     61.803    575.454    609.147    575.454    575.484    575.454
 11.970    626.000    635.888     -9.888    575.373    635.823    575.373    575.404    575.373
 12.070    632.000    671.278    -39.278    575.287    671.193    575.287    575.319    575.287
 12.170    692.000    701.636     -9.636    575.198    701.533    575.198    575.231    575.198
 12.270    689.000    706.954    -17.954    575.104    706.848    575.104    575.137    575.104
 12.370    676.000    682.421     -6.421    575.005    682.328    575.005    575.039    575.005
 12.470    618.000    646.019    -28.019    574.903    645.946    574.903    574.937    574.903
 12.570    646.000    615.498     30.502    574.796    615.441    574.796    574.830    574.796
 12.670    571.269    596.493    -25.225    574.686    596.447    574.686    574.720    574.686
 12.770    560.598    586.776    -26.178    574.571    586.735    574.571    574.605    574.571
 12.870    560.551    582.229    -21.678    574.452    582.190    574.452    574.487    574.452
 12.970    548.000    579.953    -31.953    574.329    579.916    574.329    574.364    574.329
 13.070    612.977    578.589     34.388    574.202    578.551    574.202    574.238    574.202
 13.170    577.000    577.629     -0.629    574.072    577.591    574.072    574.108    574.072
 13.270    522.000    576.896    -54.896    573.937    576.852    573.937    573.979    573.937
 13.370    613.127    576.308     36.820    573.799    576.257    573.799    573.849    573.799
 13.470    538.000    575.812    -37.812    573.657    575.760    573.657    573.708    573.657
 13.570    571.000    575.386     -4.386    573.511    575.334    573.511    573.562    573.511
 13.670    584.000    575.011      8.989    573.362    574.959    573.362    573.413    573.362
 13.770    582.064    574.676      7.388    573.209    574.623    573.209    573.261    573.209
 13.870    533.843    574.368    -40.525    573.052    574.315    573.052    573.105    573.052
 13.970    601.000    574.082     26.918    572.892    574.028    572.892    572.945    572.892
 14.070    593.369    573.817     19.552    572.729    573.760    572.729    572.785    572.729
 14.170    563.000    573.567    -10.567    572.561    573.506    572.561    572.622    572.561
 14.270    567.000    573.320     -6.320    572.391    573.258    572.391    572.452    572.391
 14.370    573.000    573.080     -0.080    572.217    573.018    572.217    572.278    572.217
 14.470    528.051    572.845    -44.794    572.040    572.783    572.040    572.102    572.040
 14.570    569.000    572.615     -3.615    571.859    572.553    571.859    571.921    571.859
 14.670    556.000    572.387    -16.387    571.676    572.325    571.676    571.738    571.676
 14.770    550.000    572.162    -22.162    571.489    572.099    571.489    571.552    571.489
 14.870    571.000    571.938     -0.938    571.299    571.875    571.299    571.362    571.299
 14.970    548.000    571.717    -23.717    571.106    571.653    571.106    571.169    571.106
 15.070    579.000    571.495      7.505    570.909    571.431    570.909    570.973    570.909
 15.170    619.828    571.272     48.556    570.710    571.208    570.710    570.774    570.710
 15.270    618.000    571.049     46.951    570.508    570.984    570.508    570.572    570.508
 15.370    589.000    570.824     18.176    570.303    570.759    570.303    570.367    570.303
 15.470    613.932    570.599     43.333    570.094    570.534    570.094    570.160    570.094
 15.570    593.000    570.373     22.627    569.883    570.307    569.883    569.949    569.883
 15.670    538.000    570.146    -32.146    569.670    570.079    569.670    569.736    569.670
 15.770    570.000    569.917      0.083    569.453    569.850    569.453    569.519    569.453
 15.870    533.495    569.686    -36.192    569.233    569.619    569.233    569.300    569.233
 15.970    544.000    569.454    -25.454    569.011    569.387    569.011    569.079    569.011
 16.070    575.000    569.221      5.779    568.786    569.153    568.786    568.854    568.786
 16.170    554.260    568.985    -14.725    568.559    568.917    568.559    568.627    568.559
 16.270    587.000    568.748     18.252    568.329    568.679    568.329    568.398    568.329
 16.370    522.526    568.509    -45.983    568.096    568.440    568.096    568.165    568.096
 16.470    597.752    568.268     29.484    567.861    568.199    567.861    567.931    567.861
 16.570    547.000    568.026    -21.026    567.624    567.956    567.624    567.694    567.624
 16.670    582.213    567.785     14.428    567.383    567.711    567.383    567.457    567.383
 16.770    554.000    567.540    -13.540    567.141    567.465    567.141    567.216    567.141
 16.870    526.000    567.294    -41.294    566.896    567.218    566.896    566.971    566.896
 16.970    590.000    567.045     22.955    566.649    566.968    566.649    566.726    566.649
 17.070    548.000    566.794    -18.794    566.399    566.716    566.399    566.477    566.399
 17.170    546.364    566.540    -20.177    566.147    566.462    566.147    566.226    566.147
 17.270    524.608    566.285    -41.677    565.893    566.206    565.893    565.973    565.893
 17.370    566.000    566.028     -0.028    565.637    565.948    565.637    565.717    565.637
 17.470    561.000    565.769     -4.769    565.379    565.689    565.379    565.459    565.379
 17.570    536.627    565.508    -28.881    565.118    565.427    565.118    565.199    565.118
 17.670    583.846    565.246     18.600    564.856    565.164    564.856    564.937    564.856
 17.770    589.000    564.981     24.019    564.591    564.899    564.591    564.673    564.591
 17.870    556.870    564.715     -7.845    564.324    564.633    564.324    564.407    564.324
 17.970    590.100    564.448     25.652    564.056    564.365    564.056    564.139    564.056
 18.070    544.000    564.179    -20.179    563.785    564.095    563.785    563.869    563.785
 18.170    546.489    563.908    -17.418    563.513    563.823    563.513    563.597    563.513
 18.270    552.000    563.635    -11.635    563.238    563.550    563.238    563.323    563.238
 18.370    552.000    563.361    -11.361    562.962    563.276    562.962    563.048    562.962
 18.470    585.823    563.086     22.737    562.684    563.000    562.684    562.770    562.684
 18.570    551.779    562.809    -11.030    562.404    562.722    562.404    562.491    562.404
 18.670    581.000    562.532     18.468    562.122    562.444    562.122    562.210    562.122
 18.770    573.000    562.253     10.747    561.839    562.164    561.839    561.928    561.839
 18.870    541.000    561.973    -20.973    561.554    561.882    561.554    561.645    561.554
 18.970    610.782    561.691     49.091    561.268    561.599    561.268    561.359    561.268
 19.070    568.000    561.407      6.593    560.979    561.314    560.979    561.072    560.979
 19.170    589.000    561.122     27.878    560.689    561.028    560.689    560.783    560.689
 19.270    574.000    560.835     13.165    560.398    560.741    560.398    560.492    560.398
 19.370    564.000    560.551      3.449    560.105    560.456    560.105    560.200    560.105
 19.470    528.000    560.283    -32.283    559.811    560.188    559.811    559.906    559.811
 19.570    556.000    559.996     -3.996    559.515    559.900    559.515    559.611    559.515
 19.670    535.340    559.705    -24.366    559.218    559.608    559.218    559.315    559.218
 19.770    581.000    559.414     21.586    558.919    559.315    558.919    559.017    558.919
 19.870    540.000    559.121    -19.121    558.619    559.022    558.619    558.718    558.619
 19.970    594.000    558.827     35.173    558.318    558.727    558.318    558.418    558.318
 20.070    528.840    558.533    -29.693    558.015    558.432    558.015    558.116    558.015
 20.170    589.379    558.238     31.141    557.711    558.136    557.711    557.813    557.711
 20.270    552.000    557.942     -5.942    557.406    557.839    557.406    557.509    557.406
 20.370    602.336    557.645     44.691    557.100    557.542    557.100    557.204    557.100
 20.470    566.000    557.348      8.652    556.792    557.243    556.792    556.897    556.792
 20.570    533.000    557.051    -24.051    556.484    556.944    556.484    556.590    556.484
 20.670    552.000    556.759     -4.759    556.174    556.645    556.174    556.288    556.174
 20.770    550.000    556.461     -6.461    555.863    556.345    555.863    555.979    555.863
 20.870    561.191    556.162      5.029    555.551    556.045    555.551    555.668    555.551
 20.970    541.000    555.863    -14.863    555.238    555.745    555.238    555.356    555.238
 21.070    564.000    555.563      8.437    554.925    555.445    554.925    555.043    554.925
 21.170    557.901    555.264      2.637    554.610    555.144    554.610    554.730    554.610
 21.270    529.000    554.965    -25.965    554.294    554.844    554.294    554.415    554.294
 21.370    591.486    554.666     36.820    553.977    554.543    553.977    554.100    553.977
 21.470    575.562    554.367     21.195    553.659    554.243    553.659    553.783    553.659
 21.570    534.000    554.069    -20.069    553.341    553.944    553.341    553.466    553.341
 21.670    504.000    553.772    -49.772    553.022    553.645    553.022    553.148    553.022
 21.770    565.000    553.476     11.524    552.701    553.347    552.701    552.830    552.701
 21.870    552.000    553.184     -1.184    552.381    553.054    552.381    552.510    552.381
 21.970    559.000    552.892      6.108    552.059    552.761    552.059    552.190    552.059
 22.070    554.000    552.600      1.400    551.737    552.467    551.737    551.870    551.737
 22.170    547.000    552.312     -5.312    551.414    552.178    551.414    551.548    551.414
 22.270    543.000    552.055     -9.055    551.090    551.918    551.090    551.226    551.090
 22.370    563.000    551.853     11.147    550.765    551.715    550.765    550.904    550.765
 22.470    561.428    551.587      9.841    550.441    551.447    550.441    550.581    550.441
 22.570    551.665    551.380      0.285    550.115    551.239    550.115    550.257    550.115
 22.670    544.000    551.147     -7.147    549.789    551.004    549.789    549.933    549.789
 22.770    537.155    550.886    -13.731    549.462    550.740    549.462    549.608    549.462
 22.870    553.000    550.628      2.372    549.135    550.481    549.135    549.283    549.135
 22.970    525.000    550.380    -25.380    548.807    550.229    548.807    548.958    548.807
 23.070    567.087    550.142     16.945    548.479    549.989    548.479    548.632    548.479
 23.170    563.926    549.917     14.008    548.151    549.763    548.151    548.306    548.151
 23.270    548.000    549.710     -1.710    547.822    549.553    547.822    547.979    547.822
 23.370    574.834    549.525     25.309    547.492    549.366    547.492    547.653    547.492
 23.470    508.000    549.368    -41.368    547.163    549.206    547.163    547.326    547.163
 23.570    520.000    549.248    -29.248    546.833    549.083    546.833    546.998    546.833
 23.670    515.376    549.176    -33.801    546.502    549.009    546.502    546.671    546.502
 23.770    517.129    549.172    -32.044    546.172    549.002    546.172    546.344    546.172
 23.870    569.000    549.264     19.736    545.841    549.090    545.841    546.016    545.841
 23.970    559.608    549.500     10.108    545.510    549.324    545.510    545.688    545.510
 24.070    544.252    549.994     -5.742    545.179    549.815    545.179    545.360    545.179
 24.170    526.000    551.046    -25.046    544.847    550.864    544.847    545.033    544.847
 24.270    579.351    553.439     25.913    544.515    553.251    544.515    544.708    544.515
 24.370    587.000    558.812     28.188    544.184    558.625    544.184    544.380    544.184
 24.470    602.000    569.598     32.402    543.852    569.414    543.852    544.053    543.852
 24.570    504.000    587.496    -83.496    543.519    587.321    543.519    543.725    543.519
 24.670    577.000    610.250    -33.250    543.187    610.087    543.187    543.398    543.187
 24.770    595.410    628.683    -33.273    542.855    628.528    542.855    543.071    542.855
 24.870    616.000    630.684    -14.684    542.523    630.526    542.523    542.744    542.523
 24.970    612.000    614.295     -2.295    542.191    614.120    542.191    542.417    542.191
 25.070    590.000    590.751     -0.751    541.859    590.553    541.859    542.091    541.859
 25.170    559.000    570.817    -11.817    541.526    570.598    541.526    541.765    541.526
 25.270    513.000    558.049    -45.049    541.194    557.814    541.194    541.440    541.194
 25.370    591.000    551.226     39.774    540.862    550.980    540.862    541.115    540.862
 25.470    513.000    547.868    -34.868    540.530    547.611    540.530    540.791    540.530
 25.570    516.075    546.099    -30.024    540.198    545.833    540.198    540.467    540.198
 25.670    526.000    544.992    -18.992    539.867    544.717    539.867    540.144    539.867
 25.770    548.000    544.186      3.814    539.535    543.901    539.535    539.822    539.535
 25.870    521.000    543.550    -22.550    539.204    543.254    539.204    539.501    539.204
 25.970    535.266    543.028     -7.762    538.873    542.721    538.873    539.180    538.873
 26.070    518.860    542.592    -23.732    538.542    542.274    538.542    538.861    538.542
 26.170    523.000    542.235    -19.235    538.211    541.903    538.211    538.543    538.211
 26.270    569.000    541.974     27.026    537.881    541.629    537.881    538.226    537.881
 26.370    572.000    541.728     30.272    537.551    541.368    537.551    537.911    537.551
 26.470    562.000    541.544     20.456    537.221    541.167    537.221    537.598    537.221
 26.570    547.000    541.399      5.601    536.891    541.004    536.891    537.286    536.891
 26.670    567.680    541.315     26.365    536.562    540.900    536.562    536.976    536.562
 26.770    529.000    541.289    -12.289    536.233    540.853    536.233    536.669    536.233
 26.870    586.000    541.342     44.658    535.905    540.882    535.905    536.364    535.905
 26.970    495.702    541.510    -45.808    535.577    541.024    535.577    536.063    535.577
 27.070    539.000    541.788     -2.788    535.249    541.272    535.249    535.764    535.249
 27.170    558.035    542.208     15.827    534.922    541.660    534.922    535.469    534.922
 27.270    579.000    542.835     36.165    534.595    542.250    534.595    535.179    534.595
 27.370    578.000    543.752     34.248    534.269    543.126    534.269    534.894    534.269
 27.470    494.000    545.104    -51.104    533.943    544.430    533.943    534.615    533.943
 27.570    593.000    547.248     45.752    533.618    546.521    533.618    534.342    533.618
 27.670    549.000    551.405     -2.405    533.293    550.616    533.293    534.078    533.293
 27.770    584.000    561.661     22.339    532.969    560.799    532.969    533.824    532.969
 27.870    562.664    588.468    -25.804    532.645    587.515    532.645    533.581    532.645
 27.970    665.353    648.792     16.561    532.322    647.724    532.322    533.353    532.322
 28.070    708.212    752.442    -44.230    532.000    751.232    532.000    533.142    532.000
 28.170    883.000    875.195      7.805    531.678    873.825    531.678    532.953    531.678
 28.270    899.096    948.737    -49.640    531.357    947.206    531.357    532.791    531.357
 28.370    887.045    917.327    -30.282    531.036    915.635    531.036    532.665    531.036
 28.470    861.000    815.727     45.273    530.716    813.830    530.716    532.585    530.716
 28.570    731.000    723.951      7.049    530.397    721.769    530.397    532.568    530.397
 28.670    700.000    693.337      6.663    530.078    690.761    530.078    532.642    530.078
 28.770    761.000    727.704     33.296    529.761    724.586    529.761    532.858    529.761
 28.870    786.151    793.326     -7.175    529.443    789.433    529.443    533.311    529.443
 28.970    897.000    833.600     63.400    529.127    828.533    529.127    534.177    529.127
 29.070    798.000    807.899     -9.899    528.811    800.971    528.811    535.739    528.811
 29.170    735.000    735.428     -0.428    528.497    725.552    528.497    538.385    528.497
 29.270    667.000    661.436      5.564    528.183    647.114    528.183    542.517    528.183
 29.370    626.490    612.406     14.084    527.869    591.936    527.869    548.347    527.869
 29.470    612.000    589.982     22.018    527.557    562.020    527.557    555.521    527.557
 29.570    640.000    583.620     56.380    527.245    548.311    527.245    562.554    527.245
 29.670    591.000    581.920      9.080    526.934    542.213    526.934    566.640    526.934
 29.770    572.418    577.882     -5.464    526.625    539.094    526.625    565.411    526.625
 29.870    592.000    570.293     21.707    526.316    537.155    526.316    559.452    526.316
 29.970    584.000    561.353     22.647    526.007    535.811    526.007    551.548    526.007
 30.070    569.000    553.281     15.719    525.700    534.874    525.700    544.106    525.700
 30.170    609.000    547.099     61.901    525.394    534.298    525.394    538.193    525.394
 30.270    595.000    543.020     51.980    525.088    534.164    525.088    533.942    525.088
 30.370    569.000    541.115     27.885    524.784    534.838    524.784    531.058    524.784
