neutron_powder_diffraction_0217
R_wp: 4.021
Temperature (K): 1074.000
Counts: 83977.00
Wavelength (Ã…): 2.52098
COMMENTS
Test file for demonstrating the .xyy file format in Reel1.0
END OF HEADER
   tth       Y_obs     Y_calc      Y_res    Background    Phase_1_Nuc    Phase_1_Mag    Phase_2_Nuc    Phase_2_Mag
  9.970    602.000    578.171     23.829    577.550    578.143    577.550    577.577    577.550
 10.070    584.000    578.184      5.816    577.494    578.157    577.494    577.522    577.494
 10.170    592.000    578.188     13.812    577.434    578.160    577.434    577.462    577.434
 10.270    608.000    578.194     29.806    577.370    578.165    577.370    577.398    577.370
 10.370    538.469    578.206    -39.737    577.301    578.177    577.301    577.329    577.301
 10.470    617.000    578.228     38.772    577.229    578.199    577.229    577.257    577.229
 10.570    626.000    578.263     47.737    577.152    578.234    577.152    577.180    577.152
 10.670    609.614    578.316     31.298    577.071    578.286    577.071    577.099    577.071
 10.770    603.000    578.392     24.608    576.985    578.363    576.985    577.014    576.985
 10.870    652.000    578.500     73.500    576.896    578.471    576.896    576.925    576.896
 10.970    613.000    578.652     34.348    576.803    578.622    576.803    576.832    576.803
 11.070    598.734    578.863     19.871    576.706    578.833    576.706    576.735    576.706
 11.170    610.000    579.158     30.842    576.605    579.128    576.605    576.634    576.605
 11.270    573.467    579.575     -6.108    576.500    579.543    576.500    576.530    576.500
 11.370    582.000    580.175      1.825    576.391    580.141    576.391    576.422    576.391
 11.470    596.000    581.093     14.907    576.278    581.059    576.278    576.310    576.278
 11.570    571.000    582.714    -11.714    576.162    582.679    576.162    576.194    576.162
 11.670    594.000    586.172      7.828    576.042    586.134    576.042    576.074    576.042
 11.770    642.000    594.215     47.785    575.918    594.173    575.918    575.950    575.918
 11.870    632.000    611.471     20.529    575.791    611.419    575.791    575.823    575.791
 11.970    640.585    641.759     -1.174    575.660    641.690    575.660    575.693    575.660
 12.070    679.433    681.330     -1.897    575.526    681.238    575.526    575.559    575.526
 12.170    634.000    712.657    -78.657    575.388    712.547    575.388    575.422    575.388
 12.270    680.000    713.558    -33.558    575.246    713.436    575.246    575.292    575.246
 12.370    730.475    683.074     47.401    575.102    682.967    575.102    575.149    575.102
 12.470    605.000    643.020    -38.020    574.954    642.934    574.954    575.002    574.954
 12.570    640.311    611.728     28.583    574.802    611.660    574.802    574.850    574.802
 12.670    583.000    593.571    -10.571    574.647    593.512    574.647    574.696    574.647
 12.770    557.000    584.907    -27.907    574.489    584.853    574.489    574.538    574.489
 12.870    553.841    581.030    -27.189    574.328    580.977    574.328    574.377    574.328
 12.970    587.000    579.077      7.923    574.164    579.025    574.164    574.213    574.164
 13.070    529.739    577.860    -48.121    573.996    577.808    573.996    574.046    573.996
 13.170    557.195    576.978    -19.782    573.825    576.920    573.825    573.881    573.825
 13.270    544.433    576.279    -31.846    573.652    576.221    573.652    573.709    573.652
 13.370    551.000    575.703    -24.703    573.475    575.645    573.475    573.532    573.475
 13.470    566.000    575.214     -9.214    573.295    575.155    573.295    573.353    573.295
 13.570    582.000    574.786      7.214    573.113    574.727    573.113    573.170    573.113
 13.670    557.000    574.403    -17.403    572.927    574.344    572.927    572.985    572.927
 13.770    612.157    574.054     38.103    572.739    573.995    572.739    572.797    572.739
 13.870    614.000    573.730     40.270    572.547    573.671    572.547    572.606    572.547
 13.970    580.608    573.426      7.183    572.353    573.366    572.353    572.412    572.353
 14.070    585.000    573.136     11.864    572.156    573.076    572.156    572.216    572.156
 14.170    586.000    572.857     13.143    571.957    572.797    571.957    572.017    571.957
 14.270    548.000    572.587    -24.587    571.755    572.527    571.755    571.815    571.755
 14.370    597.436    572.324     25.112    571.550    572.264    571.550    571.610    571.550
 14.470    548.000    572.066    -24.066    571.342    572.005    571.342    571.403    571.342
 14.570    591.282    571.812     19.469    571.132    571.751    571.132    571.193    571.132
 14.670    544.000    571.561    -27.561    570.920    571.500    570.920    570.981    570.920
 14.770    592.627    571.313     21.314    570.705    571.251    570.705    570.766    570.705
 14.870    592.000    571.068     20.932    570.487    571.006    570.487    570.549    570.487
 14.970    571.953    570.824      1.129    570.267    570.761    570.267    570.330    570.267
 15.070    595.973    570.578     25.395    570.045    570.515    570.045    570.108    570.045
 15.170    547.000    570.332    -23.332    569.820    570.269    569.820    569.883    569.820
 15.270    594.267    570.087     24.180    569.593    570.023    569.593    569.657    569.593
 15.370    556.000    569.842    -13.842    569.364    569.777    569.364    569.428    569.364
 15.470    549.588    569.598    -20.010    569.132    569.530    569.132    569.200    569.132
 15.570    613.959    569.351     44.608    568.898    569.282    568.898    568.967    568.898
 15.670    602.000    569.104     32.896    568.662    569.034    568.662    568.732    568.662
 15.770    588.912    568.855     20.056    568.424    568.785    568.424    568.495    568.424
 15.870    580.000    568.606     11.394    568.184    568.535    568.184    568.255    568.184
 15.970    569.178    568.355      0.823    567.941    568.283    567.941    568.013    567.941
 16.070    557.000    568.103    -11.103    567.697    568.031    567.697    567.769    567.697
 16.170    582.352    567.850     14.502    567.451    567.777    567.451    567.523    567.451
 16.270    548.143    567.596    -19.452    567.202    567.522    567.202    567.275    567.202
 16.370    544.000    567.341    -23.341    566.952    567.267    566.952    567.025    566.952
 16.470    549.000    567.085    -18.085    566.699    567.011    566.699    566.774    566.699
 16.570    524.000    566.827    -42.827    566.445    566.753    566.445    566.520    566.445
 16.670    541.000    566.568    -25.568    566.189    566.492    566.189    566.264    566.189
 16.770    579.000    566.307     12.693    565.931    566.231    565.931    566.007    565.931
 16.870    596.000    566.044     29.956    565.672    565.968    565.672    565.748    565.672
 16.970    569.000    565.781      3.219    565.410    565.704    565.410    565.487    565.410
 17.070    596.000    565.516     30.484    565.147    565.439    565.147    565.224    565.147
 17.170    590.000    565.250     24.750    564.882    565.172    564.882    564.960    564.882
 17.270    574.264    564.982      9.282    564.616    564.904    564.616    564.694    564.616
 17.370    553.000    564.713    -11.713    564.348    564.634    564.348    564.426    564.348
 17.470    560.279    564.443     -4.165    564.078    564.364    564.078    564.157    564.078
 17.570    549.028    564.172    -15.144    563.806    564.093    563.806    563.886    563.806
 17.670    588.000    563.902     24.098    563.534    563.822    563.534    563.614    563.534
 17.770    575.000    563.629     11.371    563.259    563.548    563.259    563.340    563.259
 17.870    518.244    563.356    -45.111    562.983    563.272    562.983    563.066    562.983
 17.970    522.979    563.080    -40.101    562.706    562.996    562.706    562.790    562.706
 18.070    540.000    562.802    -22.802    562.427    562.718    562.427    562.512    562.427
 18.170    594.051    562.524     31.527    562.147    562.439    562.147    562.232    562.147
 18.270    550.000    562.245    -12.245    561.866    562.159    561.866    561.951    561.866
 18.370    578.000    561.964     16.036    561.583    561.878    561.583    561.669    561.583
 18.470    596.014    561.683     34.331    561.299    561.596    561.299    561.386    561.299
 18.570    517.239    561.400    -44.161    561.013    561.312    561.013    561.101    561.013
 18.670    594.620    561.117     33.503    560.726    561.028    560.726    560.815    560.726
 18.770    580.142    560.832     19.310    560.439    560.743    560.439    560.528    560.439
 18.870    572.000    560.547     11.453    560.149    560.457    560.149    560.239    560.149
 18.970    581.000    560.261     20.739    559.859    560.170    559.859    559.950    559.859
 19.070    599.115    559.974     39.141    559.568    559.883    559.568    559.659    559.568
 19.170    603.906    559.686     44.220    559.275    559.594    559.275    559.367    559.275
 19.270    583.000    559.398     23.602    558.982    559.305    558.982    559.075    558.982
 19.370    526.000    559.108    -33.108    558.687    559.015    558.687    558.781    558.687
 19.470    596.814    558.818     37.995    558.391    558.724    558.391    558.486    558.391
 19.570    550.000    558.529     -8.529    558.095    558.433    558.095    558.190    558.095
 19.670    525.000    558.243    -33.243    557.797    558.142    557.797    557.898    557.797
 19.770    573.000    557.953     15.047    557.499    557.849    557.499    557.602    557.499
 19.870    532.000    557.661    -25.661    557.199    557.556    557.199    557.304    557.199
 19.970    566.000    557.368      8.632    556.899    557.262    556.899    557.005    556.899
 20.070    602.294    557.074     45.220    556.598    556.968    556.598    556.704    556.598
 20.170    573.000    556.782     16.218    556.296    556.674    556.296    556.403    556.296
 20.270    556.000    556.501     -0.501    555.993    556.392    555.993    556.101    555.993
 20.370    590.341    556.216     34.124    555.689    556.107    555.689    555.799    555.689
 20.470    513.000    555.923    -42.923    555.385    555.812    555.385    555.495    555.385
 20.570    558.000    555.628      2.372    555.079    555.516    555.079    555.191    555.079
 20.670    552.000    555.333     -3.333    554.774    555.220    554.774    554.886    554.774
 20.770    536.847    555.038    -18.191    554.467    554.924    554.467    554.581    554.467
 20.870    516.000    554.743    -38.743    554.160    554.628    554.160    554.275    554.160
 20.970    570.205    554.449     15.756    553.852    554.333    553.852    553.968    553.852
 21.070    582.247    554.154     28.093    553.543    554.037    553.543    553.661    553.543
 21.170    592.265    553.860     38.405    553.234    553.742    553.234    553.353    553.234
 21.270    585.567    553.567     32.001    552.925    553.447    552.925    553.045    552.925
 21.370    540.205    553.273    -13.068    552.615    553.152    552.615    552.736    552.615
 21.470    561.000    552.981      8.019    552.304    552.858    552.304    552.427    552.304
 21.570    549.000    552.689     -3.689    551.993    552.565    551.993    552.117    551.993
 21.670    588.000    552.398     35.602    551.681    552.273    551.681    551.807    551.681
 21.770    536.000    552.117    -16.117    551.369    551.990    551.369    551.496    551.369
 21.870    548.000    551.913     -3.913    551.057    551.784    551.057    551.185    551.057
 21.970    546.000    551.650     -5.650    550.744    551.520    550.744    550.874    550.744
 22.070    570.000    551.388     18.612    550.431    551.257    550.431    550.562    550.431
 22.170    563.000    551.134     11.866    550.117    551.001    550.117    550.250    550.117
 22.270    573.000    550.857     22.143    549.803    550.723    549.803    549.938    549.803
 22.370    582.000    550.581     31.419    549.489    550.445    549.489    549.626    549.489
 22.470    577.000    550.309     26.691    549.175    550.170    549.175    549.313    549.175
 22.570    568.068    550.041     18.028    548.860    549.900    548.860    549.000    548.860
 22.670    575.000    549.782     25.218    548.545    549.640    548.545    548.687    548.545
 22.770    551.000    549.572      1.428    548.230    549.427    548.230    548.374    548.230
 22.870    496.000    549.344    -53.344    547.914    549.198    547.914    548.061    547.914
 22.970    586.000    549.105     36.895    547.599    548.957    547.599    547.748    547.599
 23.070    547.888    548.876     -0.988    547.283    548.725    547.283    547.434    547.283
 23.170    523.000    548.659    -25.659    546.967    548.506    546.967    547.121    546.967
 23.270    594.407    548.460     45.948    546.651    548.304    546.651    546.807    546.651
 23.370    511.995    548.282    -36.287    546.335    548.124    546.335    546.494    546.335
 23.470    515.000    548.134    -33.134    546.019    547.971    546.019    546.183    546.019
 23.570    580.000    548.021     31.979    545.703    547.854    545.703    545.870    545.703
 23.670    571.000    547.956     23.044    545.387    547.786    545.387    545.557    545.387
 23.770    555.000    547.958      7.042    545.071    547.786    545.071    545.244    545.071
 23.870    537.498    548.058    -10.560    544.755    547.883    544.755    544.931    544.755
 23.970    591.000    548.303     42.697    544.438    548.124    544.438    544.619    544.438
 24.070    508.427    548.815    -40.389    544.122    548.634    544.122    544.306    544.122
 24.170    605.000    549.948     55.052    543.806    549.764    543.806    543.994    543.806
 24.270    562.358    552.673      9.686    543.491    552.487    543.491    543.682    543.491
 24.370    596.000    559.093     36.907    543.175    558.908    543.175    543.370    543.175
 24.470    564.000    572.224     -8.224    542.859    572.045    542.859    543.059    542.859
 24.570    606.538    593.675     12.863    542.544    593.507    542.544    542.748    542.544
 24.670    597.000    619.277    -22.277    542.228    619.123    542.228    542.437    542.228
 24.770    617.000    636.304    -19.304    541.913    636.157    541.913    542.127    541.913
 24.870    610.000    632.120    -22.120    541.598    631.965    541.598    541.818    541.598
 24.970    605.917    610.162     -4.245    541.284    609.986    541.284    541.509    541.284
 25.070    589.000    584.609      4.391    540.969    584.408    540.969    541.200    540.969
 25.170    546.185    565.346    -19.161    540.655    565.125    540.655    540.893    540.655
 25.270    551.000    554.159     -3.159    540.341    553.924    540.341    540.585    540.341
 25.370    510.426    548.674    -38.248    540.028    548.427    540.028    540.279    540.028
 25.470    520.102    546.075    -25.973    539.714    545.819    539.714    539.974    539.714
 25.570    558.000    544.678     13.322    539.402    544.413    539.402    539.669    539.402
 25.670    524.000    543.761    -19.761    539.089    543.487    539.089    539.365    539.089
 25.770    584.000    543.074     40.926    538.777    542.789    538.777    539.062    538.777
 25.870    579.000    542.528     36.472    538.465    542.233    538.465    538.761    538.465
 25.970    556.000    542.081     13.919    538.154    541.775    538.154    538.460    538.154
 26.070    546.668    541.703      4.964    537.843    541.385    537.843    538.161    537.843
 26.170    587.745    541.386     46.359    537.532    541.055    537.532    537.864    537.532
 26.270    525.940    541.124    -15.183    537.222    540.779    537.222    537.567    537.222
 26.370    535.676    540.911     -5.235    536.913    540.550    536.913    537.273    536.913
 26.470    550.083    540.750      9.333    536.603    540.373    536.603    536.980    536.603
 26.570    512.501    540.665    -28.164    536.295    540.270    536.295    536.690    536.295
 26.670    560.000    540.635     19.365    535.987    540.220    535.987    536.402    535.987
 26.770    521.821    540.648    -18.827    535.679    540.212    535.679    536.116    535.679
 26.870    520.000    540.739    -20.739    535.372    540.278    535.372    535.833    535.372
 26.970    549.000    540.926      8.074    535.066    540.438    535.066    535.553    535.066
 27.070    532.667    541.236     -8.569    534.760    540.719    534.760    535.277    534.760
 27.170    560.000    541.712     18.288    534.455    541.161    534.455    535.005    534.455
 27.270    528.876    542.408    -13.532    534.150    541.820    534.150    534.737    534.150
 27.370    549.000    543.411      5.589    533.846    542.781    533.846    534.475    533.846
 27.470    519.671    544.897    -25.226    533.543    544.219    533.543    534.219    533.543
 27.570    557.000    547.261      9.739    533.240    546.528    533.240    533.971    533.240
 27.670    565.000    551.907     13.093    532.938    551.111    532.938    533.731    532.938
 27.770    570.828    563.594      7.234    532.637    562.723    532.637    533.501    532.637
 27.870    632.897    594.058     38.839    532.337    593.094    532.337    533.283    532.337
 27.970    656.000    661.157     -5.157    532.037    660.075    532.037    533.081    532.037
 28.070    794.000    772.367     21.633    531.738    771.140    531.738    532.896    531.738
 28.170    916.540    896.287     20.252    531.439    894.898    531.439    532.735    531.439
 28.270    938.000    957.445    -19.445    531.142    955.894    531.142    532.602    531.142
 28.370    892.212    905.892    -13.679    530.845    904.174    530.845    532.506    530.845
 28.470    766.164    794.851    -28.687    530.549    792.919    530.549    532.459    530.549
 28.570    703.000    708.963     -5.963    530.254    706.727    530.254    532.480    530.254
 28.670    681.000    691.903    -10.903    529.959    689.250    529.959    532.599    529.959
 28.770    787.301    739.025     48.276    529.666    735.799    529.666    532.875    529.666
 28.870    786.000    809.781    -23.781    529.373    805.730    529.373    533.413    529.373
 28.970    810.000    843.280    -33.280    529.081    837.967    529.081    534.400    529.081
 29.070    832.000    803.444     28.556    528.790    796.133    528.790    536.116    528.790
 29.170    724.000    722.086      1.914    528.500    711.685    528.500    538.916    528.500
 29.270    666.000    648.090     17.910    528.210    633.181    528.210    543.129    528.210
 29.370    571.000    603.392    -32.392    527.922    582.471    527.922    548.847    527.922
 29.470    551.000    584.963    -33.963    527.635    557.033    527.635    555.565    527.635
 29.570    601.000    580.321     20.679    527.348    546.023    527.348    561.645    527.348
 29.670    552.000    578.417    -26.417    527.063    541.139    527.063    564.339    527.063
 29.770    542.000    573.626    -31.626    526.778    538.506    526.778    561.896    526.778
 29.870    566.000    565.950      0.050    526.494    536.788    526.494    555.655    526.494
 29.970    560.481    557.720      2.760    526.212    535.576    526.212    548.354    526.212
 30.070    557.000    550.651      6.349    525.930    534.737    525.930    541.842    525.930
 30.170    550.365    545.387      4.978    525.649    534.243    525.649    536.791    525.649
 30.270    570.000    542.017     27.983    525.370    534.196    525.370    533.188    525.370
 30.370    518.533    540.671    -22.137    525.091    535.026    525.091    530.732    525.091
