neutron_powder_diffraction_0250
R_wp: 3.873
Temperature (K): 949.796
Counts: 83693.00
Wavelength (Ã…): 2.52098
COMMENTS
Test file for demonstrating the .xyy file format in Reel1.0
END OF HEADER
   tth       Y_obs     Y_calc      Y_res    Background    Phase_1_Nuc    Phase_1_Mag    Phase_2_Nuc    Phase_2_Mag
  9.970    603.000    561.358     41.642    560.723    561.327    560.723    560.754    560.723
 10.070    551.809    561.675     -9.866    560.986    561.644    560.986    561.017    560.986
 10.170    601.000    561.991     39.009    561.242    561.960    561.242    561.273    561.242
 10.270    563.000    562.310      0.690    561.490    562.279    561.490    561.520    561.490
 10.370    562.438    562.642     -0.204    561.730    562.610    561.730    561.761    561.730
 10.470    523.062    562.980    -39.918    561.962    562.949    561.962    561.993    561.962
 10.570    633.000    563.319     69.681    562.187    563.287    562.187    562.219    562.187
 10.670    590.000    563.673     26.327    562.405    563.639    562.405    562.438    562.405
 10.770    556.000    564.046     -8.046    562.615    564.011    562.615    562.648    562.615
 10.870    588.000    564.446     23.554    562.818    564.412    562.818    562.851    562.818
 10.970    567.421    564.886      2.535    563.013    564.851    563.013    563.047    563.013
 11.070    577.462    565.382     12.080    563.202    565.345    563.202    563.237    563.202
 11.170    583.000    565.955     17.045    563.383    565.918    563.383    563.419    563.383
 11.270    613.000    566.641     46.359    563.557    566.603    563.557    563.593    563.557
 11.370    607.561    567.500     40.061    563.724    567.460    563.724    563.762    563.724
 11.470    592.000    568.658     23.342    563.884    568.607    563.884    563.934    563.884
 11.570    604.208    570.417     33.792    564.038    570.363    564.038    564.088    564.038
 11.670    573.914    573.706      0.208    564.184    573.650    564.184    564.235    564.184
 11.770    585.101    580.817      4.284    564.324    580.756    564.324    564.375    564.324
 11.870    552.828    595.870    -43.042    564.457    595.801    564.457    564.508    564.457
 11.970    626.521    623.029      3.492    564.584    622.945    564.584    564.635    564.584
 12.070    729.000    660.863     68.137    564.704    660.756    564.704    564.755    564.704
 12.170    702.000    695.642      6.358    564.817    695.516    564.817    564.869    564.817
 12.270    723.818    704.779     19.039    564.924    704.646    564.924    564.977    564.924
 12.370    643.000    680.132    -37.132    565.024    680.007    565.024    565.083    565.024
 12.470    635.000    640.900     -5.900    565.119    640.797    565.119    565.178    565.119
 12.570    585.000    607.703    -22.703    565.207    607.619    565.207    565.267    565.207
 12.670    615.444    587.366     28.078    565.288    587.293    565.288    565.349    565.288
 12.770    556.000    577.365    -21.365    565.364    577.298    565.364    565.425    565.364
 12.870    572.000    572.963     -0.963    565.433    572.898    565.433    565.494    565.433
 12.970    571.947    570.919      1.028    565.497    570.855    565.497    565.558    565.497
 13.070    579.000    569.779      9.221    565.554    569.715    565.554    565.616    565.554
 13.170    529.000    569.030    -40.030    565.606    568.966    565.606    565.668    565.606
 13.270    544.000    568.493    -24.493    565.652    568.429    565.652    565.714    565.652
 13.370    544.231    568.093    -23.862    565.692    568.029    565.692    565.754    565.692
 13.470    540.000    567.787    -27.787    565.726    567.723    565.726    565.789    565.726
 13.570    570.000    567.547      2.453    565.754    567.483    565.754    565.818    565.754
 13.670    613.565    567.354     46.211    565.777    567.290    565.777    565.841    565.777
 13.770    573.000    567.197      5.803    565.794    567.132    565.794    565.858    565.794
 13.870    587.161    567.064     20.096    565.806    566.999    565.806    565.870    565.806
 13.970    602.152    566.950     35.201    565.812    566.885    565.812    565.877    565.812
 14.070    570.000    566.850      3.150    565.813    566.785    565.813    565.878    565.813
 14.170    535.000    566.760    -31.760    565.809    566.694    565.809    565.874    565.809
 14.270    568.000    566.678      1.322    565.799    566.611    565.799    565.866    565.799
 14.370    594.874    566.603     28.271    565.784    566.533    565.784    565.854    565.784
 14.470    541.000    566.529    -25.529    565.764    566.458    565.764    565.835    565.764
 14.570    535.000    566.457    -31.457    565.739    566.385    565.739    565.811    565.739
 14.670    568.420    566.387      2.034    565.708    566.314    565.708    565.781    565.708
 14.770    525.129    566.316    -41.188    565.673    566.243    565.673    565.746    565.673
 14.870    548.000    566.245    -18.245    565.633    566.171    565.633    565.706    565.633
 14.970    524.397    566.175    -41.778    565.587    566.101    565.587    565.662    565.587
 15.070    594.215    566.100     28.115    565.537    566.025    565.537    565.612    565.537
 15.170    496.000    566.023    -70.023    565.482    565.947    565.482    565.557    565.482
 15.270    586.054    565.943     20.111    565.423    565.867    565.423    565.498    565.423
 15.370    555.000    565.861    -10.861    565.358    565.784    565.358    565.434    565.358
 15.470    538.817    565.775    -26.959    565.289    565.699    565.289    565.365    565.289
 15.570    560.000    565.687     -5.687    565.215    565.610    565.215    565.292    565.215
 15.670    550.946    565.596    -14.650    565.137    565.519    565.137    565.214    565.137
 15.770    580.842    565.502     15.340    565.054    565.424    565.054    565.132    565.054
 15.870    600.010    565.404     34.605    564.967    565.326    564.967    565.045    564.967
 15.970    508.000    565.303    -57.303    564.876    565.225    564.876    564.954    564.876
 16.070    568.000    565.199      2.801    564.780    565.120    564.780    564.859    564.780
 16.170    595.038    565.091     29.947    564.680    565.012    564.680    564.759    564.680
 16.270    558.840    564.980     -6.140    564.575    564.900    564.575    564.655    564.575
 16.370    575.000    564.866     10.134    564.466    564.785    564.466    564.547    564.466
 16.470    554.000    564.748    -10.748    564.354    564.666    564.354    564.435    564.354
 16.570    555.000    564.626     -9.626    564.237    564.544    564.237    564.318    564.237
 16.670    561.000    564.501     -3.501    564.116    564.419    564.116    564.198    564.116
 16.770    554.000    564.374    -10.374    563.991    564.290    563.991    564.075    563.991
 16.870    582.000    564.242     17.758    563.862    564.157    563.862    563.947    563.862
 16.970    586.012    564.107     21.905    563.729    564.021    563.729    563.815    563.729
 17.070    560.000    563.968     -3.968    563.593    563.882    563.593    563.679    563.593
 17.170    561.000    563.826     -2.826    563.452    563.739    563.452    563.539    563.452
 17.270    521.888    563.680    -41.792    563.308    563.593    563.308    563.395    563.308
 17.370    581.000    563.532     17.468    563.160    563.444    563.160    563.248    563.160
 17.470    564.000    563.382      0.618    563.008    563.294    563.008    563.097    563.008
 17.570    567.000    563.227      3.773    562.853    563.138    562.853    562.942    562.853
 17.670    542.000    563.068    -21.068    562.694    562.979    562.694    562.784    562.694
 17.770    553.000    562.906     -9.906    562.532    562.816    562.532    562.622    562.532
 17.870    577.313    562.741     14.572    562.366    562.650    562.366    562.457    562.366
 17.970    532.000    562.573    -30.573    562.197    562.481    562.197    562.289    562.197
 18.070    558.000    562.401     -4.401    562.024    562.309    562.024    562.117    562.024
 18.170    560.000    562.227     -2.227    561.849    562.134    561.849    561.941    561.849
 18.270    550.000    562.049    -12.049    561.669    561.956    561.669    561.763    561.669
 18.370    543.000    561.869    -18.869    561.487    561.775    561.487    561.581    561.487
 18.470    516.000    561.686    -45.686    561.301    561.591    561.301    561.396    561.301
 18.570    553.120    561.501     -8.381    561.112    561.405    561.112    561.208    561.112
 18.670    558.000    561.312     -3.312    560.920    561.216    560.920    561.017    560.920
 18.770    564.000    561.121      2.879    560.725    561.023    560.725    560.822    560.725
 18.870    528.312    560.926    -32.614    560.527    560.828    560.527    560.625    560.527
 18.970    554.399    560.733     -6.334    560.326    560.630    560.326    560.429    560.326
 19.070    595.000    560.536     34.464    560.122    560.429    560.122    560.229    560.122
 19.170    562.000    560.334      1.666    559.915    560.226    559.915    560.023    559.915
 19.270    582.998    560.129     22.869    559.705    560.020    559.705    559.814    559.705
 19.370    530.000    559.922    -29.922    559.492    559.812    559.492    559.602    559.492
 19.470    542.000    559.711    -17.711    559.277    559.601    559.277    559.387    559.277
 19.570    546.000    559.499    -13.499    559.059    559.387    559.059    559.170    559.059
 19.670    570.000    559.284     10.716    558.838    559.172    558.838    558.950    558.838
 19.770    575.000    559.067     15.933    558.614    558.953    558.614    558.728    558.614
 19.870    541.000    558.849    -17.849    558.388    558.735    558.388    558.503    558.388
 19.970    534.000    558.643    -24.643    558.160    558.528    558.160    558.275    558.160
 20.070    545.656    558.427    -12.771    557.928    558.311    557.928    558.045    557.928
 20.170    537.000    558.202    -21.202    557.695    558.085    557.695    557.812    557.695
 20.270    548.000    557.975     -9.975    557.459    557.856    557.459    557.577    557.459
 20.370    525.173    557.745    -32.572    557.220    557.626    557.220    557.340    557.220
 20.470    556.000    557.514     -1.514    556.979    557.393    556.979    557.100    556.979
 20.570    534.000    557.281    -23.281    556.736    557.159    556.736    556.858    556.736
 20.670    581.245    557.046     24.199    556.490    556.923    556.490    556.613    556.490
 20.770    502.000    556.809    -54.809    556.243    556.685    556.243    556.367    556.243
 20.870    524.000    556.571    -32.571    555.993    556.446    555.993    556.118    555.993
 20.970    549.000    556.332     -7.332    555.740    556.206    555.740    555.867    555.740
 21.070    527.000    556.092    -29.092    555.486    555.964    555.486    555.614    555.486
 21.170    551.000    555.850     -4.850    555.230    555.721    555.230    555.359    555.230
 21.270    535.000    555.607    -20.607    554.971    555.476    554.971    555.102    554.971
 21.370    576.000    555.363     20.637    554.711    555.231    554.711    554.843    554.711
 21.470    516.817    555.118    -38.301    554.448    554.985    554.448    554.582    554.448
 21.570    521.000    554.873    -33.873    554.184    554.738    554.184    554.319    554.184
 21.670    564.452    554.627      9.825    553.918    554.490    553.918    554.054    553.918
 21.770    550.663    554.381     -3.717    553.649    554.243    553.649    553.787    553.649
 21.870    561.000    554.134      6.866    553.379    553.995    553.379    553.519    553.379
 21.970    547.000    553.897     -6.897    553.107    553.756    553.107    553.249    553.107
 22.070    531.000    553.738    -22.738    552.834    553.595    552.834    552.977    552.834
 22.170    550.000    553.512     -3.512    552.559    553.367    552.559    552.703    552.559
 22.270    545.000    553.271     -8.271    552.281    553.125    552.281    552.428    552.281
 22.370    566.914    553.033     13.881    552.003    552.885    552.003    552.151    552.003
 22.470    582.000    552.794     29.206    551.723    552.644    551.723    551.873    551.723
 22.570    550.000    552.561     -2.561    551.441    552.409    551.441    551.593    551.441
 22.670    560.000    552.365      7.635    551.157    552.211    551.157    551.312    551.157
 22.770    553.000    552.150      0.850    550.872    551.993    550.872    551.029    550.872
 22.870    494.000    551.930    -57.930    550.586    551.771    550.586    550.745    550.586
 22.970    587.146    551.723     35.422    550.298    551.560    550.298    550.461    550.298
 23.070    530.109    551.574    -21.465    550.009    551.407    550.009    550.176    550.009
 23.170    562.000    551.386     10.614    549.718    551.216    549.718    549.888    549.718
 23.270    532.000    551.207    -19.207    549.426    551.035    549.426    549.599    549.426
 23.370    540.000    551.047    -11.047    549.133    550.872    549.133    549.308    549.133
 23.470    548.000    550.912     -2.912    548.838    550.735    548.838    549.016    548.838
 23.570    554.000    550.810      3.190    548.542    550.630    548.542    548.724    548.542
 23.670    519.303    550.752    -31.449    548.245    550.568    548.245    548.430    548.245
 23.770    559.183    550.754      8.429    547.947    550.567    547.947    548.135    547.947
 23.870    526.017    550.841    -24.824    547.647    550.651    547.647    547.839    547.647
 23.970    532.110    551.055    -18.945    547.347    550.862    547.347    547.542    547.347
 24.070    576.000    551.489     24.511    547.045    551.293    547.045    547.244    547.045
 24.170    595.000    552.385     42.615    546.743    552.185    546.743    546.945    546.743
 24.270    596.856    554.409     42.447    546.439    554.207    546.439    546.646    546.439
 24.370    588.000    559.090     28.910    546.134    558.888    546.134    546.345    546.134
 24.470    605.000    568.965     36.035    545.829    568.765    545.829    546.044    545.829
 24.570    599.496    586.341     13.155    545.522    586.148    545.522    545.742    545.522
 24.670    623.000    610.023     12.977    545.215    609.842    545.215    545.440    545.215
 24.770    655.000    631.667     23.333    544.906    631.497    544.906    545.137    544.906
 24.870    629.000    637.698     -8.698    544.597    637.527    544.597    544.833    544.597
 24.970    645.000    622.713     22.287    544.287    622.525    544.287    544.529    544.287
 25.070    574.000    597.784    -23.784    543.976    597.573    543.976    544.225    543.976
 25.170    625.000    575.674     49.326    543.665    575.440    543.665    543.920    543.665
 25.270    587.000    561.272     25.728    543.352    561.021    543.352    543.615    543.352
 25.370    526.845    553.632    -26.787    543.040    553.368    543.040    543.310    543.040
 25.470    583.403    549.963     33.441    542.726    549.688    542.726    543.004    542.726
 25.570    563.731    548.123     15.608    542.412    547.838    542.412    542.699    542.412
 25.670    523.067    547.001    -23.934    542.097    546.707    542.097    542.393    542.097
 25.770    562.123    546.222     15.901    541.781    545.917    541.781    542.088    541.781
 25.870    588.000    545.592     42.408    541.465    545.276    541.465    541.782    541.465
 25.970    533.000    545.071    -12.071    541.149    544.744    541.149    541.477    541.149
 26.070    568.149    544.634     23.516    540.832    544.294    540.832    541.173    540.832
 26.170    553.000    544.265      8.735    540.515    543.911    540.515    540.869    540.515
 26.270    546.000    543.952      2.048    540.197    543.584    540.197    540.565    540.197
 26.370    587.637    543.690     43.947    539.878    543.306    539.878    540.263    539.878
 26.470    542.000    543.475     -1.475    539.560    543.073    539.560    539.961    539.560
 26.570    547.000    543.312      3.688    539.241    542.891    539.241    539.661    539.241
 26.670    543.000    543.207     -0.207    538.921    542.766    538.921    539.362    538.921
 26.770    599.000    543.150     55.850    538.601    542.687    538.601    539.065    538.601
 26.870    545.621    543.187      2.434    538.281    542.698    538.281    538.770    538.281
 26.970    565.000    543.296     21.704    537.961    542.780    537.961    538.477    537.961
 27.070    506.115    543.490    -37.375    537.641    542.943    537.641    538.187    537.641
 27.170    537.292    543.820     -6.528    537.320    543.238    537.320    537.901    537.320
 27.270    588.337    544.328     44.009    536.999    543.708    536.999    537.618    536.999
 27.370    574.000    545.079     28.921    536.678    544.416    536.678    537.340    536.678
 27.470    560.000    546.198     13.802    536.357    545.486    536.357    537.068    536.357
 27.570    555.000    547.979      7.021    536.036    547.211    536.036    536.802    536.036
 27.670    592.000    551.444     40.556    535.715    550.612    535.715    536.544    535.715
 27.770    560.000    560.168     -0.168    535.393    559.259    535.393    536.295    535.393
 27.870    588.000    583.809      4.191    535.072    582.807    535.072    536.058    535.072
 27.970    631.000    639.389     -8.389    534.750    638.269    534.750    535.834    534.750
 28.070    762.000    739.230     22.770    534.429    737.964    534.429    535.628    534.429
 28.170    823.012    863.735    -40.723    534.108    862.303    534.108    535.444    534.108
 28.270    976.000    947.584     28.416    533.786    945.986    533.786    535.287    533.786
 28.370    974.000    929.414     44.586    533.465    927.648    533.465    535.165    533.465
 28.470    867.000    831.314     35.686    533.144    829.337    533.144    535.090    533.144
 28.570    727.000    732.527     -5.527    532.823    730.259    532.823    535.078    532.823
 28.670    728.766    692.413     36.353    532.502    689.745    532.502    535.156    532.502
 28.770    678.051    721.342    -43.291    532.182    718.125    532.182    535.376    532.182
 28.870    792.000    788.361      3.639    531.861    784.367    531.861    535.828    531.861
 28.970    833.000    836.475     -3.475    531.541    831.331    531.541    536.665    531.541
 29.070    807.868    819.821    -11.953    531.221    812.913    531.221    538.128    531.221
 29.170    723.000    749.560    -26.560    530.901    739.941    530.901    540.531    530.901
 29.270    660.000    671.325    -11.325    530.582    657.722    530.582    544.197    530.582
 29.370    611.000    616.748     -5.748    530.263    597.718    530.263    549.300    530.263
 29.470    544.494    590.403    -45.909    529.944    564.763    529.944    555.587    529.944
 29.570    612.000    582.150     29.850    529.626    549.848    529.626    561.928    529.626
 29.670    619.000    580.276     38.724    529.308    543.485    529.308    566.097    529.308
 29.770    601.000    577.308     23.692    528.990    540.397    528.990    565.899    528.990
 29.870    527.913    571.123    -43.209    528.673    538.533    528.673    561.261    528.673
 29.970    599.280    563.213     36.067    528.356    537.242    528.356    554.326    528.356
 30.070    576.000    555.655     20.345    528.039    536.328    528.039    547.365    528.039
 30.170    566.000    549.577     16.423    527.724    535.737    527.724    541.561    527.724
 30.270    578.000    545.320     32.680    527.408    535.527    527.408    537.198    527.408
 30.370    576.248    543.025     33.223    527.093    536.004    527.093    534.111    527.093
