neutron_powder_diffraction_0105
R_wp: 3.948
Temperature (K): 913.583
Counts: 83441.00
Wavelength (Ã…): 2.52098
COMMENTS
Test file for demonstrating the .xyy file format in Reel1.0
END OF HEADER
   tth       Y_obs     Y_calc      Y_res    Background    Phase_1_Nuc    Phase_1_Mag    Phase_2_Nuc    Phase_2_Mag
  9.970    602.000    548.859     53.141    547.663    548.658    547.663    547.863    547.663
 10.070    619.000    549.443     69.557    548.162    549.242    548.162    548.363    548.162
 10.170    562.478    550.029     12.450    548.650    549.826    548.650    548.852    548.650
 10.270    646.000    550.618     95.382    549.127    550.415    549.127    549.330    549.127
 10.370    594.000    551.214     42.786    549.594    551.010    549.594    549.798    549.594
 10.470    572.476    551.822     20.655    550.051    551.617    550.051    550.255    550.051
 10.570    601.000    552.446     48.554    550.497    552.240    550.497    550.702    550.497
 10.670    542.000    553.097    -11.097    550.932    552.890    550.932    551.138    550.932
 10.770    611.000    553.777     57.223    551.358    553.569    551.358    551.565    551.358
 10.870    606.000    554.500     51.500    551.773    554.291    551.773    551.981    551.773
 10.970    557.000    555.285      1.715    552.178    555.074    552.178    552.387    552.178
 11.070    607.000    556.153     50.847    552.573    555.942    552.573    552.783    552.573
 11.170    519.722    557.140    -37.418    552.959    556.928    552.959    553.169    552.959
 11.270    583.087    558.300     24.788    553.334    558.086    553.334    553.545    553.334
 11.370    557.000    559.725     -2.725    553.700    559.510    553.700    553.912    553.700
 11.470    569.264    561.617      7.648    554.055    561.400    554.055    554.269    554.055
 11.570    574.000    564.446      9.554    554.402    564.227    554.402    554.616    554.402
 11.670    612.000    569.276     42.724    554.739    569.053    554.739    554.954    554.739
 11.770    593.000    578.104     14.896    555.066    577.876    555.066    555.282    555.066
 11.870    546.539    593.689    -47.150    555.384    593.451    555.384    555.601    555.384
 11.970    655.786    618.038     37.748    555.693    617.786    555.693    555.911    555.693
 12.070    673.000    649.216     23.784    555.992    648.947    555.992    556.211    555.992
 12.170    722.000    677.491     44.509    556.283    677.205    556.283    556.503    556.283
 12.270    669.000    686.636    -17.636    556.564    686.344    556.564    556.785    556.564
 12.370    683.520    669.396     14.124    556.837    669.113    556.837    557.058    556.837
 12.470    628.107    638.542    -10.435    557.100    638.275    557.100    557.323    557.100
 12.570    627.000    609.586     17.414    557.355    609.334    557.355    557.579    557.355
 12.670    581.000    589.073     -8.073    557.601    588.831    557.601    557.826    557.601
 12.770    576.631    576.929     -0.299    557.838    576.693    557.838    558.064    557.838
 12.870    535.495    570.516    -35.021    558.067    570.282    558.067    558.294    558.067
 12.970    604.000    567.226     36.774    558.288    566.993    558.288    558.515    558.288
 13.070    541.000    565.425    -24.425    558.499    565.192    558.499    558.728    558.499
 13.170    523.613    564.322    -40.709    558.703    564.090    558.703    558.933    558.703
 13.270    529.263    563.589    -34.325    558.898    563.356    558.898    559.129    558.898
 13.370    533.000    563.076    -30.076    559.085    562.842    559.085    559.318    559.085
 13.470    533.000    562.712    -29.712    559.264    562.477    559.264    559.498    559.264
 13.570    542.000    562.454    -20.454    559.435    562.218    559.435    559.670    559.435
 13.670    597.014    562.273     34.741    559.598    562.036    559.598    559.834    559.598
 13.770    559.000    562.147     -3.147    559.753    561.910    559.753    559.990    559.753
 13.870    524.140    562.063    -37.923    559.901    561.825    559.901    560.138    559.901
 13.970    531.495    562.010    -30.515    560.040    561.770    560.040    560.279    560.040
 14.070    569.000    561.980      7.020    560.172    561.739    560.172    560.412    560.172
 14.170    552.000    561.967     -9.967    560.296    561.725    560.296    560.537    560.296
 14.270    550.948    561.966    -11.018    560.413    561.723    560.413    560.655    560.413
 14.370    537.959    561.974    -24.015    560.522    561.730    560.522    560.766    560.522
 14.470    593.602    561.989     31.614    560.624    561.743    560.624    560.869    560.624
 14.570    528.000    562.007    -34.007    560.718    561.761    560.718    560.964    560.718
 14.670    535.000    562.028    -27.028    560.805    561.780    560.805    561.053    560.805
 14.770    552.000    562.050    -10.050    560.885    561.801    560.885    561.134    560.885
 14.870    561.516    562.072     -0.555    560.958    561.821    560.958    561.208    560.958
 14.970    515.000    562.092    -47.092    561.024    561.840    561.024    561.276    561.024
 15.070    521.056    562.111    -41.055    561.083    561.858    561.083    561.336    561.083
 15.170    521.000    562.127    -41.127    561.135    561.873    561.135    561.389    561.135
 15.270    586.021    562.140     23.881    561.180    561.885    561.180    561.436    561.180
 15.370    524.666    562.151    -37.485    561.219    561.894    561.219    561.475    561.219
 15.470    527.000    562.159    -35.159    561.250    561.900    561.250    561.509    561.250
 15.570    528.174    562.161    -33.987    561.275    561.901    561.275    561.535    561.275
 15.670    595.256    562.160     33.095    561.294    561.899    561.294    561.555    561.294
 15.770    487.000    562.166    -75.166    561.306    561.903    561.306    561.568    561.306
 15.870    569.000    562.171      6.829    561.311    561.907    561.311    561.575    561.311
 15.970    543.048    562.157    -19.109    561.311    561.892    561.311    561.576    561.311
 16.070    530.000    562.137    -32.137    561.304    561.870    561.304    561.571    561.304
 16.170    592.000    562.113     29.887    561.290    561.844    561.290    561.559    561.290
 16.270    534.000    562.085    -28.085    561.271    561.814    561.271    561.541    561.271
 16.370    541.000    562.076    -21.076    561.245    561.804    561.245    561.517    561.245
 16.470    563.506    562.135      1.371    561.214    561.861    561.214    561.487    561.214
 16.570    579.319    562.100     17.219    561.176    561.825    561.176    561.451    561.176
 16.670    538.000    562.051    -24.051    561.132    561.775    561.132    561.409    561.132
 16.770    553.000    562.002     -9.002    561.083    561.723    561.083    561.361    561.083
 16.870    589.022    561.943     27.079    561.028    561.663    561.028    561.308    561.028
 16.970    546.000    561.879    -15.879    560.967    561.597    560.967    561.249    560.967
 17.070    585.322    561.810     23.512    560.901    561.526    560.901    561.184    560.901
 17.170    556.000    561.736     -5.736    560.829    561.451    560.829    561.114    560.829
 17.270    548.000    561.657    -13.657    560.751    561.370    560.751    561.038    560.751
 17.370    600.265    561.573     38.691    560.668    561.284    560.668    560.957    560.668
 17.470    545.000    561.485    -16.485    560.579    561.194    560.579    560.870    560.579
 17.570    541.000    561.391    -20.391    560.485    561.099    560.485    560.778    560.485
 17.670    551.000    561.293    -10.293    560.386    560.999    560.386    560.681    560.386
 17.770    585.593    561.190     24.403    560.282    560.894    560.282    560.578    560.282
 17.870    511.000    561.083    -50.083    560.172    560.784    560.172    560.471    560.172
 17.970    538.000    560.971    -22.971    560.058    560.670    560.058    560.358    560.058
 18.070    593.000    560.854     32.146    559.938    560.551    559.938    560.241    559.938
 18.170    600.000    560.733     39.267    559.814    560.428    559.814    560.118    559.814
 18.270    575.000    560.607     14.393    559.684    560.301    559.684    559.991    559.684
 18.370    559.934    560.483     -0.549    559.549    560.174    559.549    559.858    559.549
 18.470    520.000    560.350    -40.350    559.410    560.039    559.410    559.721    559.410
 18.570    558.000    560.211     -2.211    559.266    559.898    559.266    559.580    559.266
 18.670    590.745    560.068     30.676    559.118    559.753    559.118    559.433    559.118
 18.770    576.000    559.928     16.072    558.964    559.611    558.964    559.282    558.964
 18.870    528.000    559.830    -31.830    558.806    559.510    558.806    559.127    558.806
 18.970    557.000    559.696     -2.696    558.644    559.373    558.644    558.967    558.644
 19.070    545.000    559.539    -14.539    558.477    559.214    558.477    558.802    558.477
 19.170    564.000    559.376      4.624    558.306    559.048    558.306    558.633    558.306
 19.270    538.000    559.209    -21.209    558.130    558.879    558.130    558.460    558.130
 19.370    576.000    559.038     16.962    557.950    558.706    557.950    558.283    557.950
 19.470    549.000    558.864     -9.864    557.766    558.529    557.766    558.102    557.766
 19.570    551.000    558.686     -7.686    557.578    558.348    557.578    557.916    557.578
 19.670    526.000    558.505    -32.505    557.385    558.164    557.385    557.726    557.385
 19.770    560.000    558.320      1.680    557.189    557.976    557.189    557.532    557.189
 19.870    568.000    558.131      9.869    556.988    557.785    556.988    557.335    556.988
 19.970    558.000    557.940      0.060    556.783    557.590    556.783    557.133    556.783
 20.070    551.000    557.745     -6.745    556.575    557.392    556.575    556.928    556.575
 20.170    501.000    557.546    -56.546    556.363    557.191    556.363    556.719    556.363
 20.270    530.000    557.345    -27.345    556.147    556.986    556.147    556.506    556.147
 20.370    564.889    557.145      7.744    555.927    556.783    555.927    556.289    555.927
 20.470    537.000    556.980    -19.980    555.703    556.614    555.703    556.069    555.703
 20.570    520.000    556.800    -36.800    555.476    556.431    555.476    555.845    555.476
 20.670    571.000    556.595     14.405    555.245    556.223    555.245    555.617    555.245
 20.770    548.326    556.382     -8.056    555.011    556.006    555.011    555.387    555.011
 20.870    531.000    556.179    -25.179    554.773    555.800    554.773    555.152    554.773
 20.970    543.000    555.972    -12.972    554.531    555.589    554.531    554.915    554.531
 21.070    544.000    555.752    -11.752    554.287    555.365    554.287    554.674    554.287
 21.170    561.000    555.530      5.470    554.039    555.139    554.039    554.430    554.039
 21.270    536.000    555.306    -19.306    553.787    554.911    553.787    554.183    553.787
 21.370    577.000    555.080     21.920    553.533    554.680    553.533    553.932    553.533
 21.470    513.000    554.852    -41.852    553.275    554.448    553.275    553.679    553.275
 21.570    495.000    554.622    -59.622    553.014    554.215    553.014    553.422    553.014
 21.670    548.000    554.394     -6.394    552.750    553.981    552.750    553.163    552.750
 21.770    549.840    554.180     -4.340    552.483    553.763    552.483    552.900    552.483
 21.870    555.330    553.961      1.369    552.213    553.539    552.213    552.635    552.213
 21.970    548.000    553.737     -5.737    551.940    553.310    551.940    552.367    551.940
 22.070    525.000    553.529    -28.529    551.664    553.097    551.664    552.096    551.664
 22.170    547.692    553.326     -5.633    551.385    552.889    551.385    551.823    551.385
 22.270    531.213    553.141    -21.928    551.104    552.698    551.104    551.547    551.104
 22.370    533.000    552.920    -19.920    550.820    552.472    550.820    551.268    550.820
 22.470    550.000    552.699     -2.699    550.533    552.245    550.533    550.987    550.533
 22.570    539.000    552.490    -13.490    550.243    552.030    550.243    550.703    550.243
 22.670    514.063    552.296    -38.233    549.951    551.830    549.951    550.417    549.951
 22.770    548.000    552.132     -4.132    549.656    551.660    549.656    550.129    549.656
 22.870    528.243    551.951    -23.707    549.358    551.472    549.358    549.838    549.358
 22.970    551.000    551.768     -0.768    549.059    551.283    549.059    549.545    549.059
 23.070    572.000    551.595     20.405    548.756    551.103    548.756    549.250    548.756
 23.170    590.000    551.440     38.560    548.452    550.940    548.452    548.952    548.452
 23.270    578.223    551.312     26.911    548.145    550.804    548.145    548.653    548.145
 23.370    546.000    551.220     -5.220    547.835    550.704    547.835    548.352    547.835
 23.470    530.105    551.150    -21.046    547.524    550.627    547.524    548.048    547.524
 23.570    558.000    551.128      6.872    547.210    550.596    547.210    547.743    547.210
 23.670    564.000    551.171     12.829    546.894    550.630    546.894    547.436    546.894
 23.770    549.000    551.296     -2.296    546.576    550.747    546.576    547.128    546.576
 23.870    585.858    551.544     34.314    546.256    550.984    546.256    546.817    546.256
 23.970    536.000    551.976    -15.976    545.933    551.407    545.933    546.505    545.933
 24.070    561.130    552.718      8.412    545.609    552.139    545.609    546.191    545.609
 24.170    566.579    554.075     12.504    545.283    553.487    545.283    545.876    545.283
 24.270    579.250    556.730     22.520    544.955    556.132    544.955    545.560    544.955
 24.370    530.697    561.958    -31.261    544.625    561.352    544.625    545.242    544.625
 24.470    555.419    571.536    -16.118    544.293    570.924    544.293    544.923    544.293
 24.570    609.000    586.839     22.161    543.960    586.225    543.960    544.603    543.960
 24.670    644.000    606.927     37.073    543.624    606.313    543.624    544.282    543.624
 24.770    650.195    626.058     24.137    543.287    625.444    543.287    543.960    543.287
 24.870    676.000    633.537     42.463    542.948    632.913    542.948    543.636    542.948
 24.970    649.000    623.218     25.782    542.608    622.571    542.608    543.313    542.608
 25.070    616.000    602.675     13.325    542.266    601.996    542.266    542.988    542.266
 25.170    579.000    582.453     -3.453    541.923    581.741    541.923    542.663    541.923
 25.270    561.000    567.480     -6.480    541.578    566.737    541.578    542.337    541.578
 25.370    559.223    558.158      1.065    541.231    557.388    541.231    542.011    541.231
 25.470    535.761    552.931    -17.170    540.883    552.135    540.883    541.685    540.883
 25.570    564.000    550.047     13.953    540.534    549.227    540.534    541.359    540.534
 25.670    589.000    548.323     40.677    540.183    547.477    540.183    541.033    540.183
 25.770    563.000    547.155     15.845    539.832    546.282    539.832    540.707    539.832
 25.870    584.000    546.281     37.719    539.478    545.380    539.478    540.382    539.478
 25.970    591.000    545.591     45.409    539.124    544.659    539.124    540.057    539.124
 26.070    545.184    545.030      0.153    538.768    544.066    538.768    539.734    538.768
 26.170    565.000    544.571     20.429    538.411    543.573    538.411    539.411    538.411
 26.270    568.000    544.196     23.804    538.053    543.161    538.053    539.090    538.053
 26.370    540.000    543.895     -3.895    537.694    542.820    537.694    538.770    537.694
 26.470    549.000    543.662      5.338    537.334    542.545    537.334    538.453    537.334
 26.570    564.000    543.497     20.503    536.973    542.333    536.973    538.137    536.973
 26.670    526.462    543.402    -16.940    536.611    542.188    536.611    537.825    536.611
 26.770    499.817    543.386    -43.568    536.248    542.118    536.248    537.516    536.248
 26.870    516.170    543.459    -27.289    535.884    542.133    535.884    537.210    535.884
 26.970    519.365    543.641    -24.276    535.519    542.251    535.519    536.909    535.519
 27.070    512.205    543.957    -31.752    535.153    542.497    535.153    536.613    535.153
 27.170    585.000    544.445     40.555    534.787    542.908    534.787    536.323    534.787
 27.270    544.000    545.159     -1.159    534.419    543.539    534.419    536.039    534.419
 27.370    559.000    546.187     12.813    534.051    544.475    534.051    535.763    534.051
 27.470    591.000    547.683     43.317    533.682    545.870    533.682    535.495    533.682
 27.570    538.656    550.038    -11.382    533.313    548.112    533.313    535.236    533.313
 27.670    556.804    554.472      2.332    532.943    552.422    532.943    534.989    532.943
 27.770    569.000    564.653      4.347    532.572    562.464    532.572    534.754    532.572
 27.870    605.000    589.124     15.876    532.201    586.776    532.201    534.533    532.201
 27.970    610.000    641.035    -31.035    531.829    638.504    531.829    534.327    531.829
 28.070    751.000    728.644     22.356    531.457    725.905    531.457    534.138    531.457
 28.170    790.000    836.579    -46.579    531.084    833.616    531.084    533.969    531.084
 28.270    914.000    915.378     -1.378    530.711    912.188    530.711    533.821    530.711
 28.370    952.000    913.729     38.271    530.337    910.315    530.337    533.695    530.337
 28.470    848.390    839.920      8.470    529.963    836.260    529.963    533.593    529.963
 28.570    723.026    755.147    -32.121    529.588    751.204    529.588    533.517    529.588
 28.670    748.000    712.261     35.739    529.214    707.996    529.214    533.467    529.214
 28.770    689.000    725.355    -36.355    528.839    720.736    528.839    533.441    528.839
 28.870    816.000    773.243     42.757    528.463    768.252    528.463    533.438    528.463
 28.970    829.147    812.436     16.711    528.088    807.064    528.088    533.452    528.088
 29.070    811.707    803.956      7.751    527.712    798.198    527.712    533.475    527.712
 29.170    696.000    748.287    -52.287    527.336    742.140    527.336    533.497    527.336
 29.270    728.000    677.605     50.395    526.960    671.079    526.960    533.501    526.960
 29.370    653.599    619.498     34.101    526.584    612.622    526.584    533.470    526.584
 29.470    573.343    582.673     -9.330    526.207    575.503    526.207    533.384    526.207
 29.570    531.007    563.207    -32.200    525.831    555.819    525.831    533.222    525.831
 29.670    588.000    553.813     34.187    525.455    546.300    525.455    532.969    525.455
 29.770    504.000    549.068    -45.068    525.078    541.532    525.078    532.615    525.078
 29.870    567.093    546.234     20.860    524.702    538.778    524.702    532.158    524.702
 29.970    573.000    544.239     28.761    524.326    536.959    524.326    531.605    524.326
 30.070    545.000    542.728      2.272    523.950    535.707    523.950    530.970    523.950
 30.170    558.000    541.620     16.380    523.573    534.920    523.573    530.273    523.573
 30.270    586.000    541.007     44.993    523.197    534.671    523.197    529.532    523.197
 30.370    582.000    541.247     40.753    522.822    535.298    522.822    528.768    522.822
