neutron_powder_diffraction_0099
R_wp: 4.006
Temperature (K): 884.109
Counts: 83632.00
Wavelength (Ã…): 2.52098
COMMENTS
Test file for demonstrating the .xyy file format in Reel1.0
END OF HEADER
   tth       Y_obs     Y_calc      Y_res    Background    Phase_1_Nuc    Phase_1_Mag    Phase_2_Nuc    Phase_2_Mag
  9.970    649.000    551.856     97.144    550.535    551.567    550.535    550.823    550.535
 10.070    647.000    552.361     94.639    550.950    552.071    550.950    551.240    550.950
 10.170    626.000    552.868     73.132    551.356    552.577    551.356    551.647    551.356
 10.270    558.000    553.382      4.618    551.753    553.090    551.753    552.044    551.753
 10.370    531.957    553.904    -21.947    552.139    553.611    552.139    552.432    552.139
 10.470    577.000    554.440     22.560    552.517    554.145    552.517    552.811    552.517
 10.570    603.000    554.993     48.007    552.885    554.697    552.885    553.180    552.885
 10.670    604.000    555.573     48.427    553.244    555.276    553.244    553.541    553.244
 10.770    511.173    556.190    -45.017    553.594    555.891    553.594    553.892    553.594
 10.870    590.000    556.852     33.148    553.935    556.552    553.935    554.234    553.935
 10.970    553.845    557.578     -3.733    554.267    557.276    554.267    554.567    554.267
 11.070    594.790    558.390     36.399    554.590    558.087    554.590    554.891    554.590
 11.170    596.000    559.326     36.674    554.904    559.022    554.904    555.207    554.904
 11.270    576.289    560.440     15.849    555.210    560.133    555.210    555.513    555.210
 11.370    566.024    561.827      4.197    555.506    561.519    555.506    555.811    555.506
 11.470    518.937    563.691    -44.754    555.795    563.380    555.795    556.101    555.795
 11.570    597.687    566.491     31.196    556.074    566.178    556.074    556.382    556.074
 11.670    556.109    571.216    -15.107    556.345    570.899    556.345    556.654    556.345
 11.770    604.000    579.641     24.359    556.608    579.318    556.608    556.919    556.608
 11.870    633.000    594.128     38.872    556.863    593.796    556.863    557.174    556.863
 11.970    622.356    616.368      5.988    557.109    616.022    557.109    557.422    557.109
 12.070    675.000    644.779     30.221    557.347    644.416    557.347    557.662    557.347
 12.170    668.000    671.134     -3.134    557.577    670.755    557.577    557.893    557.577
 12.270    684.000    680.871      3.129    557.799    680.485    557.799    558.116    557.799
 12.370    641.000    666.417    -25.417    558.013    666.038    558.013    558.332    558.013
 12.470    596.000    638.550    -42.550    558.219    638.185    558.219    558.539    558.219
 12.570    630.468    611.462     19.005    558.418    611.112    558.418    558.739    558.418
 12.670    605.000    591.555     13.445    558.608    591.214    558.608    558.931    558.608
 12.770    584.762    579.239      5.523    558.791    578.903    558.791    559.116    558.791
 12.870    578.460    572.423      6.037    558.967    572.090    558.967    559.293    558.967
 12.970    534.853    568.791    -33.938    559.135    568.458    559.135    559.462    559.135
 13.070    570.000    566.759      3.241    559.295    566.426    559.295    559.624    559.295
 13.170    540.529    565.504    -24.974    559.448    565.170    559.448    559.779    559.448
 13.270    604.236    564.653     39.583    559.594    564.319    559.594    559.926    559.594
 13.370    567.668    564.045      3.624    559.733    563.709    559.733    560.066    559.733
 13.470    595.000    563.598     31.402    559.864    563.261    559.864    560.199    559.864
 13.570    507.000    563.265    -56.265    559.988    562.927    559.988    560.325    559.988
 13.670    524.000    563.015    -39.015    560.105    562.676    560.105    560.444    560.105
 13.770    549.000    562.827    -13.827    560.216    562.486    560.216    560.556    560.216
 13.870    523.578    562.684    -39.106    560.319    562.341    560.319    560.661    560.319
 13.970    575.000    562.576     12.424    560.415    562.231    560.415    560.759    560.415
 14.070    542.000    562.495    -20.495    560.505    562.149    560.505    560.850    560.505
 14.170    560.000    562.432     -2.432    560.588    562.085    560.588    560.935    560.588
 14.270    578.000    562.384     15.616    560.664    562.034    560.664    561.013    560.664
 14.370    559.000    562.346     -3.346    560.734    561.995    560.734    561.084    560.734
 14.470    514.000    562.316    -48.316    560.797    561.964    560.797    561.149    560.797
 14.570    524.000    562.293    -38.293    560.854    561.938    560.854    561.208    560.854
 14.670    553.000    562.273     -9.273    560.904    561.917    560.904    561.260    560.904
 14.770    570.000    562.255      7.745    560.948    561.897    560.948    561.306    560.948
 14.870    521.947    562.238    -40.291    560.986    561.878    560.986    561.346    560.986
 14.970    541.000    562.222    -21.222    561.018    561.860    561.018    561.379    561.018
 15.070    562.000    562.204     -0.204    561.043    561.841    561.043    561.406    561.043
 15.170    589.000    562.186     26.814    561.063    561.821    561.063    561.428    561.063
 15.270    536.000    562.165    -26.165    561.076    561.798    561.076    561.443    561.076
 15.370    581.430    562.143     19.287    561.084    561.774    561.084    561.453    561.084
 15.470    583.622    562.118     21.505    561.085    561.747    561.085    561.456    561.085
 15.570    561.000    562.095     -1.095    561.081    561.722    561.081    561.454    561.081
 15.670    519.000    562.085    -43.085    561.071    561.710    561.071    561.446    561.071
 15.770    540.000    562.052    -22.052    561.055    561.675    561.055    561.432    561.055
 15.870    554.877    562.014     -7.137    561.034    561.635    561.034    561.413    561.034
 15.970    517.000    561.972    -44.972    561.007    561.591    561.007    561.388    561.007
 16.070    539.000    561.927    -22.927    560.975    561.544    560.975    561.358    560.975
 16.170    533.000    561.886    -28.886    560.937    561.500    560.937    561.322    560.937
 16.270    599.351    561.889     37.461    560.893    561.501    560.893    561.281    560.893
 16.370    604.045    561.890     42.155    560.845    561.500    560.845    561.235    560.845
 16.470    592.000    561.834     30.166    560.791    561.441    560.791    561.183    560.791
 16.570    594.000    561.768     32.232    560.732    561.373    560.732    561.126    560.732
 16.670    552.529    561.697     -9.169    560.667    561.300    560.667    561.064    560.667
 16.770    509.000    561.623    -52.623    560.598    561.223    560.598    560.997    560.598
 16.870    563.665    561.544      2.121    560.523    561.142    560.523    560.925    560.523
 16.970    510.000    561.461    -51.461    560.444    561.057    560.444    560.848    560.444
 17.070    544.088    561.374    -17.286    560.360    560.967    560.360    560.766    560.360
 17.170    526.000    561.283    -35.283    560.270    560.874    560.270    560.679    560.270
 17.270    500.000    561.187    -61.187    560.176    560.776    560.176    560.588    560.176
 17.370    557.176    561.088     -3.912    560.077    560.673    560.077    560.492    560.077
 17.470    600.401    560.984     39.417    559.974    560.567    559.974    560.391    559.974
 17.570    511.000    560.876    -49.876    559.865    560.457    559.865    560.285    559.865
 17.670    548.000    560.765    -12.765    559.753    560.342    559.753    560.175    559.753
 17.770    544.000    560.649    -16.649    559.635    560.224    559.635    560.060    559.635
 17.870    561.067    560.529      0.537    559.513    560.101    559.513    559.941    559.513
 17.970    593.714    560.410     33.304    559.387    559.979    559.387    559.818    559.387
 18.070    601.145    560.285     40.860    559.256    559.851    559.256    559.690    559.256
 18.170    442.000    560.154   -118.154    559.121    559.717    559.121    559.558    559.121
 18.270    533.000    560.019    -27.019    558.982    559.579    558.982    559.422    558.982
 18.370    567.000    559.880      7.120    558.839    559.437    558.839    559.281    558.839
 18.470    590.000    559.737     30.263    558.691    559.291    558.691    559.137    558.691
 18.570    569.000    559.595      9.405    558.539    559.146    558.539    558.988    558.539
 18.670    545.770    559.446    -13.675    558.383    558.993    558.383    558.836    558.383
 18.770    526.000    559.292    -33.292    558.223    558.837    558.223    558.679    558.223
 18.870    521.128    559.135    -38.008    558.060    558.676    558.060    558.518    558.060
 18.970    594.000    558.975     35.025    557.892    558.512    557.892    558.354    557.892
 19.070    540.000    558.811    -18.811    557.720    558.345    557.720    558.186    557.720
 19.170    543.000    558.647    -15.647    557.545    558.178    557.545    558.014    557.545
 19.270    529.752    558.512    -28.759    557.366    558.039    557.366    557.839    557.366
 19.370    527.000    558.372    -31.372    557.183    557.895    557.183    557.659    557.183
 19.470    540.000    558.199    -18.199    556.996    557.718    556.996    557.477    556.996
 19.570    533.000    558.019    -25.019    556.806    557.535    556.806    557.290    556.806
 19.670    536.000    557.838    -21.838    556.613    557.350    556.613    557.101    556.613
 19.770    586.119    557.654     28.465    556.415    557.162    556.415    556.908    556.415
 19.870    532.000    557.466    -25.466    556.215    556.970    556.215    556.711    556.215
 19.970    568.000    557.275     10.725    556.011    556.775    556.011    556.511    556.011
 20.070    568.000    557.082     10.918    555.803    556.578    555.803    556.308    555.803
 20.170    537.000    556.890    -19.890    555.593    556.381    555.593    556.102    555.593
 20.270    558.000    556.700      1.300    555.379    556.187    555.379    555.892    555.379
 20.370    523.000    556.502    -33.502    555.161    555.984    555.161    555.680    555.161
 20.470    566.000    556.321      9.679    554.941    555.799    554.941    555.464    554.941
 20.570    566.000    556.120      9.880    554.718    555.592    554.718    555.245    554.718
 20.670    549.213    555.913     -6.700    554.491    555.381    554.491    555.023    554.491
 20.770    530.000    555.707    -25.707    554.261    555.170    554.261    554.799    554.261
 20.870    533.000    555.503    -22.503    554.029    554.961    554.029    554.572    554.029
 20.970    566.000    555.291     10.709    553.793    554.743    553.793    554.341    553.793
 21.070    514.638    555.076    -40.438    553.555    554.523    553.555    554.108    553.555
 21.170    578.000    554.862     23.138    553.314    554.304    553.314    553.873    553.314
 21.270    548.139    554.665     -6.526    553.070    554.101    553.070    553.634    553.070
 21.370    528.599    554.471    -25.872    552.823    553.901    552.823    553.393    552.823
 21.470    539.000    554.255    -15.255    552.574    553.679    552.574    553.150    552.574
 21.570    597.776    554.036     43.740    552.321    553.454    552.321    552.904    552.321
 21.670    544.582    553.816     -9.234    552.067    553.227    552.067    552.656    552.067
 21.770    586.000    553.596     32.404    551.809    553.001    551.809    552.405    551.809
 21.870    562.000    553.376      8.624    551.549    552.774    551.549    552.152    551.549
 21.970    563.000    553.157      9.843    551.287    552.548    551.287    551.896    551.287
 22.070    596.000    552.939     43.061    551.022    552.323    551.022    551.638    551.022
 22.170    582.000    552.724     29.276    550.755    552.101    550.755    551.379    550.755
 22.270    535.000    552.523    -17.523    550.485    551.893    550.485    551.116    550.485
 22.370    554.000    552.329      1.671    550.214    551.691    550.214    550.852    550.214
 22.470    522.000    552.147    -30.147    549.939    551.500    549.939    550.586    549.939
 22.570    541.570    552.017    -10.447    549.663    551.362    549.663    550.318    549.663
 22.670    550.000    551.841     -1.841    549.384    551.178    549.384    550.048    549.384
 22.770    535.000    551.653    -16.653    549.104    550.981    549.104    549.776    549.104
 22.870    545.000    551.475     -6.475    548.821    550.794    548.821    549.503    548.821
 22.970    542.000    551.328     -9.328    548.536    550.637    548.536    549.227    548.536
 23.070    575.622    551.194     24.428    548.249    550.493    548.249    548.950    548.249
 23.170    556.000    551.069      4.931    547.960    550.359    547.960    548.671    547.960
 23.270    550.000    550.960     -0.960    547.669    550.239    547.669    548.391    547.669
 23.370    548.286    550.883     -2.597    547.376    550.151    547.376    548.109    547.376
 23.470    535.000    550.844    -15.844    547.082    550.101    547.082    547.826    547.082
 23.570    543.000    550.846     -7.846    546.785    550.091    546.785    547.542    546.785
 23.670    543.000    550.909     -7.909    546.487    550.142    546.487    547.256    546.487
 23.770    553.000    551.058      1.942    546.187    550.278    546.187    546.968    546.187
 23.870    509.908    551.328    -41.420    545.885    550.535    545.885    546.680    545.885
 23.970    560.000    551.783      8.217    545.582    550.977    545.582    546.391    545.582
 24.070    536.000    552.543    -16.543    545.277    551.724    545.277    546.100    545.277
 24.170    595.000    553.896     41.104    544.970    553.062    544.970    545.809    544.970
 24.270    572.000    556.451     15.549    544.662    555.603    544.662    545.516    544.662
 24.370    598.350    561.316     37.034    544.352    560.455    544.352    545.223    544.352
 24.470    580.698    569.999     10.699    544.041    569.128    544.041    544.929    544.041
 24.570    563.916    583.702    -19.786    543.728    582.823    543.728    544.635    543.728
 24.670    606.000    601.826      4.174    543.414    600.940    543.414    544.340    543.414
 24.770    617.000    619.797     -2.797    543.098    618.904    543.098    544.044    543.098
 24.870    661.000    628.224     32.776    542.781    627.316    542.781    543.749    542.781
 24.970    628.314    620.655      7.658    542.463    619.721    542.463    543.453    542.463
 25.070    648.073    602.725     45.348    542.144    601.754    542.144    543.157    542.144
 25.170    634.000    583.897     50.103    541.823    582.888    541.823    542.860    541.823
 25.270    578.000    569.208      8.792    541.501    568.163    541.501    542.565    541.501
 25.370    533.361    559.567    -26.206    541.178    558.488    541.178    542.269    541.178
 25.470    584.690    553.890     30.801    540.854    552.777    540.854    541.974    540.854
 25.570    613.000    550.664     62.336    540.529    549.519    540.529    541.679    540.529
 25.670    538.000    548.739    -10.739    540.203    547.560    540.203    541.386    540.203
 25.770    580.576    547.462     33.114    539.875    546.248    539.875    541.093    539.875
 25.870    508.638    546.525    -37.887    539.547    545.273    539.547    540.801    539.547
 25.970    548.362    545.792      2.569    539.218    544.501    539.218    540.511    539.218
 26.070    587.914    545.199     42.715    538.887    543.865    538.887    540.223    538.887
 26.170    548.544    544.711      3.833    538.556    543.333    538.556    539.936    538.556
 26.270    519.960    544.308    -24.348    538.224    542.882    538.224    539.652    538.224
 26.370    506.023    543.977    -37.955    537.891    542.500    537.891    539.370    537.891
 26.470    555.000    543.712     11.288    537.558    542.180    537.558    539.091    537.558
 26.570    571.000    543.509     27.491    537.223    541.918    537.223    538.815    537.223
 26.670    505.569    543.367    -37.798    536.888    541.713    536.888    538.543    536.888
 26.770    518.520    543.291    -24.771    536.552    541.569    536.552    538.275    536.552
 26.870    617.000    543.290     73.710    536.216    541.495    536.216    538.012    536.216
 26.970    572.000    543.375     28.625    535.879    541.501    535.879    537.754    535.879
 27.070    601.000    543.566     57.434    535.541    541.605    535.541    537.501    535.541
 27.170    583.000    543.888     39.112    535.203    541.835    535.203    537.256    535.203
 27.270    557.000    544.383     12.617    534.864    542.230    534.864    537.017    534.864
 27.370    512.354    545.113    -32.759    534.524    542.851    534.524    536.786    534.524
 27.470    524.755    546.187    -21.433    534.184    543.807    534.184    536.564    534.184
 27.570    501.000    547.877    -46.877    533.844    545.369    533.844    536.352    533.844
 27.670    579.000    551.107     27.893    533.503    548.458    533.503    536.150    533.503
 27.770    618.000    558.975     59.025    533.162    556.172    533.162    535.960    533.162
 27.870    570.666    579.623     -8.958    532.821    576.648    532.821    535.782    532.821
 27.970    625.573    627.351     -1.778    532.479    624.179    532.479    535.618    532.479
 28.070    678.000    713.967    -35.967    532.136    710.576    532.136    535.468    532.136
 28.170    778.000    827.534    -49.534    531.794    823.909    531.794    535.334    531.794
 28.270    914.000    917.748     -3.748    531.451    913.893    531.451    535.215    531.451
 28.370    906.000    925.836    -19.836    531.108    921.763    531.108    535.114    531.108
 28.470    841.000    850.869     -9.869    530.765    846.568    530.765    535.029    530.765
 28.570    781.000    756.296     24.704    530.421    751.738    530.421    534.960    530.421
 28.670    662.000    703.939    -41.939    530.078    699.096    530.078    534.905    530.078
 28.770    708.549    713.282     -4.733    529.734    708.133    529.734    534.863    529.734
 28.870    787.000    763.622     23.378    529.390    758.161    529.390    534.830    529.390
 28.970    807.482    809.815     -2.333    529.047    804.046    529.047    534.800    529.047
 29.070    863.904    808.775     55.129    528.703    802.710    528.703    534.768    528.703
 29.170    753.563    755.393     -1.830    528.359    749.038    528.359    534.724    528.359
 29.270    701.234    682.082     19.152    528.015    675.451    528.015    534.659    528.015
 29.370    656.032    620.367     35.666    527.671    613.484    527.671    534.562    527.671
 29.470    627.000    581.392     45.608    527.327    574.301    527.327    534.423    527.327
 29.570    599.000    561.354     37.646    526.984    554.108    526.984    534.232    526.984
 29.670    533.383    552.170    -18.787    526.640    544.831    526.640    533.980    526.640
 29.770    553.972    547.821      6.152    526.296    540.455    526.296    533.663    526.296
 29.870    509.613    545.359    -35.745    525.953    538.033    525.953    533.279    525.953
 29.970    555.000    543.682     11.318    525.610    536.462    525.610    532.831    525.610
 30.070    560.000    542.442     17.558    525.267    535.384    525.267    532.324    525.267
 30.170    576.000    541.550     34.450    524.924    534.705    524.924    531.769    524.924
 30.270    570.273    541.074     29.199    524.582    534.480    524.582    531.175    524.582
 30.370    594.000    541.314     52.686    524.240    534.999    524.240    530.552    524.240
