neutron_powder_diffraction_0046
R_wp: 3.792
Temperature (K): 624.273
Counts: 83578.00
Wavelength (Ã…): 2.52098
COMMENTS
Test file for demonstrating the .xyy file format in Reel1.0
END OF HEADER
   tth       Y_obs     Y_calc      Y_res    Background    Phase_1_Nuc    Phase_1_Mag    Phase_2_Nuc    Phase_2_Mag
  9.970    662.000    680.606    -18.606    679.167    680.173    679.600    679.167    679.167
 10.070    686.000    680.015      5.985    678.490    679.577    678.928    678.490    678.490
 10.170    667.000    679.436    -12.436    677.814    678.993    678.256    677.814    677.814
 10.270    748.000    678.871     69.129    677.139    678.423    677.586    677.139    677.139
 10.370    700.000    678.323     21.677    676.465    677.871    676.916    676.465    676.465
 10.470    714.000    677.797     36.203    675.791    677.339    676.248    675.791    675.791
 10.570    646.000    677.295    -31.295    675.118    676.833    675.580    675.118    675.118
 10.670    666.000    676.825    -10.825    674.447    676.357    674.913    674.447    674.447
 10.770    714.000    676.393     37.607    673.776    675.921    674.248    673.776    673.776
 10.870    706.000    676.011     29.989    673.106    675.533    673.583    673.106    673.106
 10.970    726.000    675.692     50.308    672.438    675.208    672.920    672.438    672.438
 11.070    700.000    675.456     24.544    671.770    674.966    672.258    671.770    671.770
 11.170    703.705    675.330     28.376    671.103    674.835    671.597    671.103    671.103
 11.270    658.720    675.356    -16.636    670.438    674.855    670.937    670.438    670.438
 11.370    689.000    675.602     13.398    669.773    675.094    670.278    669.773    669.773
 11.470    674.000    676.197     -2.197    669.110    675.683    669.620    669.110    669.110
 11.570    731.000    677.431     53.569    668.447    676.910    668.964    668.447    668.447
 11.670    761.000    679.972     81.028    667.786    679.443    668.309    667.786    667.786
 11.770    735.000    685.186     49.814    667.126    684.648    667.655    667.126    667.126
 11.870    774.000    695.297     78.703    666.467    694.747    667.002    666.467    666.467
 11.970    743.000    712.766     30.234    665.809    712.199    666.350    665.809    665.809
 12.070    712.165    738.312    -26.147    665.153    737.724    665.700    665.153    665.153
 12.170    794.000    767.540     26.460    664.497    766.930    665.051    664.497    664.497
 12.270    792.000    788.178      3.822    663.843    787.549    664.404    663.843    663.843
 12.370    797.151    786.727     10.424    663.190    786.092    663.758    663.190    663.190
 12.470    744.148    763.836    -19.688    662.538    763.206    663.113    662.538    662.538
 12.570    700.000    733.323    -33.323    661.888    732.702    662.469    661.888    661.888
 12.670    729.670    706.946     22.723    661.238    706.333    661.827    661.238    661.238
 12.770    700.000    688.690     11.310    660.590    688.079    661.187    660.590    660.590
 12.870    688.000    677.657     10.343    659.944    677.044    660.548    659.944    659.944
 12.970    660.000    671.376    -11.376    659.298    670.758    659.910    659.298    659.298
 13.070    673.000    667.769      5.231    658.654    667.145    659.274    658.654    658.654
 13.170    649.476    665.326    -15.850    658.012    664.695    658.639    658.012    658.012
 13.270    636.000    663.471    -27.471    657.370    662.833    658.006    657.370    657.370
 13.370    630.000    661.953    -31.953    656.731    661.308    657.374    656.731    656.731
 13.470    596.000    660.652    -64.652    656.092    659.998    656.744    656.092    656.092
 13.570    661.000    659.500      1.500    655.455    658.838    656.115    655.455    655.455
 13.670    665.000    658.456      6.544    654.819    657.786    655.488    654.819    654.819
 13.770    652.000    657.494     -5.494    654.185    656.815    654.863    654.185    654.185
 13.870    620.000    656.595    -36.595    653.552    655.907    654.239    653.552    653.552
 13.970    655.000    655.747     -0.747    652.921    655.049    653.617    652.921    652.921
 14.070    659.866    654.952      4.914    652.291    654.245    652.997    652.291    652.291
 14.170    635.000    654.185    -19.185    651.663    653.469    652.378    651.663    651.663
 14.270    651.090    653.433     -2.343    651.036    652.706    651.761    651.036    651.036
 14.370    618.000    652.700    -34.700    650.410    651.964    651.146    650.410    650.410
 14.470    623.000    651.985    -28.985    649.786    651.239    650.532    649.786    649.786
 14.570    642.000    651.286     -9.286    649.164    650.529    649.920    649.164    649.164
 14.670    699.315    650.599     48.716    648.543    649.831    649.310    648.543    648.543
 14.770    650.000    649.924      0.076    647.924    649.145    648.702    647.924    647.924
 14.870    619.000    649.258    -30.258    647.307    648.468    648.096    647.307    647.307
 14.970    657.000    648.601      8.399    646.691    647.800    647.491    646.691    646.691
 15.070    628.000    647.952    -19.952    646.076    647.139    646.888    646.076    646.076
 15.170    628.855    647.310    -18.455    645.463    646.485    646.287    645.463    645.463
 15.270    607.000    646.674    -39.674    644.852    645.838    645.688    644.852    644.852
 15.370    651.000    646.044      4.956    644.243    645.195    645.091    644.243    644.243
 15.470    632.336    645.419    -13.083    643.635    644.558    644.496    643.635    643.635
 15.570    585.000    644.800    -59.800    643.029    643.925    643.903    643.029    643.029
 15.670    645.000    644.185      0.815    642.424    643.297    643.312    642.424    642.424
 15.770    631.460    643.574    -12.114    641.821    642.673    642.722    641.821    641.821
 15.870    617.000    642.968    -25.968    641.220    642.052    642.135    641.220    641.220
 15.970    629.000    642.365    -13.365    640.620    641.436    641.550    640.620    640.620
 16.070    628.000    641.768    -13.768    640.023    640.824    640.967    640.023    640.023
 16.170    639.000    641.177     -2.177    639.427    640.218    640.386    639.427    639.427
 16.270    664.000    640.591     23.409    638.832    639.617    639.807    638.832    638.832
 16.370    654.000    640.006     13.994    638.240    639.016    639.230    638.240    638.240
 16.470    636.000    639.421     -3.421    637.649    638.415    638.655    637.649    637.649
 16.570    652.575    638.840     13.735    637.060    637.817    638.083    637.060    637.060
 16.670    609.000    638.261    -29.261    636.473    637.222    637.512    636.473    636.473
 16.770    606.744    637.686    -30.943    635.888    636.630    636.944    635.888    635.888
 16.870    656.000    637.114     18.886    635.304    636.040    636.378    635.304    635.304
 16.970    671.000    636.545     34.455    634.722    635.453    635.815    634.722    634.722
 17.070    658.000    635.980     22.020    634.142    634.868    635.254    634.142    634.142
 17.170    675.675    635.417     40.258    633.564    634.286    634.695    633.564    633.564
 17.270    686.214    634.857     51.356    632.988    633.707    634.139    632.988    632.988
 17.370    638.000    634.302      3.698    632.414    633.131    633.584    632.414    632.414
 17.470    642.000    633.765      8.235    631.841    632.573    633.033    631.841    631.841
 17.570    585.434    633.275    -47.841    631.270    632.061    632.484    631.270    631.270
 17.670    627.383    632.733     -5.350    630.702    631.498    631.937    630.702    630.702
 17.770    617.000    632.191    -15.191    630.135    630.933    631.393    630.135    630.135
 17.870    586.000    631.677    -45.677    629.570    630.396    630.851    629.570    629.570
 17.970    618.000    631.152    -13.152    629.007    629.847    630.311    629.007    629.007
 18.070    614.000    630.622    -16.622    628.446    629.293    629.775    628.446    628.446
 18.170    625.000    630.090     -5.090    627.886    628.736    629.240    627.886    627.886
 18.270    612.305    629.561    -17.256    627.329    628.181    628.709    627.329    627.329
 18.370    580.807    629.036    -48.228    626.774    627.629    628.180    626.774    626.774
 18.470    623.000    628.513     -5.513    626.220    627.079    627.654    626.220    626.220
 18.570    664.200    627.993     36.207    625.669    626.532    627.131    625.669    625.669
 18.670    676.530    627.479     49.051    625.119    625.988    626.610    625.119    625.119
 18.770    620.000    626.968     -6.968    624.572    625.447    626.092    624.572    624.572
 18.870    602.000    626.458    -24.458    624.026    624.907    625.578    624.026    624.026
 18.970    611.000    625.956    -14.956    623.483    624.372    625.067    623.483    623.483
 19.070    652.000    625.497     26.503    622.941    623.872    624.567    622.941    622.941
 19.170    635.000    625.039      9.961    622.402    623.373    624.068    622.402    622.402
 19.270    595.996    624.548    -28.552    621.865    622.846    623.566    621.865    621.865
 19.370    604.000    624.056    -20.056    621.329    622.318    623.067    621.329    621.329
 19.470    625.163    623.568      1.595    620.796    621.793    622.571    620.796    620.796
 19.570    561.000    623.084    -62.084    620.264    621.271    622.078    620.264    620.264
 19.670    616.000    622.604     -6.604    619.735    620.751    621.588    619.735    619.735
 19.770    588.000    622.127    -34.127    619.208    620.233    621.102    619.208    619.208
 19.870    596.828    621.655    -24.827    618.683    619.719    620.619    618.683    618.683
 19.970    610.000    621.187    -11.187    618.160    619.207    620.140    618.160    618.160
 20.070    620.000    620.723     -0.723    617.639    618.697    619.664    617.639    617.639
 20.170    628.000    620.263      7.737    617.120    618.191    619.192    617.120    617.120
 20.270    623.000    619.813      3.187    616.603    617.691    618.724    616.603    616.603
 20.370    589.306    619.415    -30.109    616.088    617.236    618.267    616.088    616.088
 20.470    597.000    618.997    -21.997    615.575    616.759    617.814    615.575    615.575
 20.570    611.000    618.566     -7.566    615.065    616.273    617.358    615.065    615.065
 20.670    597.000    618.159    -21.159    614.556    615.809    616.906    614.556    614.556
 20.770    613.000    617.791     -4.791    614.050    615.382    616.459    614.050    614.050
 20.870    637.348    617.375     19.973    613.546    614.905    616.016    613.546    613.546
 20.970    565.000    616.969    -51.969    613.044    614.436    615.577    613.044    613.044
 21.070    567.000    616.563    -49.563    612.544    613.964    615.143    612.544    612.544
 21.170    645.000    616.171     28.829    612.046    613.504    614.713    612.046    612.046
 21.270    602.038    615.804    -13.766    611.550    613.065    614.289    611.550    611.550
 21.370    612.000    615.425     -3.425    611.057    612.612    613.869    611.057    611.057
 21.470    642.000    615.040     26.960    610.566    612.151    613.455    610.566    610.566
 21.570    623.000    614.667      8.333    610.076    611.695    613.048    610.076    610.076
 21.670    601.000    614.301    -13.301    609.590    611.244    612.647    609.590    609.590
 21.770    658.116    613.938     44.178    609.105    610.794    612.249    609.105    609.105
 21.870    584.327    613.586    -29.258    608.622    610.350    611.858    608.622    608.622
 21.970    611.000    613.241     -2.241    608.142    609.910    611.472    608.142    608.142
 22.070    642.760    612.904     29.857    607.663    609.474    611.094    607.663    607.663
 22.170    623.000    612.576     10.424    607.187    609.042    610.722    607.187    607.187
 22.270    608.000    612.260     -4.260    606.714    608.617    610.357    606.714    606.714
 22.370    638.066    611.955     26.111    606.242    608.198    609.999    606.242    606.242
 22.470    580.512    611.664    -31.152    605.773    607.787    609.649    605.773    605.773
 22.570    609.907    611.393     -1.486    605.305    607.389    609.310    605.305    605.305
 22.670    597.000    611.134    -14.134    604.840    606.997    608.977    604.840    604.840
 22.770    618.105    610.888      7.217    604.378    606.613    608.653    604.378    604.378
 22.870    648.000    610.661     37.339    603.917    606.240    608.338    603.917    603.917
 22.970    584.000    610.456    -26.456    603.459    605.882    608.033    603.459    603.459
 23.070    592.000    610.273    -18.273    603.003    605.537    607.739    603.003    603.003
 23.170    566.858    610.117    -43.258    602.549    605.210    607.456    602.549    602.549
 23.270    579.106    609.991    -30.885    602.097    604.905    607.184    602.097    602.097
 23.370    601.000    609.901     -8.901    601.648    604.625    606.925    601.648    601.648
 23.470    593.927    609.855    -15.928    601.201    604.377    606.680    601.201    601.201
 23.570    571.478    609.859    -38.381    600.756    604.168    606.448    600.756    600.756
 23.670    654.000    609.927     44.073    600.313    604.009    606.232    600.313    600.313
 23.770    619.000    610.074      8.926    599.873    603.916    606.033    599.873    599.873
 23.870    607.000    610.323     -3.323    599.435    603.909    605.851    599.435    599.435
 23.970    586.640    610.707    -24.067    598.999    604.021    605.687    598.999    598.999
 24.070    598.000    611.284    -13.284    598.566    604.308    605.544    598.566    598.566
 24.170    605.520    612.170     -6.650    598.134    604.885    605.422    598.134    598.134
 24.270    609.000    613.625     -4.625    597.705    606.011    605.324    597.705    597.705
 24.370    589.973    616.212    -26.240    597.279    608.245    605.252    597.279    597.279
 24.470    669.000    620.975     48.025    596.854    612.631    605.208    596.854    596.854
 24.570    668.000    629.402     38.598    596.432    620.656    605.194    596.432    596.432
 24.670    638.000    642.818     -4.818    596.012    633.641    605.215    596.012    596.012
 24.770    627.532    660.995    -33.463    595.595    651.357    605.271    595.595    595.595
 24.870    739.000    680.083     58.917    595.179    669.946    605.369    595.179    595.179
 24.970    668.000    691.481    -23.481    594.766    680.797    605.511    594.766    594.766
 25.070    679.000    687.822     -8.822    594.356    676.533    605.702    594.356    594.356
 25.170    651.000    672.110    -21.110    593.947    660.154    605.949    593.947    593.947
 25.270    623.000    653.345    -30.345    593.541    640.660    606.258    593.541    593.541
 25.370    677.660    637.843     39.816    593.137    624.365    606.636    593.137    593.137
 25.470    613.000    627.501    -14.501    592.736    613.157    607.092    592.736    592.736
 25.570    679.000    621.638     57.362    592.337    606.347    607.635    592.337    592.337
 25.670    616.000    618.772     -2.772    591.940    602.437    608.279    591.940    591.940
 25.770    656.869    617.624     39.245    591.545    600.136    609.037    591.545    591.545
 25.870    663.000    617.419     45.581    591.153    598.648    609.925    591.153    591.153
 25.970    652.000    617.780     34.220    590.763    597.579    610.964    590.763    590.763
 26.070    643.000    618.555     24.445    590.375    596.752    612.179    590.375    590.375
 26.170    657.000    619.694     37.306    589.990    596.087    613.597    589.990    589.990
 26.270    616.695    621.194     -4.498    589.607    595.544    615.256    589.607    589.607
 26.370    605.000    623.080    -18.080    589.226    595.103    617.202    589.226    589.226
 26.470    670.000    625.391     44.609    588.847    594.751    619.485    588.847    588.847
 26.570    676.703    628.181     48.522    588.471    594.474    622.176    588.471    588.471
 26.670    600.000    631.543    -31.543    588.098    594.274    625.364    588.098    588.098
 26.770    598.404    635.593    -37.189    587.726    594.154    629.162    587.726    587.726
 26.870    659.000    640.489     18.511    587.357    594.123    633.720    587.357    587.357
 26.970    642.000    646.441     -4.441    586.990    594.193    639.234    586.990    586.990
 27.070    672.000    653.735     18.265    586.625    594.383    645.972    586.625    586.625
 27.170    656.000    662.767     -6.767    586.263    594.722    654.302    586.263    586.263
 27.270    672.000    674.098     -2.098    585.903    595.252    664.742    585.903    585.903
 27.370    707.000    688.544     18.456    585.546    596.033    678.047    585.546    585.546
 27.470    677.000    707.380    -30.380    585.190    597.163    695.396    585.190    585.190
 27.570    744.000    732.959     11.041    584.837    598.817    718.963    584.837    584.837
 27.670    762.000    771.035     -9.035    584.487    601.428    754.071    584.487    584.487
 27.770    875.445    838.381     37.063    584.138    606.248    816.234    584.138    584.138
 27.870    974.000    980.782     -6.782    583.792    616.690    947.809    583.792    583.792
 27.970   1238.000   1296.713    -58.713    583.449    640.092   1239.911    583.449    583.449
 28.070   1830.000   1930.080   -100.080    583.107    687.177   1825.706    583.107    583.107
 28.170   2862.000   2971.764   -109.764    582.768    764.737   2789.308    582.768    582.768
 28.270   4103.000   4268.387   -165.387    582.431    861.416   3988.792    582.431    582.431
 28.370   5241.000   5290.650    -49.650    582.097    937.963   4934.244    582.097    582.097
 28.470   5356.220   5411.994    -55.774    581.765    948.078   5045.400    581.765    581.765
 28.570   4803.000   4595.724    207.276    581.435    889.767   4287.339    581.435    581.435
 28.670   3460.000   3491.921    -31.921    581.107    812.761   3260.296    581.107    581.107
 28.770   2688.000   2740.237    -52.237    580.782    766.335   2554.688    580.782    580.782
 28.870   2502.000   2567.442    -65.442    580.459    768.096   2379.761    580.459    580.459
 28.970   2737.000   2824.779    -87.779    580.138    804.685   2600.185    580.138    580.138
 29.070   3201.000   3137.012     63.988    579.820    841.409   2875.454    579.820    579.820
 29.170   3247.000   3121.484    125.516    579.504    841.623   2859.511    579.504    579.504
 29.270   2643.932   2685.953    -42.021    579.190    797.237   2468.110    579.190    579.190
 29.370   2077.000   2064.677     12.323    578.879    733.162   1910.576    578.879    578.879
 29.470   1574.838   1511.747     63.091    578.570    676.009   1414.434    578.570    578.570
 29.570   1146.000   1132.036     13.964    578.263    636.760   1073.611    578.263    578.263
 29.670    959.000    913.941     45.059    577.959    614.253    877.683    577.959    577.959
 29.770    897.000    801.349     95.651    577.656    602.681    776.341    577.656    577.656
 29.870    849.000    743.409    105.591    577.356    596.782    723.992    577.356    577.356
 29.970    820.000    710.266    109.734    577.059    593.471    693.858    577.059    577.059
 30.070    700.000    688.447     11.553    576.763    591.371    673.842    576.763    576.763
 30.170    659.377    672.668    -13.291    576.470    589.963    659.176    576.470    576.470
 30.270    666.897    660.839      6.058    576.180    589.082    647.936    576.180    576.180
 30.370    673.000    652.100     20.900    575.891    588.754    639.235    575.891    575.891
