neutron_powder_diffraction_0047
R_wp: 3.856
Temperature (K): 629.068
Counts: 83721.00
Wavelength (Ã…): 2.52098
COMMENTS
Test file for demonstrating the .xyy file format in Reel1.0
END OF HEADER
   tth       Y_obs     Y_calc      Y_res    Background    Phase_1_Nuc    Phase_1_Mag    Phase_2_Nuc    Phase_2_Mag
  9.970    694.000    680.066     13.934    678.650    679.655    679.061    678.650    678.650
 10.070    729.713    679.510     50.203    678.009    679.094    678.424    678.009    678.009
 10.170    698.573    678.965     19.608    677.367    678.545    677.787    677.367    677.367
 10.270    695.000    678.435     16.565    676.726    678.010    677.150    676.726    676.726
 10.370    710.000    677.921     32.079    676.085    677.492    676.514    676.085    676.085
 10.470    684.000    677.427      6.573    675.445    676.993    675.878    675.445    675.445
 10.570    744.000    676.958     67.042    674.805    676.520    675.243    674.805    674.805
 10.670    714.000    676.520     37.480    674.165    676.076    674.608    674.165    674.165
 10.770    682.000    676.120      5.880    673.525    675.671    673.973    673.525    673.525
 10.870    661.272    675.769    -14.497    672.886    675.315    673.339    672.886    672.886
 10.970    674.000    675.481     -1.481    672.248    675.022    672.706    672.248    672.248
 11.070    628.190    675.275    -47.085    671.610    674.811    672.073    671.610    671.610
 11.170    670.630    675.180     -4.550    670.972    674.710    671.440    670.972    670.972
 11.270    651.271    675.237    -23.966    670.335    674.761    670.808    670.335    670.335
 11.370    652.681    675.513    -22.833    669.699    675.032    670.177    669.699    669.699
 11.470    684.000    676.139      7.861    669.062    675.651    669.547    669.062    669.062
 11.570    702.964    677.403     25.561    668.427    676.909    668.917    668.427    668.427
 11.670    700.084    679.977     20.107    667.792    679.475    668.288    667.792    667.792
 11.770    635.551    685.245    -49.694    667.158    684.734    667.659    667.158    667.158
 11.870    784.000    695.479     88.521    666.524    694.956    667.031    666.524    666.524
 11.970    770.000    713.208     56.792    665.891    712.669    666.404    665.891    665.891
 12.070    833.000    739.187     93.813    665.259    738.627    665.778    665.259    665.259
 12.170    793.000    768.917     24.083    664.627    768.334    665.153    664.627    664.627
 12.270    765.450    789.794    -24.344    663.996    789.193    664.529    663.996    663.996
 12.370    766.653    788.064    -21.411    663.366    787.457    663.905    663.366    663.366
 12.470    797.000    764.624     32.376    662.737    764.023    663.282    662.737    662.737
 12.570    786.638    733.665     52.973    662.108    733.074    662.660    662.108    662.108
 12.670    703.000    707.076     -4.076    661.480    706.493    662.039    661.480    661.480
 12.770    662.000    688.790    -26.790    660.853    688.209    661.419    660.853    660.853
 12.870    608.000    677.806    -69.806    660.227    677.224    660.800    660.227    660.227
 12.970    699.772    671.576     28.197    659.602    670.989    660.182    659.602    659.602
 13.070    647.000    667.897    -20.897    658.977    667.305    659.565    658.977    658.977
 13.170    645.000    665.455    -20.455    658.354    664.856    658.949    658.354    658.354
 13.270    627.960    663.621    -35.660    657.731    663.015    658.334    657.731    657.731
 13.370    634.000    662.123    -28.123    657.110    661.510    657.720    657.110    657.110
 13.470    592.000    660.838    -68.838    656.489    660.218    657.107    656.489    656.489
 13.570    641.435    659.716    -18.281    655.869    659.088    656.495    655.869    655.869
 13.670    642.000    658.820    -16.820    655.250    658.183    655.885    655.250    655.250
 13.770    606.642    657.889    -51.247    654.632    657.245    655.275    654.632    654.632
 13.870    652.000    657.006     -5.006    654.016    656.353    654.667    654.016    654.016
 13.970    636.000    656.171    -20.171    653.400    655.510    654.060    653.400    653.400
 14.070    655.000    655.375     -0.375    652.785    654.705    653.455    652.785    652.785
 14.170    673.000    654.609     18.391    652.172    653.930    652.850    652.172    652.172
 14.270    659.466    653.869      5.597    651.559    653.181    652.247    651.559    651.559
 14.370    695.551    653.152     42.399    650.948    652.454    651.645    650.948    650.948
 14.470    667.791    652.454     15.337    650.338    651.747    651.045    650.338    650.338
 14.570    671.171    651.767     19.404    649.729    651.050    650.446    649.729    649.729
 14.670    660.182    651.093      9.089    649.121    650.365    649.848    649.121    649.121
 14.770    610.287    650.431    -40.144    648.514    649.693    649.251    648.514    648.514
 14.870    628.000    649.794    -21.794    647.909    649.046    648.657    647.909    647.909
 14.970    615.000    649.160    -34.160    647.304    648.401    648.063    647.304    647.304
 15.070    685.189    648.524     36.665    646.701    647.753    647.471    646.701    646.701
 15.170    624.600    647.894    -23.294    646.099    647.112    646.881    646.099    646.099
 15.270    687.611    647.268     40.344    645.499    646.474    646.292    645.499    645.499
 15.370    684.891    646.647     38.244    644.899    645.842    645.704    644.899    644.899
 15.470    623.686    646.032    -22.346    644.301    645.215    645.118    644.301    644.301
 15.570    669.929    645.421     24.508    643.705    644.592    644.534    643.705    643.705
 15.670    641.756    644.815     -3.059    643.109    643.973    643.951    643.109    643.109
 15.770    657.000    644.212     12.788    642.515    643.357    643.370    642.515    642.515
 15.870    656.861    643.614     13.247    641.923    642.745    642.791    641.923    641.923
 15.970    644.000    643.018      0.982    641.332    642.137    642.213    641.332    641.332
 16.070    620.000    642.427    -22.427    640.742    641.531    641.637    640.742    640.742
 16.170    666.632    641.839     24.793    640.153    640.929    641.063    640.153    640.153
 16.270    634.000    641.255     -7.255    639.566    640.331    640.490    639.566    639.566
 16.370    609.000    640.677    -31.677    638.981    639.738    639.919    638.981    638.981
 16.470    679.389    640.098     39.291    638.396    639.144    639.351    638.396    638.396
 16.570    603.816    639.522    -35.705    637.814    638.552    638.783    637.814    637.814
 16.670    614.000    638.948    -24.948    637.232    637.963    638.218    637.232    637.232
 16.770    645.354    638.378      6.976    636.653    637.376    637.655    636.653    636.653
 16.870    638.695    637.810      0.884    636.075    636.791    637.093    636.075    636.075
 16.970    616.046    637.245    -21.199    635.498    636.209    636.534    635.498    635.498
 17.070    596.000    636.683    -40.683    634.923    635.629    635.976    634.923    634.923
 17.170    639.460    636.124      3.337    634.349    635.051    635.421    634.349    634.349
 17.270    608.000    635.567    -27.567    633.777    634.476    634.868    633.777    633.777
 17.370    655.000    635.019     19.981    633.207    633.908    634.317    633.207    633.207
 17.470    649.000    634.471     14.529    632.638    633.341    633.768    632.638    632.638
 17.570    609.599    633.942    -24.343    632.070    632.792    633.221    632.070    632.070
 17.670    630.000    633.454     -3.454    631.505    632.283    632.676    631.505    631.505
 17.770    592.803    632.917    -40.114    630.941    631.724    632.134    630.941    630.941
 17.870    613.000    632.377    -19.377    630.378    631.162    631.593    630.378    630.378
 17.970    627.000    631.839     -4.839    629.817    630.602    631.055    629.817    629.817
 18.070    577.000    631.305    -54.305    629.258    630.044    630.519    629.258    629.258
 18.170    651.171    630.774     20.397    628.701    629.490    629.985    628.701    628.701
 18.270    591.424    630.255    -38.831    628.145    628.946    629.454    628.145    628.145
 18.370    584.000    629.733    -45.733    627.591    628.399    628.925    627.591    627.591
 18.470    637.606    629.210      8.396    627.039    627.850    628.398    627.039    627.039
 18.570    640.000    628.690     11.310    626.488    627.303    627.874    626.488    626.488
 18.670    609.000    628.172    -19.172    625.939    626.758    627.353    625.939    625.939
 18.770    591.000    627.658    -36.658    625.392    626.216    626.834    625.392    625.392
 18.870    623.000    627.150     -4.150    624.847    625.679    626.318    624.847    624.847
 18.970    579.000    626.669    -47.669    624.303    625.167    625.804    624.303    624.303
 19.070    674.629    626.166     48.462    623.762    624.634    625.294    623.762    623.762
 19.170    638.000    625.665     12.335    623.221    624.101    624.786    623.221    623.221
 19.270    591.464    625.176    -33.712    622.683    623.578    624.281    622.683    622.683
 19.370    642.000    624.728     17.272    622.147    623.087    623.788    622.147    622.147
 19.470    610.242    624.268    -14.026    621.612    622.586    623.295    621.612    621.612
 19.570    631.000    623.783      7.217    621.080    622.063    622.799    621.080    621.080
 19.670    560.000    623.299    -63.299    620.549    621.542    622.306    620.549    620.549
 19.770    597.000    622.818    -25.818    620.020    621.022    621.816    620.020    620.020
 19.870    610.000    622.342    -12.342    619.493    620.505    621.329    619.493    619.493
 19.970    586.000    621.869    -35.869    618.967    619.991    620.845    618.967    618.967
 20.070    574.255    621.399    -47.145    618.444    619.479    620.365    618.444    618.444
 20.170    601.902    620.934    -19.032    617.922    618.969    619.888    617.922    617.922
 20.270    665.216    620.474     44.743    617.403    618.462    619.414    617.403    617.403
 20.370    596.000    620.020    -24.020    616.885    617.960    618.945    616.885    616.885
 20.470    585.000    619.596    -34.596    616.369    617.483    618.483    616.369    616.369
 20.570    650.883    619.162     31.721    615.855    616.993    618.024    615.855    615.855
 20.670    634.000    618.750     15.250    615.344    616.522    617.571    615.344    615.344
 20.770    581.000    618.327    -37.327    614.834    616.043    617.117    614.834    614.834
 20.870    605.000    617.925    -12.925    614.326    615.583    616.667    614.326    614.326
 20.970    609.000    617.559     -8.559    613.820    615.157    616.221    613.820    613.820
 21.070    628.000    617.144     10.856    613.316    614.680    615.779    613.316    613.316
 21.170    587.394    616.732    -29.338    612.814    614.204    615.342    612.814    612.814
 21.270    658.000    616.341     41.659    612.314    613.745    614.909    612.314    612.314
 21.370    606.000    615.960     -9.960    611.816    613.294    614.482    611.816    611.816
 21.470    644.000    615.596     28.404    611.319    612.857    614.059    611.319    611.319
 21.570    584.000    615.221    -31.221    610.825    612.405    613.641    610.825    610.825
 21.670    629.000    614.839     14.161    610.333    611.945    613.228    610.333    610.333
 21.770    591.000    614.465    -23.465    609.844    611.487    612.821    609.844    609.844
 21.870    643.889    614.102     29.786    609.356    611.037    612.421    609.356    609.356
 21.970    623.000    613.751      9.249    608.870    610.593    612.028    608.870    608.870
 22.070    602.000    613.407    -11.407    608.386    610.155    611.638    608.386    608.386
 22.170    588.000    613.071    -25.071    607.904    609.720    611.255    607.904    607.904
 22.270    647.781    612.744     35.037    607.425    609.290    610.879    607.425    607.425
 22.370    633.000    612.427     20.573    606.947    608.864    610.509    606.947    606.947
 22.470    596.000    612.121    -16.121    606.472    608.446    610.147    606.472    606.472
 22.570    640.000    611.829     28.171    605.998    608.034    609.793    605.998    605.998
 22.670    603.000    611.552     -8.552    605.527    607.633    609.447    605.527    605.527
 22.770    634.505    611.299     23.206    605.058    607.246    609.111    605.058    605.058
 22.870    578.000    611.057    -33.057    604.591    606.865    608.782    604.591    604.591
 22.970    590.000    610.835    -20.835    604.126    606.498    608.463    604.126    604.126
 23.070    644.221    610.636     33.585    603.663    606.146    608.153    603.663    603.663
 23.170    635.000    610.464     24.536    603.202    605.812    607.854    603.202    603.202
 23.270    608.000    610.319     -2.319    602.744    605.496    607.567    602.744    602.744
 23.370    629.128    610.209     18.919    602.287    605.206    607.291    602.287    602.287
 23.470    599.000    610.141    -11.141    601.833    604.947    607.028    601.833    601.833
 23.570    616.460    610.122      6.337    601.381    604.726    606.778    601.381    601.381
 23.670    626.000    610.166     15.834    600.931    604.555    606.543    600.931    600.931
 23.770    650.000    610.286     39.714    600.483    604.448    606.323    600.483    600.483
 23.870    603.000    610.507     -7.507    600.038    604.426    606.119    600.038    600.038
 23.970    585.000    610.860    -25.860    599.594    604.521    605.935    599.594    599.594
 24.070    652.956    611.401     41.555    599.153    604.787    605.769    599.153    599.153
 24.170    564.831    612.240    -47.409    598.714    605.334    605.623    598.714    598.714
 24.270    598.000    613.628    -15.628    598.277    606.409    605.500    598.277    598.277
 24.370    663.000    616.127     46.873    597.842    608.573    605.402    597.842    597.842
 24.470    626.000    620.819      5.181    597.410    612.908    605.330    597.410    597.410
 24.570    655.000    629.312     25.688    596.980    621.021    605.287    596.980    596.980
 24.670    621.035    643.113    -22.079    596.552    634.415    605.276    596.552    596.552
 24.770    672.000    662.094      9.906    596.126    652.960    605.300    596.126    596.126
 24.870    755.000    682.171     72.829    595.702    672.564    605.362    595.702    595.702
 24.970    703.000    694.005      8.995    595.281    683.881    605.467    595.281    595.281
 25.070    686.000    689.666     -3.666    594.862    678.967    605.619    594.862    594.862
 25.170    715.000    672.729     42.271    594.445    661.397    605.823    594.445    594.445
 25.270    687.405    652.993     34.412    594.030    640.969    606.086    594.030    594.030
 25.370    628.000    637.027     -9.027    593.618    624.250    606.415    593.618    593.618
 25.470    666.000    626.609     39.391    593.208    613.011    606.817    593.208    593.208
 25.570    608.202    620.829    -12.627    592.800    606.333    607.303    592.800    592.800
 25.670    599.000    618.046    -19.046    592.394    602.561    607.884    592.394    592.394
 25.770    617.901    616.925      0.976    591.991    600.345    608.573    591.991    591.991
 25.870    637.582    616.694     20.888    591.589    598.899    609.386    591.589    591.589
 25.970    632.000    616.997     15.003    591.191    597.847    610.343    591.191    591.191
 26.070    635.000    617.694     17.306    590.794    597.024    611.465    590.794    590.794
 26.170    601.863    618.739    -16.876    590.400    596.359    612.781    590.400    590.400
 26.270    626.812    620.129      6.684    590.008    595.811    614.325    590.008    590.008
 26.370    645.005    621.882     23.123    589.618    595.361    616.138    589.618    589.618
 26.470    648.085    624.039     24.046    589.230    594.995    618.274    589.230    589.230
 26.570    661.000    626.660     34.340    588.845    594.706    620.798    588.845    588.845
 26.670    602.792    629.830    -27.039    588.462    594.495    623.796    588.462    588.462
 26.770    680.000    633.653     46.347    588.081    594.362    627.371    588.081    588.081
 26.870    587.439    638.287    -50.849    587.703    594.321    631.667    587.703    587.703
 26.970    625.000    643.920    -18.920    587.327    594.372    636.872    587.327    587.327
 27.070    676.000    650.830     25.170    586.953    594.541    643.239    586.953    586.953
 27.170    692.000    659.397     32.603    586.582    594.855    651.118    586.582    586.582
 27.270    673.000    670.153      2.847    586.212    595.356    661.004    586.212    586.212
 27.370    659.002    683.879    -24.877    585.845    596.102    673.614    585.845    585.845
 27.470    762.000    701.786     60.214    585.481    597.189    690.068    585.481    585.481
 27.570    742.000    726.115     15.885    585.119    598.789    712.431    585.119    585.119
 27.670    802.000    762.358     39.642    584.759    601.324    745.773    584.759    584.759
 27.770    830.481    826.685      3.796    584.401    606.036    805.018    584.401    584.401
 27.870    970.260    963.792      6.467    584.045    616.340    931.430    584.045    584.045
 27.970   1323.132   1270.828     52.304    583.692    639.665   1214.711    583.692    583.692
 28.070   1779.000   1890.680   -111.680    583.342    686.936   1786.807    583.342    583.342
 28.170   2700.000   2913.342   -213.342    582.993    765.050   2730.837    582.993    582.993
 28.270   4164.000   4184.065    -20.065    582.647    862.251   3903.905    582.647    582.647
 28.370   5061.000   5174.597   -113.597    582.303    938.341   4818.085    582.303    582.303
 28.470   5398.000   5271.086    126.914    581.962    946.775   4906.056    581.962    581.962
 28.570   4485.000   4455.330     29.670    581.622    886.905   4150.046    581.622    581.622
 28.670   3341.000   3374.132    -33.132    581.285    809.485   3145.997    581.285    581.285
 28.770   2563.000   2650.252    -87.252    580.951    763.754   2467.478    580.951    580.951
 28.870   2503.157   2496.620      6.536    580.619    766.692   2310.524    580.619    580.619
 28.970   2809.992   2758.852     51.140    580.289    804.153   2534.963    580.289    580.289
 29.070   3105.323   3064.794     40.530    579.961    840.835   2803.973    579.961    579.961
 29.170   3181.000   3042.625    138.375    579.636    840.199   2782.229    579.636    579.636
 29.270   2652.000   2611.544     40.456    579.313    795.081   2395.994    579.313    579.313
 29.370   2085.046   2005.012     80.034    578.992    730.899   1853.296    578.992    578.992
 29.470   1452.000   1469.627    -17.627    578.673    674.127   1374.305    578.673    578.673
 29.570   1137.693   1104.773     32.920    578.357    635.436   1047.769    578.357    578.357
 29.670    929.505    896.797     32.707    578.044    613.411    861.468    578.044    578.044
 29.770    838.812    790.093     48.719    577.732    602.153    765.691    577.732    577.732
 29.870    760.000    735.327     24.673    577.423    596.423    716.336    577.423    577.423
 29.970    750.000    703.955     46.045    577.116    593.200    687.877    577.116    577.116
 30.070    732.000    683.251     48.749    576.812    591.148    668.917    576.812    576.812
 30.170    713.000    668.262     44.738    576.509    589.770    655.003    576.509    576.509
 30.270    666.097    657.035      9.062    576.209    588.910    644.334    576.209    576.209
 30.370    668.410    648.772     19.638    575.912    588.601    636.081    575.912    575.912
