neutron_powder_diffraction_0136
R_wp: 3.713
Temperature (K): 1067.433
Counts: 83685.00
Wavelength (Ã…): 2.52098
COMMENTS
Test file for demonstrating the .xyy file format in Reel1.0
END OF HEADER
   tth       Y_obs     Y_calc      Y_res    Background    Phase_1_Nuc    Phase_1_Mag    Phase_2_Nuc    Phase_2_Mag
  9.970    564.000    566.824     -2.824    566.049    566.768    566.049    566.104    566.049
 10.070    556.000    567.010    -11.010    566.172    566.954    566.172    566.228    566.172
 10.170    588.000    567.198     20.802    566.289    567.142    566.289    566.345    566.289
 10.270    528.040    567.391    -39.352    566.400    567.334    566.400    566.457    566.400
 10.370    634.000    567.591     66.409    566.505    567.534    566.505    566.562    566.505
 10.470    547.000    567.802    -20.802    566.604    567.745    566.604    566.661    566.604
 10.570    615.000    568.027     46.973    566.697    567.969    566.697    566.754    566.697
 10.670    544.000    568.272    -24.272    566.784    568.214    566.784    566.841    566.784
 10.770    560.000    568.543     -8.543    566.865    568.485    566.865    566.923    566.865
 10.870    577.000    568.851      8.149    566.941    568.792    566.941    566.998    566.941
 10.970    545.538    569.208    -23.669    567.010    569.148    567.010    567.068    567.010
 11.070    568.471    569.633     -1.162    567.074    569.574    567.074    567.133    567.074
 11.170    568.000    570.156     -2.156    567.133    570.096    567.133    567.191    567.133
 11.270    552.000    570.818    -18.818    567.185    570.757    567.185    567.244    567.185
 11.370    538.621    571.695    -33.074    567.233    571.634    567.233    567.291    567.233
 11.470    546.736    572.955    -26.219    567.274    572.893    567.274    567.333    567.274
 11.570    603.000    575.051     27.949    567.310    574.987    567.310    567.370    567.310
 11.670    620.000    579.199     40.801    567.341    579.133    567.341    567.401    567.341
 11.770    587.995    588.059     -0.064    567.367    587.988    567.367    567.427    567.367
 11.870    675.000    605.663     69.337    567.387    605.582    567.387    567.447    567.387
 11.970    627.000    634.876     -7.876    567.402    634.778    567.402    567.463    567.402
 12.070    716.742    671.803     44.939    567.412    671.685    567.412    567.473    567.412
 12.170    677.194    700.736    -23.542    567.417    700.601    567.417    567.478    567.417
 12.270    663.923    701.991    -38.068    567.417    701.855    567.417    567.478    567.417
 12.370    677.000    674.458      2.542    567.411    674.337    567.411    567.473    567.411
 12.470    606.367    637.351    -30.983    567.401    637.250    567.401    567.463    567.401
 12.570    580.315    607.300    -26.985    567.386    607.216    567.386    567.448    567.386
 12.670    564.000    588.927    -24.927    567.366    588.853    567.366    567.429    567.366
 12.770    595.000    579.611     15.389    567.341    579.541    567.341    567.404    567.341
 12.870    580.000    575.256      4.744    567.312    575.189    567.312    567.375    567.312
 12.970    590.000    573.081     16.919    567.277    573.014    567.277    567.341    567.277
 13.070    549.000    571.791    -22.791    567.239    571.725    567.239    567.302    567.239
 13.170    534.677    570.901    -36.224    567.195    570.835    567.195    567.259    567.195
 13.270    563.000    570.234     -7.234    567.147    570.168    567.147    567.211    567.147
 13.370    560.000    569.711     -9.711    567.094    569.646    567.094    567.159    567.094
 13.470    609.681    569.289     40.391    567.037    569.223    567.037    567.102    567.037
 13.570    551.000    568.939    -17.939    566.976    568.873    566.976    567.041    566.976
 13.670    547.000    568.641    -21.641    566.910    568.575    566.910    566.975    566.910
 13.770    583.000    568.384     14.616    566.840    568.317    566.840    566.906    566.840
 13.870    588.962    568.156     20.806    566.765    568.089    566.765    566.831    566.765
 13.970    553.000    567.948    -14.948    566.687    567.881    566.687    566.753    566.687
 14.070    594.503    567.755     26.748    566.604    567.688    566.604    566.671    566.604
 14.170    542.000    567.575    -25.575    566.517    567.507    566.517    566.584    566.517
 14.270    553.000    567.404    -14.404    566.426    567.336    566.426    566.493    566.426
 14.370    553.364    567.239    -13.875    566.331    567.171    566.331    566.399    566.331
 14.470    565.000    567.081     -2.081    566.232    567.012    566.232    566.300    566.232
 14.570    574.000    566.925      7.075    566.129    566.857    566.129    566.197    566.129
 14.670    570.000    566.773      3.227    566.022    566.704    566.022    566.091    566.022
 14.770    554.000    566.622    -12.622    565.911    566.552    565.911    565.980    565.911
 14.870    541.000    566.472    -25.472    565.796    566.402    565.796    565.866    565.796
 14.970    589.818    566.323     23.496    565.678    566.252    565.678    565.748    565.678
 15.070    603.000    566.173     36.827    565.556    566.102    565.556    565.627    565.556
 15.170    567.000    566.024      0.976    565.430    565.951    565.430    565.503    565.430
 15.270    529.000    565.873    -36.873    565.301    565.799    565.301    565.374    565.301
 15.370    586.378    565.720     20.657    565.168    565.646    565.168    565.242    565.168
 15.470    545.000    565.566    -20.566    565.032    565.492    565.032    565.106    565.032
 15.570    552.000    565.410    -13.410    564.892    565.335    564.892    564.966    564.892
 15.670    552.000    565.252    -13.252    564.748    565.177    564.748    564.823    564.748
 15.770    525.352    565.093    -39.740    564.602    565.017    564.602    564.677    564.602
 15.870    574.910    564.931      9.979    564.451    564.855    564.451    564.527    564.451
 15.970    576.000    564.767     11.233    564.298    564.691    564.298    564.374    564.298
 16.070    570.000    564.601      5.399    564.141    564.524    564.141    564.218    564.141
 16.170    562.000    564.433     -2.433    563.981    564.355    563.981    564.058    563.981
 16.270    581.000    564.262     16.738    563.818    564.184    563.818    563.896    563.818
 16.370    581.000    564.089     16.911    563.652    564.011    563.652    563.730    563.652
 16.470    566.000    563.916      2.084    563.482    563.837    563.482    563.561    563.482
 16.570    531.202    563.739    -32.538    563.310    563.660    563.310    563.389    563.310
 16.670    586.000    563.560     22.440    563.134    563.480    563.134    563.214    563.134
 16.770    559.000    563.377     -4.377    562.956    563.297    562.956    563.036    562.956
 16.870    565.000    563.193      1.807    562.774    563.112    562.774    562.855    562.774
 16.970    587.000    563.005     23.995    562.590    562.924    562.590    562.671    562.590
 17.070    539.935    562.816    -22.881    562.403    562.734    562.403    562.484    562.403
 17.170    559.091    562.624     -3.532    562.213    562.542    562.213    562.295    562.213
 17.270    537.567    562.429    -24.863    562.020    562.347    562.020    562.102    562.020
 17.370    569.000    562.233      6.767    561.824    562.149    561.824    561.907    561.824
 17.470    583.952    562.033     21.919    561.626    561.950    561.626    561.710    561.626
 17.570    594.011    561.832     32.179    561.425    561.748    561.425    561.509    561.425
 17.670    530.387    561.629    -31.242    561.222    561.544    561.222    561.306    561.222
 17.770    594.525    561.423     33.102    561.015    561.338    561.015    561.101    561.015
 17.870    556.085    561.215     -5.130    560.807    561.129    560.807    560.893    560.807
 17.970    576.000    561.006     14.994    560.596    560.919    560.596    560.682    560.596
 18.070    582.001    560.794     21.206    560.382    560.707    560.382    560.469    560.382
 18.170    559.000    560.580     -1.580    560.166    560.492    560.166    560.253    560.166
 18.270    584.000    560.363     23.637    559.947    560.275    559.947    560.036    559.947
 18.370    574.000    560.145     13.855    559.727    560.056    559.727    559.815    559.727
 18.470    590.000    559.924     30.076    559.503    559.835    559.503    559.593    559.503
 18.570    562.411    559.702      2.709    559.278    559.612    559.278    559.368    559.278
 18.670    553.000    559.477     -6.477    559.050    559.386    559.050    559.141    559.050
 18.770    567.085    559.251      7.834    558.820    559.159    558.820    558.912    558.820
 18.870    534.000    559.024    -25.024    558.588    558.932    558.588    558.681    558.588
 18.970    542.000    558.807    -16.807    558.354    558.714    558.354    558.447    558.354
 19.070    537.000    558.587    -21.587    558.118    558.493    558.118    558.212    558.118
 19.170    544.000    558.354    -14.354    557.880    558.260    557.880    557.974    557.880
 19.270    537.907    558.119    -20.212    557.639    558.024    557.639    557.734    557.639
 19.370    580.258    557.882     22.375    557.397    557.787    557.397    557.493    557.397
 19.470    589.000    557.644     31.356    557.153    557.548    557.153    557.249    557.153
 19.570    593.198    557.412     35.785    556.907    557.315    556.907    557.004    556.907
 19.670    586.000    557.252     28.748    556.658    557.153    556.658    556.757    556.658
 19.770    593.652    557.038     36.614    556.409    556.939    556.409    556.507    556.409
 19.870    518.000    556.797    -38.797    556.157    556.697    556.157    556.257    556.157
 19.970    576.626    556.551     20.075    555.903    556.451    555.903    556.004    555.903
 20.070    589.100    556.305     32.796    555.648    556.203    555.648    555.750    555.648
 20.170    581.801    556.057     25.744    555.391    555.955    555.391    555.493    555.391
 20.270    564.000    555.808      8.192    555.132    555.705    555.132    555.236    555.132
 20.370    553.000    555.558     -2.558    554.872    555.454    554.872    554.976    554.872
 20.470    533.000    555.307    -22.307    554.610    555.202    554.610    554.715    554.610
 20.570    536.000    555.056    -19.056    554.347    554.949    554.347    554.453    554.347
 20.670    508.000    554.803    -46.803    554.082    554.695    554.082    554.189    554.082
 20.770    540.000    554.549    -14.549    553.815    554.441    553.815    553.923    553.815
 20.870    548.085    554.295     -6.210    553.547    554.186    553.547    553.657    553.547
 20.970    522.284    554.040    -31.756    553.278    553.930    553.278    553.388    553.278
 21.070    581.000    553.785     27.215    553.007    553.673    553.007    553.118    553.007
 21.170    563.347    553.529      9.817    552.735    553.417    552.735    552.847    552.735
 21.270    545.344    553.274     -7.929    552.461    553.160    552.461    552.575    552.461
 21.370    538.000    553.019    -15.019    552.186    552.904    552.186    552.301    552.186
 21.470    525.000    552.770    -27.770    551.910    552.654    551.910    552.026    551.910
 21.570    550.000    552.543     -2.543    551.632    552.425    551.632    551.750    551.632
 21.670    562.000    552.362      9.638    551.354    552.243    551.354    551.473    551.354
 21.770    525.000    552.131    -27.131    551.074    552.011    551.074    551.194    551.074
 21.870    567.000    551.880     15.120    550.793    551.758    550.793    550.915    550.793
 21.970    559.000    551.628      7.372    550.511    551.505    550.511    550.634    550.511
 22.070    553.000    551.378      1.622    550.227    551.253    550.227    550.352    550.227
 22.170    517.000    551.130    -34.130    549.943    551.003    549.943    550.069    549.943
 22.270    586.208    550.884     35.325    549.658    550.756    549.658    549.786    549.658
 22.370    526.000    550.641    -24.641    549.371    550.511    549.371    549.501    549.371
 22.470    549.000    550.401     -1.401    549.084    550.270    549.084    549.215    549.084
 22.570    514.000    550.166    -36.166    548.795    550.033    548.795    548.929    548.795
 22.670    550.000    549.935      0.065    548.506    549.801    548.506    548.641    548.506
 22.770    583.759    549.712     34.047    548.216    549.575    548.216    548.353    548.216
 22.870    553.000    549.496      3.504    547.925    549.357    547.925    548.064    547.925
 22.970    581.000    549.290     31.710    547.633    549.149    547.633    547.774    547.633
 23.070    583.593    549.095     34.498    547.340    548.953    547.340    547.484    547.340
 23.170    538.000    548.916    -10.916    547.047    548.771    547.047    547.193    547.047
 23.270    548.000    548.756     -0.756    546.753    548.609    546.753    546.901    546.753
 23.370    509.000    548.624    -39.624    546.458    548.474    546.458    546.608    546.458
 23.470    525.000    548.520    -23.520    546.162    548.368    546.162    546.315    546.162
 23.570    579.471    548.458     31.013    545.866    548.304    545.866    546.021    545.866
 23.670    542.000    548.451     -6.451    545.569    548.294    545.569    545.727    545.569
 23.770    552.000    548.521      3.479    545.271    548.362    545.271    545.432    545.271
 23.870    535.000    548.703    -13.703    544.973    548.541    544.973    545.137    544.973
 23.970    589.477    549.065     40.412    544.675    548.900    544.675    544.842    544.675
 24.070    577.829    549.745     28.083    544.375    549.578    544.375    544.546    544.375
 24.170    524.871    551.153    -26.282    544.076    550.983    544.076    544.249    544.076
 24.270    543.000    554.312    -11.312    543.775    554.141    543.775    543.953    543.775
 24.370    533.982    561.155    -27.173    543.475    560.985    543.475    543.656    543.475
 24.470    603.918    574.171     29.746    543.174    574.008    543.174    543.359    543.174
 24.570    570.000    594.393    -24.393    542.872    594.239    542.872    543.061    542.872
 24.670    606.535    617.888    -11.353    542.570    617.747    542.570    542.764    542.570
 24.770    635.085    633.509      1.576    542.268    633.376    542.268    542.466    542.268
 24.870    604.000    630.146    -26.146    541.965    630.006    541.965    542.169    541.965
 24.970    640.000    610.437     29.563    541.662    610.277    541.662    541.871    541.662
 25.070    591.000    586.726      4.274    541.359    586.543    541.359    541.573    541.359
 25.170    579.000    568.034     10.966    541.056    567.832    541.056    541.276    541.056
 25.270    532.051    556.515    -24.464    540.752    556.299    540.752    540.978    540.752
 25.370    578.030    550.486     27.544    540.448    550.258    540.448    540.681    540.448
 25.470    541.000    547.507     -6.507    540.144    547.271    540.144    540.384    540.144
 25.570    524.505    545.874    -21.369    539.840    545.629    539.840    540.087    539.840
 25.670    549.116    544.826      4.290    539.535    544.572    539.535    539.791    539.535
 25.770    600.000    544.057     55.943    539.231    543.794    539.231    539.495    539.231
 25.870    564.000    543.452     20.548    538.926    543.179    538.926    539.200    538.926
 25.970    556.000    542.957     13.043    538.621    542.674    538.621    538.905    538.621
 26.070    531.000    542.548    -11.548    538.317    542.254    538.317    538.612    538.317
 26.170    552.786    542.218     10.568    538.012    541.912    538.012    538.319    538.012
 26.270    564.000    541.963     22.037    537.707    541.644    537.707    538.027    537.707
 26.370    549.000    541.737      7.263    537.402    541.404    537.402    537.736    537.402
 26.470    556.000    541.561     14.439    537.098    541.213    537.098    537.446    537.098
 26.570    524.000    541.439    -17.439    536.793    541.074    536.793    537.158    536.793
 26.670    552.000    541.375     10.625    536.489    540.992    536.489    536.872    536.489
 26.770    541.000    541.378     -0.378    536.184    540.975    536.184    536.587    536.184
 26.870    525.000    541.470    -16.470    535.880    541.045    535.880    536.305    535.880
 26.970    517.000    541.668    -24.668    535.576    541.218    535.576    536.025    535.576
 27.070    547.000    541.982      5.018    535.272    541.506    535.272    535.748    535.272
 27.170    570.000    542.446     27.554    534.968    541.940    534.968    535.474    534.968
 27.270    546.000    543.123      2.877    534.664    542.582    534.664    535.204    534.664
 27.370    575.605    544.101     31.503    534.361    543.522    534.361    534.939    534.361
 27.470    549.000    545.544      3.456    534.058    544.922    534.058    534.678    534.058
 27.570    610.000    547.875     62.125    533.755    547.204    533.755    534.424    533.755
 27.670    574.000    552.569     21.431    533.453    551.841    533.453    534.177    533.453
 27.770    600.000    564.413     35.587    533.151    563.617    533.151    533.939    533.151
 27.870    594.000    594.951     -0.951    532.849    594.072    532.849    533.711    532.849
 27.970    663.856    661.232      2.624    532.547    660.247    532.547    533.495    532.547
 28.070    779.870    769.747     10.123    532.246    768.631    532.246    533.295    532.246
 28.170    894.903    889.819      5.084    531.945    888.558    531.945    533.114    531.945
 28.270    983.000    949.590     33.410    531.645    948.188    531.645    532.958    531.645
 28.370    931.612    901.556     30.056    531.345    900.012    531.345    532.834    531.345
 28.470    750.721    795.194    -44.473    531.046    793.462    531.046    532.755    531.046
 28.570    753.643    711.356     42.286    530.747    709.355    530.747    532.737    530.747
 28.670    688.477    692.994     -4.517    530.448    690.621    530.448    532.808    530.448
 28.770    748.000    736.301     11.699    530.150    733.430    530.150    533.005    530.150
 28.870    836.735    802.694     34.041    529.853    799.158    529.853    533.380    529.853
 28.970    790.000    834.363    -44.363    529.556    829.930    529.556    533.995    529.556
 29.070    782.000    796.549    -14.549    529.259    790.903    529.259    534.921    529.259
 29.170    688.000    717.913    -29.913    528.964    710.673    528.964    536.219    528.964
 29.270    636.000    644.007     -8.007    528.668    634.770    528.668    537.915    528.668
 29.370    632.440    596.151     36.288    528.374    584.582    528.374    539.947    528.374
 29.470    530.648    572.686    -42.038    528.080    558.699    528.080    542.067    528.080
 29.570    558.396    563.190     -4.795    527.787    547.219    527.787    543.757    527.787
 29.670    553.931    558.946     -5.015    527.494    542.091    527.494    544.348    527.494
 29.770    560.920    555.626      5.294    527.202    539.362    527.202    543.465    527.202
 29.870    551.000    552.070     -1.070    526.911    537.608    526.911    541.371    526.911
 29.970    549.000    548.478      0.522    526.620    536.382    526.620    538.715    526.620
 30.070    544.259    545.273     -1.014    526.330    535.544    526.330    536.058    526.330
 30.170    550.000    542.730      7.270    526.041    535.069    526.041    533.700    526.041
 30.270    578.612    541.065     37.547    525.753    535.080    525.753    531.735    525.753
 30.370    589.000    540.725     48.275    525.465    536.034    525.465    530.152    525.465
