neutron_powder_diffraction_0118
R_wp: 3.953
Temperature (K): 977.348
Counts: 83702.00
Wavelength (Ã…): 2.52098
COMMENTS
Test file for demonstrating the .xyy file format in Reel1.0
END OF HEADER
   tth       Y_obs     Y_calc      Y_res    Background    Phase_1_Nuc    Phase_1_Mag    Phase_2_Nuc    Phase_2_Mag
  9.970    586.000    558.152     27.848    557.127    558.020    557.127    557.259    557.127
 10.070    563.903    558.522      5.381    557.420    558.389    557.420    557.552    557.420
 10.170    587.000    558.895     28.105    557.705    558.762    557.705    557.837    557.705
 10.270    578.000    559.273     18.727    557.981    559.139    557.981    558.114    557.981
 10.370    592.000    559.659     32.341    558.250    559.524    558.250    558.383    558.250
 10.470    596.000    560.056     35.944    558.510    559.921    558.510    558.644    558.510
 10.570    587.000    560.471     26.529    558.762    560.335    558.762    558.897    558.762
 10.670    561.000    560.909      0.091    559.007    560.772    559.007    559.142    559.007
 10.770    533.000    561.380    -28.380    559.243    561.243    559.243    559.379    559.243
 10.870    603.000    561.891     41.109    559.472    561.754    559.472    559.609    559.472
 10.970    555.000    562.461     -7.461    559.693    562.323    559.693    559.830    559.693
 11.070    621.000    563.112     57.888    559.907    562.972    559.907    560.045    559.907
 11.170    564.000    563.876      0.124    560.113    563.736    560.113    560.251    560.113
 11.270    566.000    564.804      1.196    560.311    564.663    560.311    560.450    560.311
 11.370    576.000    565.986     10.014    560.502    565.844    560.502    560.642    560.502
 11.470    566.100    567.619     -1.519    560.686    567.475    560.686    560.826    560.686
 11.570    550.000    570.189    -20.189    560.862    570.044    560.862    561.003    560.862
 11.670    604.489    574.856     29.633    561.031    574.707    561.031    561.173    561.031
 11.770    602.000    583.888     18.112    561.193    583.734    561.193    561.335    561.193
 11.870    557.097    600.470    -43.373    561.348    600.306    561.348    561.490    561.348
 11.970    662.000    626.804     35.196    561.496    626.625    561.496    561.639    561.496
 12.070    627.885    660.103    -32.218    561.636    659.904    561.636    561.780    561.636
 12.170    672.000    688.381    -16.381    561.770    688.166    561.770    561.915    561.770
 12.270    677.000    694.242    -17.242    561.897    694.023    561.897    562.042    561.897
 12.370    712.120    672.844     39.276    562.018    672.637    562.018    562.163    562.018
 12.470    637.000    639.394     -2.394    562.131    639.205    562.131    562.277    562.131
 12.570    594.000    609.789    -15.789    562.238    609.616    562.238    562.385    562.238
 12.670    562.380    589.904    -27.524    562.338    589.741    562.338    562.486    562.338
 12.770    583.228    578.758      4.470    562.432    578.601    562.432    562.580    562.432
 12.870    555.000    573.123    -18.123    562.519    572.968    562.519    562.668    562.519
 12.970    597.869    570.263     27.606    562.600    570.109    562.600    562.750    562.600
 13.070    507.000    568.644    -61.644    562.674    568.491    562.674    562.825    562.674
 13.170    614.000    567.596     46.404    562.742    567.443    562.742    562.894    562.742
 13.270    545.000    566.853    -21.853    562.804    566.699    562.804    562.956    562.804
 13.370    599.316    566.300     33.016    562.860    566.146    562.860    563.013    562.860
 13.470    558.000    565.877     -7.877    562.910    565.722    562.910    563.063    562.910
 13.570    565.000    565.547     -0.547    562.953    565.392    562.953    563.108    562.953
 13.670    548.417    565.285    -16.868    562.991    565.129    562.991    563.146    562.991
 13.770    588.408    565.072     23.336    563.023    564.916    563.023    563.178    563.023
 13.870    568.052    564.896      3.156    563.048    564.739    563.048    563.205    563.048
 13.970    530.720    564.748    -34.028    563.068    564.590    563.068    563.226    563.068
 14.070    544.000    564.620    -20.620    563.083    564.462    563.083    563.241    563.083
 14.170    574.000    564.509      9.491    563.091    564.349    563.091    563.250    563.091
 14.270    566.352    564.409      1.943    563.094    564.249    563.094    563.254    563.094
 14.370    554.000    564.318    -10.318    563.091    564.157    563.091    563.252    563.091
 14.470    597.302    564.234     33.069    563.083    564.072    563.083    563.244    563.083
 14.570    533.000    564.155    -31.155    563.069    563.993    563.069    563.232    563.069
 14.670    550.000    564.078    -14.078    563.050    563.915    563.050    563.213    563.050
 14.770    640.000    564.002     75.998    563.026    563.838    563.026    563.190    563.026
 14.870    572.795    563.927      8.868    562.996    563.762    562.996    563.161    562.996
 14.970    598.073    563.852     34.221    562.961    563.686    562.961    563.127    562.961
 15.070    538.000    563.776    -25.776    562.921    563.610    562.921    563.087    562.921
 15.170    553.000    563.700    -10.700    562.876    563.532    562.876    563.043    562.876
 15.270    569.000    563.621      5.379    562.825    563.453    562.825    562.993    562.825
 15.370    550.827    563.540    -12.714    562.770    563.371    562.770    562.939    562.770
 15.470    571.229    563.457      7.771    562.710    563.287    562.710    562.880    562.710
 15.570    524.772    563.372    -38.600    562.644    563.201    562.644    562.815    562.644
 15.670    608.131    563.284     44.848    562.574    563.112    562.574    562.746    562.574
 15.770    561.000    563.192     -2.192    562.499    563.019    562.499    562.672    562.499
 15.870    535.913    563.098    -27.185    562.419    562.924    562.419    562.593    562.419
 15.970    520.427    563.001    -42.573    562.335    562.826    562.335    562.510    562.335
 16.070    607.690    562.900     44.790    562.246    562.724    562.246    562.422    562.246
 16.170    577.000    562.796     14.204    562.152    562.619    562.152    562.329    562.152
 16.270    530.000    562.688    -32.688    562.054    562.510    562.054    562.232    562.054
 16.370    533.000    562.578    -29.578    561.952    562.399    561.952    562.131    561.952
 16.470    558.000    562.465     -4.465    561.845    562.285    561.845    562.025    561.845
 16.570    593.538    562.348     31.191    561.733    562.166    561.733    561.914    561.733
 16.670    560.000    562.226     -2.226    561.617    562.044    561.617    561.800    561.617
 16.770    596.196    562.101     34.094    561.497    561.918    561.497    561.681    561.497
 16.870    552.000    561.973     -9.973    561.373    561.788    561.373    561.557    561.373
 16.970    602.449    561.841     40.608    561.244    561.655    561.244    561.430    561.244
 17.070    578.000    561.708     16.292    561.112    561.521    561.112    561.299    561.112
 17.170    550.000    561.592    -11.592    560.975    561.404    560.975    561.163    560.975
 17.270    544.000    561.458    -17.458    560.835    561.269    560.835    561.024    560.835
 17.370    606.672    561.364     45.308    560.690    561.173    560.690    560.880    560.690
 17.470    587.000    561.282     25.718    560.541    561.091    560.541    560.733    560.541
 17.570    568.000    561.136      6.864    560.389    560.944    560.389    560.582    560.389
 17.670    531.000    560.981    -29.981    560.232    560.787    560.232    560.426    560.232
 17.770    532.000    560.822    -28.822    560.072    560.626    560.072    560.268    560.072
 17.870    514.000    560.659    -46.659    559.909    560.463    559.909    560.105    559.909
 17.970    512.000    560.494    -48.494    559.741    560.296    559.741    559.939    559.741
 18.070    564.000    560.325      3.675    559.570    560.125    559.570    559.769    559.570
 18.170    547.661    560.153    -12.492    559.395    559.952    559.395    559.596    559.395
 18.270    531.000    559.978    -28.978    559.217    559.776    559.217    559.419    559.217
 18.370    574.000    559.799     14.201    559.035    559.596    559.035    559.239    559.035
 18.470    579.000    559.618     19.382    558.850    559.413    558.850    559.055    558.850
 18.570    534.342    559.434    -25.092    558.661    559.227    558.661    558.868    558.661
 18.670    562.000    559.247      2.753    558.469    559.039    558.469    558.677    558.469
 18.770    556.471    559.058     -2.587    558.274    558.849    558.274    558.484    558.274
 18.870    560.000    558.868      1.132    558.075    558.657    558.075    558.287    558.075
 18.970    556.000    558.672     -2.672    557.874    558.460    557.874    558.086    557.874
 19.070    563.000    558.474      4.526    557.669    558.259    557.669    557.883    557.669
 19.170    569.000    558.272     10.728    557.461    558.056    557.461    557.677    557.461
 19.270    598.178    558.068     40.109    557.249    557.851    557.249    557.467    557.249
 19.370    537.000    557.862    -20.862    557.035    557.642    557.035    557.255    557.035
 19.470    569.000    557.653     11.347    556.818    557.431    556.818    557.039    556.818
 19.570    574.434    557.441     16.992    556.598    557.218    556.598    556.821    556.598
 19.670    524.038    557.231    -33.193    556.375    557.006    556.375    556.600    556.375
 19.770    522.000    557.019    -35.019    556.149    556.792    556.149    556.376    556.149
 19.870    514.000    556.820    -42.820    555.920    556.591    555.920    556.149    555.920
 19.970    537.517    556.650    -19.133    555.689    556.419    555.689    555.920    555.689
 20.070    531.000    556.432    -25.432    555.455    556.200    555.455    555.687    555.455
 20.170    521.000    556.208    -35.208    555.218    555.973    555.218    555.453    555.218
 20.270    539.000    555.981    -16.981    554.978    555.745    554.978    555.215    554.978
 20.370    618.000    555.756     62.244    554.736    555.517    554.736    554.975    554.736
 20.470    576.601    555.527     21.074    554.491    555.286    554.491    554.733    554.491
 20.570    562.000    555.295      6.705    554.244    555.052    554.244    554.488    554.244
 20.670    600.403    555.061     45.341    553.994    554.816    553.994    554.240    553.994
 20.770    539.354    554.831    -15.477    553.742    554.583    553.742    553.990    553.742
 20.870    580.268    554.640     25.628    553.488    554.390    553.488    553.738    553.488
 20.970    534.191    554.407    -20.217    553.231    554.154    553.231    553.484    553.231
 21.070    583.000    554.169     28.831    552.971    553.913    552.971    553.227    552.971
 21.170    547.000    553.929     -6.929    552.710    553.671    552.710    552.968    552.710
 21.270    558.000    553.688      4.312    552.446    553.427    552.446    552.707    552.446
 21.370    530.000    553.447    -23.447    552.180    553.183    552.180    552.444    552.180
 21.470    525.000    553.205    -28.205    551.912    552.939    551.912    552.179    551.912
 21.570    539.000    552.963    -13.963    551.642    552.693    551.642    551.912    551.642
 21.670    541.000    552.721    -11.721    551.370    552.448    551.370    551.642    551.370
 21.770    523.000    552.479    -29.479    551.095    552.203    551.095    551.371    551.095
 21.870    510.000    552.240    -42.240    550.819    551.961    550.819    551.098    550.819
 21.970    552.000    552.008     -0.008    550.541    551.726    550.541    550.823    550.541
 22.070    511.848    551.770    -39.923    550.260    551.485    550.260    550.546    550.260
 22.170    571.000    551.544     19.456    549.978    551.255    549.978    550.268    549.978
 22.270    560.000    551.311      8.689    549.694    551.018    549.694    549.987    549.694
 22.370    516.000    551.078    -35.078    549.409    550.782    549.409    549.705    549.409
 22.470    533.226    550.849    -17.623    549.121    550.549    549.121    549.422    549.121
 22.570    593.324    550.625     42.699    548.832    550.320    548.832    549.137    548.832
 22.670    540.000    550.413    -10.413    548.541    550.104    548.541    548.850    548.541
 22.770    540.505    550.249     -9.744    548.248    549.936    548.248    548.561    548.248
 22.870    506.698    550.073    -43.375    547.954    549.756    547.954    548.272    547.954
 22.970    538.000    549.887    -11.887    547.658    549.565    547.658    547.980    547.658
 23.070    550.000    549.709      0.291    547.361    549.382    547.361    547.688    547.361
 23.170    563.000    549.546     13.454    547.062    549.215    547.062    547.394    547.062
 23.270    545.000    549.406     -4.406    546.761    549.070    546.761    547.099    546.761
 23.370    535.000    549.307    -14.307    546.459    548.966    546.459    546.802    546.459
 23.470    575.533    549.277     26.256    546.156    548.929    546.156    546.504    546.156
 23.570    541.000    549.258     -8.258    545.851    548.905    545.851    546.206    545.851
 23.670    593.000    549.289     43.711    545.545    548.930    545.545    545.906    545.545
 23.770    569.562    549.405     20.157    545.238    549.040    545.238    545.605    545.238
 23.870    505.022    549.643    -44.621    544.929    549.272    544.929    545.303    544.929
 23.970    549.000    550.073     -1.073    544.619    549.695    544.619    545.000    544.619
 24.070    521.000    550.870    -29.870    544.308    550.485    544.308    544.696    544.308
 24.170    557.000    552.375      4.625    543.996    551.984    543.996    544.391    543.996
 24.270    573.000    555.387     17.613    543.683    554.990    543.683    544.086    543.683
 24.370    598.000    561.464     36.536    543.368    561.063    543.368    543.780    543.368
 24.470    605.785    572.594     33.191    543.052    572.193    543.052    543.473    543.052
 24.570    617.922    589.941     27.981    542.736    589.543    542.736    543.166    542.736
 24.670    624.000    611.337     12.663    542.418    610.946    542.418    542.858    542.418
 24.770    572.000    628.915    -56.915    542.100    628.526    542.100    542.549    542.100
 24.870    640.773    631.890      8.884    541.780    631.493    541.780    542.240    541.780
 24.970    661.489    617.624     43.865    541.459    617.206    541.459    541.931    541.459
 25.070    552.445    595.627    -43.182    541.138    595.181    541.138    541.622    541.138
 25.170    569.000    575.853     -6.853    540.816    575.380    540.816    541.312    540.816
 25.270    575.453    562.178     13.275    540.493    561.682    540.493    541.003    540.493
 25.370    564.503    554.180     10.323    540.169    553.664    540.169    540.693    540.169
 25.470    526.000    549.906    -23.906    539.844    549.371    539.844    540.384    539.844
 25.570    509.994    547.584    -37.589    539.519    547.031    539.519    540.075    539.519
 25.670    571.000    546.170     24.830    539.193    545.599    539.193    539.766    539.193
 25.770    545.000    545.185     -0.185    538.866    544.595    538.866    539.458    538.866
 25.870    528.882    544.432    -15.551    538.539    543.822    538.539    539.151    538.539
 25.970    545.000    543.833      1.167    538.210    543.201    538.210    538.844    538.210
 26.070    517.246    543.343    -26.098    537.882    542.688    537.882    538.538    537.882
 26.170    592.000    542.942     49.058    537.553    542.262    537.553    538.233    537.553
 26.270    590.000    542.615     47.385    537.223    541.908    537.223    537.930    537.223
 26.370    523.747    542.352    -18.605    536.893    541.616    536.893    537.629    536.893
 26.470    540.000    542.151     -2.151    536.562    541.385    536.562    537.329    536.562
 26.570    568.141    542.013     26.129    536.231    541.213    536.231    537.031    536.231
 26.670    568.000    541.941     26.059    535.900    541.104    535.900    536.736    535.900
 26.770    521.000    541.944    -20.944    535.568    541.067    535.568    536.444    535.568
 26.870    593.000    542.033     50.967    535.235    541.113    535.235    536.156    535.235
 26.970    526.000    542.227    -16.227    534.903    541.259    534.903    535.871    534.903
 27.070    598.000    542.553     55.447    534.570    541.532    534.570    535.590    534.570
 27.170    571.000    543.048     27.952    534.237    541.970    534.237    535.315    534.237
 27.270    581.000    543.770     37.230    533.903    542.627    533.903    535.046    533.903
 27.370    575.476    544.807     30.668    533.570    543.593    533.570    534.783    533.570
 27.470    547.000    546.322      0.678    533.236    545.027    533.236    534.529    533.236
 27.570    568.000    548.739     19.261    532.902    547.354    532.902    534.284    532.902
 27.670    530.594    553.452    -22.857    532.567    551.966    532.567    534.050    532.567
 27.770    581.000    564.745     16.255    532.233    563.143    532.233    533.828    532.233
 27.870    599.000    592.581      6.419    531.899    590.841    531.899    533.622    531.899
 27.970    647.000    651.648     -4.648    531.564    649.744    531.564    533.433    531.564
 28.070    768.856    748.935     19.921    531.230    746.839    531.230    533.263    531.230
 28.170    900.123    862.022     38.101    530.895    859.714    530.895    533.117    530.895
 28.270    945.000    931.820     13.180    530.561    929.298    530.561    532.998    530.561
 28.370    903.000    909.277     -6.277    530.226    906.537    530.226    532.909    530.226
 28.470    877.438    821.110     56.328    529.892    818.121    529.892    532.855    529.892
 28.570    691.204    736.977    -45.773    529.557    733.684    529.557    532.840    529.557
 28.670    692.000    705.145    -13.145    529.223    701.490    529.223    532.868    529.223
 28.770    733.000    731.628      1.372    528.889    727.559    528.889    532.941    528.889
 28.870    792.000    787.460      4.540    528.555    782.935    528.555    533.062    528.555
 28.970    778.576    822.974    -44.398    528.221    817.956    528.221    533.229    528.221
 29.070    770.760    801.210    -30.450    527.887    795.668    527.887    533.434    527.887
 29.170    750.085    734.919     15.166    527.554    728.824    527.554    533.664    527.554
 29.270    659.000    661.946     -2.946    527.221    655.286    527.221    533.895    527.221
 29.370    589.000    607.218    -18.218    526.888    600.024    526.888    534.092    526.888
 29.470    609.000    575.251     33.749    526.555    567.599    526.555    534.213    526.555
 29.570    535.400    559.501    -24.101    526.223    551.515    526.223    534.211    526.223
 29.670    565.000    552.165     12.835    525.891    544.010    525.891    534.047    525.891
 29.770    592.000    548.344     43.656    525.559    540.205    525.559    533.699    525.559
 29.870    515.634    545.868    -30.233    525.228    537.925    525.228    533.170    525.228
 29.970    593.000    543.977     49.023    524.897    536.388    524.897    532.486    524.897
 30.070    563.000    542.457     20.543    524.566    535.335    524.566    531.688    524.566
 30.170    529.232    541.296    -12.064    524.236    534.709    524.236    530.821    524.236
 30.270    543.000    540.640      2.360    523.907    534.615    523.907    529.929    523.907
 30.370    568.000    540.930     27.070    523.577    535.461    523.577    529.043    523.577
