neutron_powder_diffraction_0189
R_wp: 3.935
Temperature (K): 1074.000
Counts: 83615.00
Wavelength (Ã…): 2.52098
COMMENTS
Test file for demonstrating the .xyy file format in Reel1.0
END OF HEADER
   tth       Y_obs     Y_calc      Y_res    Background    Phase_1_Nuc    Phase_1_Mag    Phase_2_Nuc    Phase_2_Mag
  9.970    619.000    576.832     42.168    576.224    576.775    576.224    576.281    576.224
 10.070    588.000    576.868     11.132    576.211    576.811    576.211    576.269    576.211
 10.170    600.000    576.907     23.093    576.194    576.849    576.194    576.251    576.194
 10.270    595.224    576.949     18.274    576.171    576.891    576.171    576.229    576.171
 10.370    588.000    576.999     11.001    576.145    576.941    576.145    576.203    576.145
 10.470    602.000    577.072     24.928    576.113    577.014    576.113    576.172    576.113
 10.570    584.746    577.144      7.601    576.078    577.085    576.078    576.136    576.078
 10.670    611.000    577.229     33.771    576.037    577.169    576.037    576.096    576.037
 10.770    574.000    577.334     -3.334    575.993    577.274    575.993    576.052    575.993
 10.870    573.000    577.469     -4.469    575.944    577.409    575.944    576.003    575.944
 10.970    582.000    577.644      4.356    575.890    577.583    575.890    575.950    575.890
 11.070    635.000    577.873     57.127    575.833    577.812    575.833    575.892    575.833
 11.170    574.000    578.181     -4.181    575.771    578.119    575.771    575.831    575.771
 11.270    581.000    578.600      2.400    575.705    578.538    575.705    575.765    575.705
 11.370    590.000    579.189     10.811    575.635    579.126    575.635    575.695    575.635
 11.470    578.000    580.072     -2.072    575.560    580.009    575.560    575.621    575.560
 11.570    589.574    581.608      7.967    575.482    581.543    575.482    575.543    575.482
 11.670    628.000    584.885     43.115    575.400    584.819    575.400    575.461    575.400
 11.770    599.216    592.660      6.557    575.313    592.588    575.313    575.375    575.313
 11.870    600.996    609.744     -8.748    575.223    609.662    575.223    575.285    575.223
 11.970    659.000    640.315     18.685    575.129    640.215    575.129    575.192    575.129
 12.070    666.000    680.746    -14.746    575.031    680.622    575.031    575.095    575.031
 12.170    672.513    712.954    -40.441    574.929    712.811    574.929    574.994    574.929
 12.270    682.000    713.910    -31.910    574.824    713.766    574.824    574.889    574.824
 12.370    683.000    682.638      0.362    574.715    682.511    574.715    574.780    574.715
 12.470    622.453    641.771    -19.317    574.602    641.667    574.602    574.667    574.602
 12.570    586.015    610.234    -24.218    574.485    610.148    574.485    574.551    574.485
 12.670    612.000    592.308     19.692    574.365    592.232    574.365    574.431    574.365
 12.770    590.000    583.989      6.011    574.242    583.917    574.242    574.308    574.242
 12.870    620.754    580.369     40.386    574.114    580.298    574.114    574.181    574.114
 12.970    599.618    578.578     21.040    573.984    578.508    573.984    574.051    573.984
 13.070    560.000    577.468    -17.468    573.850    577.399    573.850    573.917    573.850
 13.170    533.000    576.663    -43.663    573.712    576.594    573.712    573.780    573.712
 13.270    558.000    576.033    -18.033    573.572    575.963    573.572    573.640    573.572
 13.370    536.000    575.517    -39.517    573.428    575.448    573.428    573.496    573.428
 13.470    550.000    575.081    -25.081    573.280    575.012    573.280    573.349    573.280
 13.570    585.168    574.703     10.465    573.130    574.633    573.130    573.199    573.130
 13.670    589.000    574.366     14.634    572.976    574.296    572.976    573.045    572.976
 13.770    561.221    574.059    -12.839    572.819    573.989    572.819    572.889    572.819
 13.870    495.000    573.776    -78.776    572.659    573.705    572.659    572.729    572.659
 13.970    617.285    573.510     43.775    572.496    573.439    572.496    572.566    572.496
 14.070    548.000    573.258    -25.258    572.330    573.186    572.330    572.401    572.330
 14.170    597.000    573.015     23.985    572.161    572.944    572.161    572.232    572.161
 14.270    520.000    572.780    -52.780    571.989    572.709    571.989    572.060    571.989
 14.370    569.296    572.551     -3.255    571.814    572.479    571.814    571.886    571.814
 14.470    583.000    572.327     10.673    571.636    572.254    571.636    571.708    571.636
 14.570    536.000    572.105    -36.105    571.455    572.032    571.455    571.528    571.455
 14.670    577.000    571.886      5.114    571.272    571.813    571.272    571.345    571.272
 14.770    564.000    571.669     -7.669    571.085    571.595    571.085    571.159    571.085
 14.870    589.539    571.452     18.087    570.896    571.378    570.896    570.970    570.896
 14.970    569.000    571.236     -2.236    570.705    571.161    570.705    570.779    570.705
 15.070    575.000    571.020      3.980    570.510    570.945    570.510    570.586    570.510
 15.170    551.000    570.808    -19.808    570.314    570.729    570.314    570.393    570.314
 15.270    606.000    570.596     35.404    570.114    570.514    570.114    570.196    570.114
 15.370    543.000    570.380    -27.380    569.912    570.298    569.912    569.994    569.912
 15.470    575.000    570.162      4.838    569.707    570.079    569.707    569.790    569.707
 15.570    609.000    569.943     39.057    569.500    569.859    569.500    569.584    569.500
 15.670    573.000    569.722      3.278    569.291    569.639    569.291    569.374    569.291
 15.770    529.608    569.501    -39.893    569.079    569.416    569.079    569.163    569.079
 15.870    562.802    569.278     -6.476    568.864    569.193    568.864    568.949    568.864
 15.970    597.000    569.053     27.947    568.648    568.968    568.648    568.733    568.648
 16.070    580.000    568.828     11.172    568.429    568.742    568.429    568.515    568.429
 16.170    572.653    568.603      4.051    568.208    568.516    568.208    568.294    568.208
 16.270    538.000    568.374    -30.374    567.984    568.287    567.984    568.071    567.984
 16.370    600.788    568.143     32.644    567.758    568.056    567.758    567.846    567.758
 16.470    561.000    567.911     -6.911    567.531    567.823    567.531    567.618    567.531
 16.570    547.000    567.678    -20.678    567.301    567.589    567.301    567.389    567.301
 16.670    572.908    567.442      5.465    567.069    567.353    567.069    567.158    567.069
 16.770    554.000    567.205    -13.205    566.835    567.116    566.835    566.924    566.835
 16.870    562.000    566.967     -4.967    566.598    566.877    566.598    566.688    566.598
 16.970    614.000    566.727     47.273    566.360    566.636    566.360    566.451    566.360
 17.070    513.000    566.485    -53.485    566.120    566.394    566.120    566.211    566.120
 17.170    576.000    566.242      9.758    565.878    566.150    565.878    565.970    565.878
 17.270    523.000    565.998    -42.998    565.634    565.905    565.634    565.726    565.634
 17.370    547.218    565.751    -18.534    565.388    565.658    565.388    565.481    565.388
 17.470    578.000    565.504     12.496    565.141    565.410    565.141    565.234    565.141
 17.570    526.824    565.255    -38.431    564.891    565.160    564.891    564.985    564.891
 17.670    569.714    565.004      4.710    564.640    564.909    564.640    564.735    564.640
 17.770    544.406    564.752    -20.345    564.387    564.656    564.387    564.482    564.387
 17.870    565.000    564.498      0.502    564.132    564.402    564.132    564.228    564.132
 17.970    589.165    564.245     24.920    563.876    564.148    563.876    563.973    563.876
 18.070    586.458    563.989     22.468    563.618    563.892    563.618    563.715    563.618
 18.170    523.000    563.732    -40.732    563.358    563.633    563.358    563.456    563.358
 18.270    562.000    563.472     -1.472    563.097    563.374    563.097    563.196    563.097
 18.370    576.000    563.213     12.787    562.834    563.113    562.834    562.934    562.834
 18.470    538.151    562.951    -24.801    562.570    562.851    562.570    562.670    562.570
 18.570    558.000    562.688     -4.688    562.304    562.587    562.304    562.405    562.304
 18.670    583.000    562.424     20.576    562.037    562.322    562.037    562.139    562.037
 18.770    573.000    562.159     10.841    561.768    562.056    561.768    561.871    561.768
 18.870    526.000    561.892    -35.892    561.498    561.789    561.498    561.601    561.498
 18.970    555.000    561.625     -6.625    561.227    561.521    561.227    561.331    561.227
 19.070    551.000    561.356    -10.356    560.954    561.251    560.954    561.059    560.954
 19.170    577.291    561.086     16.204    560.680    560.981    560.680    560.785    560.680
 19.270    565.000    560.816      4.184    560.404    560.709    560.404    560.511    560.404
 19.370    574.000    560.544     13.456    560.127    560.437    560.127    560.235    560.127
 19.470    545.000    560.272    -15.272    559.849    560.164    559.849    559.958    559.849
 19.570    540.761    559.999    -19.238    559.570    559.890    559.570    559.679    559.570
 19.670    627.000    559.726     67.274    559.290    559.616    559.290    559.400    559.290
 19.770    519.702    559.451    -39.749    559.008    559.340    559.008    559.119    559.008
 19.870    573.000    559.175     13.825    558.726    559.063    558.726    558.838    558.726
 19.970    517.152    558.901    -41.749    558.442    558.786    558.442    558.557    558.442
 20.070    520.000    558.624    -38.624    558.157    558.507    558.157    558.274    558.157
 20.170    560.963    558.347      2.616    557.872    558.228    557.872    557.990    557.872
 20.270    519.000    558.068    -39.068    557.585    557.949    557.585    557.704    557.585
 20.370    548.000    557.789     -9.789    557.297    557.669    557.297    557.417    557.297
 20.470    516.924    557.511    -40.587    557.008    557.390    557.008    557.130    557.008
 20.570    553.000    557.244     -4.244    556.719    557.122    556.719    556.841    556.719
 20.670    562.000    556.974      5.026    556.428    556.850    556.428    556.552    556.428
 20.770    565.858    556.694      9.163    556.137    556.570    556.137    556.261    556.137
 20.870    517.000    556.414    -39.414    555.844    556.288    555.844    555.970    555.844
 20.970    585.796    556.142     29.654    555.551    556.015    555.551    555.678    555.551
 21.070    549.000    555.946     -6.946    555.257    555.818    555.257    555.386    555.257
 21.170    574.000    555.688     18.312    554.962    555.558    554.962    555.092    554.962
 21.270    560.000    555.409      4.591    554.667    555.278    554.667    554.798    554.667
 21.370    518.000    555.130    -37.130    554.371    554.997    554.371    554.503    554.371
 21.470    556.287    554.850      1.437    554.074    554.716    554.074    554.208    554.074
 21.570    537.000    554.572    -17.572    553.776    554.436    553.776    553.912    553.776
 21.670    523.427    554.294    -30.866    553.478    554.156    553.478    553.615    553.478
 21.770    530.000    554.016    -24.016    553.179    553.878    553.179    553.318    553.179
 21.870    600.000    553.741     46.259    552.880    553.600    552.880    553.020    552.880
 21.970    598.009    553.468     44.541    552.580    553.326    552.580    552.722    552.580
 22.070    542.000    553.216    -11.216    552.279    553.072    552.279    552.423    552.279
 22.170    536.063    552.972    -16.910    551.978    552.827    551.978    552.124    551.978
 22.270    562.539    552.707      9.833    551.676    552.559    551.676    551.824    551.676
 22.370    577.217    552.441     24.776    551.374    552.291    551.374    551.524    551.374
 22.470    512.729    552.178    -39.449    551.072    552.027    551.072    551.223    551.072
 22.570    509.000    551.920    -42.920    550.769    551.766    550.769    550.922    550.769
 22.670    542.000    551.666     -9.666    550.465    551.510    550.465    550.621    550.465
 22.770    526.000    551.417    -25.417    550.162    551.260    550.162    550.319    550.162
 22.870    573.000    551.182     21.818    549.857    551.022    549.857    550.018    549.857
 22.970    561.000    550.996     10.004    549.553    550.833    549.553    549.715    549.553
 23.070    530.000    550.790    -20.790    549.248    550.626    549.248    549.413    549.248
 23.170    559.943    550.581      9.361    548.943    550.414    548.943    549.111    548.943
 23.270    581.000    550.387     30.613    548.638    550.217    548.638    548.808    548.638
 23.370    590.000    550.212     39.788    548.332    550.040    548.332    548.505    548.332
 23.470    549.000    550.064     -1.064    548.026    549.888    548.026    548.202    548.026
 23.570    528.000    549.949    -21.949    547.720    549.771    547.720    547.899    547.720
 23.670    567.000    549.882     17.118    547.414    549.701    547.414    547.596    547.414
 23.770    551.000    549.880      1.120    547.107    549.695    547.107    547.293    547.107
 23.870    579.289    549.965     29.324    546.801    549.778    546.801    546.990    546.801
 23.970    504.000    550.189    -46.189    546.494    549.999    546.494    546.687    546.494
 24.070    585.000    550.669     34.331    546.187    550.475    546.187    546.384    546.187
 24.170    570.000    551.743     18.257    545.881    551.546    545.881    546.081    545.881
 24.270    531.697    554.373    -22.676    545.574    554.174    545.574    545.778    545.574
 24.370    560.000    560.676     -0.676    545.267    560.477    545.267    545.475    545.267
 24.470    600.374    573.736     26.638    544.960    573.542    544.960    545.173    544.960
 24.570    560.000    595.238    -35.238    544.653    595.055    544.653    544.871    544.653
 24.670    643.120    620.986     22.135    544.346    620.816    544.346    544.569    544.346
 24.770    634.000    638.122     -4.122    544.039    637.959    544.039    544.267    544.039
 24.870    599.180    633.921    -34.741    543.732    633.750    543.732    543.966    543.732
 24.970    552.000    611.840    -59.840    543.425    611.647    543.425    543.665    543.425
 25.070    619.000    586.173     32.827    543.118    585.956    543.118    543.365    543.118
 25.170    550.101    566.911    -16.810    542.812    566.674    542.812    543.065    542.812
 25.270    566.242    555.829     10.413    542.505    555.577    542.505    542.766    542.505
 25.370    562.000    550.455     11.545    542.199    550.191    542.199    542.467    542.199
 25.470    559.000    547.964     11.036    541.893    547.690    541.893    542.169    541.893
 25.570    558.000    546.637     11.363    541.587    546.354    541.587    541.872    541.587
 25.670    599.000    545.762     53.238    541.281    545.469    541.281    541.576    541.281
 25.770    541.000    545.105     -4.105    540.976    544.801    540.976    541.281    540.976
 25.870    548.000    544.579      3.421    540.671    544.265    540.671    540.986    540.671
 25.970    591.000    544.143     46.857    540.366    543.817    540.366    540.693    540.366
 26.070    565.000    543.780     21.220    540.061    543.441    540.061    540.401    540.061
 26.170    524.866    543.475    -18.609    539.757    543.122    539.757    540.110    539.757
 26.270    562.000    543.219     18.781    539.453    542.851    539.453    539.821    539.453
 26.370    578.225    543.010     35.215    539.149    542.626    539.149    539.533    539.149
 26.470    548.000    542.849      5.151    538.845    542.447    538.845    539.247    538.845
 26.570    486.000    542.737    -56.737    538.542    542.316    538.542    538.963    538.542
 26.670    574.900    542.679     32.221    538.240    542.237    538.240    538.682    538.240
 26.770    588.749    542.688     46.061    537.938    542.222    537.938    538.403    537.938
 26.870    553.000    542.795     10.205    537.636    542.304    537.636    538.126    537.636
 26.970    534.969    542.992     -8.023    537.335    542.473    537.335    537.853    537.335
 27.070    557.000    543.287     13.713    537.034    542.736    537.034    537.584    537.034
 27.170    510.872    543.735    -32.862    536.733    543.149    536.733    537.318    536.733
 27.270    571.000    544.395     26.605    536.433    543.769    536.433    537.058    536.433
 27.370    510.765    545.357    -34.592    536.134    544.687    536.134    536.803    536.134
 27.470    542.000    546.770     -4.770    535.835    546.049    535.835    536.554    535.835
 27.570    533.437    549.021    -15.585    535.537    548.243    535.537    536.312    535.537
 27.670    580.000    553.549     26.451    535.239    552.705    535.239    536.080    535.239
 27.770    597.000    565.102     31.898    534.942    564.178    534.942    535.858    534.942
 27.870    593.000    595.464     -2.464    534.645    594.442    534.645    535.648    534.645
 27.970    666.000    662.698      3.302    534.349    661.551    534.349    535.454    534.349
 28.070    809.401    774.352     35.049    534.053    773.052    534.053    535.278    534.053
 28.170    863.000    898.664    -35.664    533.759    897.192    533.759    535.126    533.759
 28.270    966.000    959.829      6.171    533.464    958.186    533.464    535.004    533.464
 28.370    891.000    907.991    -16.991    533.171    906.176    533.171    534.919    533.171
 28.470    755.000    796.241    -41.241    532.878    794.203    532.878    534.886    532.878
 28.570    764.000    709.641     54.359    532.586    707.287    532.586    534.926    532.586
 28.670    716.000    692.559     23.441    532.294    689.763    532.294    535.072    532.294
 28.770    750.000    740.497      9.503    532.004    737.094    532.004    535.384    532.004
 28.870    800.668    812.326    -11.657    531.714    808.069    531.714    535.954    531.714
 28.970    836.000    846.300    -10.300    531.424    840.806    531.424    536.916    531.424
 29.070    799.000    805.939     -6.939    531.136    798.638    531.136    538.446    531.136
 29.170    719.000    723.203     -4.203    530.848    713.333    530.848    540.728    530.848
 29.270    647.000    647.510     -0.510    530.561    634.179    530.561    543.898    530.561
 29.370    579.083    601.044    -21.960    530.275    583.395    530.275    547.927    530.275
 29.470    627.284    580.629     46.654    529.990    558.218    529.990    552.401    529.990
 29.570    587.000    574.024     12.976    529.705    547.490    529.705    556.238    529.705
 29.670    622.000    571.202     50.798    529.421    542.799    529.421    557.824    529.421
 29.770    580.000    567.343     12.657    529.138    540.285    529.138    556.196    529.138
 29.870    540.834    561.867    -21.033    528.857    538.640    528.857    552.082    528.857
 29.970    528.000    555.975    -27.975    528.575    537.475    528.575    547.075    528.575
 30.070    548.861    550.735     -1.875    528.295    536.663    528.295    542.366    528.295
 30.170    509.898    546.634    -36.736    528.016    536.178    528.016    538.470    528.016
 30.270    526.000    543.853    -17.853    527.737    536.118    527.737    535.471    527.737
 30.370    580.000    542.698     37.302    527.460    536.902    527.460    533.253    527.460
