neutron_powder_diffraction_0161
R_wp: 4.036
Temperature (K): 1074.000
Counts: 84034.00
Wavelength (Ã…): 2.52098
COMMENTS
Test file for demonstrating the .xyy file format in Reel1.0
END OF HEADER
   tth       Y_obs     Y_calc      Y_res    Background    Phase_1_Nuc    Phase_1_Mag    Phase_2_Nuc    Phase_2_Mag
  9.970    575.000    561.863     13.137    561.101    561.789    561.101    561.174    561.101
 10.070    570.000    562.168      7.832    561.346    562.094    561.346    561.420    561.346
 10.170    597.528    562.474     35.054    561.584    562.400    561.584    561.657    561.584
 10.270    556.000    562.783     -6.783    561.814    562.709    561.814    561.888    561.814
 10.370    588.429    563.098     25.330    562.037    563.023    562.037    562.111    562.037
 10.470    559.000    563.421     -4.421    562.252    563.346    562.252    562.327    562.252
 10.570    570.855    563.756      7.098    562.460    563.681    562.460    562.535    562.460
 10.670    543.000    564.109    -21.109    562.661    564.033    562.661    562.737    562.661
 10.770    604.013    564.486     39.527    562.855    564.410    562.855    562.931    562.855
 10.870    524.852    564.898    -40.046    563.042    564.821    563.042    563.118    563.042
 10.970    533.354    565.355    -32.001    563.221    565.278    563.221    563.298    563.221
 11.070    622.000    565.877     56.123    563.394    565.799    563.394    563.471    563.394
 11.170    606.638    566.491     40.147    563.560    566.412    563.560    563.637    563.560
 11.270    570.000    567.238      2.762    563.719    567.159    563.719    563.796    563.719
 11.370    597.150    568.192     28.958    563.871    568.112    563.871    563.948    563.871
 11.470    530.317    569.511    -39.194    564.016    569.430    564.016    564.094    564.016
 11.570    618.960    571.634     47.326    564.155    571.551    564.155    564.233    564.155
 11.670    535.708    575.764    -40.057    564.287    575.679    564.287    564.366    564.287
 11.770    602.000    584.605     17.395    564.413    584.515    564.413    564.492    564.413
 11.870    634.000    602.363     31.637    564.532    602.262    564.532    564.611    564.532
 11.970    678.000    632.131     45.869    564.645    632.013    564.645    564.724    564.645
 12.070    664.000    669.976     -5.976    564.751    669.836    564.751    564.831    564.751
 12.170    676.000    699.596    -23.596    564.851    699.439    564.851    564.931    564.851
 12.270    691.000    700.651     -9.651    564.945    700.493    564.945    565.026    564.945
 12.370    700.525    672.282     28.243    565.032    672.140    565.032    565.114    565.032
 12.470    617.288    634.474    -17.186    565.114    634.353    565.114    565.195    565.114
 12.570    604.086    604.245     -0.160    565.189    604.141    565.189    565.271    565.189
 12.670    606.000    586.092     19.908    565.259    585.998    565.259    565.341    565.259
 12.770    604.000    577.100     26.900    565.322    577.011    565.322    565.405    565.322
 12.870    610.892    573.009     37.883    565.380    572.922    565.380    565.463    565.380
 12.970    595.000    571.020     23.980    565.432    570.934    565.432    565.515    565.432
 13.070    533.000    569.870    -36.870    565.478    569.784    565.478    565.562    565.478
 13.170    586.882    569.098     17.783    565.518    569.012    565.518    565.602    565.518
 13.270    585.000    568.539     16.461    565.553    568.452    565.553    565.637    565.553
 13.370    550.612    568.116    -17.505    565.582    568.030    565.582    565.667    565.582
 13.470    553.789    567.789    -14.000    565.605    567.703    565.605    565.691    565.605
 13.570    541.000    567.530    -26.530    565.623    567.443    565.623    565.709    565.623
 13.670    552.937    567.319    -14.382    565.636    567.232    565.636    565.722    565.636
 13.770    559.000    567.144     -8.144    565.643    567.056    565.643    565.730    565.643
 13.870    547.000    566.995    -19.995    565.645    566.908    565.645    565.732    565.645
 13.970    569.000    566.866      2.134    565.641    566.778    565.641    565.729    565.641
 14.070    570.000    566.752      3.248    565.633    566.664    565.633    565.721    565.633
 14.170    548.000    566.649    -18.649    565.619    566.560    565.619    565.708    565.619
 14.270    554.000    566.553    -12.553    565.600    566.464    565.600    565.689    565.600
 14.370    539.000    566.463    -27.463    565.576    566.373    565.576    565.666    565.576
 14.470    586.000    566.380     19.620    565.547    566.290    565.547    565.637    565.547
 14.570    558.000    566.298     -8.298    565.514    566.207    565.514    565.604    565.514
 14.670    556.000    566.215    -10.215    565.475    566.124    565.475    565.566    565.475
 14.770    520.000    566.133    -46.133    565.431    566.042    565.431    565.522    565.431
 14.870    588.866    566.051     22.815    565.383    565.959    565.383    565.475    565.383
 14.970    535.000    565.968    -30.968    565.330    565.875    565.330    565.422    565.330
 15.070    610.299    565.883     44.416    565.272    565.790    565.272    565.365    565.272
 15.170    529.701    565.797    -36.096    565.209    565.703    565.209    565.303    565.209
 15.270    548.000    565.709    -17.709    565.142    565.615    565.142    565.236    565.142
 15.370    588.626    565.620     23.005    565.071    565.524    565.071    565.167    565.071
 15.470    572.000    565.528      6.472    564.995    565.430    564.995    565.093    564.995
 15.570    529.220    565.432    -36.212    564.914    565.334    564.914    565.013    564.914
 15.670    565.000    565.334     -0.334    564.830    565.235    564.830    564.928    564.830
 15.770    549.382    565.233    -15.852    564.740    565.134    564.740    564.840    564.740
 15.870    572.616    565.131      7.486    564.647    565.031    564.647    564.747    564.647
 15.970    592.634    565.024     27.611    564.549    564.923    564.549    564.650    564.549
 16.070    548.000    564.913    -16.913    564.448    564.812    564.448    564.549    564.448
 16.170    583.057    564.799     18.258    564.342    564.697    564.342    564.443    564.342
 16.270    589.213    564.682     24.530    564.232    564.580    564.232    564.334    564.232
 16.370    599.094    564.562     34.532    564.118    564.459    564.118    564.221    564.118
 16.470    576.000    564.438     11.562    564.000    564.335    564.000    564.103    564.000
 16.570    588.000    564.312     23.688    563.878    564.207    563.878    563.982    563.878
 16.670    511.000    564.181    -53.181    563.752    564.077    563.752    563.857    563.752
 16.770    542.000    564.048    -22.048    563.622    563.943    563.622    563.728    563.622
 16.870    560.000    563.911     -3.911    563.489    563.805    563.489    563.595    563.489
 16.970    543.000    563.772    -20.772    563.352    563.665    563.352    563.458    563.352
 17.070    548.000    563.628    -15.628    563.211    563.521    563.211    563.318    563.211
 17.170    570.196    563.482      6.713    563.066    563.374    563.066    563.174    563.066
 17.270    538.000    563.335    -25.335    562.918    563.226    562.918    563.027    562.918
 17.370    581.000    563.183     17.817    562.767    563.073    562.767    562.876    562.767
 17.470    566.000    563.027      2.973    562.611    562.917    562.611    562.722    562.611
 17.570    550.000    562.868    -12.868    562.453    562.757    562.453    562.564    562.453
 17.670    543.979    562.706    -18.728    562.291    562.595    562.291    562.402    562.291
 17.770    587.000    562.542     24.458    562.125    562.429    562.125    562.238    562.125
 17.870    535.360    562.374    -27.014    561.957    562.261    561.957    562.070    561.957
 17.970    525.219    562.203    -36.984    561.785    562.089    561.785    561.899    561.785
 18.070    543.000    562.030    -19.030    561.609    561.915    561.609    561.724    561.609
 18.170    548.226    561.853    -13.627    561.431    561.738    561.431    561.546    561.431
 18.270    523.281    561.674    -38.392    561.249    561.557    561.249    561.366    561.249
 18.370    607.000    561.491     45.509    561.065    561.374    561.065    561.182    561.065
 18.470    556.000    561.306     -5.306    560.877    561.188    560.877    560.995    560.877
 18.570    562.766    561.118      1.648    560.686    560.999    560.686    560.805    560.686
 18.670    602.845    560.928     41.917    560.492    560.808    560.492    560.612    560.492
 18.770    603.000    560.734     42.266    560.296    560.614    560.296    560.416    560.296
 18.870    553.000    560.539     -7.539    560.096    560.417    560.096    560.218    560.096
 18.970    554.000    560.341     -6.341    559.894    560.219    559.894    560.016    559.894
 19.070    564.000    560.142      3.858    559.689    560.018    559.689    559.812    559.689
 19.170    536.845    559.939    -23.094    559.481    559.814    559.481    559.605    559.481
 19.270    542.290    559.733    -17.443    559.270    559.608    559.270    559.396    559.270
 19.370    554.000    559.525     -5.525    559.057    559.399    559.057    559.183    559.057
 19.470    590.000    559.315     30.685    558.841    559.187    558.841    558.968    558.841
 19.570    594.209    559.102     35.106    558.622    558.974    558.622    558.751    558.622
 19.670    536.000    558.888    -22.888    558.401    558.758    558.401    558.531    558.401
 19.770    543.000    558.672    -15.672    558.178    558.542    558.178    558.308    558.178
 19.870    571.953    558.467     13.486    557.952    558.335    557.952    558.083    557.952
 19.970    584.000    558.257     25.743    557.723    558.124    557.723    557.856    557.723
 20.070    592.000    558.035     33.965    557.492    557.901    557.492    557.626    557.492
 20.170    567.000    557.811      9.189    557.259    557.675    557.259    557.394    557.259
 20.270    569.386    557.584     11.802    557.023    557.448    557.023    557.160    557.023
 20.370    557.250    557.356     -0.106    556.785    557.219    556.785    556.923    556.785
 20.470    591.000    557.127     33.873    556.545    556.988    556.545    556.684    556.545
 20.570    531.301    556.895    -25.594    556.303    556.755    556.303    556.443    556.303
 20.670    543.692    556.663    -12.970    556.059    556.521    556.059    556.200    556.059
 20.770    555.582    556.437     -0.855    555.812    556.294    555.812    555.955    555.812
 20.870    511.617    556.285    -44.668    555.564    556.141    555.564    555.708    555.564
 20.970    520.944    556.070    -35.126    555.313    555.924    555.313    555.459    555.313
 21.070    535.115    555.834    -20.719    555.060    555.687    555.060    555.208    555.060
 21.170    537.000    555.595    -18.595    554.806    555.447    554.806    554.955    554.806
 21.270    538.508    555.356    -16.848    554.549    555.206    554.549    554.700    554.549
 21.370    546.851    555.116     -8.265    554.291    554.964    554.291    554.443    554.291
 21.470    590.211    554.875     35.336    554.030    554.722    554.030    554.184    554.030
 21.570    553.000    554.634     -1.634    553.768    554.479    553.768    553.924    553.768
 21.670    572.000    554.393     17.607    553.504    554.236    553.504    553.662    553.504
 21.770    562.000    554.152      7.848    553.239    553.993    553.239    553.398    553.239
 21.870    543.000    553.911    -10.911    552.971    553.750    552.971    553.132    552.971
 21.970    565.239    553.670     11.569    552.702    553.507    552.702    552.865    552.702
 22.070    590.446    553.432     37.013    552.432    553.267    552.432    552.597    552.432
 22.170    581.116    553.215     27.901    552.159    553.048    552.159    552.326    552.159
 22.270    534.000    553.009    -19.009    551.886    552.840    551.886    552.055    551.886
 22.370    588.887    552.825     36.062    551.610    552.654    551.610    551.782    551.610
 22.470    513.650    552.616    -38.967    551.333    552.443    551.333    551.507    551.333
 22.570    546.000    552.391     -6.391    551.055    552.215    551.055    551.231    551.055
 22.670    598.960    552.168     46.792    550.775    551.989    550.775    550.954    550.775
 22.770    507.260    551.950    -44.690    550.494    551.769    550.494    550.675    550.494
 22.870    528.000    551.740    -23.740    550.212    551.556    550.212    550.395    550.212
 22.970    534.000    551.538    -17.538    549.928    551.352    549.928    550.114    549.928
 23.070    502.000    551.347    -49.347    549.643    551.158    549.643    549.832    549.643
 23.170    541.000    551.171    -10.171    549.356    550.979    549.356    549.548    549.356
 23.270    518.269    551.014    -32.745    549.069    550.819    549.069    549.264    549.069
 23.370    560.000    550.878      9.122    548.780    550.680    548.780    548.978    548.780
 23.470    559.000    550.771      8.229    548.490    550.570    548.490    548.692    548.490
 23.570    557.000    550.703      6.297    548.199    550.498    548.199    548.404    548.199
 23.670    546.578    550.688     -4.110    547.907    550.480    547.907    548.115    547.907
 23.770    537.000    550.747    -13.747    547.613    550.536    547.613    547.826    547.613
 23.870    564.000    550.911     13.089    547.319    550.696    547.319    547.536    547.319
 23.970    553.000    551.240      1.760    547.024    551.021    547.024    547.244    547.024
 24.070    582.601    551.873     30.727    546.727    551.651    546.727    546.952    546.727
 24.170    594.849    553.199     41.650    546.430    552.973    546.430    546.660    546.430
 24.270    567.161    556.220     10.941    546.132    555.992    546.132    546.366    546.132
 24.370    584.872    562.964     21.908    545.833    562.736    545.833    546.072    545.833
 24.470    621.000    576.147     44.853    545.533    575.923    545.533    545.778    545.533
 24.570    618.250    596.998     21.252    545.232    596.783    545.232    545.483    545.232
 24.670    601.000    621.431    -20.431    544.931    621.228    544.931    545.187    544.931
 24.770    657.000    637.541     19.459    544.628    637.343    544.628    544.891    544.628
 24.870    644.000    633.613     10.387    544.325    633.407    544.325    544.594    544.325
 24.970    624.000    612.820     11.180    544.022    612.592    544.022    544.298    544.022
 25.070    637.667    588.324     49.343    543.717    588.072    543.717    544.001    543.717
 25.170    569.106    569.421     -0.316    543.412    569.147    543.412    543.703    543.412
 25.270    512.413    558.070    -45.657    543.107    557.780    543.107    543.406    543.107
 25.370    533.000    552.255    -19.255    542.801    551.952    542.801    543.109    542.801
 25.470    565.000    549.408     15.592    542.494    549.094    542.494    542.811    542.494
 25.570    529.378    547.865    -18.488    542.186    547.540    542.186    542.514    542.186
 25.670    564.000    546.863     17.137    541.879    546.526    541.879    542.217    541.879
 25.770    535.000    546.118    -11.118    541.570    545.769    541.570    541.920    541.570
 25.870    523.000    545.527    -22.527    541.262    545.166    541.262    541.624    541.262
 25.970    577.599    545.046     32.553    540.952    544.671    540.952    541.328    540.952
 26.070    586.000    544.667     41.333    540.643    544.277    540.643    541.033    540.643
 26.170    561.000    544.352     16.648    540.333    543.946    540.333    540.739    540.333
 26.270    553.000    544.074      8.926    540.023    543.651    540.023    540.446    540.023
 26.370    549.058    543.838      5.220    539.712    543.397    539.712    540.154    539.712
 26.470    546.000    543.651      2.349    539.401    543.190    539.401    539.863    539.401
 26.570    516.000    543.515    -27.515    539.090    543.032    539.090    539.574    539.090
 26.670    505.854    543.440    -37.586    538.779    542.933    538.779    539.286    538.779
 26.770    527.000    543.437    -16.437    538.467    542.903    538.467    539.001    538.467
 26.870    553.000    543.505      9.495    538.156    542.942    538.156    538.719    538.156
 26.970    582.000    543.676     38.324    537.844    543.081    537.844    538.439    537.844
 27.070    556.000    543.940     12.060    537.532    543.309    537.532    538.163    537.532
 27.170    581.809    544.353     37.456    537.219    543.681    537.219    537.890    537.219
 27.270    577.000    544.967     32.033    536.907    544.250    536.907    537.623    536.907
 27.370    511.000    545.865    -34.865    536.595    545.097    536.595    537.361    536.595
 27.470    555.000    547.192      7.808    536.283    546.368    536.283    537.106    536.283
 27.570    543.117    549.339     -6.222    535.970    548.449    535.970    536.858    535.970
 27.670    585.000    553.694     31.306    535.658    552.729    535.658    536.619    535.658
 27.770    601.000    565.020     35.980    535.346    563.966    535.346    536.392    535.346
 27.870    615.000    595.406     19.594    535.033    594.243    535.033    536.178    535.033
 27.970    676.000    663.653     12.347    534.721    662.352    534.721    535.980    534.721
 28.070    783.000    777.975      5.025    534.409    776.506    534.409    535.803    534.409
 28.170    859.900    905.693    -45.793    534.097    904.034    534.097    535.650    534.097
 28.270    972.000    968.545      3.455    533.786    966.696    533.786    535.531    533.786
 28.370    900.000    915.308    -15.308    533.474    913.261    533.474    535.454    533.474
 28.470    808.000    800.496      7.504    533.163    798.195    533.163    535.436    533.163
 28.570    718.523    711.695      6.828    532.852    709.034    532.852    535.499    532.852
 28.670    650.000    694.082    -44.082    532.541    690.925    532.541    535.681    532.541
 28.770    734.000    742.213     -8.213    532.230    738.389    532.230    536.032    532.230
 28.870    842.738    814.080     28.658    531.920    809.361    531.920    536.622    531.920
 28.970    901.634    847.988     53.646    531.610    842.060    531.610    537.537    531.610
 29.070    771.887    807.721    -35.835    531.300    800.158    531.300    538.872    531.300
 29.170    687.000    724.793    -37.793    530.990    715.082    530.990    540.712    530.990
 29.270    652.000    648.168      3.832    530.681    635.760    530.681    543.096    530.681
 29.370    584.523    600.082    -15.558    530.373    584.520    530.373    545.937    530.373
 29.470    625.000    577.742     47.258    530.065    558.908    530.065    548.899    530.065
 29.570    581.000    569.430     11.570    529.757    547.915    529.757    551.272    529.757
 29.670    603.000    565.789     37.211    529.450    543.100    529.450    552.138    529.450
 29.770    582.000    562.383     19.617    529.143    540.531    529.143    550.994    529.143
 29.870    567.000    558.240      8.760    528.836    538.860    528.836    548.215    528.836
 29.970    594.160    553.845     40.315    528.531    537.681    528.531    544.693    528.531
 30.070    580.645    549.832     30.814    528.225    536.865    528.225    541.191    528.225
 30.170    579.000    546.574     32.426    527.921    536.388    527.921    538.105    527.921
 30.270    492.000    544.305    -52.305    527.616    536.364    527.616    535.555    527.616
 30.370    586.000    543.454     42.546    527.313    537.241    527.313    533.522    527.313
