neutron_powder_diffraction_0067
R_wp: 4.482
Temperature (K): 730.130
Counts: 83645.00
Wavelength (Ã…): 2.52098
COMMENTS
Test file for demonstrating the .xyy file format in Reel1.0
END OF HEADER
   tth       Y_obs     Y_calc      Y_res    Background    Phase_1_Nuc    Phase_1_Mag    Phase_2_Nuc    Phase_2_Mag
  9.970    629.000    624.021      4.979    623.029    623.894    623.156    623.029    623.029
 10.070    657.000    624.601     32.399    623.542    624.473    623.670    623.542    623.542
 10.170    672.000    625.179     46.821    624.043    625.050    624.172    624.043    624.043
 10.270    573.411    625.757    -52.346    624.532    625.626    624.663    624.532    624.532
 10.370    682.034    626.342     55.693    625.010    626.209    625.142    625.010    625.010
 10.470    635.853    626.928      8.924    625.475    626.794    625.609    625.475    625.475
 10.570    668.000    627.521     40.479    625.930    627.385    626.064    625.930    625.930
 10.670    697.000    628.126     68.874    626.372    627.989    626.508    626.372    626.372
 10.770    662.000    628.753     33.247    626.803    628.614    626.941    626.803    626.803
 10.870    683.000    629.408     53.592    627.223    629.268    627.363    627.223    627.223
 10.970    681.000    630.105     50.895    627.632    629.963    627.773    627.632    627.632
 11.070    647.000    630.871     16.129    628.030    630.727    628.172    628.030    628.030
 11.170    684.000    631.816     52.184    628.416    631.670    628.560    628.416    628.416
 11.270    690.095    632.843     57.252    628.792    632.695    628.937    628.792    628.792
 11.370    707.000    633.985     73.015    629.156    633.835    629.304    629.156    629.156
 11.470    695.000    635.404     59.596    629.510    635.252    629.660    629.510    629.510
 11.570    654.709    637.354     17.355    629.854    637.199    630.005    629.854    629.854
 11.670    658.000    640.533     17.467    630.187    640.375    630.339    630.187    630.187
 11.770    724.000    646.772     77.228    630.509    646.609    630.663    630.509    630.509
 11.870    704.000    659.797     44.203    630.821    659.624    630.977    630.821    630.821
 11.970    729.000    684.542     44.458    631.122    684.354    631.280    631.122    631.122
 12.070    795.000    722.969     72.031    631.413    722.757    631.573    631.413    631.413
 12.170    772.000    766.798      5.202    631.695    766.559    631.856    631.695    631.695
 12.270    757.000    793.299    -36.299    631.966    793.043    632.130    631.966    631.966
 12.370    778.000    782.333     -4.333    632.227    782.081    632.393    632.227    632.227
 12.470    772.594    743.770     28.824    632.478    743.539    632.646    632.478    632.478
 12.570    645.000    702.016    -57.016    632.719    701.806    632.889    632.719    632.719
 12.670    725.641    671.625     54.015    632.951    671.431    633.123    632.951    632.951
 12.770    617.000    654.375    -37.375    633.173    654.189    633.347    633.173    633.173
 12.870    660.235    646.071     14.164    633.386    645.887    633.562    633.386    633.386
 12.970    690.242    642.304     47.938    633.589    642.120    633.767    633.589    633.589
 13.070    673.993    640.442     33.551    633.782    640.257    633.963    633.782    633.782
 13.170    636.952    639.358     -2.406    633.967    639.171    634.150    633.967    633.967
 13.270    659.125    638.650     20.475    634.142    638.462    634.328    634.142    634.142
 13.370    638.291    638.163      0.129    634.308    637.972    634.496    634.308    634.308
 13.470    635.000    637.820     -2.820    634.465    637.628    634.655    634.465    634.465
 13.570    602.000    637.579    -35.579    634.613    637.384    634.806    634.613    634.613
 13.670    631.000    637.408     -6.408    634.752    637.211    634.948    634.752    634.752
 13.770    642.000    637.289      4.711    634.882    637.090    635.080    634.882    634.882
 13.870    622.475    637.208    -14.732    635.003    637.005    635.205    635.003    635.003
 13.970    633.000    637.153     -4.153    635.116    636.948    635.320    635.116    635.116
 14.070    650.000    637.117     12.883    635.221    636.910    635.427    635.221    635.221
 14.170    551.000    637.096    -86.096    635.316    636.886    635.526    635.316    635.316
 14.270    607.000    637.084    -30.084    635.404    636.871    635.616    635.404    635.404
 14.370    639.000    637.079      1.921    635.483    636.863    635.698    635.483    635.483
 14.470    629.681    637.077     -7.396    635.554    636.858    635.772    635.554    635.554
 14.570    674.251    637.078     37.173    635.616    636.856    635.838    635.616    635.616
 14.670    670.283    637.081     33.202    635.671    636.856    635.896    635.671    635.671
 14.770    648.000    637.110     10.890    635.717    636.880    635.947    635.717    635.717
 14.870    588.000    637.156    -49.156    635.756    636.920    635.991    635.756    635.756
 14.970    647.612    637.158     10.453    635.787    636.919    636.026    635.787    635.787
 15.070    638.250    637.168      1.082    635.809    636.925    636.052    635.809    635.809
 15.170    642.000    637.229      4.771    635.825    636.983    636.071    635.825    635.825
 15.270    692.539    637.224     55.314    635.832    636.974    636.082    635.832    635.832
 15.370    607.000    637.208    -30.208    635.832    636.954    636.086    635.832    635.832
 15.470    622.000    637.202    -15.202    635.825    636.944    636.082    635.825    635.825
 15.570    635.584    637.193     -1.609    635.810    636.932    636.071    635.810    635.810
 15.670    618.000    637.161    -19.161    635.787    636.896    636.053    635.787    635.787
 15.770    618.000    637.123    -19.123    635.758    636.853    636.027    635.758    635.758
 15.870    646.000    637.078      8.922    635.721    636.805    635.994    635.721    635.721
 15.970    604.000    637.029    -33.029    635.677    636.751    635.955    635.677    635.677
 16.070    621.000    636.973    -15.973    635.626    636.691    635.908    635.626    635.626
 16.170    617.000    636.912    -19.912    635.568    636.626    635.855    635.568    635.568
 16.270    678.914    636.847     42.068    635.503    636.555    635.794    635.503    635.503
 16.370    671.798    636.777     35.021    635.432    636.481    635.727    635.432    635.432
 16.470    616.263    636.712    -20.449    635.353    636.411    635.654    635.353    635.353
 16.570    637.096    636.630      0.466    635.268    636.325    635.574    635.268    635.268
 16.670    651.997    636.541     15.456    635.177    636.230    635.487    635.177    635.177
 16.770    610.000    636.446    -26.446    635.078    636.130    635.394    635.078    635.078
 16.870    610.089    636.345    -26.256    634.973    636.024    635.294    634.973    634.973
 16.970    555.000    636.240    -81.240    634.862    635.913    635.189    634.862    634.862
 17.070    625.823    636.136    -10.313    634.745    635.804    635.077    634.745    634.745
 17.170    626.000    636.024    -10.024    634.621    635.687    634.959    634.621    634.621
 17.270    619.000    635.902    -16.902    634.491    635.558    634.834    634.491    634.491
 17.370    624.758    635.774    -11.016    634.355    635.424    634.704    634.355    634.355
 17.470    607.000    635.641    -28.641    634.213    635.285    634.568    634.213    634.213
 17.570    611.000    635.511    -24.511    634.064    635.148    634.426    634.064    634.064
 17.670    608.000    635.397    -27.397    633.910    635.028    634.279    633.910    633.910
 17.770    603.000    635.279    -32.279    633.750    634.903    634.126    633.750    633.750
 17.870    605.000    635.144    -30.144    633.584    634.761    633.967    633.584    633.584
 17.970    640.516    634.988      5.528    633.413    634.598    633.802    633.413    633.413
 18.070    614.000    634.824    -20.824    633.235    634.427    633.633    633.235    633.235
 18.170    615.000    634.661    -19.661    633.053    634.256    633.458    633.053    633.053
 18.270    660.456    634.494     25.962    632.864    634.080    633.278    632.864    632.864
 18.370    625.000    634.315     -9.315    632.670    633.894    633.092    632.670    632.670
 18.470    618.000    634.133    -16.133    632.471    633.703    632.901    632.471    632.471
 18.570    639.000    633.953      5.047    632.267    633.514    632.706    632.267    632.267
 18.670    601.000    633.782    -32.782    632.057    633.334    632.505    632.057    632.057
 18.770    671.762    633.639     38.123    631.842    633.182    632.298    631.842    631.842
 18.870    581.000    633.446    -52.446    631.621    632.979    632.087    631.621    631.621
 18.970    619.479    633.263    -13.784    631.396    632.787    631.872    631.396    631.396
 19.070    568.000    633.061    -65.061    631.166    632.575    631.651    631.166    631.166
 19.170    654.446    632.878     21.568    630.930    632.382    631.426    630.930    630.930
 19.270    605.000    632.681    -27.681    630.690    632.174    631.196    630.690    630.690
 19.370    671.855    632.462     39.394    630.445    631.944    630.962    630.445    630.445
 19.470    672.103    632.239     39.864    630.195    631.711    630.723    630.195    630.195
 19.570    613.000    632.010    -19.010    629.940    631.470    630.480    629.940    629.940
 19.670    562.000    631.785    -69.785    629.681    631.232    630.233    629.681    629.681
 19.770    635.000    631.566      3.434    629.417    631.001    629.982    629.417    629.417
 19.870    626.923    631.334     -4.411    629.149    630.757    629.726    629.149    629.149
 19.970    641.553    631.091     10.462    628.876    630.501    629.466    628.876    628.876
 20.070    649.294    630.844     18.449    628.599    630.240    629.202    628.599    628.599
 20.170    629.000    630.594     -1.594    628.317    629.976    628.935    628.317    628.317
 20.270    621.153    630.341     -9.188    628.031    629.709    628.663    628.031    628.031
 20.370    623.558    630.085     -6.527    627.741    629.438    628.388    627.741    627.741
 20.470    573.000    629.827    -56.827    627.446    629.164    628.110    627.446    627.446
 20.570    631.759    629.569      2.190    627.148    628.889    627.827    627.148    627.148
 20.670    586.000    629.305    -43.305    626.845    628.609    627.542    626.845    626.845
 20.770    685.292    629.038     56.254    626.539    628.325    627.252    626.539    626.539
 20.870    655.495    628.770     26.725    626.228    628.038    626.960    626.228    626.228
 20.970    674.827    628.500     46.328    625.914    627.749    626.664    625.914    625.914
 21.070    642.000    628.228     13.772    625.596    627.458    626.366    625.596    625.596
 21.170    591.000    627.956    -36.956    625.273    627.165    626.064    625.273    625.273
 21.270    584.071    627.682    -43.612    624.948    626.871    625.760    624.948    624.948
 21.370    628.000    627.406      0.594    624.618    626.572    625.452    624.618    624.618
 21.470    591.000    627.130    -36.130    624.285    626.273    625.142    624.285    624.285
 21.570    580.950    626.852    -45.902    623.948    625.971    624.830    623.948    623.948
 21.670    601.000    626.573    -25.573    623.608    625.667    624.514    623.608    623.608
 21.770    620.000    626.294     -6.294    623.265    625.362    624.197    623.265    623.265
 21.870    678.171    626.015     52.156    622.917    625.055    623.877    622.917    622.917
 21.970    598.000    625.736    -27.736    622.567    624.748    623.555    622.567    622.567
 22.070    583.000    625.459    -42.459    622.213    624.441    623.232    622.213    622.213
 22.170    678.333    625.184     53.150    621.856    624.134    622.906    621.856    621.856
 22.270    606.208    624.910    -18.702    621.496    623.827    622.579    621.496    621.496
 22.370    641.000    624.639     16.361    621.133    623.522    622.250    621.133    621.133
 22.470    600.000    624.371    -24.371    620.767    623.218    621.920    620.767    620.767
 22.570    592.000    624.108    -32.108    620.397    622.918    621.588    620.397    620.397
 22.670    625.000    623.852      1.148    620.025    622.622    621.256    620.025    620.025
 22.770    617.000    623.601     -6.601    619.650    622.329    620.922    619.650    619.650
 22.870    618.396    623.358     -4.962    619.271    622.042    620.588    619.271    619.271
 22.970    616.000    623.125     -7.125    618.890    621.762    620.254    618.890    618.890
 23.070    615.000    622.905     -7.905    618.507    621.493    619.919    618.507    618.507
 23.170    599.000    622.699    -23.699    618.120    621.236    619.584    618.120    618.120
 23.270    621.530    622.511     -0.981    617.731    620.993    619.249    617.731    617.731
 23.370    637.000    622.346     14.654    617.339    620.770    618.915    617.339    617.339
 23.470    659.000    622.210     36.790    616.945    620.573    618.582    616.945    616.945
 23.570    677.000    622.112     54.888    616.548    620.411    618.250    616.548    616.548
 23.670    573.119    622.063    -48.944    616.148    620.292    617.920    616.148    616.148
 23.770    590.238    622.080    -31.842    615.746    620.236    617.591    615.746    615.746
 23.870    615.000    622.178     -7.178    615.342    620.257    617.265    615.342    615.342
 23.970    665.747    622.392     43.355    614.935    620.388    616.941    614.935    614.935
 24.070    629.000    622.784      6.216    614.527    620.692    616.621    614.527    614.527
 24.170    571.917    623.488    -51.571    614.115    621.303    616.304    614.115    614.115
 24.270    583.000    624.851    -41.851    613.702    622.565    615.992    613.702    613.702
 24.370    647.000    627.730     19.270    613.287    625.337    615.686    613.287    613.287
 24.470    615.077    633.870    -18.793    612.869    631.365    615.385    612.869    612.869
 24.570    654.045    645.839      8.205    612.449    643.217    615.090    612.449    612.449
 24.670    708.000    665.583     42.417    612.028    662.841    614.804    612.028    612.028
 24.770    689.405    691.313     -1.907    611.604    688.443    614.526    611.604    611.604
 24.870    768.000    714.283     53.717    611.178    711.272    614.258    611.178    611.178
 24.970    727.000    720.839      6.161    610.751    717.662    614.001    610.751    610.751
 25.070    692.000    705.520    -13.520    610.321    702.147    613.757    610.321    610.321
 25.170    693.000    679.227     13.773    609.890    675.633    613.529    609.890    609.890
 25.270    705.000    655.010     49.990    609.458    651.177    613.317    609.458    609.458
 25.370    699.000    638.418     60.582    609.023    634.331    613.124    609.023    609.023
 25.470    637.048    629.118      7.931    608.587    624.758    612.954    608.587    608.587
 25.570    622.000    624.537     -2.537    608.149    619.882    612.809    608.149    608.149
 25.670    642.000    622.353     19.647    607.709    617.372    612.694    607.709    607.709
 25.770    626.000    621.244      4.756    607.268    615.902    612.612    607.268    607.268
 25.870    664.446    620.642     43.804    606.826    614.899    612.570    606.826    606.826
 25.970    671.000    620.338     50.662    606.382    614.147    612.573    606.382    606.382
 26.070    612.204    620.256     -8.052    605.937    613.563    612.631    605.937    605.937
 26.170    570.184    620.369    -50.185    605.490    613.107    612.752    605.490    605.490
 26.270    657.000    620.665     36.335    605.042    612.759    612.948    605.042    605.042
 26.370    677.000    621.150     55.850    604.593    612.509    613.233    604.593    604.593
 26.470    680.130    621.838     58.292    604.142    612.354    613.627    604.142    604.142
 26.570    616.221    622.756     -6.535    603.691    612.295    614.151    603.691    603.691
 26.670    675.000    623.940     51.060    603.238    612.343    614.834    603.238    603.238
 26.770    664.904    625.444     39.461    602.784    612.510    615.716    602.784    602.784
 26.870    674.000    627.337     46.663    602.328    612.819    616.845    602.328    602.328
 26.970    622.595    629.716     -7.121    601.872    613.300    618.286    601.872    601.872
 27.070    711.000    632.713     78.287    601.415    613.995    620.131    601.415    601.415
 27.170    584.546    636.513    -51.966    600.957    614.965    622.502    600.957    600.957
 27.270    591.646    641.379    -49.733    600.498    616.297    625.576    600.498    600.498
 27.370    758.000    647.717    110.283    600.038    618.124    629.626    600.038    600.038
 27.470    724.000    656.233     67.767    599.577    620.678    635.127    599.577    599.577
 27.570    688.000    668.391     19.609    599.115    624.439    643.060    599.115    599.115
 27.670    723.000    687.530     35.470    598.653    630.499    655.673    598.653    598.653
 27.770    746.631    720.929     25.702    598.190    641.232    677.870    598.190    598.190
 27.870    717.313    781.984    -64.671    597.726    661.008    718.673    597.726    597.726
 27.970    912.993    889.278     23.714    597.261    695.887    790.604    597.261    597.261
 28.070   1052.000   1058.068     -6.068    596.796    750.858    903.929    596.796    596.796
 28.170   1198.000   1282.422    -84.422    596.331    824.033   1054.611    596.331    596.331
 28.270   1461.000   1510.744    -49.744    595.864    898.711   1207.771    595.864    595.864
 28.370   1713.883   1637.460     76.424    595.397    940.726   1292.021    595.397    595.397
 28.470   1554.000   1587.174    -33.174    594.930    925.919   1256.124    594.930    594.930
 28.570   1427.000   1421.099      5.901    594.462    874.838   1140.705    594.462    594.462
 28.670   1196.000   1258.426    -62.426    593.994    827.075   1025.344    593.994    593.994
 28.770   1030.000   1172.967   -142.967    593.525    807.230    959.261    593.525    593.525
 28.870   1196.000   1176.342     19.658    593.056    818.667    950.724    593.056    593.056
 28.970   1240.017   1228.576     11.441    592.587    845.898    975.257    592.587    592.587
 29.070   1225.382   1254.184    -28.802    592.118    859.471    986.836    592.118    592.118
 29.170   1232.000   1196.202     35.798    591.648    837.232    950.645    591.648    591.648
 29.270   1160.000   1072.475     87.525    591.178    787.254    876.436    591.178    591.178
 29.370    898.196    936.773    -38.577    590.707    732.004    795.511    590.707    590.707
 29.470    938.000    824.755    113.245    590.237    686.305    728.713    590.237    590.237
 29.570    870.000    746.641    123.359    589.767    654.436    681.988    589.767    589.767
 29.670    833.000    697.913    135.087    589.296    634.581    652.637    589.296    589.296
 29.770    638.245    669.188    -30.944    588.825    622.912    635.106    588.825    588.825
 29.870    630.151    652.094    -21.943    588.355    616.009    624.441    588.355    588.355
 29.970    744.000    641.233    102.767    587.884    611.674    617.443    587.884    587.884
 30.070    774.000    633.778    140.222    587.413    608.769    612.422    587.413    587.413
 30.170    723.000    628.433     94.567    586.943    606.798    608.577    586.943    586.943
 30.270    625.942    624.691      1.251    586.472    605.620    605.541    586.472    586.472
 30.370    618.083    622.511     -4.427    586.002    605.353    603.156    586.002    586.002
