neutron_powder_diffraction_0156
R_wp: 3.894
Temperature (K): 1074.000
Counts: 83906.00
Wavelength (Ã…): 2.52098
COMMENTS
Test file for demonstrating the .xyy file format in Reel1.0
END OF HEADER
   tth       Y_obs     Y_calc      Y_res    Background    Phase_1_Nuc    Phase_1_Mag    Phase_2_Nuc    Phase_2_Mag
  9.970    610.000    579.865     30.135    579.172    579.816    579.172    579.221    579.172
 10.070    613.000    579.856     33.144    579.107    579.806    579.107    579.156    579.107
 10.170    590.929    579.850     11.079    579.038    579.800    579.038    579.087    579.038
 10.270    540.869    579.850    -38.980    578.964    579.800    578.964    579.014    578.964
 10.370    538.462    579.858    -41.395    578.887    579.808    578.887    578.937    578.887
 10.470    582.856    579.876      2.980    578.806    579.826    578.806    578.855    578.806
 10.570    615.000    579.909     35.091    578.720    579.858    578.720    578.770    578.720
 10.670    582.000    579.960      2.040    578.631    579.909    578.631    578.681    578.631
 10.770    620.000    580.036     39.964    578.538    579.985    578.538    578.588    578.538
 10.870    602.000    580.147     21.853    578.441    580.095    578.441    578.491    578.441
 10.970    607.000    580.303     26.697    578.340    580.251    578.340    578.391    578.340
 11.070    603.000    580.523     22.477    578.235    580.470    578.235    578.286    578.235
 11.170    595.000    580.830     14.170    578.127    580.777    578.127    578.178    578.127
 11.270    572.000    581.265     -9.265    578.015    581.211    578.015    578.067    578.015
 11.370    616.371    581.893     34.478    577.899    581.839    577.899    577.951    577.899
 11.470    540.776    582.860    -42.084    577.780    582.805    577.780    577.832    577.780
 11.570    568.852    584.570    -15.718    577.657    584.514    577.657    577.709    577.657
 11.670    542.956    588.189    -45.233    577.531    588.130    577.531    577.583    577.531
 11.770    627.512    596.460     31.053    577.401    596.396    577.401    577.454    577.401
 11.870    582.344    613.862    -31.518    577.268    613.788    577.268    577.321    577.268
 11.970    631.000    643.935    -12.935    577.131    643.844    577.131    577.184    577.131
 12.070    676.000    682.834     -6.834    576.991    682.719    576.991    577.045    576.991
 12.170    714.000    713.466      0.534    576.847    713.334    576.847    576.902    576.847
 12.270    743.000    714.325     28.675    576.701    714.192    576.701    576.756    576.701
 12.370    694.000    684.502      9.498    576.551    684.385    576.551    576.606    576.551
 12.470    638.411    645.129     -6.718    576.397    645.034    576.397    576.453    576.397
 12.570    598.000    614.068    -16.068    576.241    613.990    576.241    576.297    576.241
 12.670    582.000    595.765    -13.765    576.082    595.698    576.082    576.138    576.082
 12.770    552.000    586.861    -34.861    575.919    586.799    575.919    575.976    575.919
 12.870    596.000    582.807     13.193    575.753    582.747    575.753    575.810    575.753
 12.970    625.000    580.754     44.246    575.584    580.694    575.584    575.642    575.584
 13.070    559.623    579.476    -19.853    575.413    579.416    575.413    575.470    575.413
 13.170    556.000    578.548    -22.548    575.238    578.488    575.238    575.296    575.238
 13.270    585.000    577.818      7.182    575.061    577.759    575.061    575.119    575.061
 13.370    537.000    577.219    -40.219    574.880    577.159    574.880    574.938    574.880
 13.470    572.000    576.710     -4.710    574.697    576.651    574.697    574.755    574.697
 13.570    568.000    576.267     -8.267    574.511    576.207    574.511    574.570    574.511
 13.670    569.000    575.871     -6.871    574.322    575.811    574.322    574.381    574.322
 13.770    567.000    575.510     -8.510    574.130    575.450    574.130    574.190    574.130
 13.870    598.000    575.177     22.823    573.936    575.116    573.936    573.996    573.936
 13.970    562.000    574.863    -12.863    573.739    574.803    573.739    573.799    573.739
 14.070    547.000    574.566    -27.566    573.539    574.505    573.539    573.600    573.539
 14.170    560.000    574.281    -14.281    573.337    574.219    573.337    573.398    573.337
 14.270    609.040    574.005     35.036    573.132    573.943    573.132    573.194    573.132
 14.370    592.000    573.736     18.264    572.925    573.675    572.925    572.987    572.925
 14.470    560.000    573.477    -13.477    572.715    573.415    572.715    572.777    572.715
 14.570    559.000    573.220    -14.220    572.503    573.157    572.503    572.565    572.503
 14.670    594.331    572.965     21.367    572.289    572.902    572.289    572.351    572.289
 14.770    575.000    572.712      2.288    572.072    572.649    572.072    572.134    572.072
 14.870    591.595    572.462     19.133    571.852    572.398    571.852    571.915    571.852
 14.970    528.000    572.212    -44.212    571.631    572.148    571.631    571.694    571.631
 15.070    545.000    571.964    -26.964    571.407    571.900    571.407    571.471    571.407
 15.170    560.000    571.719    -11.719    571.181    571.651    571.181    571.249    571.181
 15.270    546.000    571.474    -25.474    570.952    571.404    570.952    571.022    570.952
 15.370    542.396    571.228    -28.831    570.722    571.157    570.722    570.792    570.722
 15.470    528.643    570.979    -42.336    570.489    570.908    570.489    570.560    570.489
 15.570    561.000    570.730     -9.730    570.254    570.659    570.254    570.325    570.254
 15.670    612.302    570.481     41.821    570.017    570.409    570.017    570.089    570.017
 15.770    583.659    570.231     13.428    569.778    570.159    569.778    569.850    569.778
 15.870    550.000    569.980    -19.980    569.537    569.907    569.537    569.610    569.537
 15.970    560.000    569.728     -9.728    569.294    569.655    569.294    569.367    569.294
 16.070    573.000    569.475      3.525    569.049    569.401    569.049    569.122    569.049
 16.170    564.000    569.221     -5.221    568.802    569.147    568.802    568.876    568.802
 16.270    612.526    568.965     43.561    568.554    568.891    568.554    568.628    568.554
 16.370    576.000    568.709      7.291    568.303    568.635    568.303    568.378    568.303
 16.470    524.602    568.452    -43.849    568.051    568.377    568.051    568.126    568.051
 16.570    518.000    568.193    -50.193    567.796    568.118    567.796    567.872    567.796
 16.670    539.578    567.933    -28.355    567.540    567.857    567.540    567.616    567.540
 16.770    562.000    567.672     -5.672    567.283    567.596    567.283    567.359    567.283
 16.870    559.000    567.410     -8.410    567.023    567.333    567.023    567.100    567.023
 16.970    576.000    567.147      8.853    566.762    567.069    566.762    566.839    566.762
 17.070    542.630    566.882    -24.252    566.500    566.805    566.500    566.577    566.500
 17.170    576.000    566.619      9.381    566.235    566.540    566.235    566.313    566.235
 17.270    550.000    566.352    -16.352    565.969    566.273    565.969    566.048    565.969
 17.370    523.341    566.084    -42.743    565.702    566.005    565.702    565.781    565.702
 17.470    528.302    565.814    -37.512    565.433    565.735    565.433    565.512    565.433
 17.570    596.000    565.544     30.456    565.162    565.464    565.162    565.242    565.162
 17.670    539.000    565.272    -26.272    564.890    565.191    564.890    564.971    564.890
 17.770    547.000    564.999    -17.999    564.617    564.918    564.617    564.698    564.617
 17.870    569.000    564.725      4.275    564.342    564.643    564.342    564.424    564.342
 17.970    536.000    564.450    -28.450    564.066    564.368    564.066    564.148    564.066
 18.070    528.581    564.174    -35.593    563.788    564.091    563.788    563.871    563.788
 18.170    595.000    563.897     31.103    563.509    563.814    563.509    563.593    563.509
 18.270    589.000    563.620     25.380    563.229    563.535    563.229    563.313    563.229
 18.370    547.000    563.341    -16.341    562.948    563.256    562.948    563.033    562.948
 18.470    555.000    563.061     -8.061    562.665    562.976    562.665    562.751    562.665
 18.570    575.000    562.780     12.220    562.381    562.694    562.381    562.467    562.381
 18.670    592.379    562.498     29.880    562.096    562.412    562.096    562.183    562.096
 18.770    570.313    562.216      8.098    561.810    562.128    561.810    561.897    561.810
 18.870    587.000    561.932     25.068    561.522    561.844    561.522    561.611    561.522
 18.970    521.000    561.648    -40.648    561.234    561.559    561.234    561.323    561.234
 19.070    569.000    561.363      7.637    560.944    561.274    560.944    561.034    560.944
 19.170    551.000    561.078    -10.078    560.654    560.988    560.654    560.744    560.654
 19.270    538.507    560.792    -22.285    560.362    560.701    560.362    560.453    560.362
 19.370    524.351    560.505    -36.153    560.070    560.413    560.070    560.161    560.070
 19.470    494.000    560.217    -66.217    559.776    560.124    559.776    559.869    559.776
 19.570    530.000    559.928    -29.928    559.482    559.835    559.482    559.575    559.482
 19.670    588.034    559.640     28.393    559.186    559.547    559.186    559.280    559.186
 19.770    572.994    559.365     13.630    558.890    559.270    558.890    558.985    558.890
 19.870    597.521    559.085     38.436    558.593    558.989    558.593    558.688    558.593
 19.970    540.695    558.797    -18.102    558.295    558.699    558.295    558.393    558.295
 20.070    538.770    558.507    -19.737    557.996    558.407    557.996    558.096    557.996
 20.170    520.928    558.216    -37.288    557.696    558.115    557.696    557.797    557.696
 20.270    581.000    557.925     23.075    557.396    557.823    557.396    557.498    557.396
 20.370    593.700    557.633     36.067    557.095    557.531    557.095    557.197    557.095
 20.470    567.513    557.342     10.172    556.793    557.238    556.793    556.896    556.793
 20.570    529.632    557.050    -27.418    556.490    556.945    556.490    556.595    556.490
 20.670    547.000    556.758     -9.758    556.187    556.653    556.187    556.293    556.187
 20.770    592.866    556.466     36.399    555.883    556.360    555.883    555.990    555.883
 20.870    540.000    556.175    -16.175    555.579    556.067    555.579    555.686    555.579
 20.970    563.000    555.883      7.117    555.274    555.775    555.274    555.382    555.274
 21.070    530.000    555.601    -25.601    554.968    555.491    554.968    555.078    554.968
 21.170    577.000    555.397     21.603    554.662    555.286    554.662    554.773    554.662
 21.270    590.476    555.129     35.347    554.355    555.017    554.355    554.467    554.355
 21.370    556.507    554.841      1.666    554.048    554.728    554.048    554.161    554.048
 21.470    566.000    554.552     11.448    553.740    554.438    553.740    553.855    553.740
 21.570    535.000    554.265    -19.265    553.432    554.149    553.432    553.548    553.432
 21.670    558.000    553.978      4.022    553.124    553.861    553.124    553.241    553.124
 21.770    546.431    553.695     -7.264    552.815    553.576    552.815    552.933    552.815
 21.870    544.981    553.433     -8.452    552.505    553.313    552.505    552.625    552.505
 21.970    529.468    553.179    -23.712    552.195    553.058    552.195    552.317    552.195
 22.070    589.000    552.902     36.098    551.885    552.780    551.885    552.008    551.885
 22.170    571.000    552.625     18.375    551.575    552.501    551.575    551.699    551.575
 22.270    569.000    552.357     16.643    551.264    552.231    551.264    551.390    551.264
 22.370    559.532    552.135      7.397    550.953    552.008    550.953    551.081    550.953
 22.470    560.000    551.887      8.113    550.642    551.758    550.642    550.771    550.642
 22.570    508.137    551.626    -43.489    550.331    551.495    550.331    550.462    550.331
 22.670    570.000    551.369     18.631    550.019    551.236    550.019    550.152    550.019
 22.770    566.000    551.118     14.882    549.707    550.983    549.707    549.842    549.707
 22.870    523.000    550.876    -27.876    549.395    550.739    549.395    549.532    549.395
 22.970    591.000    550.645     40.355    549.083    550.506    549.083    549.222    549.083
 23.070    536.000    550.423    -14.423    548.770    550.282    548.770    548.911    548.770
 23.170    534.660    550.214    -15.554    548.458    550.072    548.458    548.601    548.458
 23.270    545.973    550.024     -4.051    548.145    549.879    548.145    548.291    548.145
 23.370    545.000    549.856     -4.856    547.833    549.709    547.833    547.981    547.833
 23.470    519.539    549.717    -30.178    547.520    549.567    547.520    547.671    547.520
 23.570    516.497    549.616    -33.119    547.208    549.464    547.208    547.360    547.208
 23.670    571.615    549.566     22.049    546.895    549.412    546.895    547.050    546.895
 23.770    598.000    549.587     48.413    546.582    549.430    546.582    546.741    546.582
 23.870    550.267    549.708      0.559    546.270    549.548    546.270    546.431    546.270
 23.970    507.723    549.984    -42.261    545.957    549.822    545.957    546.121    545.957
 24.070    573.000    550.546     22.454    545.644    550.381    545.644    545.812    545.644
 24.170    528.000    551.765    -23.765    545.332    551.597    545.332    545.503    545.332
 24.270    562.000    554.631      7.369    545.020    554.462    545.020    545.194    545.020
 24.370    563.000    561.215      1.785    544.707    561.047    544.707    544.886    544.707
 24.470    572.000    574.378     -2.378    544.395    574.216    544.395    544.578    544.395
 24.570    627.000    595.521     31.479    544.083    595.370    544.083    544.270    544.083
 24.670    614.000    620.496     -6.496    543.772    620.359    543.772    543.962    543.772
 24.770    609.021    637.046    -28.025    543.460    636.916    543.460    543.656    543.460
 24.870    643.000    633.006      9.994    543.149    632.868    543.149    543.349    543.149
 24.970    583.334    611.689    -28.354    542.838    611.531    542.838    543.043    542.838
 25.070    628.000    586.699     41.301    542.527    586.519    542.527    542.738    542.527
 25.170    611.000    567.599     43.401    542.216    567.399    542.216    542.433    542.216
 25.270    557.000    556.312      0.688    541.906    556.098    541.906    542.129    541.906
 25.370    536.000    550.650    -14.650    541.596    550.425    541.596    541.826    541.596
 25.470    510.000    547.930    -37.930    541.287    547.697    541.287    541.523    541.287
 25.570    560.000    546.471     13.529    540.977    546.229    540.977    541.221    540.977
 25.670    532.894    545.524    -12.630    540.668    545.274    540.668    540.920    540.668
 25.770    508.000    544.817    -36.817    540.360    544.558    540.360    540.620    540.360
 25.870    528.048    544.255    -16.208    540.052    543.986    540.052    540.321    540.052
 25.970    556.000    543.795     12.205    539.744    543.516    539.744    540.024    539.744
 26.070    527.955    543.415    -15.460    539.436    543.125    539.436    539.727    539.436
 26.170    540.000    543.125     -3.125    539.129    542.823    539.129    539.432    539.129
 26.270    485.000    542.887    -57.887    538.823    542.572    538.823    539.138    538.823
 26.370    582.000    542.679     39.321    538.517    542.350    538.517    538.846    538.517
 26.470    512.518    542.524    -30.006    538.211    542.180    538.211    538.555    538.211
 26.570    540.514    542.431     -1.917    537.906    542.070    537.906    538.267    537.906
 26.670    543.000    542.399      0.601    537.602    542.020    537.602    537.980    537.602
 26.770    535.000    542.421     -7.421    537.298    542.022    537.298    537.696    537.298
 26.870    549.000    542.523      6.477    536.995    542.103    536.995    537.414    536.995
 26.970    559.379    542.736     16.643    536.692    542.291    536.692    537.136    536.692
 27.070    509.000    543.088    -34.088    536.389    542.616    536.389    536.860    536.389
 27.170    549.473    543.583      5.889    536.088    543.082    536.088    536.589    536.088
 27.270    589.000    544.301     44.699    535.787    543.765    535.787    536.321    535.787
 27.370    520.000    545.332    -25.332    535.486    544.758    535.486    536.059    535.486
 27.470    573.812    546.842     26.970    535.186    546.225    535.186    535.802    535.186
 27.570    562.000    549.261     12.739    534.887    548.594    534.887    535.551    534.887
 27.670    548.219    554.068     -5.849    534.589    553.344    534.589    535.309    534.589
 27.770    574.793    566.079      8.714    534.291    565.286    534.291    535.075    534.291
 27.870    657.000    596.990     60.010    533.994    596.111    533.994    534.853    533.994
 27.970    646.000    664.222    -18.222    533.697    663.234    533.697    534.644    533.697
 28.070    749.000    774.631    -25.631    533.401    773.506    533.401    534.451    533.401
 28.170    902.000    896.991      5.009    533.106    895.716    533.106    534.278    533.106
 28.270    967.000    957.301      9.699    532.812    955.879    532.812    534.131    532.812
 28.370    955.736    906.751     48.986    532.519    905.186    532.519    534.017    532.519
 28.470    823.000    797.518     25.482    532.226    795.767    532.226    533.947    532.226
 28.570    749.000    712.615     36.385    531.934    710.596    531.934    533.939    531.934
 28.670    680.000    695.031    -15.031    531.643    692.634    531.643    534.023    531.643
 28.770    751.000    740.288     10.712    531.353    737.369    531.353    534.249    531.353
 28.870    773.000    808.692    -35.692    531.063    805.042    531.063    534.696    531.063
 28.970    844.931    840.851      4.080    530.774    836.143    530.774    535.480    530.774
 29.070    743.000    801.515    -58.515    530.487    795.260    530.487    536.750    530.487
 29.170    731.626    721.166     10.460    530.200    712.711    530.200    538.664    530.200
 29.270    631.000    646.957    -15.957    529.914    635.538    529.914    541.339    529.914
 29.370    625.000    600.301     24.699    529.628    585.182    529.628    544.749    529.628
 29.470    600.000    578.768     21.232    529.344    559.572    529.344    548.540    529.344
 29.570    549.000    571.058    -22.058    529.061    548.330    529.061    551.787    529.061
 29.670    554.379    567.634    -13.256    528.778    543.306    528.778    553.105    528.778
 29.770    574.000    563.782     10.218    528.497    540.605    528.497    551.672    528.497
 29.870    598.578    558.750     39.828    528.216    538.854    528.216    548.110    528.216
 29.970    552.000    553.474     -1.474    527.937    537.626    527.937    543.783    527.937
 30.070    578.406    548.839     29.568    527.658    536.783    527.658    539.712    527.658
 30.170    569.000    545.258     23.742    527.380    536.299    527.380    536.337    527.380
 30.270    599.000    542.914     56.086    527.104    536.286    527.104    533.729    527.104
 30.370    517.000    542.158    -25.158    526.828    537.191    526.828    531.791    526.828
