neutron_powder_diffraction_0013
R_wp: 3.577
Temperature (K): 464.434
Counts: 83587.00
Wavelength (Ã…): 2.52098
COMMENTS
Test file for demonstrating the .xyy file format in Reel1.0
END OF HEADER
   tth       Y_obs     Y_calc      Y_res    Background    Phase_1_Nuc    Phase_1_Mag    Phase_2_Nuc    Phase_2_Mag
  9.970    779.000    739.750     39.250    738.013    739.017    738.745    738.013    738.013
 10.070    690.545    738.573    -48.028    736.748    737.833    737.488    736.748    736.748
 10.170    698.647    737.415    -38.768    735.491    736.666    736.239    735.491    735.491
 10.270    786.000    736.277     49.723    734.240    735.520    734.997    734.240    734.240
 10.370    681.004    735.162    -54.158    732.998    734.397    733.762    732.998    732.998
 10.470    731.000    734.074     -3.074    731.762    733.300    732.534    731.762    731.762
 10.570    765.325    733.016     32.309    730.533    732.234    731.314    730.533    730.533
 10.670    699.081    731.994    -32.914    729.312    731.204    730.101    729.312    729.312
 10.770    762.000    731.016     30.984    728.098    730.217    728.896    728.098    728.098
 10.870    702.844    730.091    -27.246    726.891    729.283    727.698    726.891    726.891
 10.970    710.000    729.232    -19.232    725.691    728.414    726.507    725.691    725.691
 11.070    772.000    728.457     43.543    724.498    727.630    725.323    724.498    724.498
 11.170    727.821    727.794      0.027    723.312    726.957    724.146    723.312    723.312
 11.270    784.000    727.315     56.685    722.133    726.468    722.977    722.133    722.133
 11.370    759.000    727.116     31.884    720.962    726.260    721.815    720.962    720.962
 11.470    769.000    727.130     41.870    719.797    726.263    720.661    719.797    719.797
 11.570    721.000    727.680     -6.680    718.639    726.802    719.513    718.639    718.639
 11.670    754.000    729.304     24.696    717.489    728.414    718.373    717.489    717.489
 11.770    801.000    733.097     67.903    716.345    732.194    717.239    716.345    716.345
 11.870    794.000    740.956     53.044    715.208    740.038    716.113    715.208    715.208
 11.970    841.000    755.245     85.755    714.078    754.307    714.994    714.078    714.078
 12.070    773.250    777.353     -4.102    712.955    776.392    713.882    712.955    712.955
 12.170    765.426    804.910    -39.484    711.839    803.923    712.777    711.839    711.839
 12.270    872.906    828.612     44.294    710.730    827.600    711.679    710.730    710.730
 12.370    832.000    834.230     -2.230    709.628    833.203    710.588    709.628    709.628
 12.470    798.000    816.429    -18.429    708.532    815.399    709.504    708.532    708.532
 12.570    766.975    786.763    -19.788    707.443    785.737    708.427    707.443    707.443
 12.670    790.767    758.742     32.024    706.361    757.719    707.357    706.361    706.361
 12.770    730.000    738.134     -8.134    705.286    737.109    706.294    705.286    705.286
 12.870    671.222    725.032    -53.811    704.217    724.001    705.238    704.217    704.217
 12.970    698.000    717.266    -19.266    703.156    716.226    704.189    703.156    703.156
 13.070    676.000    712.560    -36.560    702.100    711.509    703.147    702.100    702.100
 13.170    754.265    709.394     44.871    701.052    708.330    702.111    701.052    701.052
 13.270    662.000    706.984    -44.984    700.010    705.908    701.083    700.010    700.010
 13.370    743.175    704.981     38.194    698.975    703.892    700.062    698.975    698.975
 13.470    707.000    703.228      3.772    697.946    702.125    699.047    697.946    697.946
 13.570    674.000    701.647    -27.647    696.924    700.530    698.040    696.924    696.924
 13.670    707.000    700.193      6.807    695.909    699.061    697.039    695.909    695.909
 13.770    659.000    698.834    -39.834    694.900    697.687    696.045    694.900    694.900
 13.870    654.338    697.549    -43.212    693.898    696.388    695.058    693.898    693.898
 13.970    741.000    696.333     44.667    692.902    695.156    694.078    692.902    692.902
 14.070    716.000    695.174     20.826    691.913    693.981    693.105    691.913    691.913
 14.170    692.000    694.037     -2.037    690.930    692.828    692.138    690.930    690.930
 14.270    705.433    692.930     12.503    689.953    691.705    691.178    689.953    689.953
 14.370    695.000    691.852      3.148    688.983    690.609    690.225    688.983    688.983
 14.470    717.000    690.797     26.203    688.020    689.538    689.279    688.020    688.020
 14.570    682.000    689.764     -7.764    687.063    688.487    688.339    687.063    687.063
 14.670    675.000    688.750    -13.750    686.112    687.455    687.406    686.112    686.112
 14.770    691.687    687.757      3.930    685.167    686.444    686.480    685.167    685.167
 14.870    687.491    686.776      0.716    684.229    685.444    685.560    684.229    684.229
 14.970    661.226    685.807    -24.582    683.297    684.456    684.648    683.297    683.297
 15.070    673.697    684.852    -11.155    682.372    683.482    683.742    682.372    682.372
 15.170    686.000    683.909      2.091    681.452    682.519    682.842    681.452    681.452
 15.270    676.181    682.977     -6.797    680.539    681.567    681.950    680.539    680.539
 15.370    635.000    682.057    -47.057    679.633    680.625    681.064    679.633    679.633
 15.470    677.000    681.146     -4.146    678.732    679.693    680.184    678.732    678.732
 15.570    668.198    680.245    -12.048    677.837    678.771    679.312    677.837    677.837
 15.670    675.000    679.354     -4.354    676.949    677.857    678.446    676.949    676.949
 15.770    669.000    678.472     -9.472    676.067    676.953    677.587    676.067    676.067
 15.870    696.904    677.599     19.305    675.191    676.056    676.734    675.191    675.191
 15.970    661.000    676.735    -15.735    674.321    675.168    675.888    674.321    674.321
 16.070    626.000    675.879    -49.879    673.457    674.288    675.049    673.457    673.457
 16.170    669.453    675.034     -5.581    672.600    673.417    674.216    672.600    672.600
 16.270    679.000    674.200      4.800    671.748    672.558    673.390    671.748    671.748
 16.370    627.371    673.369    -45.998    670.902    671.700    672.571    670.902    670.902
 16.470    672.000    672.545     -0.545    670.063    670.850    671.758    670.063    670.063
 16.570    678.000    671.730      6.270    669.229    670.007    670.952    669.229    669.229
 16.670    634.722    670.922    -36.200    668.401    669.170    670.152    668.401    668.401
 16.770    681.000    670.121     10.879    667.579    668.341    669.359    667.579    667.579
 16.870    651.000    669.330    -18.330    666.764    667.519    668.573    666.764    666.764
 16.970    679.705    668.555     11.150    665.954    666.713    667.795    665.954    665.954
 17.070    619.000    667.789    -48.789    665.150    665.916    667.023    665.150    665.150
 17.170    683.463    667.084     16.379    664.351    665.176    666.259    664.351    664.351
 17.270    679.000    666.337     12.663    663.559    664.396    665.500    663.559    663.559
 17.370    654.000    665.609    -11.609    662.772    663.634    664.747    662.772    662.772
 17.470    627.000    664.866    -37.866    661.992    662.857    664.001    661.992    661.992
 17.570    704.653    664.126     40.527    661.217    662.081    663.261    661.217    661.217
 17.670    664.118    663.392      0.725    660.447    661.311    662.529    660.447    660.447
 17.770    672.599    662.666      9.933    659.684    660.547    661.803    659.684    659.684
 17.870    666.000    661.947      4.053    658.926    659.790    661.083    658.926    658.926
 17.970    651.000    661.235    -10.235    658.174    659.039    660.371    658.174    658.174
 18.070    620.183    660.531    -40.348    657.428    658.294    659.665    657.428    657.428
 18.170    705.084    659.834     45.251    656.687    657.555    658.966    656.687    656.687
 18.270    596.000    659.144    -63.144    655.952    656.822    658.274    655.952    655.952
 18.370    674.000    658.462     15.538    655.223    656.095    657.589    655.223    655.223
 18.470    627.000    657.787    -30.787    654.499    655.374    656.911    654.499    654.499
 18.570    665.000    657.121      7.879    653.780    654.661    656.240    653.780    653.780
 18.670    661.000    656.462      4.538    653.068    653.954    655.575    653.068    653.068
 18.770    656.000    655.820      0.180    652.361    653.263    654.918    652.361    652.361
 18.870    636.322    655.181    -18.859    651.659    652.571    654.269    651.659    651.659
 18.970    645.272    654.584     -9.312    650.963    651.908    653.639    650.963    650.963
 19.070    649.000    653.994     -4.994    650.272    651.250    653.016    650.272    650.272
 19.170    611.000    653.375    -42.375    649.587    650.574    652.388    649.587    649.587
 19.270    671.151    652.761     18.390    648.907    649.901    651.766    648.907    648.907
 19.370    676.000    652.158     23.842    648.233    649.239    651.152    648.233    648.233
 19.470    666.203    651.582     14.621    647.564    648.600    650.546    647.564    647.564
 19.570    663.000    650.993     12.007    646.900    647.948    649.946    646.900    646.900
 19.670    637.000    650.410    -13.410    646.242    647.298    649.354    646.242    646.242
 19.770    673.799    649.837     23.962    645.589    646.657    648.769    645.589    645.589
 19.870    620.000    649.292    -29.292    644.941    646.039    648.194    644.941    644.941
 19.970    640.000    648.777     -8.777    644.299    645.431    647.645    644.299    644.299
 20.070    640.000    648.255     -8.255    643.662    644.823    647.094    643.662    643.662
 20.170    695.839    647.721     48.117    643.030    644.210    646.541    643.030    643.030
 20.270    652.888    647.242      5.646    642.404    643.649    645.997    642.404    642.404
 20.370    683.000    646.762     36.238    641.783    643.084    645.461    641.783    641.783
 20.470    628.000    646.252    -18.252    641.167    642.487    644.932    641.167    641.167
 20.570    621.097    645.749    -24.652    640.556    641.893    644.411    640.556    640.556
 20.670    638.000    645.256     -7.256    639.950    641.306    643.900    639.950    639.950
 20.770    679.755    644.796     34.959    639.349    640.748    643.397    639.349    639.349
 20.870    642.000    644.342     -2.342    638.754    640.193    642.903    638.754    638.754
 20.970    613.000    643.880    -30.880    638.163    639.626    642.418    638.163    638.163
 21.070    596.000    643.440    -47.440    637.578    639.076    641.942    637.578    637.578
 21.170    673.299    643.008     30.291    636.998    638.527    641.479    636.998    636.998
 21.270    653.000    642.583     10.417    636.423    637.980    641.026    636.423    636.423
 21.370    574.000    642.163    -68.163    635.852    637.437    640.578    635.852    635.852
 21.470    671.267    641.753     29.514    635.287    636.899    640.141    635.287    635.287
 21.570    683.000    641.354     41.646    634.727    636.369    639.713    634.727    634.727
 21.670    651.000    640.967     10.033    634.172    635.843    639.296    634.172    634.172
 21.770    667.000    640.593     26.407    633.622    635.325    638.890    633.622    633.622
 21.870    600.083    640.233    -40.150    633.076    634.814    638.495    633.076    633.076
 21.970    610.000    639.886    -29.886    632.536    634.310    638.112    632.536    632.536
 22.070    640.000    639.555      0.445    632.000    633.814    637.741    632.000    632.000
 22.170    673.309    639.241     34.068    631.469    633.329    637.382    631.469    631.469
 22.270    636.000    638.948     -2.948    630.943    632.854    637.037    630.943    630.943
 22.370    625.000    638.669    -13.669    630.422    632.386    636.705    630.422    630.422
 22.470    631.644    638.406     -6.762    629.906    631.925    636.387    629.906    629.906
 22.570    590.000    638.162    -48.162    629.394    631.475    636.082    629.394    629.394
 22.670    630.000    637.940     -7.940    628.888    631.035    635.793    628.888    628.888
 22.770    621.000    637.740    -16.740    628.386    630.607    635.519    628.386    628.386
 22.870    627.235    637.566    -10.331    627.888    630.193    635.261    627.888    627.888
 22.970    666.704    637.419     29.284    627.396    629.793    635.022    627.396    627.396
 23.070    681.847    637.303     44.545    626.908    629.410    634.801    626.908    626.908
 23.170    608.227    637.219    -28.992    626.425    629.046    634.598    626.425    626.425
 23.270    649.691    637.172     12.519    625.946    628.703    634.416    625.946    625.946
 23.370    688.000    637.168     50.832    625.472    628.387    634.254    625.472    625.472
 23.470    610.069    637.213    -27.144    625.003    628.101    634.115    625.003    625.003
 23.570    631.000    637.315     -6.315    624.538    627.853    634.000    624.538    624.538
 23.670    649.000    637.484     11.516    624.078    627.652    633.911    624.078    624.078
 23.770    647.000    637.736      9.264    623.622    627.510    633.849    623.622    623.622
 23.870    622.000    638.089    -16.089    623.171    627.445    633.816    623.171    623.171
 23.970    653.661    638.570     15.091    622.724    627.482    633.814    622.724    622.724
 24.070    627.000    639.223    -12.223    622.282    627.662    633.845    622.282    622.282
 24.170    635.000    640.126     -5.126    621.844    628.061    633.913    621.844    621.844
 24.270    627.000    641.446    -14.446    621.411    628.842    634.019    621.411    621.411
 24.370    647.000    643.542      3.458    620.982    630.363    634.167    620.982    620.982
 24.470    653.000    647.139      5.861    620.558    633.344    634.360    620.558    620.558
 24.570    694.589    653.442     41.148    620.138    638.987    634.604    620.138    620.138
 24.670    710.000    663.909     46.091    619.722    648.749    634.902    619.722    619.722
 24.770    660.090    679.393    -19.303    619.311    663.475    635.259    619.311    619.311
 24.870    733.725    698.532     35.193    618.904    681.799    635.681    618.904    618.904
 24.970    675.000    715.827    -40.827    618.501    698.209    636.175    618.501    618.501
 25.070    774.931    722.227     52.704    618.103    703.642    636.748    618.103    618.103
 25.170    684.386    713.364    -28.978    617.709    693.717    637.409    617.709    617.709
 25.270    710.000    695.909     14.091    617.319    675.099    638.169    617.319    617.319
 25.370    704.938    678.736     26.202    616.933    656.658    639.038    616.933    616.933
 25.470    687.000    666.094     20.906    616.552    642.632    640.030    616.552    616.552
 25.570    652.120    658.505     -6.385    616.174    633.528    641.161    616.174    616.174
 25.670    604.000    654.808    -50.808    615.801    628.165    642.451    615.801    615.801
 25.770    609.835    653.567    -43.732    615.432    625.081    643.922    615.432    615.432
 25.870    639.000    653.726    -14.726    615.068    623.204    645.592    615.068    615.068
 25.970    649.000    654.723     -5.723    614.707    621.936    647.496    614.707    614.707
 26.070    606.000    656.315    -50.315    614.350    620.997    649.670    614.350    614.350
 26.170    658.000    658.422     -0.422    613.998    620.261    652.159    613.998    613.998
 26.270    678.000    661.037     16.963    613.649    619.671    655.016    613.649    613.649
 26.370    680.000    664.195     15.805    613.305    619.193    658.307    613.305    613.305
 26.470    717.000    667.959     49.041    612.965    618.810    662.112    612.965    612.965
 26.570    635.851    672.419    -36.567    612.628    618.511    666.534    612.628    612.628
 26.670    659.000    677.698    -18.698    612.296    618.291    671.701    612.296    612.296
 26.770    693.674    683.963      9.711    611.967    618.150    677.778    611.967    611.967
 26.870    659.216    691.435    -32.219    611.643    618.092    684.982    611.643    611.643
 26.970    671.580    700.395    -28.815    611.322    618.126    693.587    611.322    611.322
 27.070    715.000    711.227      3.773    611.006    618.265    703.964    611.006    611.006
 27.170    709.000    724.468    -15.468    610.693    618.530    716.624    610.693    610.693
 27.270    727.000    740.853    -13.853    610.384    618.955    732.274    610.384    610.384
 27.370    791.454    761.434     30.021    610.079    619.584    751.919    610.079    610.079
 27.470    768.000    787.764    -19.764    609.778    620.485    777.045    609.778    609.778
 27.570    863.620    822.369     41.251    609.480    621.771    810.063    609.480    609.480
 27.670    922.631    870.368     52.264    609.187    623.666    855.867    609.187    609.187
 27.770    920.707    945.661    -24.955    608.897    626.782    927.744    608.897    608.897
 27.870   1047.425   1090.073    -42.648    608.610    632.945   1065.681    608.610    608.610
 27.970   1388.000   1413.198    -25.198    608.328    646.944   1374.461    608.328    608.328
 28.070   2056.000   2128.076    -72.076    608.049    678.077   2057.785    608.049    608.049
 28.170   3357.000   3487.905   -130.905    607.774    737.401   3357.769    607.774    607.774
 28.270   5265.000   5529.093   -264.093    607.503    826.541   5309.253    607.503    607.503
 28.370   7712.404   7719.867     -7.463    607.235    922.385   7403.750    607.235    607.235
 28.470   8759.124   8906.708   -147.584    606.971    974.828   8538.071    606.971    606.971
 28.570   8354.000   8263.384     90.616    606.711    948.306   7921.505    606.711    606.711
 28.670   6518.447   6446.108     72.339    606.454    872.417   6180.261    606.454    606.454
 28.770   4807.000   4733.662     73.338    606.201    804.518   4535.577    606.201    606.201
 28.870   3797.000   3904.992   -107.992    605.951    780.115   3731.000    605.951    605.951
 28.970   3952.000   4021.042    -69.042    605.705    801.652   3825.187    605.705    605.705
 29.070   4640.000   4621.938     18.062    605.462    844.972   4382.533    605.462    605.462
 29.170   5035.000   4992.247     42.753    605.223    870.395   4727.312    605.223    605.223
 29.270   4561.000   4628.462    -67.462    604.988    849.468   4384.380    604.988    604.988
 29.370   3658.000   3691.641    -33.641    604.755    792.969   3503.876    604.755    604.755
 29.470   2756.863   2659.411     97.453    604.527    730.390   2533.919    604.527    604.527
 29.570   1833.000   1850.381    -17.381    604.301    681.309   1773.624    604.301    604.301
 29.670   1393.000   1340.272     52.728    604.080    650.405   1294.091    604.080    604.080
 29.770   1089.000   1063.322     25.678    603.861    633.699   1033.560    603.861    603.861
 29.870    963.000    922.670     40.330    603.646    625.298    901.058    603.646    603.646
 29.970    822.448    847.963    -25.515    603.434    620.928    830.492    603.434    603.434
 30.070    767.236    802.705    -35.468    603.226    618.380    787.565    603.226    603.226
 30.170    764.000    771.520     -7.520    603.021    616.740    757.810    603.021    603.021
 30.270    781.000    748.414     32.586    602.819    615.681    735.558    602.819    602.819
 30.370    797.000    730.890     66.110    602.620    615.125    718.389    602.620    602.620
