neutron_powder_diffraction_0233
R_wp: 3.945
Temperature (K): 1038.813
Counts: 83520.00
Wavelength (Ã…): 2.52098
COMMENTS
Test file for demonstrating the .xyy file format in Reel1.0
END OF HEADER
   tth       Y_obs     Y_calc      Y_res    Background    Phase_1_Nuc    Phase_1_Mag    Phase_2_Nuc    Phase_2_Mag
  9.970    606.000    570.664     35.336    570.055    570.635    570.055    570.085    570.055
 10.070    523.012    570.827    -47.815    570.166    570.797    570.166    570.196    570.166
 10.170    582.771    570.990     11.781    570.271    570.960    570.271    570.300    570.271
 10.270    577.000    571.159      5.841    570.369    571.129    570.369    570.399    570.369
 10.370    532.329    571.346    -39.017    570.462    571.315    570.462    570.492    570.462
 10.470    559.649    571.530    -11.881    570.549    571.499    570.549    570.579    570.549
 10.570    577.452    571.721      5.731    570.630    571.690    570.630    570.660    570.630
 10.670    593.000    571.927     21.073    570.705    571.896    570.705    570.736    570.705
 10.770    535.582    572.154    -36.573    570.775    572.123    570.775    570.805    570.775
 10.870    563.676    572.411     -8.736    570.838    572.380    570.838    570.869    570.838
 10.970    577.000    572.709      4.291    570.896    572.677    570.896    570.928    570.896
 11.070    591.000    573.064     17.936    570.949    573.030    570.949    570.982    570.949
 11.170    573.335    573.497     -0.162    570.996    573.462    570.996    571.029    570.996
 11.270    574.000    574.045     -0.045    571.037    574.010    571.037    571.071    571.037
 11.370    612.000    574.769     37.231    571.073    574.734    571.073    571.107    571.073
 11.470    551.000    575.798    -24.798    571.104    575.761    571.104    571.138    571.104
 11.570    614.000    577.491     36.509    571.129    577.454    571.129    571.163    571.129
 11.670    639.000    580.903     58.097    571.149    580.863    571.149    571.183    571.149
 11.770    598.333    588.592      9.741    571.164    588.548    571.164    571.198    571.164
 11.870    625.000    604.915     20.085    571.173    604.860    571.173    571.210    571.173
 11.970    603.516    633.648    -30.132    571.178    633.567    571.178    571.224    571.178
 12.070    708.946    671.698     37.248    571.177    671.592    571.177    571.228    571.177
 12.170    697.000    702.998     -5.998    571.172    702.874    571.172    571.223    571.172
 12.270    756.563    705.930     50.633    571.161    705.804    571.161    571.212    571.161
 12.370    571.000    677.818   -106.818    571.146    677.707    571.146    571.197    571.146
 12.470    633.431    639.187     -5.756    571.125    639.098    571.125    571.177    571.125
 12.570    611.000    608.386      2.614    571.100    608.314    571.100    571.152    571.100
 12.670    561.159    590.266    -29.108    571.070    590.204    571.070    571.122    571.070
 12.770    596.000    581.575     14.425    571.035    581.517    571.035    571.088    571.035
 12.870    508.000    577.739    -69.739    570.996    577.678    570.996    571.054    570.996
 12.970    539.000    575.878    -36.878    570.952    575.815    570.952    571.012    570.952
 13.070    589.144    574.770     14.374    570.904    574.707    570.904    570.964    570.904
 13.170    570.393    573.996     -3.604    570.850    573.934    570.850    570.911    570.850
 13.270    582.000    573.412      8.588    570.793    573.349    570.793    570.854    570.793
 13.370    568.000    572.950     -4.950    570.731    572.888    570.731    570.792    570.731
 13.470    550.000    572.574    -22.574    570.665    572.511    570.665    570.726    570.665
 13.570    584.000    572.258     11.742    570.594    572.195    570.594    570.656    570.594
 13.670    579.000    571.986      7.014    570.519    571.923    570.519    570.581    570.519
 13.770    603.856    571.747     32.109    570.440    571.683    570.440    570.502    570.440
 13.870    570.336    571.531     -1.195    570.356    571.467    570.356    570.419    570.356
 13.970    572.160    571.333      0.826    570.269    571.269    570.269    570.332    570.269
 14.070    526.000    571.149    -45.149    570.177    571.084    570.177    570.241    570.177
 14.170    568.000    570.974     -2.974    570.081    570.910    570.081    570.145    570.081
 14.270    557.536    570.807    -13.271    569.981    570.742    569.981    570.046    569.981
 14.370    531.348    570.645    -39.297    569.878    570.580    569.878    569.942    569.878
 14.470    581.000    570.487     10.513    569.770    570.422    569.770    569.835    569.770
 14.570    616.128    570.332     45.796    569.659    570.266    569.659    569.724    569.659
 14.670    541.000    570.178    -29.178    569.543    570.112    569.543    569.609    569.543
 14.770    545.560    570.026    -24.466    569.424    569.959    569.424    569.490    569.424
 14.870    514.000    569.873    -55.873    569.301    569.806    569.301    569.368    569.301
 14.970    593.000    569.720     23.280    569.175    569.653    569.175    569.242    569.175
 15.070    577.000    569.569      7.431    569.044    569.499    569.044    569.114    569.044
 15.170    568.000    569.418     -1.418    568.911    569.346    568.911    568.982    568.911
 15.270    550.216    569.265    -19.049    568.773    569.192    568.773    568.846    568.773
 15.370    584.000    569.108     14.892    568.632    569.034    568.632    568.706    568.632
 15.470    557.000    568.949    -11.949    568.488    568.875    568.488    568.562    568.488
 15.570    599.000    568.789     30.211    568.340    568.713    568.340    568.415    568.340
 15.670    577.000    568.626      8.374    568.189    568.550    568.189    568.265    568.189
 15.770    608.541    568.461     40.080    568.035    568.384    568.035    568.111    568.035
 15.870    548.315    568.293    -19.978    567.877    568.216    567.877    567.953    567.877
 15.970    529.000    568.124    -39.124    567.716    568.046    567.716    567.793    567.716
 16.070    576.000    567.952      8.048    567.551    567.874    567.551    567.629    567.551
 16.170    541.522    567.777    -26.256    567.384    567.699    567.384    567.462    567.384
 16.270    558.000    567.601     -9.601    567.213    567.522    567.213    567.292    567.213
 16.370    582.000    567.421     14.579    567.039    567.342    567.039    567.119    567.039
 16.470    554.749    567.240    -12.491    566.863    567.160    566.863    566.942    566.863
 16.570    620.000    567.056     52.944    566.683    566.976    566.683    566.763    566.683
 16.670    553.481    566.869    -13.388    566.500    566.789    566.500    566.581    566.500
 16.770    569.000    566.682      2.318    566.314    566.601    566.314    566.395    566.314
 16.870    610.000    566.492     43.508    566.126    566.410    566.126    566.207    566.126
 16.970    569.000    566.298      2.702    565.934    566.216    565.934    566.016    565.934
 17.070    563.000    566.102     -3.102    565.740    566.019    565.740    565.823    565.740
 17.170    562.000    565.903     -3.903    565.543    565.820    565.543    565.626    565.543
 17.270    576.000    565.703     10.297    565.343    565.619    565.343    565.427    565.343
 17.370    551.000    565.501    -14.501    565.141    565.415    565.141    565.226    565.141
 17.470    547.000    565.296    -18.296    564.936    565.209    564.936    565.022    564.936
 17.570    624.000    565.088     58.912    564.728    565.000    564.728    564.815    564.728
 17.670    587.000    564.878     22.122    564.517    564.789    564.517    564.606    564.517
 17.770    594.351    564.665     29.686    564.305    564.577    564.305    564.393    564.305
 17.870    571.000    564.453      6.547    564.089    564.363    564.089    564.179    564.089
 17.970    569.000    564.237      4.763    563.871    564.147    563.871    563.961    563.871
 18.070    512.000    564.018    -52.018    563.651    563.928    563.651    563.742    563.651
 18.170    556.000    563.797     -7.797    563.428    563.706    563.428    563.520    563.428
 18.270    564.000    563.574      0.426    563.203    563.482    563.203    563.295    563.203
 18.370    585.000    563.349     21.651    562.976    563.256    562.976    563.069    562.976
 18.470    552.341    563.122    -10.781    562.746    563.028    562.746    562.840    562.746
 18.570    542.771    562.893    -20.122    562.515    562.798    562.515    562.609    562.515
 18.670    579.000    562.661     16.339    562.281    562.567    562.281    562.375    562.281
 18.770    571.000    562.428      8.572    562.044    562.333    562.044    562.140    562.044
 18.870    523.692    562.194    -38.502    561.806    562.097    561.806    561.902    561.806
 18.970    566.302    561.957      4.345    561.566    561.860    561.566    561.663    561.566
 19.070    605.000    561.718     43.282    561.323    561.621    561.323    561.421    561.323
 19.170    587.895    561.478     26.417    561.078    561.379    561.078    561.177    561.078
 19.270    559.000    561.237     -2.237    560.832    561.137    560.832    560.932    560.832
 19.370    522.000    560.996    -38.996    560.583    560.892    560.583    560.687    560.583
 19.470    520.317    560.755    -40.438    560.333    560.647    560.333    560.441    560.333
 19.570    596.000    560.511     35.489    560.081    560.401    560.081    560.190    560.081
 19.670    522.000    560.263    -38.263    559.827    560.153    559.827    559.937    559.827
 19.770    544.000    560.013    -16.013    559.571    559.902    559.571    559.682    559.571
 19.870    579.448    559.762     19.686    559.313    559.650    559.313    559.425    559.313
 19.970    568.829    559.510      9.320    559.053    559.396    559.053    559.167    559.053
 20.070    593.000    559.256     33.744    558.792    559.142    558.792    558.907    558.792
 20.170    515.931    559.001    -43.070    558.529    558.886    558.529    558.645    558.529
 20.270    576.000    558.745     17.255    558.265    558.628    558.265    558.381    558.265
 20.370    568.000    558.488      9.512    557.999    558.371    557.999    558.116    557.999
 20.470    551.720    558.239     -6.519    557.731    558.120    557.731    557.849    557.731
 20.570    549.000    557.993     -8.993    557.461    557.873    557.461    557.581    557.461
 20.670    553.000    557.734     -4.734    557.191    557.613    557.191    557.312    557.191
 20.770    525.000    557.473    -32.473    556.918    557.351    556.918    557.040    556.918
 20.870    582.000    557.211     24.789    556.645    557.088    556.645    556.768    556.645
 20.970    584.019    556.948     27.071    556.369    556.824    556.369    556.494    556.369
 21.070    571.000    556.685     14.315    556.093    556.559    556.093    556.219    556.093
 21.170    552.000    556.421     -4.421    555.815    556.294    555.815    555.942    555.815
 21.270    580.173    556.157     24.016    555.535    556.029    555.535    555.664    555.535
 21.370    578.000    555.893     22.107    555.255    555.763    555.255    555.385    555.255
 21.470    549.797    555.629     -5.831    554.973    555.497    554.973    555.104    554.973
 21.570    533.477    555.364    -21.887    554.690    555.231    554.690    554.823    554.690
 21.670    543.000    555.100    -12.100    554.406    554.966    554.406    554.540    554.406
 21.770    520.053    554.836    -34.783    554.120    554.700    554.120    554.256    554.120
 21.870    573.562    554.573     18.989    553.834    554.435    553.834    553.971    553.834
 21.970    526.586    554.310    -27.724    553.546    554.171    553.546    553.685    553.546
 22.070    530.000    554.049    -24.049    553.257    553.908    553.257    553.398    553.257
 22.170    574.000    553.789     20.211    552.967    553.646    552.967    553.110    552.967
 22.270    519.420    553.535    -34.114    552.676    553.390    552.676    552.821    552.676
 22.370    549.000    553.322     -4.322    552.384    553.176    552.384    552.531    552.384
 22.470    582.316    553.128     29.188    552.092    552.980    552.092    552.240    552.092
 22.570    587.000    552.899     34.101    551.798    552.749    551.798    551.948    551.798
 22.670    549.000    552.686     -3.686    551.503    552.534    551.503    551.656    551.503
 22.770    548.000    552.450     -4.450    551.207    552.295    551.207    551.362    551.207
 22.870    544.000    552.216     -8.216    550.911    552.059    550.911    551.068    550.911
 22.970    518.000    551.995    -33.995    550.614    551.836    550.614    550.773    550.614
 23.070    527.000    551.819    -24.819    550.316    551.657    550.316    550.478    550.316
 23.170    585.464    551.642     33.821    550.017    551.478    550.017    550.181    550.017
 23.270    545.000    551.459     -6.459    549.717    551.290    549.717    549.886    549.717
 23.370    546.974    551.293     -4.319    549.417    551.120    549.417    549.590    549.417
 23.470    591.000    551.151     39.849    549.116    550.976    549.116    549.292    549.116
 23.570    581.000    551.044     29.956    548.814    550.865    548.814    548.994    548.814
 23.670    518.000    550.982    -32.982    548.512    550.800    548.512    548.694    548.512
 23.770    508.000    550.984    -42.984    548.209    550.799    548.209    548.395    548.209
 23.870    552.000    551.075      0.925    547.905    550.887    547.905    548.095    547.905
 23.970    510.260    551.305    -41.045    547.601    551.114    547.601    547.794    547.601
 24.070    564.000    551.784     12.216    547.297    551.589    547.297    547.493    547.297
 24.170    561.000    552.829      8.171    546.992    552.632    546.992    547.192    546.992
 24.270    580.484    555.306     25.178    546.686    555.107    546.686    546.891    546.686
 24.370    551.140    561.113     -9.973    546.380    560.913    546.380    546.589    546.380
 24.470    618.000    573.058     44.942    546.073    572.863    546.073    546.287    546.073
 24.570    576.982    592.891    -15.910    545.767    592.706    545.767    545.985    545.767
 24.670    611.000    617.322     -6.322    545.459    617.149    545.459    545.683    545.459
 24.770    618.000    635.056    -17.056    545.152    634.891    545.152    545.381    545.152
 24.870    635.000    633.513      1.487    544.844    633.342    544.844    545.079    544.844
 24.970    642.277    613.813     28.463    544.535    613.622    544.535    544.776    544.535
 25.070    608.000    589.040     18.960    544.227    588.824    544.227    544.474    544.227
 25.170    606.184    569.559     36.625    543.918    569.322    543.918    544.172    543.918
 25.270    538.914    557.897    -18.983    543.609    557.645    543.609    543.870    543.609
 25.370    541.000    552.049    -11.049    543.300    551.785    543.300    543.569    543.300
 25.470    572.000    549.274     22.726    542.990    549.000    542.990    543.268    542.990
 25.570    534.000    547.826    -13.826    542.681    547.542    542.681    542.967    542.681
 25.670    553.000    546.898      6.102    542.371    546.605    542.371    542.667    542.371
 25.770    509.963    546.215    -36.252    542.061    545.910    542.061    542.367    542.061
 25.870    565.471    545.664     19.807    541.751    545.348    541.751    542.068    541.751
 25.970    574.293    545.201     29.091    541.441    544.874    541.441    541.769    541.441
 26.070    528.000    544.811    -16.811    541.131    544.471    541.131    541.472    541.131
 26.170    541.000    544.480     -3.480    540.821    544.126    540.821    541.175    540.821
 26.270    588.437    544.203     44.235    540.511    543.834    540.511    540.880    540.511
 26.370    546.000    543.977      2.023    540.201    543.592    540.201    540.586    540.201
 26.470    528.715    543.792    -15.077    539.891    543.390    539.891    540.294    539.891
 26.570    516.000    543.654    -27.654    539.581    543.232    539.581    540.003    539.581
 26.670    517.000    543.569    -26.569    539.271    543.126    539.271    539.714    539.271
 26.770    527.000    543.543    -16.543    538.961    543.077    538.961    539.427    538.961
 26.870    614.000    543.590     70.410    538.652    543.098    538.652    539.143    538.652
 26.970    540.000    543.741     -3.741    538.342    543.221    538.342    538.862    538.342
 27.070    547.717    544.016      3.700    538.033    543.464    538.033    538.584    538.033
 27.170    559.014    544.408     14.607    537.724    543.821    537.724    538.310    537.724
 27.270    576.000    544.991     31.009    537.415    544.364    537.415    538.040    537.415
 27.370    523.000    545.847    -22.847    537.106    545.175    537.106    537.776    537.106
 27.470    584.000    547.114     36.886    536.797    546.392    536.797    537.518    536.797
 27.570    567.000    549.151     17.849    536.489    548.371    536.489    537.267    536.489
 27.670    574.634    553.203     21.431    536.181    552.356    536.181    537.025    536.181
 27.770    586.000    563.675     22.325    535.874    562.749    535.874    536.792    535.874
 27.870    580.010    592.079    -12.069    535.566    591.056    535.566    536.573    535.566
 27.970    670.000    657.111     12.889    535.259    655.964    535.259    536.369    535.259
 28.070    770.000    768.665      1.335    534.953    767.366    534.953    536.183    534.953
 28.170    862.000    897.115    -35.115    534.646    895.645    534.646    536.021    534.646
 28.270    956.927    965.627     -8.700    534.341    963.986    534.341    535.889    534.341
 28.370    917.000    919.186     -2.186    534.035    917.370    534.035    535.795    534.035
 28.470    816.000    806.085      9.915    533.730    804.044    533.730    535.752    533.730
 28.570    730.000    713.583     16.417    533.426    711.226    533.426    535.778    533.426
 28.670    673.780    690.649    -16.869    533.122    687.855    533.122    535.907    533.122
 28.770    744.000    735.601      8.399    532.818    732.204    532.818    536.198    532.818
 28.870    810.000    808.566      1.434    532.515    804.301    532.515    536.758    532.515
 28.970    814.099    847.137    -33.038    532.213    841.563    532.213    537.774    532.213
 29.070    807.000    811.445     -4.445    531.911    803.833    531.911    539.528    531.911
 29.170    703.000    730.351    -27.351    531.609    719.599    531.609    542.376    531.609
 29.270    658.446    654.184      4.262    531.308    638.853    531.308    546.654    531.308
 29.370    639.000    607.529     31.471    531.008    586.072    531.008    552.474    531.008
 29.470    571.449    588.229    -16.781    530.709    559.575    530.709    559.366    530.709
 29.570    655.000    583.577     71.423    530.410    548.239    530.410    565.747    530.410
 29.670    594.000    582.127     11.873    530.111    543.339    530.111    568.898    530.111
 29.770    608.000    577.855     30.145    529.814    540.766    529.814    566.900    529.814
 29.870    547.494    570.391    -22.898    529.517    539.106    529.517    560.800    529.517
 29.970    603.000    562.009     40.991    529.220    537.933    529.220    553.294    529.220
 30.070    611.000    554.597     56.403    528.925    537.114    528.925    546.406    528.925
 30.170    594.806    548.944     45.863    528.630    536.613    528.630    540.959    528.630
 30.270    554.531    545.203      9.329    528.336    536.521    528.336    537.015    528.336
 30.370    514.160    543.488    -29.328    528.042    537.229    528.042    534.298    528.042
