neutron_powder_diffraction_0113
R_wp: 4.072
Temperature (K): 951.739
Counts: 83591.00
Wavelength (Ã…): 2.52098
COMMENTS
Test file for demonstrating the .xyy file format in Reel1.0
END OF HEADER
   tth       Y_obs     Y_calc      Y_res    Background    Phase_1_Nuc    Phase_1_Mag    Phase_2_Nuc    Phase_2_Mag
  9.970    634.000    561.569     72.431    560.455    561.449    560.455    560.575    560.455
 10.070    584.407    561.887     22.520    560.688    561.766    560.688    560.808    560.688
 10.170    564.311    562.209      2.102    560.912    562.088    560.912    561.033    560.912
 10.270    606.352    562.537     43.815    561.129    562.416    561.129    561.250    561.129
 10.370    562.129    562.876     -0.747    561.338    562.754    561.338    561.459    561.338
 10.470    581.000    563.229     17.771    561.539    563.106    561.539    561.661    561.539
 10.570    588.000    563.601     24.399    561.732    563.478    561.732    561.855    561.732
 10.670    522.948    564.000    -41.051    561.918    563.875    561.918    562.042    561.918
 10.770    573.000    564.434      8.566    562.097    564.309    562.097    562.220    562.097
 10.870    557.225    564.920     -7.696    562.268    564.795    562.268    562.392    562.268
 10.970    562.000    565.467     -3.467    562.431    565.341    562.431    562.556    562.431
 11.070    588.707    566.103     22.604    562.588    565.976    562.588    562.713    562.588
 11.170    622.000    566.863     55.137    562.737    566.735    562.737    562.863    562.737
 11.270    544.000    567.802    -23.802    562.879    567.673    562.879    563.005    562.879
 11.370    596.000    569.021     26.979    563.014    568.891    563.014    563.140    563.014
 11.470    576.606    570.735      5.871    563.141    570.604    563.141    563.269    563.141
 11.570    572.000    573.458     -1.458    563.262    573.324    563.262    563.390    563.262
 11.670    539.882    578.335    -38.452    563.376    578.198    563.376    563.505    563.376
 11.770    622.000    587.478     34.522    563.483    587.336    563.483    563.612    563.483
 11.870    618.000    603.696     14.304    563.583    603.544    563.583    563.713    563.583
 11.970    645.000    628.813     16.187    563.677    628.647    563.677    563.807    563.677
 12.070    664.000    660.284      3.716    563.764    660.100    563.764    563.894    563.764
 12.170    670.000    687.459    -17.459    563.844    687.259    563.844    563.975    563.844
 12.270    643.059    694.265    -51.206    563.918    694.061    563.918    564.050    563.918
 12.370    626.000    675.186    -49.186    563.985    674.992    563.985    564.117    563.985
 12.470    633.000    643.665    -10.665    564.046    643.488    564.046    564.179    564.046
 12.570    625.000    614.748     10.252    564.100    614.586    564.100    564.234    564.100
 12.670    568.656    594.498    -25.842    564.148    594.347    564.148    564.283    564.148
 12.770    544.000    582.563    -38.563    564.190    582.418    564.190    564.325    564.190
 12.870    536.000    576.216    -40.216    564.226    576.074    564.226    564.362    564.226
 12.970    573.000    572.876      0.124    564.256    572.735    564.256    564.392    564.256
 13.070    589.368    570.958     18.409    564.280    570.818    564.280    564.417    564.280
 13.170    545.000    569.710    -24.710    564.297    569.570    564.297    564.435    564.297
 13.270    533.000    568.818    -35.818    564.309    568.678    564.309    564.447    564.309
 13.370    607.445    568.141     39.304    564.315    568.000    564.315    564.454    564.315
 13.470    587.733    567.611     20.122    564.315    567.470    564.315    564.455    564.315
 13.570    575.881    567.186      8.695    564.309    567.044    564.309    564.450    564.309
 13.670    557.637    566.837     -9.200    564.298    566.695    564.298    564.439    564.298
 13.770    537.000    566.545    -29.545    564.281    566.402    564.281    564.423    564.281
 13.870    555.628    566.296    -10.668    564.259    566.152    564.259    564.401    564.259
 13.970    576.000    566.078      9.922    564.231    565.935    564.231    564.374    564.231
 14.070    535.025    565.886    -30.861    564.197    565.741    564.197    564.341    564.197
 14.170    546.000    565.713    -19.713    564.158    565.568    564.158    564.303    564.158
 14.270    570.000    565.554      4.446    564.114    565.409    564.114    564.259    564.114
 14.370    547.000    565.405    -18.405    564.065    565.259    564.065    564.211    564.065
 14.470    587.931    565.264     22.666    564.010    565.117    564.010    564.157    564.010
 14.570    560.099    565.129     -5.030    563.950    564.982    563.950    564.098    563.950
 14.670    539.000    564.999    -25.999    563.885    564.850    563.885    564.033    563.885
 14.770    550.640    564.871    -14.231    563.815    564.722    563.815    563.964    563.815
 14.870    553.000    564.745    -11.745    563.740    564.595    563.740    563.890    563.740
 14.970    527.000    564.620    -37.620    563.660    564.469    563.660    563.811    563.660
 15.070    536.000    564.495    -28.495    563.575    564.343    563.575    563.727    563.575
 15.170    562.000    564.369     -2.369    563.486    564.217    563.486    563.638    563.486
 15.270    535.000    564.243    -29.243    563.391    564.090    563.391    563.544    563.391
 15.370    560.000    564.115     -4.115    563.292    563.961    563.292    563.446    563.292
 15.470    566.000    563.988      2.012    563.188    563.833    563.188    563.343    563.188
 15.570    558.000    563.875     -5.875    563.080    563.720    563.080    563.235    563.080
 15.670    597.244    563.750     33.494    562.967    563.594    562.967    563.123    562.967
 15.770    523.000    563.615    -40.615    562.849    563.458    562.849    563.006    562.849
 15.870    584.130    563.477     20.653    562.727    563.319    562.727    562.885    562.727
 15.970    526.000    563.340    -37.340    562.601    563.180    562.601    562.760    562.601
 16.070    609.000    563.197     45.803    562.470    563.037    562.470    562.630    562.470
 16.170    565.087    563.050      2.037    562.335    562.889    562.335    562.496    562.335
 16.270    529.000    562.900    -33.900    562.195    562.738    562.195    562.357    562.195
 16.370    539.000    562.747    -23.747    562.052    562.584    562.052    562.215    562.052
 16.470    526.000    562.591    -36.591    561.904    562.427    561.904    562.068    561.904
 16.570    503.000    562.442    -59.442    561.753    562.277    561.753    561.917    561.753
 16.670    590.554    562.384     28.170    561.597    562.219    561.597    561.762    561.597
 16.770    546.976    562.237    -15.261    561.437    562.070    561.437    561.604    561.437
 16.870    558.000    562.069     -4.069    561.273    561.902    561.273    561.441    561.273
 16.970    515.253    561.898    -46.645    561.106    561.729    561.106    561.274    561.106
 17.070    547.000    561.723    -14.723    560.934    561.554    560.934    561.104    560.934
 17.170    517.254    561.546    -44.292    560.759    561.375    560.759    560.930    560.759
 17.270    588.072    561.365     26.707    560.580    561.193    560.580    560.752    560.580
 17.370    513.862    561.181    -47.319    560.397    561.008    560.397    560.570    560.397
 17.470    560.000    560.994     -0.994    560.211    560.819    560.211    560.385    560.211
 17.570    575.000    560.804     14.196    560.021    560.628    560.021    560.196    560.021
 17.670    545.000    560.613    -15.613    559.827    560.436    559.827    560.004    559.827
 17.770    579.000    560.421     18.579    559.630    560.243    559.630    559.808    559.630
 17.870    568.000    560.222      7.778    559.430    560.043    559.430    559.608    559.430
 17.970    604.131    560.020     44.111    559.226    559.840    559.226    559.406    559.226
 18.070    532.226    559.815    -27.589    559.019    559.634    559.019    559.200    559.019
 18.170    511.000    559.607    -48.607    558.808    559.425    558.808    558.990    558.808
 18.270    562.000    559.396      2.604    558.594    559.213    558.594    558.778    558.594
 18.370    592.877    559.183     33.694    558.377    558.998    558.377    558.562    558.377
 18.470    566.000    558.966      7.034    558.157    558.780    558.157    558.343    558.157
 18.570    541.000    558.747    -17.747    557.933    558.560    557.933    558.121    557.933
 18.670    528.918    558.526    -29.607    557.707    558.337    557.707    557.896    557.707
 18.770    542.000    558.301    -16.301    557.478    558.111    557.478    557.668    557.478
 18.870    553.334    558.075     -4.741    557.245    557.883    557.245    557.437    557.245
 18.970    576.000    557.845     18.155    557.010    557.652    557.010    557.203    557.010
 19.070    511.750    557.623    -45.872    556.771    557.428    556.771    556.966    556.771
 19.170    565.426    557.453      7.973    556.530    557.257    556.530    556.726    556.530
 19.270    567.000    557.226      9.774    556.286    557.028    556.286    556.484    556.286
 19.370    558.000    556.988      1.012    556.039    556.789    556.039    556.239    556.039
 19.470    552.967    556.750     -3.783    555.790    556.548    555.790    555.991    555.790
 19.570    541.000    556.507    -15.507    555.537    556.304    555.537    555.740    555.537
 19.670    549.000    556.262     -7.262    555.283    556.058    555.283    555.487    555.283
 19.770    582.000    556.015     25.985    555.025    555.809    555.025    555.231    555.025
 19.870    551.000    555.766     -4.766    554.765    555.558    554.765    554.973    554.765
 19.970    572.680    555.515     17.165    554.503    555.306    554.503    554.712    554.503
 20.070    551.000    555.263     -4.263    554.238    555.051    554.238    554.449    554.238
 20.170    571.000    555.008     15.992    553.970    554.795    553.970    554.184    553.970
 20.270    571.000    554.754     16.246    553.700    554.538    553.700    553.916    553.700
 20.370    572.000    554.505     17.495    553.428    554.288    553.428    553.645    553.428
 20.470    561.000    554.267      6.733    553.154    554.048    553.154    553.373    553.154
 20.570    505.390    554.050    -48.659    552.877    553.829    552.877    553.098    552.877
 20.670    558.000    553.800      4.200    552.598    553.576    552.598    552.821    552.598
 20.770    582.000    553.545     28.455    552.317    553.320    552.317    552.542    552.317
 20.870    571.000    553.297     17.703    552.033    553.070    552.033    552.261    552.033
 20.970    550.000    553.035     -3.035    551.748    552.805    551.748    551.978    551.748
 21.070    562.000    552.770      9.230    551.460    552.537    551.460    551.693    551.460
 21.170    514.748    552.504    -37.756    551.171    552.269    551.171    551.406    551.171
 21.270    552.000    552.237     -0.237    550.879    552.000    550.879    551.117    550.879
 21.370    563.000    551.970     11.030    550.586    551.731    550.586    550.826    550.586
 21.470    505.000    551.703    -46.703    550.291    551.461    550.291    550.533    550.291
 21.570    542.000    551.437     -9.437    549.993    551.192    549.993    550.239    549.993
 21.670    589.796    551.170     38.626    549.694    550.922    549.694    549.942    549.694
 21.770    554.000    550.904      3.096    549.393    550.654    549.393    549.644    549.393
 21.870    531.000    550.639    -19.639    549.091    550.386    549.091    549.344    549.091
 21.970    566.000    550.378     15.622    548.786    550.122    548.786    549.043    548.786
 22.070    557.000    550.140      6.860    548.480    549.881    548.480    548.740    548.480
 22.170    577.000    549.888     27.112    548.173    549.626    548.173    548.436    548.173
 22.270    552.000    549.639      2.361    547.863    549.373    547.863    548.130    547.863
 22.370    567.875    549.409     18.466    547.553    549.140    547.553    547.822    547.553
 22.470    552.327    549.166      3.161    547.240    548.894    547.240    547.513    547.240
 22.570    564.000    548.960     15.040    546.926    548.684    546.926    547.203    546.926
 22.670    517.000    548.751    -31.751    546.611    548.471    546.611    546.892    546.611
 22.770    512.750    548.526    -35.776    546.294    548.242    546.294    546.579    546.294
 22.870    551.769    548.312      3.457    545.976    548.024    545.976    546.265    545.976
 22.970    530.000    548.148    -18.148    545.656    547.856    545.656    545.949    545.656
 23.070    530.000    547.992    -17.992    545.335    547.696    545.335    545.633    545.335
 23.170    575.761    547.823     27.937    545.013    547.522    545.013    545.315    545.013
 23.270    557.000    547.675      9.325    544.690    547.370    544.690    544.996    544.690
 23.370    526.000    547.557    -21.557    544.365    547.247    544.365    544.677    544.365
 23.470    498.707    547.478    -48.771    544.039    547.163    544.039    544.356    544.039
 23.570    553.437    547.456      5.981    543.712    547.135    543.712    544.034    543.712
 23.670    567.000    547.512     19.488    543.384    547.186    543.384    543.712    543.384
 23.770    541.000    547.650     -6.650    543.055    547.319    543.055    543.388    543.055
 23.870    536.000    547.917    -11.917    542.725    547.580    542.725    543.064    542.725
 23.970    538.000    548.388    -10.388    542.393    548.045    542.393    542.739    542.393
 24.070    541.979    549.231     -7.251    542.061    548.882    542.061    542.413    542.061
 24.170    568.000    550.811     17.189    541.728    550.457    541.728    542.087    541.728
 24.270    534.953    553.914    -18.961    541.394    553.555    541.394    541.760    541.394
 24.370    553.000    559.899     -6.899    541.059    559.537    541.059    541.433    541.059
 24.470    563.000    570.437     -7.437    540.723    570.075    540.723    541.105    540.723
 24.570    552.291    586.474    -34.183    540.386    586.116    540.386    540.777    540.386
 24.670    595.000    606.263    -11.263    540.049    605.910    540.049    540.448    540.049
 24.770    616.000    623.267     -7.267    539.710    622.917    539.710    540.119    539.710
 24.870    619.000    627.689     -8.689    539.371    627.333    539.371    539.790    539.371
 24.970    616.791    615.858      0.933    539.032    615.483    539.032    539.460    539.032
 25.070    642.712    595.651     47.062    538.691    595.251    538.691    539.131    538.691
 25.170    562.913    576.446    -13.533    538.350    576.020    538.350    538.802    538.350
 25.270    535.858    562.400    -26.542    538.009    561.953    538.009    538.472    538.009
 25.370    546.000    553.670     -7.670    537.666    553.203    537.666    538.143    537.666
 25.470    553.885    548.742      5.144    537.324    548.257    537.324    537.814    537.324
 25.570    569.000    545.990     23.010    536.980    545.489    536.980    537.486    536.980
 25.670    570.000    544.324     25.676    536.637    543.806    536.637    537.158    536.637
 25.770    582.000    543.186     38.814    536.292    542.651    536.292    536.830    536.292
 25.870    583.000    542.330     40.670    535.948    541.776    535.948    536.504    535.948
 25.970    571.000    541.651     29.349    535.603    541.078    535.603    536.178    535.603
 26.070    527.471    541.099    -13.628    535.257    540.505    535.257    535.853    535.257
 26.170    603.000    540.646     62.354    534.911    540.029    534.911    535.530    534.911
 26.270    532.847    540.275     -7.428    534.565    539.633    534.565    535.207    534.565
 26.370    585.000    539.976     45.024    534.219    539.308    534.219    534.887    534.219
 26.470    499.046    539.744    -40.698    533.872    539.048    533.872    534.568    533.872
 26.570    524.000    539.581    -15.581    533.525    538.854    533.525    534.252    533.525
 26.670    536.500    539.489     -2.988    533.178    538.729    533.178    533.938    533.178
 26.770    571.024    539.474     31.551    532.830    538.677    532.830    533.627    532.830
 26.870    548.249    539.549      8.700    532.483    538.713    532.483    533.319    532.483
 26.970    500.585    539.733    -39.148    532.135    538.854    532.135    533.015    532.135
 27.070    523.692    540.053    -16.361    531.787    539.125    531.787    532.715    531.787
 27.170    538.000    540.547     -2.547    531.439    539.566    531.439    532.420    531.439
 27.270    494.602    541.272    -46.670    531.092    540.233    531.092    532.130    531.092
 27.370    569.287    542.319     26.968    530.744    541.215    530.744    531.847    530.744
 27.470    598.000    543.852     54.148    530.396    542.674    530.396    531.571    530.396
 27.570    588.000    546.296     41.704    530.048    545.036    530.048    531.305    530.048
 27.670    591.000    551.018     39.982    529.700    549.666    529.700    531.048    529.700
 27.770    527.874    562.147    -34.272    529.352    560.687    529.352    530.804    529.352
 27.870    615.000    589.174     25.826    529.004    587.588    529.004    530.573    529.004
 27.970    647.000    646.156      0.844    528.657    644.419    528.657    530.359    528.657
 28.070    780.000    740.372     39.628    528.309    738.456    528.309    530.164    528.309
 28.170    837.000    851.954    -14.954    527.962    849.840    527.962    529.991    527.962
 28.270    873.144    925.539    -52.396    527.615    923.226    527.615    529.843    527.615
 28.370    973.300    911.257     62.043    527.268    908.741    527.268    529.726    527.268
 28.470    834.000    828.615      5.385    526.921    825.865    526.921    529.642    526.921
 28.570    729.302    743.938    -14.636    526.575    740.903    526.575    529.596    526.575
 28.670    708.000    707.331      0.669    526.229    703.955    526.229    529.593    526.229
 28.770    716.921    728.020    -11.099    525.883    724.250    525.883    529.637    525.883
 28.870    781.000    780.182      0.818    525.537    775.973    525.537    529.729    525.537
 28.970    849.000    816.804     32.196    525.192    812.118    525.192    529.869    525.192
 29.070    790.000    800.334    -10.334    524.847    795.134    524.847    530.052    524.847
 29.170    703.576    738.480    -34.904    524.503    732.731    524.503    530.267    524.503
 29.270    639.885    666.500    -26.615    524.159    660.185    524.159    530.489    524.159
 29.370    565.000    610.263    -45.263    523.816    603.403    523.816    530.687    523.816
 29.470    577.000    576.096      0.904    523.473    568.759    523.473    530.815    523.473
 29.570    583.000    558.657     24.343    523.130    550.964    523.130    530.826    523.130
 29.670    568.000    550.380     17.620    522.788    542.493    522.788    530.676    522.788
 29.770    599.000    546.116     52.884    522.446    538.225    522.446    530.339    522.446
 29.870    497.483    543.427    -45.944    522.105    535.719    522.105    529.814    522.105
 29.970    564.643    541.415     23.228    521.765    534.053    521.765    529.127    521.765
 30.070    541.000    539.815      1.185    521.425    532.919    521.425    528.321    521.425
 30.170    565.950    538.602     27.348    521.086    532.242    521.086    527.445    521.086
 30.270    491.090    537.918    -46.828    520.747    532.121    520.747    526.543    520.747
 30.370    561.000    538.190     22.810    520.409    532.948    520.409    525.649    520.409
