neutron_powder_diffraction_0057
R_wp: 4.031
Temperature (K): 681.992
Counts: 83877.00
Wavelength (Ã…): 2.52098
COMMENTS
Test file for demonstrating the .xyy file format in Reel1.0
END OF HEADER
   tth       Y_obs     Y_calc      Y_res    Background    Phase_1_Nuc    Phase_1_Mag    Phase_2_Nuc    Phase_2_Mag
  9.970    684.000    655.686     28.314    654.414    655.368    654.731    654.414    654.414
 10.070    623.008    655.335    -32.327    653.983    655.014    654.303    653.983    653.983
 10.170    621.044    654.993    -33.949    653.550    654.668    653.874    653.550    653.550
 10.270    614.926    654.661    -39.735    653.115    654.333    653.443    653.115    653.115
 10.370    640.000    654.344    -14.344    652.679    654.012    653.010    652.679    652.679
 10.470    683.226    654.044     29.182    652.241    653.708    652.575    652.241    652.241
 10.570    687.000    653.765     33.235    651.801    653.425    652.139    651.801    651.801
 10.670    646.000    653.513     -7.513    651.359    653.170    651.701    651.359    651.359
 10.770    716.000    653.296     62.704    650.916    652.949    651.262    650.916    650.916
 10.870    693.304    653.123     40.181    650.471    652.772    650.821    650.471    650.471
 10.970    627.000    653.009    -26.009    650.024    652.654    650.378    650.024    650.024
 11.070    676.000    652.972     23.028    649.576    652.612    649.934    649.576    649.576
 11.170    653.000    653.039     -0.039    649.127    652.675    649.488    649.127    649.127
 11.270    678.000    653.251     24.749    648.675    652.883    649.041    648.675    648.675
 11.370    689.000    653.677     35.323    648.223    653.303    648.593    648.223    648.223
 11.470    694.000    654.438     39.562    647.769    654.060    648.144    647.769    647.769
 11.570    724.000    655.829     68.171    647.313    655.446    647.692    647.313    647.313
 11.670    695.000    658.554     36.446    646.857    658.164    647.240    646.857    646.857
 11.770    741.000    664.113     76.887    646.399    663.716    646.787    646.399    646.399
 11.870    702.332    675.013     27.319    645.939    674.605    646.332    645.939    645.939
 11.970    752.000    694.015     57.985    645.478    693.591    645.876    645.478    645.478
 12.070    794.000    721.743     72.257    645.017    721.299    645.418    645.017    645.017
 12.170    814.000    752.777     61.223    644.553    752.310    644.960    644.553    644.553
 12.270    748.000    772.766    -24.766    644.089    772.283    644.501    644.089    644.089
 12.370    768.000    767.740      0.260    643.624    767.255    644.040    643.624    643.624
 12.470    737.000    741.537     -4.537    643.157    741.061    643.579    643.157    643.157
 12.570    719.000    709.803      9.197    642.689    709.339    643.117    642.689    642.689
 12.670    624.000    683.865    -59.865    642.221    683.410    642.653    642.221    642.221
 12.770    642.000    666.797    -24.797    641.751    666.345    642.189    641.751    641.751
 12.870    679.000    656.975     22.025    641.280    656.523    641.724    641.280    641.280
 12.970    681.323    651.592     29.732    640.809    651.137    641.258    640.809    640.809
 13.070    644.469    648.467     -3.998    640.336    648.009    640.791    640.336    640.336
 13.170    619.000    646.400    -27.400    639.863    645.936    640.323    639.863    639.863
 13.270    603.513    644.848    -41.335    639.388    644.379    639.855    639.388    639.388
 13.370    624.000    643.587    -19.587    638.913    643.112    639.385    638.913    638.913
 13.470    616.000    642.513    -26.513    638.437    642.033    638.916    638.437    638.437
 13.570    640.000    641.570     -1.570    637.960    641.084    638.445    637.960    637.960
 13.670    600.807    640.729    -39.922    637.483    640.236    637.974    637.483    637.483
 13.770    656.104    639.976     16.128    637.004    639.477    637.503    637.004    637.004
 13.870    637.943    639.257     -1.315    636.525    638.752    637.030    636.525    636.525
 13.970    596.000    638.579    -42.579    636.046    638.066    636.558    636.046    636.046
 14.070    628.000    637.935     -9.935    635.566    637.415    636.084    635.566    635.566
 14.170    607.000    637.316    -30.316    635.085    636.790    635.610    635.085    635.085
 14.270    610.597    636.718    -26.120    634.603    636.184    635.136    634.603    634.603
 14.370    594.000    636.137    -42.137    634.121    635.596    634.661    634.121    634.121
 14.470    642.000    635.570      6.430    633.639    635.022    634.186    633.639    633.639
 14.570    681.734    635.015     46.718    633.155    634.459    633.711    633.155    633.155
 14.670    606.000    634.470    -28.470    632.672    633.906    633.235    632.672    632.672
 14.770    595.000    633.934    -38.934    632.188    633.362    632.759    632.188    632.188
 14.870    614.000    633.404    -19.404    631.703    632.824    632.283    631.703    631.703
 14.970    631.048    632.880     -1.832    631.219    632.292    631.807    631.219    631.219
 15.070    603.000    632.362    -29.362    630.733    631.765    631.330    630.733    630.733
 15.170    677.000    631.848     45.152    630.248    631.242    630.853    630.248    630.248
 15.270    626.000    631.338     -5.338    629.762    630.723    630.377    629.762    629.762
 15.370    672.000    630.831     41.169    629.276    630.207    629.900    629.276    629.276
 15.470    651.000    630.328     20.672    628.789    629.695    629.423    628.789    628.789
 15.570    673.202    629.830     43.372    628.303    629.187    628.945    628.303    628.303
 15.670    619.215    629.334    -10.119    627.816    628.681    628.468    627.816    627.816
 15.770    645.123    628.838     16.285    627.329    628.176    627.991    627.329    627.329
 15.870    632.261    628.345      3.916    626.842    627.672    627.514    626.842    626.842
 15.970    571.000    627.855    -56.855    626.354    627.171    627.038    626.354    626.354
 16.070    646.592    627.369     19.223    625.867    626.675    626.561    625.867    625.867
 16.170    588.000    626.881    -38.881    625.379    626.176    626.084    625.379    625.379
 16.270    587.000    626.394    -39.394    624.892    625.677    625.608    624.892    624.892
 16.370    637.000    625.908     11.092    624.404    625.180    625.132    624.404    624.404
 16.470    618.000    625.424     -7.424    623.916    624.683    624.657    623.916    623.916
 16.570    576.000    624.941    -48.941    623.429    624.188    624.181    623.429    623.429
 16.670    612.000    624.464    -12.464    622.941    623.699    623.706    622.941    622.941
 16.770    583.000    624.033    -41.033    622.453    623.255    623.231    622.453    622.453
 16.870    614.736    623.582     -8.846    621.966    622.791    622.757    621.966    621.966
 16.970    605.000    623.106    -18.106    621.478    622.302    622.283    621.478    621.478
 17.070    565.000    622.630    -57.630    620.991    621.811    621.809    620.991    620.991
 17.170    632.721    622.155     10.566    620.504    621.322    621.336    620.504    620.504
 17.270    595.204    621.689    -26.485    620.017    620.842    620.864    620.017    620.017
 17.370    584.000    621.237    -37.237    619.530    620.375    620.392    619.530    619.530
 17.470    627.000    620.768      6.232    619.043    619.891    619.921    619.043    619.043
 17.570    585.691    620.309    -34.617    618.557    619.416    619.450    618.557    618.557
 17.670    591.000    619.842    -28.842    618.071    618.932    618.980    618.071    618.071
 17.770    606.000    619.373    -13.373    617.585    618.448    618.511    617.585    617.585
 17.870    581.000    618.913    -37.913    617.099    617.969    618.043    617.099    617.099
 17.970    600.000    618.511    -18.511    616.614    617.540    617.585    616.614    616.614
 18.070    558.000    618.055    -60.055    616.129    617.064    617.120    616.129    616.129
 18.170    661.000    617.592     43.408    615.645    616.583    616.654    615.645    615.645
 18.270    573.000    617.131    -44.131    615.161    616.103    616.189    615.161    615.161
 18.370    592.298    616.671    -24.373    614.677    615.623    615.725    614.677    614.677
 18.470    609.000    616.213     -7.213    614.194    615.145    615.262    614.194    614.194
 18.570    575.000    615.757    -40.757    613.711    614.668    614.800    613.711    613.711
 18.670    657.997    615.313     42.684    613.228    614.202    614.339    613.228    613.228
 18.770    613.000    614.860     -1.860    612.747    613.727    613.880    612.747    612.747
 18.870    650.242    614.408     35.834    612.265    613.252    613.421    612.265    612.265
 18.970    661.515    613.958     47.557    611.784    612.778    612.964    611.784    611.784
 19.070    649.462    613.510     35.952    611.304    612.307    612.508    611.304    611.304
 19.170    646.872    613.064     33.807    610.824    611.836    612.053    610.824    610.824
 19.270    583.000    612.619    -29.619    610.345    611.365    611.600    610.345    610.345
 19.370    570.821    612.176    -41.355    609.867    610.895    611.148    609.867    609.867
 19.470    628.000    611.736     16.264    609.389    610.427    610.697    609.389    609.389
 19.570    599.000    611.311    -12.311    608.911    609.972    610.250    608.911    608.911
 19.670    578.415    610.895    -32.480    608.435    609.526    609.804    608.435    608.435
 19.770    570.000    610.494    -40.494    607.959    609.090    609.363    607.959    607.959
 19.870    629.581    610.098     19.483    607.484    608.661    608.920    607.484    607.484
 19.970    641.000    609.676     31.324    607.009    608.207    608.478    607.009    607.009
 20.070    556.000    609.253    -53.253    606.535    607.750    608.038    606.535    606.535
 20.170    612.924    608.871      4.053    606.062    607.332    607.600    606.062    606.062
 20.270    614.000    608.476      5.524    605.590    606.902    607.165    605.590    605.590
 20.370    628.000    608.082     19.918    605.119    606.470    606.731    605.119    605.119
 20.470    608.000    607.678      0.322    604.648    606.027    606.299    604.648    604.648
 20.570    574.000    607.271    -33.271    604.178    605.579    605.869    604.178    604.178
 20.670    564.000    606.904    -42.904    603.709    605.170    605.443    603.709    603.709
 20.770    644.200    606.503     37.697    603.241    604.726    605.018    603.241    603.241
 20.870    583.000    606.100    -23.100    602.774    604.278    604.596    602.774    602.774
 20.970    642.165    605.703     36.462    602.307    603.834    604.176    602.307    602.307
 21.070    563.000    605.313    -42.313    601.842    603.395    603.760    601.842    601.842
 21.170    564.000    604.929    -40.929    601.377    602.959    603.348    601.377    601.377
 21.270    578.000    604.545    -26.545    600.914    602.522    602.937    600.914    600.914
 21.370    584.000    604.172    -20.172    600.451    602.093    602.530    600.451    600.451
 21.470    619.000    603.803     15.197    599.990    601.665    602.127    599.990    599.990
 21.570    590.411    603.432    -13.021    599.529    601.235    601.726    599.529    599.529
 21.670    572.043    603.066    -31.023    599.069    600.807    601.329    599.069    599.069
 21.770    584.670    602.706    -18.037    598.611    600.382    600.935    598.611    598.611
 21.870    605.000    602.353      2.647    598.153    599.961    600.545    598.153    598.153
 21.970    628.169    602.008     26.161    597.697    599.545    600.159    597.697    597.697
 22.070    609.000    601.669      7.331    597.241    599.132    599.778    597.241    597.241
 22.170    552.832    601.337    -48.505    596.787    598.723    599.401    596.787    596.787
 22.270    572.000    601.014    -29.014    596.334    598.319    599.029    596.334    596.334
 22.370    648.900    600.702     48.198    595.881    597.922    598.661    595.881    595.881
 22.470    551.390    600.399    -49.010    595.430    597.530    598.300    595.430    595.430
 22.570    590.513    600.107     -9.594    594.980    597.145    597.943    594.980    594.980
 22.670    603.000    599.828      3.172    594.532    596.767    597.593    594.532    594.532
 22.770    597.000    599.562     -2.562    594.084    596.398    597.249    594.084    594.084
 22.870    586.000    599.312    -13.312    593.638    596.039    596.911    593.638    593.638
 22.970    579.000    599.079    -20.079    593.193    595.692    596.580    593.193    593.193
 23.070    632.000    598.867     33.133    592.749    595.359    596.258    592.749    592.749
 23.170    577.146    598.679    -21.532    592.306    595.043    595.943    592.306    592.306
 23.270    638.000    598.517     39.483    591.865    594.747    595.636    591.865    591.865
 23.370    604.000    598.388      5.612    591.424    594.475    595.338    591.424    591.424
 23.470    584.000    598.298    -14.298    590.985    594.234    595.050    590.985    590.985
 23.570    582.957    598.255    -15.298    590.548    594.032    594.772    590.548    590.548
 23.670    622.177    598.270     23.906    590.111    593.878    594.505    590.111    590.111
 23.770    598.000    598.362     -0.362    589.676    593.790    594.250    589.676    589.676
 23.870    607.000    598.551      8.449    589.243    593.788    594.007    589.243    589.243
 23.970    579.930    598.871    -18.940    588.810    593.904    593.779    588.810    588.810
 24.070    639.243    599.381     39.862    588.379    594.198    593.565    588.379    588.379
 24.170    576.000    600.206    -24.206    587.949    594.791    593.368    587.949    587.949
 24.270    582.000    601.633    -19.633    587.521    595.971    593.188    587.521    587.521
 24.370    641.805    604.307     37.498    587.094    598.381    593.027    587.094    587.094
 24.470    644.225    609.448     34.778    586.669    603.239    592.887    586.669    586.669
 24.570    635.790    618.776     17.015    586.244    612.267    592.770    586.244    586.244
 24.670    674.000    633.691     40.309    585.822    626.862    592.678    585.822    585.822
 24.770    618.005    653.518    -35.512    585.400    646.346    592.614    585.400    585.400
 24.870    685.000    673.095     11.905    584.981    665.552    592.580    584.981    584.981
 24.970    708.000    682.019     25.981    584.562    674.065    592.580    584.562    584.562
 25.070    704.964    673.455     31.509    584.145    665.039    592.617    584.145    584.145
 25.170    686.030    654.140     31.891    583.730    645.216    592.696    583.730    583.730
 25.270    645.000    634.497     10.503    583.316    625.019    592.822    583.316    583.316
 25.370    701.000    619.759     81.241    582.903    609.679    593.000    582.903    582.903
 25.470    651.000    610.656     40.344    582.492    599.919    593.240    582.492    582.492
 25.570    602.000    605.814     -3.814    582.083    594.357    593.545    582.083    582.083
 25.670    582.000    603.512    -21.512    581.675    591.265    593.926    581.675    581.675
 25.770    651.000    602.545     48.455    581.268    589.422    594.394    581.268    581.268
 25.870    648.000    602.280     45.720    580.864    588.183    594.962    580.864    580.864
 25.970    608.000    602.445      5.555    580.460    587.260    595.646    580.460    580.460
 26.070    639.000    602.939     36.061    580.058    586.534    596.464    580.058    580.058
 26.170    675.000    603.728     71.272    579.658    585.947    597.440    579.658    579.658
 26.270    635.000    604.811     30.189    579.260    585.470    598.601    579.260    579.260
 26.370    625.000    606.208     18.792    578.863    585.088    599.982    578.863    578.863
 26.470    605.091    607.952     -2.862    578.467    584.790    601.629    578.467    578.467
 26.570    632.000    610.090     21.910    578.074    584.573    603.590    578.074    578.074
 26.670    595.000    612.695    -17.695    577.681    584.438    605.937    577.681    577.681
 26.770    569.479    615.864    -46.384    577.291    584.391    608.762    577.291    577.291
 26.870    660.000    619.725     40.275    576.902    584.444    612.181    576.902    576.902
 26.970    628.000    624.454      3.546    576.515    584.615    616.351    576.515    576.515
 27.070    662.000    630.289     31.711    576.129    584.929    621.486    576.129    576.129
 27.170    636.826    637.560     -0.734    575.745    585.422    627.879    575.745    575.745
 27.270    700.000    646.738     53.262    575.363    586.147    635.948    575.363    575.363
 27.370    709.326    658.516     50.810    574.983    587.184    646.308    574.983    574.983
 27.470    621.954    674.016    -52.063    574.604    588.660    659.951    574.604    574.604
 27.570    663.512    695.446    -31.934    574.227    590.826    678.835    574.227    574.227
 27.670    725.840    728.357     -2.517    573.851    594.309    707.882    573.851    573.851
 27.770    841.000    787.950     53.050    573.477    600.822    760.577    573.477    573.477
 27.870    859.269    911.111    -51.841    573.105    614.515    869.645    573.105    573.105
 27.970   1106.000   1166.287    -60.287    572.735    643.090   1095.821    572.735    572.735
 28.070   1651.950   1635.286     16.664    572.367    695.752   1511.699    572.367    572.367
 28.170   2381.902   2340.786     41.116    572.000    775.083   2137.393    572.000    572.000
 28.270   3084.451   3136.644    -52.194    571.635    864.741   2843.162    571.635    571.635
 28.370   3751.225   3659.046     92.179    571.271    924.032   3305.965    571.271    571.271
 28.470   3660.000   3577.418     82.582    570.910    916.218   3231.957    570.910    570.910
 28.570   3030.000   3007.747     22.253    570.550    855.138   2723.148    570.550    570.550
 28.670   2317.961   2372.436    -54.476    570.192    789.539   2153.126    570.192    570.192
 28.770   1945.173   1994.979    -49.805    569.836    757.075   1807.760    569.836    569.836
 28.870   1912.000   1954.512    -42.512    569.482    766.695   1757.288    569.482    569.482
 28.970   2106.000   2128.237    -22.237    569.129    801.632   1895.723    569.129    569.129
 29.070   2175.248   2273.086    -97.838    568.778    827.720   2014.177    568.778    568.778
 29.170   2231.163   2181.130     50.032    568.429    815.224   1934.436    568.429    568.429
 29.270   1823.626   1859.662    -36.036    568.082    766.439   1661.437    568.082    568.082
 29.370   1503.642   1468.748     34.894    567.737    706.563   1330.039    567.737    567.737
 29.470   1148.000   1140.641      7.359    567.393    656.208   1051.908    567.393    567.393
 29.570    927.000    919.642      7.358    567.051    622.298    864.444    567.051    567.051
 29.670    790.000    791.511     -1.511    566.711    602.676    755.572    566.711    566.711
 29.770    697.671    722.924    -25.253    566.373    592.221    697.090    566.373    566.373
 29.870    656.246    685.681    -29.436    566.037    586.599    665.126    566.037    566.037
 29.970    750.000    663.322     86.678    565.703    583.290    645.738    565.703    565.703
 30.070    613.354    648.213    -34.859    565.370    581.138    632.446    565.370    565.370
 30.170    683.000    637.214     45.786    565.040    579.696    622.558    565.040    565.040
 30.270    588.169    629.052    -40.883    564.711    578.834    614.928    564.711    564.711
 30.370    682.000    623.285     58.715    564.384    578.630    609.036    564.384    564.384
