neutron_powder_diffraction_0107
R_wp: 3.962
Temperature (K): 923.166
Counts: 83302.00
Wavelength (Ã…): 2.52098
COMMENTS
Test file for demonstrating the .xyy file format in Reel1.0
END OF HEADER
   tth       Y_obs     Y_calc      Y_res    Background    Phase_1_Nuc    Phase_1_Mag    Phase_2_Nuc    Phase_2_Mag
  9.970    603.000    550.654     52.346    549.374    550.412    549.374    549.616    549.374
 10.070    579.000    551.101     27.899    549.731    550.858    549.731    549.974    549.731
 10.170    558.485    551.551      6.933    550.079    551.307    550.079    550.323    550.079
 10.270    530.194    552.008    -21.814    550.418    551.763    550.418    550.663    550.418
 10.370    538.178    552.475    -14.297    550.748    552.228    550.748    550.994    550.748
 10.470    563.000    552.959     10.041    551.070    552.712    551.070    551.316    551.070
 10.570    606.000    553.460     52.540    551.382    553.211    551.382    551.630    551.382
 10.670    600.000    553.986     46.014    551.686    553.736    551.686    551.935    551.686
 10.770    527.052    554.547    -27.496    551.981    554.296    551.981    552.231    551.981
 10.870    538.000    555.157    -17.157    552.268    554.905    552.268    552.519    552.268
 10.970    588.806    555.834     32.972    552.546    555.580    552.546    552.798    552.546
 11.070    576.728    556.601     20.127    552.816    556.346    552.816    553.068    552.816
 11.170    553.000    557.494     -4.494    553.077    557.238    553.077    553.331    553.077
 11.270    589.804    558.572     31.232    553.330    558.314    553.330    553.585    553.330
 11.370    592.000    559.935     32.065    553.575    559.676    553.575    553.831    553.575
 11.470    576.000    561.803     14.197    553.812    561.542    553.812    554.069    553.812
 11.570    580.106    564.675     15.431    554.041    564.411    554.041    554.299    554.041
 11.670    535.743    569.619    -33.876    554.261    569.351    554.261    554.521    554.261
 11.770    614.000    578.530     35.470    554.474    578.256    554.474    554.735    554.474
 11.870    595.000    593.860      1.140    554.679    593.576    554.679    554.941    554.679
 11.970    659.000    617.188     41.812    554.877    616.890    554.877    555.140    554.877
 12.070    687.000    646.386     40.614    555.066    646.070    555.066    555.330    555.066
 12.170    664.379    672.250     -7.871    555.248    671.918    555.248    555.514    555.248
 12.270    667.000    680.071    -13.071    555.423    679.734    555.423    555.689    555.423
 12.370    681.146    663.719     17.427    555.590    663.389    555.590    555.858    555.590
 12.470    683.000    634.876     48.124    555.749    634.562    555.749    556.018    555.749
 12.570    569.740    607.591    -37.851    555.902    607.292    555.902    556.172    555.902
 12.670    551.219    587.891    -36.673    556.047    587.602    556.047    556.318    556.047
 12.770    568.000    575.881     -7.881    556.184    575.597    556.184    556.457    556.184
 12.870    555.057    569.298    -14.241    556.315    569.017    556.315    556.589    556.315
 12.970    555.000    565.792    -10.792    556.439    565.512    556.439    556.714    556.439
 13.070    551.210    563.806    -12.596    556.555    563.526    556.555    556.832    556.555
 13.170    533.610    562.553    -28.943    556.665    562.273    556.665    556.942    556.665
 13.270    568.000    561.687      6.313    556.767    561.406    556.767    557.046    556.767
 13.370    507.000    561.055    -54.055    556.863    560.772    556.863    557.144    556.863
 13.470    535.000    560.580    -25.580    556.953    560.296    556.953    557.234    556.953
 13.570    518.000    560.216    -42.216    557.035    559.931    557.035    557.318    557.035
 13.670    534.000    559.933    -25.933    557.111    559.647    557.111    557.395    557.111
 13.770    531.000    559.710    -28.710    557.180    559.423    557.180    557.466    557.180
 13.870    580.590    559.532     21.058    557.243    559.243    557.243    557.530    557.243
 13.970    554.000    559.387     -5.387    557.300    559.098    557.300    557.588    557.300
 14.070    582.000    559.268     22.732    557.350    558.978    557.350    557.640    557.350
 14.170    564.671    559.169      5.502    557.394    558.877    557.394    557.685    557.394
 14.270    606.000    559.084     46.916    557.431    558.790    557.431    557.724    557.431
 14.370    548.000    559.010    -11.010    557.463    558.715    557.463    557.757    557.463
 14.470    573.000    558.945     14.055    557.488    558.649    557.488    557.784    557.488
 14.570    562.000    558.886      3.114    557.508    558.588    557.508    557.805    557.508
 14.670    565.000    558.830      6.170    557.521    558.531    557.521    557.820    557.521
 14.770    600.529    558.777     41.752    557.528    558.476    557.528    557.829    557.528
 14.870    575.000    558.725     16.275    557.530    558.423    557.530    557.832    557.530
 14.970    569.000    558.673     10.327    557.526    558.369    557.526    557.829    557.526
 15.070    534.000    558.621    -24.621    557.516    558.316    557.516    557.821    557.516
 15.170    581.406    558.568     22.838    557.500    558.261    557.500    557.807    557.500
 15.270    526.000    558.514    -32.514    557.479    558.205    557.479    557.788    557.479
 15.370    558.080    558.458     -0.378    557.452    558.148    557.452    557.763    557.452
 15.470    540.000    558.413    -18.413    557.420    558.101    557.420    557.732    557.420
 15.570    595.514    558.366     37.148    557.383    558.052    557.383    557.696    557.383
 15.670    557.615    558.303     -0.688    557.340    557.988    557.340    557.655    557.340
 15.770    513.779    558.236    -44.457    557.291    557.919    557.291    557.608    557.291
 15.870    558.000    558.165     -0.165    557.238    557.846    557.238    557.557    557.238
 15.970    601.791    558.092     43.699    557.179    557.771    557.179    557.500    557.179
 16.070    561.153    558.015      3.138    557.115    557.693    557.115    557.438    557.115
 16.170    570.828    557.938     12.889    557.046    557.614    557.046    557.370    557.046
 16.270    510.000    557.854    -47.854    556.972    557.528    556.972    557.298    556.972
 16.370    547.000    557.766    -10.766    556.893    557.438    556.893    557.221    556.893
 16.470    559.568    557.677      1.890    556.809    557.347    556.809    557.139    556.809
 16.570    543.000    557.627    -14.627    556.721    557.295    556.721    557.053    556.721
 16.670    561.323    557.601      3.721    556.627    557.268    556.627    556.961    556.627
 16.770    586.593    557.505     29.088    556.529    557.169    556.529    556.865    556.529
 16.870    558.000    557.398      0.602    556.426    557.060    556.426    556.764    556.426
 16.970    549.000    557.287     -8.287    556.319    556.947    556.319    556.659    556.319
 17.070    538.000    557.172    -19.172    556.207    556.830    556.207    556.549    556.207
 17.170    511.000    557.054    -46.054    556.090    556.709    556.090    556.434    556.090
 17.270    590.902    556.931     33.971    555.969    556.585    555.969    556.315    555.969
 17.370    521.268    556.805    -35.537    555.843    556.456    555.843    556.192    555.843
 17.470    550.000    556.675     -6.675    555.714    556.324    555.714    556.064    555.714
 17.570    566.000    556.541      9.459    555.580    556.188    555.580    555.933    555.580
 17.670    562.065    556.404      5.661    555.441    556.049    555.441    555.797    555.441
 17.770    536.069    556.263    -20.194    555.299    555.905    555.299    555.656    555.299
 17.870    591.249    556.119     35.130    555.152    555.759    555.152    555.512    555.152
 17.970    537.000    555.977    -18.977    555.001    555.614    555.001    555.364    555.001
 18.070    552.845    555.826     -2.981    554.846    555.461    554.846    555.211    554.846
 18.170    532.000    555.670    -23.670    554.688    555.303    554.688    555.055    554.688
 18.270    509.000    555.512    -46.512    554.525    555.142    554.525    554.895    554.525
 18.370    540.000    555.350    -15.350    554.358    554.977    554.358    554.731    554.358
 18.470    526.000    555.184    -29.184    554.188    554.809    554.188    554.563    554.188
 18.570    505.000    555.015    -50.015    554.014    554.638    554.014    554.392    554.014
 18.670    535.255    554.847    -19.591    553.836    554.466    553.836    554.216    553.836
 18.770    560.721    554.673      6.048    553.654    554.289    553.654    554.038    553.654
 18.870    568.870    554.500     14.370    553.469    554.113    553.469    553.855    553.469
 18.970    560.000    554.372      5.628    553.280    553.983    553.280    553.669    553.280
 19.070    511.938    554.205    -42.266    553.088    553.812    553.088    553.480    553.088
 19.170    583.789    554.018     29.771    552.892    553.623    552.892    553.287    552.892
 19.270    541.000    553.828    -12.828    552.693    553.430    552.693    553.091    552.693
 19.370    541.000    553.635    -12.635    552.490    553.234    552.490    552.891    552.490
 19.470    516.000    553.439    -37.439    552.284    553.035    552.284    552.689    552.284
 19.570    547.000    553.241     -6.241    552.075    552.833    552.075    552.483    552.075
 19.670    585.282    553.040     32.242    551.862    552.629    551.862    552.274    551.862
 19.770    593.000    552.836     40.164    551.647    552.422    551.647    552.061    551.647
 19.870    539.950    552.630    -12.679    551.428    552.212    551.428    551.846    551.428
 19.970    534.634    552.421    -17.787    551.206    551.999    551.206    551.628    551.206
 20.070    543.000    552.210     -9.210    550.981    551.785    550.981    551.406    550.981
 20.170    557.000    551.998      5.002    550.753    551.569    550.753    551.182    550.753
 20.270    543.000    551.795     -8.795    550.522    551.363    550.522    550.955    550.522
 20.370    517.868    551.581    -33.713    550.289    551.145    550.289    550.725    550.289
 20.470    568.000    551.381     16.619    550.052    550.941    550.052    550.492    550.052
 20.570    494.000    551.175    -57.175    549.812    550.731    549.812    550.257    549.812
 20.670    548.130    550.957     -2.827    549.570    550.508    549.570    550.019    549.570
 20.770    573.000    550.732     22.268    549.325    550.279    549.325    549.778    549.325
 20.870    572.075    550.509     21.566    549.078    550.052    549.078    549.535    549.078
 20.970    540.000    550.313    -10.313    548.827    549.851    548.827    549.289    548.827
 21.070    538.000    550.100    -12.100    548.574    549.634    548.574    549.041    548.574
 21.170    555.000    549.872      5.128    548.319    549.401    548.319    548.790    548.319
 21.270    576.816    549.641     27.175    548.061    549.165    548.061    548.537    548.061
 21.370    539.000    549.409    -10.409    547.801    548.929    547.801    548.282    547.801
 21.470    518.324    549.177    -30.853    547.538    548.691    547.538    548.024    547.538
 21.570    551.863    548.945      2.918    547.273    548.454    547.273    547.764    547.273
 21.670    506.000    548.712    -42.712    547.005    548.216    547.005    547.502    547.005
 21.770    565.000    548.480     16.520    546.735    547.978    546.735    547.237    546.735
 21.870    578.000    548.250     29.750    546.463    547.742    546.463    546.971    546.463
 21.970    538.000    548.039    -10.039    546.189    547.525    546.189    546.703    546.189
 22.070    504.432    547.821    -43.389    545.912    547.301    545.912    546.432    545.912
 22.170    605.000    547.597     57.403    545.634    547.071    545.634    546.160    545.634
 22.270    574.000    547.397     26.603    545.353    546.865    545.353    545.886    545.353
 22.370    543.354    547.236     -3.882    545.070    546.697    545.070    545.610    545.070
 22.470    536.000    547.042    -11.042    544.786    546.496    544.786    545.332    544.786
 22.570    536.000    546.844    -10.844    544.499    546.291    544.499    545.052    544.499
 22.670    574.000    546.643     27.357    544.210    546.083    544.210    544.771    544.210
 22.770    544.000    546.483     -2.483    543.920    545.915    543.920    544.488    543.920
 22.870    525.000    546.300    -21.300    543.628    545.724    543.628    544.204    543.628
 22.970    588.000    546.124     41.876    543.333    545.540    543.333    543.918    543.333
 23.070    534.000    545.969    -11.969    543.037    545.377    543.037    543.630    543.037
 23.170    511.522    545.836    -34.314    542.740    545.235    542.740    543.341    542.740
 23.270    516.679    545.728    -29.049    542.441    545.118    542.441    543.051    542.441
 23.370    564.955    545.650     19.305    542.140    545.031    542.140    542.760    542.140
 23.470    508.113    545.603    -37.491    541.837    544.975    541.837    542.467    541.837
 23.570    551.000    545.603      5.397    541.533    544.964    541.533    542.173    541.533
 23.670    559.000    545.670     13.330    541.227    545.020    541.227    541.878    541.227
 23.770    533.236    545.828    -12.591    540.920    545.168    540.920    541.582    540.920
 23.870    537.000    546.117     -9.117    540.611    545.446    540.611    541.285    540.611
 23.970    535.000    546.604    -11.604    540.301    545.921    540.301    540.987    540.301
 24.070    563.000    547.434     15.566    539.990    546.740    539.990    540.688    539.990
 24.170    513.000    548.940    -35.940    539.677    548.234    539.677    540.388    539.677
 24.270    567.000    551.819     15.181    539.363    551.101    539.363    540.088    539.363
 24.370    564.000    557.294      6.706    539.047    556.566    539.047    539.786    539.047
 24.470    542.924    566.940    -24.015    538.731    566.204    538.731    539.485    538.731
 24.570    653.000    581.807     71.193    538.413    581.066    538.413    539.183    538.413
 24.670    615.000    600.719     14.281    538.094    599.975    538.094    538.880    538.094
 24.770    613.297    618.111     -4.814    537.773    617.361    537.773    538.577    537.773
 24.870    616.000    624.327     -8.327    537.452    623.564    537.452    538.274    537.452
 24.970    568.219    614.340    -46.121    537.130    613.551    537.130    537.971    537.130
 25.070    582.000    595.164    -13.164    536.806    594.342    536.806    537.668    536.806
 25.170    593.000    576.264     16.736    536.482    575.407    536.482    537.365    536.482
 25.270    596.000    562.084     33.916    536.156    561.194    536.156    537.062    536.156
 25.370    527.000    553.057    -26.057    535.830    552.137    535.830    536.760    535.830
 25.470    556.000    547.859      8.141    535.503    546.910    535.503    536.458    535.503
 25.570    564.000    544.929     19.071    535.175    543.952    535.175    536.157    535.175
 25.670    584.460    543.165     41.295    534.846    542.158    534.846    535.856    534.846
 25.770    563.000    541.975     21.025    534.516    540.937    534.516    535.557    534.516
 25.870    555.000    541.092     13.908    534.185    540.021    534.185    535.258    534.185
 25.970    521.222    540.397    -19.176    533.854    539.292    533.854    534.962    533.854
 26.070    575.430    539.837     35.594    533.522    538.694    533.522    534.666    533.522
 26.170    568.182    539.378     28.804    533.189    538.196    533.189    534.373    533.189
 26.270    565.000    539.004     25.996    532.856    537.779    532.856    534.082    532.856
 26.370    541.000    538.703      2.297    532.522    537.433    532.522    533.793    532.522
 26.470    506.417    538.470    -32.053    532.187    537.152    532.187    533.507    532.187
 26.570    554.031    538.302     15.729    531.852    536.931    531.852    533.224    531.852
 26.670    574.000    538.202     35.798    531.517    536.774    531.517    532.945    531.517
 26.770    535.662    538.174     -2.512    531.181    536.686    531.181    532.670    531.181
 26.870    537.000    538.231     -1.231    530.844    536.676    530.844    532.399    530.844
 26.970    528.000    538.387    -10.387    530.507    536.760    530.507    532.134    530.507
 27.070    532.000    538.665     -6.665    530.170    536.961    530.170    531.874    530.170
 27.170    580.000    539.099     40.901    529.832    537.310    529.832    531.620    529.832
 27.270    549.000    539.737      9.263    529.494    537.857    529.494    531.374    529.494
 27.370    573.000    540.658     32.342    529.155    538.677    529.155    531.135    529.155
 27.470    556.686    541.998     14.688    528.816    539.908    528.816    530.906    528.816
 27.570    500.462    544.110    -43.647    528.477    541.900    528.477    530.686    528.477
 27.670    577.630    548.151     29.479    528.138    545.810    528.138    530.477    528.138
 27.770    566.000    557.783      8.217    527.799    555.295    527.799    530.279    527.799
 27.870    545.263    581.910    -36.647    527.459    579.258    527.459    530.095    527.459
 27.970    631.000    634.697     -3.697    527.119    631.856    527.119    529.926    527.119
 28.070    748.000    725.268     22.732    526.779    722.212    526.779    529.771    526.779
 28.170    763.000    836.942    -73.942    526.439    833.659    526.439    529.634    526.439
 28.270    968.000    916.607     51.393    526.099    913.100    526.099    529.514    526.099
 28.370    884.000    911.212    -27.212    525.759    907.492    525.759    529.413    525.759
 28.470    851.082    832.155     18.927    525.419    828.208    525.419    529.331    525.419
 28.570    749.000    744.360      4.640    525.079    740.153    525.079    529.267    525.079
 28.670    675.102    702.071    -26.970    524.738    697.572    524.738    529.222    524.738
 28.770    722.000    718.182      3.818    524.398    713.368    524.398    529.192    524.398
 28.870    766.969    769.024     -2.055    524.058    763.884    524.058    529.175    524.058
 28.970    819.000    808.921     10.079    523.718    803.458    523.718    529.165    523.718
 29.070    828.603    798.667     29.936    523.379    792.889    523.379    529.155    523.379
 29.170    767.000    740.786     26.214    523.039    734.699    523.039    529.135    523.039
 29.270    687.707    668.961     18.746    522.700    662.578    522.700    529.094    522.700
 29.370    611.000    610.963      0.037    522.360    604.313    522.360    529.019    522.360
 29.470    563.642    574.971    -11.330    522.022    568.100    522.022    528.897    522.022
 29.570    539.000    556.410    -17.410    521.683    549.379    521.683    528.716    521.683
 29.670    568.000    547.675     20.325    521.344    540.554    521.344    528.467    521.344
 29.770    602.000    543.349     58.651    521.006    536.214    521.006    528.142    521.006
 29.870    566.856    540.803     26.053    520.668    533.729    520.668    527.743    520.668
 29.970    583.145    539.038     44.108    520.331    532.096    520.331    527.273    520.331
 30.070    566.000    537.730     28.270    519.994    530.983    519.994    526.741    519.994
 30.170    560.000    536.808     23.192    519.657    530.307    519.657    526.158    519.657
 30.270    578.224    536.365     41.859    519.321    530.147    519.321    525.538    519.321
 30.370    574.000    536.761     37.239    518.985    530.850    518.985    524.893    518.985
