neutron_powder_diffraction_0109
R_wp: 3.971
Temperature (K): 932.733
Counts: 84097.00
Wavelength (Ã…): 2.52098
COMMENTS
Test file for demonstrating the .xyy file format in Reel1.0
END OF HEADER
   tth       Y_obs     Y_calc      Y_res    Background    Phase_1_Nuc    Phase_1_Mag    Phase_2_Nuc    Phase_2_Mag
  9.970    518.634    563.403    -44.769    562.139    563.162    562.139    562.380    562.139
 10.070    585.188    563.693     21.496    562.341    563.451    562.341    562.582    562.341
 10.170    534.852    563.987    -29.135    562.534    563.744    562.534    562.777    562.534
 10.270    640.000    564.288     75.712    562.719    564.044    562.719    562.963    562.719
 10.370    578.000    564.600     13.400    562.897    564.355    562.897    563.141    562.897
 10.470    577.000    564.927     12.073    563.066    564.680    563.066    563.312    563.066
 10.570    525.218    565.273    -40.055    563.228    565.025    563.228    563.475    563.228
 10.670    594.000    565.647     28.353    563.383    565.398    563.383    563.630    563.383
 10.770    565.714    566.062     -0.348    563.530    565.812    563.530    563.778    563.530
 10.870    564.000    566.522     -2.522    563.669    566.271    563.669    563.919    563.669
 10.970    590.495    567.048     23.447    563.801    566.795    563.801    564.052    563.801
 11.070    605.000    567.664     37.336    563.926    567.411    563.926    564.178    563.926
 11.170    536.386    568.408    -32.022    564.043    568.153    564.043    564.296    564.043
 11.270    564.000    569.335     -5.335    564.153    569.078    564.153    564.407    564.153
 11.370    563.362    570.547     -7.185    564.256    570.288    564.256    564.512    564.256
 11.470    601.000    572.261     28.739    564.352    572.001    564.352    564.609    564.352
 11.570    590.708    574.982     15.726    564.441    574.719    564.441    564.699    564.441
 11.670    605.188    579.798     25.390    564.523    579.531    564.523    564.782    564.523
 11.770    582.636    588.659     -6.022    564.599    588.385    564.599    564.858    564.599
 11.870    609.328    604.101      5.228    564.667    603.818    564.667    564.928    564.667
 11.970    664.181    627.757     36.424    564.729    627.460    564.729    564.991    564.729
 12.070    698.000    657.375     40.625    564.784    657.059    564.784    565.047    564.784
 12.170    681.000    683.366     -2.366    564.832    683.035    564.832    565.096    564.832
 12.270    669.000    690.709    -21.709    564.874    690.372    564.874    565.140    564.874
 12.370    639.000    673.510    -34.510    564.910    673.181    564.910    565.176    564.910
 12.470    645.000    643.916      1.084    564.939    643.603    564.939    565.206    564.939
 12.570    581.000    616.185    -35.185    564.961    615.887    564.961    565.230    564.961
 12.670    595.000    596.315     -1.315    564.978    596.027    564.978    565.248    564.978
 12.770    562.696    584.278    -21.582    564.988    583.996    564.988    565.259    564.988
 12.870    620.892    577.690     43.202    564.992    577.411    564.992    565.265    564.992
 12.970    527.000    574.145    -47.145    564.990    573.866    564.990    565.264    564.990
 13.070    558.000    572.087    -14.087    564.982    571.808    564.982    565.257    564.982
 13.170    597.000    570.743     26.257    564.968    570.463    564.968    565.244    564.968
 13.270    556.000    569.777    -13.777    564.948    569.497    564.948    565.226    564.948
 13.370    564.741    569.038     -4.297    564.922    568.757    564.922    565.201    564.922
 13.470    560.000    568.453     -8.453    564.890    568.171    564.890    565.171    564.890
 13.570    533.000    567.978    -34.978    564.853    567.695    564.853    565.135    564.853
 13.670    555.624    567.584    -11.960    564.810    567.299    564.810    565.094    564.810
 13.770    563.000    567.249     -4.249    564.762    566.963    564.762    565.046    564.762
 13.870    569.246    566.958      2.288    564.708    566.671    564.708    564.994    564.708
 13.970    583.881    566.702     17.179    564.648    566.413    564.648    564.936    564.648
 14.070    522.764    566.471    -43.707    564.583    566.181    564.583    564.872    564.583
 14.170    576.000    566.260      9.740    564.513    565.969    564.513    564.803    564.513
 14.270    565.000    566.064     -1.064    564.437    565.772    564.437    564.729    564.437
 14.370    584.043    565.880     18.163    564.357    565.586    564.357    564.650    564.357
 14.470    607.000    565.705     41.295    564.271    565.409    564.271    564.565    564.271
 14.570    549.000    565.536    -16.536    564.179    565.239    564.179    564.476    564.179
 14.670    538.052    565.371    -27.319    564.083    565.073    564.083    564.381    564.083
 14.770    539.000    565.211    -26.211    563.982    564.912    563.982    564.281    563.982
 14.870    557.000    565.054     -8.054    563.876    564.753    563.876    564.177    563.876
 14.970    554.000    564.897    -10.897    563.765    564.594    563.765    564.067    563.765
 15.070    573.629    564.740      8.890    563.649    564.435    563.649    563.953    563.649
 15.170    532.250    564.582    -32.332    563.529    564.276    563.529    563.834    563.529
 15.270    558.870    564.424     -5.554    563.403    564.117    563.403    563.711    563.403
 15.370    557.902    564.265     -6.363    563.273    563.956    563.273    563.582    563.273
 15.470    574.000    564.104      9.896    563.139    563.794    563.139    563.449    563.139
 15.570    549.481    563.942    -14.461    562.999    563.629    562.999    563.312    562.999
 15.670    553.000    563.779    -10.779    562.856    563.465    562.856    563.170    562.856
 15.770    546.000    563.628    -17.628    562.708    563.312    562.708    563.024    562.708
 15.870    560.060    563.471     -3.410    562.555    563.153    562.555    562.873    562.555
 15.970    534.341    563.300    -28.959    562.398    562.980    562.398    562.718    562.398
 16.070    598.000    563.126     34.874    562.237    562.804    562.237    562.559    562.237
 16.170    533.291    562.949    -29.658    562.072    562.625    562.072    562.395    562.072
 16.270    595.275    562.769     32.506    561.902    562.444    561.902    562.227    561.902
 16.370    529.000    562.586    -33.586    561.729    562.259    561.729    562.056    561.729
 16.470    549.000    562.400    -13.400    561.551    562.072    561.551    561.880    561.551
 16.570    542.000    562.214    -20.214    561.369    561.883    561.369    561.700    561.369
 16.670    563.000    562.025      0.975    561.184    561.692    561.184    561.516    561.184
 16.770    543.272    561.836    -18.564    560.994    561.501    560.994    561.329    560.994
 16.870    584.315    561.703     22.613    560.801    561.366    560.801    561.137    560.801
 16.970    588.350    561.556     26.793    560.603    561.217    560.603    560.942    560.603
 17.070    553.000    561.357     -8.357    560.402    561.016    560.402    560.743    560.402
 17.170    530.739    561.151    -30.412    560.198    560.808    560.198    560.541    560.198
 17.270    577.000    560.941     16.059    559.989    560.596    559.989    560.335    559.989
 17.370    601.558    560.729     40.829    559.777    560.381    559.777    560.125    559.777
 17.470    543.000    560.513    -17.513    559.562    560.163    559.562    559.912    559.562
 17.570    538.000    560.294    -22.294    559.343    559.942    559.343    559.695    559.343
 17.670    570.000    560.073      9.927    559.120    559.719    559.120    559.475    559.120
 17.770    543.935    559.849    -15.913    558.895    559.492    558.895    559.251    558.895
 17.870    536.000    559.621    -23.621    558.665    559.262    558.665    559.024    558.665
 17.970    536.000    559.391    -23.391    558.433    559.030    558.433    558.794    558.433
 18.070    538.577    559.159    -20.582    558.197    558.795    558.197    558.561    558.197
 18.170    534.000    558.924    -24.924    557.958    558.558    557.958    558.324    557.958
 18.270    595.052    558.692     36.360    557.716    558.323    557.716    558.085    557.716
 18.370    580.000    558.451     21.549    557.470    558.080    557.470    557.842    557.470
 18.470    546.207    558.208    -12.001    557.222    557.834    557.222    557.596    557.222
 18.570    541.000    557.962    -16.962    556.971    557.585    556.971    557.348    556.971
 18.670    536.865    557.713    -20.848    556.716    557.334    556.716    557.096    556.716
 18.770    529.201    557.462    -28.261    556.459    557.080    556.459    556.841    556.459
 18.870    526.000    557.209    -31.209    556.199    556.824    556.199    556.584    556.199
 18.970    516.667    556.957    -40.290    555.936    556.569    555.936    556.324    555.936
 19.070    563.188    556.705      6.482    555.670    556.314    555.670    556.061    555.670
 19.170    535.000    556.504    -21.504    555.401    556.109    555.401    555.796    555.401
 19.270    555.000    556.254     -1.254    555.130    555.856    555.130    555.527    555.130
 19.370    559.000    555.990      3.010    554.856    555.590    554.856    555.257    554.856
 19.470    550.000    555.724     -5.724    554.580    555.320    554.580    554.983    554.580
 19.570    522.118    555.455    -33.337    554.301    555.048    554.301    554.708    554.301
 19.670    541.000    555.185    -14.185    554.019    554.775    554.019    554.429    554.019
 19.770    520.721    554.912    -34.192    553.735    554.499    553.735    554.149    553.735
 19.870    483.000    554.638    -71.638    553.449    554.221    553.449    553.866    553.449
 19.970    527.000    554.362    -27.362    553.160    553.942    553.160    553.580    553.160
 20.070    577.000    554.085     22.915    552.868    553.661    552.868    553.293    552.868
 20.170    548.000    553.806     -5.806    552.575    553.378    552.575    553.003    552.575
 20.270    551.000    553.525     -2.525    552.279    553.093    552.279    552.711    552.279
 20.370    554.000    553.243      0.757    551.981    552.808    551.981    552.417    551.981
 20.470    522.000    552.960    -30.960    551.681    552.520    551.681    552.120    551.681
 20.570    521.611    552.679    -31.068    551.378    552.235    551.378    551.822    551.378
 20.670    512.000    552.405    -40.405    551.074    551.957    551.074    551.522    551.074
 20.770    526.310    552.130    -25.820    550.767    551.678    550.767    551.220    550.767
 20.870    559.000    551.872      7.128    550.459    551.415    550.459    550.915    550.459
 20.970    551.889    551.622      0.267    550.148    551.161    550.148    550.609    550.148
 21.070    529.000    551.347    -22.347    549.836    550.882    549.836    550.302    549.836
 21.170    532.000    551.059    -19.059    549.522    550.589    549.522    549.992    549.522
 21.270    543.000    550.770     -7.770    549.206    550.295    549.206    549.681    549.206
 21.370    538.000    550.481    -12.481    548.888    550.001    548.888    549.368    548.888
 21.470    508.929    550.191    -41.262    548.568    549.706    548.568    549.053    548.568
 21.570    560.940    549.902     11.038    548.246    549.412    548.246    548.737    548.246
 21.670    541.610    549.614     -8.004    547.923    549.118    547.923    548.419    547.923
 21.770    519.527    549.326    -29.799    547.598    548.825    547.598    548.100    547.598
 21.870    548.790    549.039     -0.249    547.272    548.532    547.272    547.779    547.272
 21.970    532.000    548.754    -16.754    546.944    548.242    546.944    547.457    546.944
 22.070    575.000    548.474     26.526    546.614    547.955    546.614    547.134    546.614
 22.170    569.000    548.215     20.785    546.283    547.689    546.283    546.809    546.283
 22.270    531.000    547.947    -16.947    545.951    547.415    545.951    546.483    545.951
 22.370    550.517    547.677      2.841    545.617    547.138    545.617    546.156    545.617
 22.470    513.000    547.437    -34.437    545.282    546.892    545.282    545.827    545.282
 22.570    552.000    547.230      4.770    544.945    546.678    544.945    545.498    544.945
 22.670    538.000    546.982     -8.982    544.607    546.422    544.607    545.167    544.607
 22.770    505.981    546.750    -40.768    544.268    546.182    544.268    544.836    544.268
 22.870    598.000    546.529     51.471    543.927    545.954    543.927    544.503    543.927
 22.970    543.000    546.343     -3.343    543.585    545.760    543.585    544.169    543.585
 23.070    508.697    546.137    -37.440    543.243    545.545    543.243    543.835    543.243
 23.170    531.000    545.947    -14.947    542.899    545.346    542.899    543.500    542.899
 23.270    540.213    545.787     -5.574    542.553    545.177    542.553    543.164    542.553
 23.370    529.300    545.655    -16.355    542.207    545.036    542.207    542.827    542.207
 23.470    565.000    545.562     19.438    541.860    544.933    541.860    542.490    541.860
 23.570    551.000    545.526      5.474    541.512    544.888    541.512    542.152    541.512
 23.670    534.000    545.557    -11.557    541.163    544.908    541.163    541.813    541.163
 23.770    532.000    545.673    -13.673    540.812    545.014    540.812    541.474    540.812
 23.870    561.000    545.916     15.084    540.461    545.245    540.461    541.135    540.461
 23.970    538.630    546.358     -7.728    540.110    545.676    540.110    540.795    540.110
 24.070    518.000    547.149    -29.149    539.757    546.455    539.757    540.455    539.757
 24.170    547.000    548.631     -1.631    539.403    547.925    539.403    540.115    539.403
 24.270    631.000    551.522     79.478    539.049    550.804    539.049    539.774    539.049
 24.370    563.000    557.085      5.915    538.694    556.357    538.694    539.433    538.694
 24.470    539.000    566.946    -27.946    538.338    566.210    538.338    539.093    538.338
 24.570    621.201    582.148     39.053    537.982    581.407    537.982    538.752    537.982
 24.670    621.000    601.348     19.652    537.625    600.605    537.625    538.412    537.625
 24.770    626.707    618.652      8.056    537.267    617.903    537.267    538.072    537.267
 24.870    648.000    624.280     23.720    536.909    623.517    536.909    537.732    536.909
 24.970    621.000    613.602      7.398    536.550    612.813    536.550    537.393    536.550
 25.070    569.434    593.990    -24.555    536.191    593.166    536.191    537.054    536.191
 25.170    564.000    574.944    -10.944    535.832    574.085    535.832    536.716    535.832
 25.270    586.000    560.808     25.192    535.471    559.917    535.471    536.378    535.471
 25.370    625.000    551.900     73.100    535.111    550.979    535.111    536.042    535.111
 25.470    566.000    546.807     19.193    534.750    545.857    534.750    535.706    534.750
 25.570    518.047    543.938    -25.891    534.388    542.959    534.388    535.372    534.388
 25.670    544.041    542.196      1.845    534.027    541.187    534.027    535.039    534.027
 25.770    539.000    541.006     -2.006    533.665    539.966    533.665    534.708    533.665
 25.870    617.000    540.110     76.890    533.303    539.037    533.303    534.378    533.303
 25.970    531.000    539.399     -8.399    532.940    538.290    532.940    534.050    532.940
 26.070    575.923    538.817     37.105    532.577    537.672    532.577    533.725    532.577
 26.170    560.000    538.337     21.663    532.215    537.152    532.215    533.401    532.215
 26.270    560.000    537.940     22.060    531.852    536.712    531.852    533.081    531.852
 26.370    545.000    537.614      7.386    531.488    536.341    531.488    532.763    531.488
 26.470    535.406    537.356     -1.951    531.125    536.033    531.125    532.449    531.125
 26.570    499.526    537.163    -37.637    530.762    535.787    530.762    532.138    530.762
 26.670    559.000    537.039     21.961    530.399    535.606    530.399    531.832    530.399
 26.770    553.000    536.988     16.012    530.035    535.493    530.035    531.530    530.035
 26.870    554.000    537.020     16.980    529.672    535.459    529.672    531.233    529.672
 26.970    553.688    537.152     16.535    529.308    535.519    529.308    530.942    529.308
 27.070    565.000    537.407     27.593    528.945    535.696    528.945    530.657    528.945
 27.170    560.000    537.819     22.181    528.582    536.022    528.582    530.379    528.582
 27.270    539.000    538.437      0.563    528.219    536.548    528.219    530.108    528.219
 27.370    557.000    539.339     17.661    527.856    537.348    527.856    529.846    527.856
 27.470    542.474    540.665      1.809    527.493    538.563    527.493    529.594    527.493
 27.570    590.000    542.773     47.227    527.130    540.550    527.130    529.352    527.130
 27.670    548.000    546.851      1.149    526.768    544.495    526.768    529.121    526.768
 27.770    616.000    556.672     59.328    526.406    554.169    526.406    528.903    526.406
 27.870    617.000    581.422     35.578    526.044    578.752    526.044    528.699    526.044
 27.970    683.658    635.626     48.032    525.682    632.765    525.682    528.510    525.682
 28.070    711.511    728.310    -16.798    525.321    725.234    525.321    528.337    525.321
 28.170    779.000    841.564    -62.564    524.960    838.259    524.960    528.181    524.960
 28.270    915.000    920.333     -5.333    524.600    916.803    524.600    528.044    524.600
 28.370    894.000    911.501    -17.501    524.239    907.754    524.239    527.926    524.239
 28.470    862.000    829.485     32.515    523.880    825.506    523.880    527.829    523.880
 28.570    763.995    741.059     22.936    523.520    736.815    523.520    527.750    523.520
 28.670    725.105    700.093     25.012    523.161    695.551    523.161    527.691    523.161
 28.770    676.000    718.230    -42.230    522.803    713.367    522.803    527.648    522.803
 28.870    786.000    770.438     15.562    522.445    765.245    522.445    527.619    522.445
 28.970    871.000    809.884     61.116    522.088    804.364    522.088    527.597    522.088
 29.070    816.259    797.480     18.779    521.731    791.639    521.731    527.575    521.731
 29.170    728.000    737.663     -9.663    521.375    731.507    521.375    527.543    521.375
 29.270    660.000    665.163     -5.163    521.019    658.705    521.019    527.491    521.019
 29.370    600.700    607.467     -6.767    520.664    600.738    520.664    527.403    520.664
 29.470    585.000    572.113     12.887    520.309    565.160    520.309    527.268    520.309
 29.570    540.329    554.073    -13.745    519.956    546.960    519.956    527.072    519.956
 29.670    597.000    545.627     51.373    519.602    538.426    519.602    526.806    519.602
 29.770    524.187    541.427    -17.241    519.250    534.214    519.250    526.464    519.250
 29.870    536.321    538.928     -2.607    518.898    531.781    518.898    526.046    518.898
 29.970    531.000    537.180     -6.180    518.547    530.171    518.547    525.556    518.547
 30.070    573.000    535.878     37.122    518.197    529.070    518.197    525.004    518.197
 30.170    545.000    534.957     10.043    517.848    528.402    517.848    524.402    517.848
 30.270    540.000    534.518      5.482    517.499    528.253    517.499    523.762    517.499
 30.370    581.000    534.935     46.065    517.151    528.985    517.151    523.099    517.151
