neutron_powder_diffraction_0179
R_wp: 3.868
Temperature (K): 1074.100
Counts: 83207.00
Wavelength (Ã…): 2.52098
COMMENTS
Test file for demonstrating the .xyy file format in Reel1.0
END OF HEADER
   tth       Y_obs     Y_calc      Y_res    Background    Phase_1_Nuc    Phase_1_Mag    Phase_2_Nuc    Phase_2_Mag
  9.970    607.956    574.575     33.381    573.887    574.516    573.887    573.946    573.887
 10.070    580.000    574.697      5.303    573.952    574.638    573.952    574.010    573.952
 10.170    575.176    574.818      0.357    574.010    574.759    574.010    574.069    574.010
 10.270    645.000    574.944     70.056    574.063    574.884    574.063    574.122    574.063
 10.370    558.000    575.075    -17.075    574.111    575.015    574.111    574.170    574.111
 10.470    581.000    575.215      5.785    574.153    575.155    574.153    574.212    574.153
 10.570    618.477    575.367     43.110    574.189    575.307    574.189    574.249    574.189
 10.670    576.336    575.537      0.800    574.220    575.476    574.220    574.281    574.220
 10.770    593.943    575.730     18.214    574.246    575.668    574.246    574.307    574.246
 10.870    544.452    575.954    -31.502    574.267    575.893    574.267    574.328    574.267
 10.970    547.000    576.223    -29.223    574.282    576.161    574.282    574.343    574.282
 11.070    596.000    576.552     19.448    574.292    576.489    574.292    574.354    574.292
 11.170    576.000    576.966     -0.966    574.298    576.903    574.298    574.359    574.298
 11.270    538.271    577.504    -39.233    574.298    577.440    574.298    574.359    574.298
 11.370    610.874    578.230     32.644    574.293    578.166    574.293    574.355    574.293
 11.470    624.196    579.286     44.911    574.283    579.220    574.283    574.345    574.283
 11.570    575.106    581.068     -5.962    574.268    581.001    574.268    574.331    574.268
 11.670    630.000    584.734     45.266    574.248    584.664    574.248    574.313    574.248
 11.770    639.000    593.057     45.943    574.223    592.981    574.223    574.288    574.223
 11.870    668.000    610.644     57.356    574.194    610.558    574.194    574.259    574.194
 11.970    668.000    641.235     26.765    574.160    641.132    574.160    574.226    574.160
 12.070    711.000    681.010     29.990    574.121    680.883    574.121    574.187    574.121
 12.170    681.000    712.452    -31.452    574.078    712.307    574.078    574.144    574.078
 12.270    725.748    713.430     12.318    574.030    713.284    574.030    574.096    574.030
 12.370    692.889    683.010      9.878    573.978    682.882    573.978    574.044    573.978
 12.470    646.000    642.946      3.054    573.921    642.839    573.921    573.988    573.921
 12.570    637.000    611.545     25.455    573.859    611.457    573.859    573.926    573.859
 12.670    609.000    593.247     15.753    573.793    593.168    573.793    573.861    573.793
 12.770    546.000    584.490    -38.490    573.723    584.416    573.723    573.791    573.723
 12.870    567.351    580.590    -13.239    573.649    580.517    573.649    573.717    573.649
 12.970    590.000    578.663     11.337    573.570    578.591    573.570    573.639    573.570
 13.070    616.928    577.494     39.434    573.487    577.423    573.487    573.556    573.487
 13.170    564.000    576.666    -12.666    573.400    576.595    573.400    573.469    573.400
 13.270    578.347    576.032      2.314    573.309    575.961    573.309    573.379    573.309
 13.370    541.024    575.525    -34.501    573.214    575.454    573.214    573.284    573.214
 13.470    573.000    575.106     -2.106    573.114    575.034    573.114    573.185    573.114
 13.570    575.000    574.749      0.251    573.011    574.677    573.011    573.082    573.011
 13.670    564.000    574.438    -10.438    572.904    574.366    572.904    572.975    572.904
 13.770    538.000    574.161    -36.161    572.793    574.089    572.793    572.864    572.793
 13.870    570.000    573.909     -3.909    572.678    573.837    572.678    572.750    572.678
 13.970    533.681    573.676    -39.995    572.559    573.604    572.559    572.631    572.559
 14.070    555.000    573.458    -18.458    572.437    573.385    572.437    572.509    572.437
 14.170    571.766    573.250     -1.483    572.310    573.176    572.310    572.383    572.310
 14.270    543.000    573.050    -30.050    572.180    572.976    572.180    572.254    572.180
 14.370    610.000    572.856     37.144    572.047    572.782    572.047    572.121    572.047
 14.470    543.014    572.667    -29.653    571.910    572.593    571.910    571.984    571.910
 14.570    534.330    572.481    -38.151    571.769    572.406    571.769    571.844    571.769
 14.670    544.000    572.297    -28.297    571.625    572.222    571.625    571.700    571.625
 14.770    621.000    572.115     48.885    571.477    572.039    571.477    571.553    571.477
 14.870    610.539    571.941     38.598    571.326    571.860    571.326    571.407    571.326
 14.970    559.000    571.762    -12.762    571.172    571.680    571.172    571.254    571.172
 15.070    550.000    571.581    -21.581    571.014    571.497    571.014    571.097    571.014
 15.170    567.000    571.398     -4.398    570.853    571.314    570.853    570.937    570.853
 15.270    568.830    571.215     -2.384    570.689    571.130    570.689    570.773    570.689
 15.370    542.000    571.030    -29.030    570.521    570.945    570.521    570.606    570.521
 15.470    530.151    570.844    -40.693    570.351    570.759    570.351    570.436    570.351
 15.570    574.000    570.656      3.344    570.177    570.571    570.177    570.262    570.177
 15.670    561.629    570.467     -8.839    570.000    570.381    570.000    570.086    570.000
 15.770    567.340    570.276     -2.936    569.820    570.190    569.820    569.906    569.820
 15.870    551.829    570.084    -18.255    569.637    569.997    569.637    569.724    569.637
 15.970    564.000    569.889     -5.889    569.451    569.801    569.451    569.539    569.451
 16.070    581.000    569.692     11.308    569.262    569.604    569.262    569.350    569.262
 16.170    566.279    569.493     -3.214    569.071    569.405    569.071    569.159    569.071
 16.270    555.634    569.293    -13.658    568.876    569.204    568.876    568.965    568.876
 16.370    561.000    569.090     -8.090    568.679    569.000    568.679    568.768    568.679
 16.470    530.000    568.885    -38.885    568.478    568.794    568.478    568.568    568.478
 16.570    567.000    568.677     -1.677    568.275    568.587    568.275    568.366    568.275
 16.670    566.000    568.469     -2.469    568.070    568.378    568.070    568.161    568.070
 16.770    567.000    568.259     -1.259    567.862    568.168    567.862    567.953    567.862
 16.870    570.045    568.046      1.999    567.651    567.954    567.651    567.743    567.651
 16.970    554.000    567.830    -13.830    567.437    567.737    567.437    567.530    567.437
 17.070    596.000    567.612     28.388    567.221    567.519    567.221    567.315    567.221
 17.170    567.000    567.393     -0.393    567.003    567.299    567.003    567.097    567.003
 17.270    565.035    567.171     -2.136    566.782    567.076    566.782    566.876    566.782
 17.370    585.969    566.947     19.022    566.558    566.851    566.558    566.654    566.558
 17.470    573.000    566.721      6.279    566.333    566.625    566.333    566.428    566.333
 17.570    531.000    566.493    -35.493    566.104    566.396    566.104    566.201    566.104
 17.670    551.000    566.265    -15.265    565.874    566.167    565.874    565.971    565.874
 17.770    545.000    566.033    -21.033    565.641    565.935    565.641    565.739    565.641
 17.870    594.081    565.799     28.282    565.406    565.701    565.406    565.505    565.406
 17.970    591.000    565.563     25.437    565.169    565.464    565.169    565.268    565.169
 18.070    574.000    565.325      8.675    564.929    565.225    564.929    565.029    564.929
 18.170    565.747    565.085      0.662    564.688    564.985    564.688    564.788    564.688
 18.270    560.000    564.844     -4.844    564.444    564.743    564.444    564.545    564.444
 18.370    546.383    564.601    -18.217    564.198    564.498    564.198    564.300    564.198
 18.470    570.000    564.356      5.644    563.950    564.253    563.950    564.053    563.950
 18.570    565.000    564.109      0.891    563.701    564.006    563.701    563.804    563.701
 18.670    531.078    563.861    -32.783    563.449    563.756    563.449    563.553    563.449
 18.770    599.886    563.611     36.275    563.195    563.505    563.195    563.300    563.195
 18.870    570.000    563.359      6.641    562.940    563.253    562.940    563.045    562.940
 18.970    562.000    563.106     -1.106    562.682    562.999    562.682    562.789    562.682
 19.070    535.472    562.851    -27.378    562.423    562.743    562.423    562.530    562.423
 19.170    561.000    562.594     -1.594    562.162    562.486    562.162    562.270    562.162
 19.270    553.000    562.336     -9.336    561.899    562.227    561.899    562.008    561.899
 19.370    551.587    562.077    -10.490    561.634    561.967    561.634    561.744    561.634
 19.470    541.000    561.816    -20.816    561.368    561.705    561.368    561.479    561.368
 19.570    595.662    561.554     34.108    561.100    561.442    561.100    561.212    561.100
 19.670    551.000    561.291    -10.291    560.830    561.178    560.830    560.943    560.830
 19.770    578.000    561.030     16.970    560.559    560.914    560.559    560.675    560.559
 19.870    538.000    560.766    -22.766    560.286    560.648    560.286    560.404    560.286
 19.970    551.000    560.499     -9.499    560.011    560.380    560.011    560.131    560.011
 20.070    582.000    560.231     21.769    559.736    560.111    559.736    559.856    559.736
 20.170    558.000    559.962     -1.962    559.458    559.841    559.458    559.579    559.458
 20.270    541.712    559.694    -17.982    559.179    559.571    559.179    559.302    559.179
 20.370    574.000    559.436     14.564    558.899    559.313    558.899    559.023    558.899
 20.470    573.000    559.175     13.825    558.618    559.050    558.618    558.742    558.618
 20.570    556.000    558.903     -2.903    558.335    558.778    558.335    558.460    558.335
 20.670    570.000    558.630     11.370    558.050    558.504    558.050    558.177    558.050
 20.770    542.000    558.357    -16.357    557.765    558.229    557.765    557.893    557.765
 20.870    516.770    558.083    -41.313    557.478    557.953    557.478    557.607    557.478
 20.970    548.000    557.808     -9.808    557.190    557.677    557.190    557.320    557.190
 21.070    573.000    557.533     15.467    556.900    557.401    556.900    557.033    556.900
 21.170    540.907    557.258    -16.351    556.610    557.124    556.610    556.743    556.610
 21.270    573.000    556.991     16.009    556.318    556.856    556.318    556.453    556.318
 21.370    564.000    556.800      7.200    556.025    556.663    556.025    556.162    556.025
 21.470    547.000    556.547     -9.547    555.732    556.409    555.732    555.870    555.732
 21.570    585.697    556.273     29.423    555.437    556.134    555.437    555.576    555.437
 21.670    555.000    555.999     -0.999    555.141    555.858    555.141    555.282    555.141
 21.770    545.000    555.725    -10.725    554.844    555.583    554.844    554.987    554.844
 21.870    524.109    555.454    -31.345    554.546    555.310    554.546    554.690    554.546
 21.970    572.000    555.204     16.796    554.247    555.058    554.247    554.393    554.247
 22.070    541.122    554.962    -13.840    553.947    554.814    553.947    554.095    553.947
 22.170    565.749    554.697     11.052    553.647    554.547    553.647    553.797    553.647
 22.270    573.000    554.431     18.569    553.345    554.279    553.345    553.497    553.345
 22.370    546.000    554.167     -8.167    553.043    554.014    553.043    553.197    553.043
 22.470    546.000    553.911     -7.911    552.740    553.756    552.740    552.895    552.740
 22.570    574.101    553.700     20.401    552.436    553.543    552.436    552.594    552.436
 22.670    511.000    553.467    -42.467    552.131    553.307    552.131    552.291    552.131
 22.770    549.623    553.223     -3.600    551.826    553.061    551.826    551.988    551.826
 22.870    531.000    552.984    -21.984    551.520    552.820    551.520    551.684    551.520
 22.970    542.000    552.756    -10.756    551.213    552.589    551.213    551.380    551.213
 23.070    631.000    552.540     78.460    550.905    552.371    550.905    551.075    550.905
 23.170    535.052    552.335    -17.282    550.597    552.163    550.597    550.770    550.597
 23.270    575.392    552.145     23.247    550.289    551.970    550.289    550.464    550.289
 23.370    543.000    551.977     -8.977    549.979    551.799    549.979    550.157    549.979
 23.470    560.000    551.836      8.164    549.670    551.656    549.670    549.851    549.670
 23.570    549.000    551.733     -2.733    549.359    551.549    549.359    549.543    549.359
 23.670    564.000    551.678     12.322    549.049    551.492    549.049    549.236    549.049
 23.770    553.000    551.692      1.308    548.737    551.502    548.737    548.928    548.737
 23.870    553.000    551.803      1.197    548.426    551.610    548.426    548.620    548.426
 23.970    555.000    552.064      2.936    548.113    551.867    548.113    548.312    548.113
 24.070    527.621    552.600    -24.979    547.801    552.401    547.801    548.003    547.801
 24.170    589.638    553.765     35.873    547.488    553.562    547.488    547.694    547.488
 24.270    600.564    556.541     44.023    547.175    556.336    547.175    547.385    547.175
 24.370    586.000    563.046     22.954    546.861    562.842    546.861    547.076    546.861
 24.470    593.000    576.310     16.690    546.547    576.110    546.547    546.767    546.547
 24.570    631.514    597.942     33.572    546.233    597.753    546.233    546.458    546.233
 24.670    607.000    623.750    -16.750    545.919    623.574    545.919    546.149    545.919
 24.770    622.000    640.914    -18.914    545.604    640.745    545.604    545.840    545.604
 24.870    608.552    636.693    -28.141    545.289    636.516    545.289    545.531    545.289
 24.970    651.000    614.579     36.421    544.974    614.380    544.974    545.222    544.974
 25.070    575.000    588.841    -13.841    544.659    588.617    544.659    544.914    544.659
 25.170    612.000    569.419     42.581    544.344    569.174    544.344    544.605    544.344
 25.270    611.000    558.122     52.878    544.029    557.862    544.029    544.297    544.029
 25.370    594.000    552.547     41.453    543.713    552.275    543.713    543.990    543.713
 25.470    577.948    549.897     28.052    543.397    549.614    543.397    543.683    543.397
 25.570    548.000    548.471     -0.471    543.082    548.178    543.082    543.376    543.082
 25.670    562.000    547.540     14.460    542.766    547.237    542.766    543.070    542.766
 25.770    563.000    546.845     16.155    542.450    546.531    542.450    542.765    542.450
 25.870    535.431    546.288    -10.858    542.135    545.964    542.135    542.461    542.135
 25.970    510.967    545.827    -34.860    541.819    545.490    541.819    542.157    541.819
 26.070    571.806    545.442     26.364    541.504    545.092    541.504    541.855    541.504
 26.170    611.000    545.119     65.881    541.188    544.754    541.188    541.553    541.188
 26.270    542.000    544.852     -2.852    540.873    544.472    540.873    541.253    540.873
 26.370    534.000    544.661    -10.661    540.557    544.264    540.557    540.954    540.557
 26.470    564.211    544.516     19.695    540.242    544.101    540.242    540.657    540.242
 26.570    584.685    544.402     40.283    539.927    543.967    539.927    540.362    539.927
 26.670    590.000    544.342     45.658    539.613    543.886    539.613    540.069    539.613
 26.770    553.947    544.349      9.597    539.298    543.869    539.298    539.779    539.298
 26.870    512.952    544.438    -31.486    538.984    543.931    538.984    539.491    538.984
 26.970    566.000    544.627     21.373    538.670    544.091    538.670    539.206    538.670
 27.070    533.000    544.934    -11.934    538.356    544.365    538.356    538.925    538.356
 27.170    552.000    545.404      6.596    538.042    544.798    538.042    538.647    538.042
 27.270    564.000    546.102     17.898    537.729    545.455    537.729    538.375    537.729
 27.370    593.000    547.121     45.879    537.416    546.428    537.416    538.108    537.416
 27.470    579.000    548.590     30.410    537.103    547.844    537.103    537.847    537.103
 27.570    564.000    550.949     13.051    536.791    550.144    536.791    537.594    536.791
 27.670    581.000    555.632     25.368    536.479    554.757    536.479    537.349    536.479
 27.770    551.000    567.457    -16.457    536.167    566.501    536.167    537.116    536.167
 27.870    555.914    598.309    -42.396    535.856    597.253    535.856    536.895    535.856
 27.970    620.012    666.209    -46.197    535.546    665.026    535.546    536.690    535.546
 28.070    780.000    778.591      1.409    535.235    777.252    535.235    536.504    535.235
 28.170    917.000    903.626     13.374    534.926    902.113    534.926    536.342    534.926
 28.270    942.501    965.248    -22.747    534.616    963.559    534.616    536.210    534.616
 28.370    873.734    913.296    -39.562    534.308    911.426    534.308    536.118    534.308
 28.470    773.000    801.295    -28.295    533.999    799.191    533.999    536.079    533.999
 28.570    701.180    714.480    -13.300    533.692    712.046    533.692    536.115    533.692
 28.670    688.000    696.875     -8.875    533.384    693.984    533.384    536.261    533.384
 28.770    692.000    743.741    -51.741    533.078    740.221    533.078    536.579    533.078
 28.870    790.123    814.296    -24.173    532.772    809.894    532.772    537.161    532.772
 28.970    855.000    847.639      7.361    532.466    841.962    532.466    538.146    532.466
 29.070    822.000    807.724     14.276    532.161    800.192    532.161    539.707    532.161
 29.170    682.000    725.967    -43.967    531.857    715.810    531.857    542.027    531.857
 29.270    682.505    650.875     31.631    531.554    637.195    531.554    545.241    531.554
 29.370    613.000    604.316      8.684    531.251    586.258    531.251    549.313    531.251
 29.470    621.000    583.485     37.515    530.948    560.613    530.948    553.820    530.948
 29.570    566.000    576.508    -10.508    530.647    549.480    530.647    557.673    530.647
 29.670    568.000    573.444     -5.444    530.346    544.537    530.346    559.252    530.346
 29.770    598.000    569.430     28.570    530.046    541.875    530.046    557.598    530.046
 29.870    543.655    563.833    -20.178    529.747    540.140    529.747    553.438    529.747
 29.970    521.743    557.833    -36.089    529.448    538.914    529.448    548.365    529.448
 30.070    610.000    552.496     57.504    529.150    538.064    529.150    543.581    529.150
 30.170    570.000    548.321     21.679    528.853    537.564    528.853    539.607    528.853
 30.270    554.097    545.505      8.592    528.557    537.525    528.557    536.534    528.557
 30.370    581.825    544.381     37.444    528.262    538.388    528.262    534.250    528.262
