neutron_powder_diffraction_0228
R_wp: 4.069
Temperature (K): 1074.000
Counts: 83966.00
Wavelength (Ã…): 2.52098
COMMENTS
Test file for demonstrating the .xyy file format in Reel1.0
END OF HEADER
   tth       Y_obs     Y_calc      Y_res    Background    Phase_1_Nuc    Phase_1_Mag    Phase_2_Nuc    Phase_2_Mag
  9.970    613.000    571.081     41.919    570.477    571.031    570.477    570.527    570.477
 10.070    566.000    571.225     -5.225    570.571    571.175    570.571    570.621    570.571
 10.170    572.022    571.386      0.636    570.659    571.336    570.659    570.709    570.659
 10.270    535.668    571.537    -35.869    570.741    571.486    570.741    570.792    570.741
 10.370    612.000    571.689     40.311    570.818    571.638    570.818    570.868    570.818
 10.470    549.790    571.848    -22.058    570.888    571.797    570.888    570.939    570.888
 10.570    531.263    572.019    -40.755    570.953    571.966    570.953    571.005    570.953
 10.670    594.000    572.209     21.791    571.012    572.150    571.012    571.070    571.012
 10.770    562.000    572.414    -10.414    571.066    572.355    571.066    571.124    571.066
 10.870    591.000    572.647     18.353    571.114    572.587    571.114    571.173    571.114
 10.970    553.638    572.919    -19.281    571.156    572.859    571.156    571.215    571.156
 11.070    542.000    573.245    -31.245    571.193    573.184    571.193    571.253    571.193
 11.170    591.884    573.647     18.237    571.225    573.586    571.225    571.285    571.225
 11.270    566.000    574.161     -8.161    571.251    574.099    571.251    571.311    571.251
 11.370    574.000    574.844     -0.844    571.272    574.782    571.272    571.332    571.272
 11.470    581.786    575.822      5.964    571.288    575.759    571.288    571.348    571.288
 11.570    588.000    577.452     10.548    571.298    577.387    571.298    571.359    571.298
 11.670    619.000    580.812     38.188    571.304    580.745    571.304    571.365    571.304
 11.770    619.000    588.608     30.392    571.304    588.537    571.304    571.365    571.304
 11.870    596.000    605.534     -9.534    571.299    605.453    571.299    571.361    571.299
 11.970    651.000    635.636     15.364    571.289    635.537    571.289    571.351    571.289
 12.070    717.641    675.340     42.301    571.274    675.218    571.274    571.338    571.274
 12.170    657.670    706.970    -49.299    571.255    706.826    571.255    571.321    571.255
 12.270    659.000    707.985    -48.985    571.230    707.839    571.230    571.297    571.230
 12.370    659.000    677.433    -18.433    571.201    677.304    571.201    571.269    571.201
 12.470    620.000    637.462    -17.462    571.167    637.355    571.167    571.236    571.167
 12.570    635.259    606.575     28.684    571.128    606.485    571.128    571.198    571.128
 12.670    555.043    588.982    -33.939    571.085    588.902    571.085    571.155    571.085
 12.770    580.000    580.808     -0.808    571.037    580.732    571.037    571.108    571.037
 12.870    539.000    577.271    -38.271    570.985    577.196    570.985    571.055    570.985
 12.970    573.000    575.549     -2.549    570.927    575.475    570.927    570.999    570.927
 13.070    534.000    574.508    -40.508    570.866    574.434    570.866    570.938    570.866
 13.170    574.432    573.771      0.661    570.800    573.697    570.800    570.872    570.800
 13.270    568.000    573.209     -5.209    570.730    573.135    570.730    570.802    570.730
 13.370    586.098    572.761     13.337    570.655    572.687    570.655    570.728    570.655
 13.470    598.366    572.392     25.973    570.577    572.318    570.577    570.650    570.577
 13.570    547.181    572.080    -24.899    570.494    572.006    570.494    570.567    570.494
 13.670    597.898    571.809     26.089    570.406    571.734    570.406    570.480    570.406
 13.770    578.000    571.567      6.433    570.315    571.492    570.315    570.389    570.315
 13.870    552.122    571.348    -19.225    570.220    571.273    570.220    570.294    570.220
 13.970    530.000    571.145    -41.145    570.120    571.070    570.120    570.195    570.120
 14.070    542.637    570.955    -28.318    570.017    570.879    570.017    570.092    570.017
 14.170    601.509    570.774     30.735    569.909    570.698    569.909    569.985    569.909
 14.270    576.000    570.600      5.400    569.798    570.523    569.798    569.874    569.798
 14.370    555.000    570.430    -15.430    569.683    570.353    569.683    569.760    569.683
 14.470    574.252    570.264      3.987    569.564    570.187    569.564    569.641    569.564
 14.570    558.246    570.101    -11.854    569.442    570.023    569.442    569.519    569.442
 14.670    594.000    569.939     24.061    569.315    569.861    569.315    569.393    569.315
 14.770    539.000    569.778    -30.778    569.185    569.699    569.185    569.264    569.185
 14.870    573.000    569.618      3.382    569.052    569.537    569.052    569.132    569.052
 14.970    558.939    569.456    -10.517    568.914    569.375    568.914    568.995    568.914
 15.070    539.791    569.294    -29.502    568.773    569.212    568.773    568.855    568.773
 15.170    567.000    569.133     -2.133    568.629    569.051    568.629    568.711    568.629
 15.270    556.000    568.969    -12.969    568.481    568.887    568.481    568.564    568.481
 15.370    584.000    568.803     15.197    568.330    568.720    568.330    568.413    568.330
 15.470    609.000    568.635     40.365    568.176    568.551    568.176    568.259    568.176
 15.570    567.000    568.465     -1.465    568.018    568.381    568.018    568.102    568.018
 15.670    529.000    568.293    -39.293    567.857    568.208    567.857    567.941    567.857
 15.770    565.000    568.119     -3.119    567.693    568.034    567.693    567.777    567.693
 15.870    559.000    567.942     -8.942    567.525    567.857    567.525    567.610    567.525
 15.970    642.000    567.764     74.236    567.354    567.678    567.354    567.440    567.354
 16.070    550.000    567.583    -17.583    567.180    567.497    567.180    567.267    567.180
 16.170    552.000    567.400    -15.400    567.004    567.313    567.004    567.090    567.004
 16.270    534.000    567.214    -33.214    566.824    567.127    566.824    566.911    566.824
 16.370    564.537    567.027     -2.490    566.641    566.939    566.641    566.729    566.641
 16.470    597.000    566.837     30.163    566.455    566.748    566.455    566.543    566.455
 16.570    537.000    566.644    -29.644    566.266    566.555    566.266    566.355    566.266
 16.670    560.000    566.449     -6.449    566.074    566.360    566.074    566.164    566.074
 16.770    570.000    566.252      3.748    565.880    566.162    565.880    565.970    565.880
 16.870    526.860    566.053    -39.192    565.683    565.962    565.683    565.773    565.683
 16.970    571.402    565.851      5.552    565.483    565.759    565.483    565.574    565.483
 17.070    589.324    565.646     23.678    565.280    565.555    565.280    565.372    565.280
 17.170    554.756    565.440    -10.684    565.075    565.347    565.075    565.167    565.075
 17.270    602.798    565.232     37.566    564.866    565.138    564.866    564.960    564.866
 17.370    593.162    565.026     28.136    564.656    564.926    564.656    564.755    564.656
 17.470    535.000    564.814    -29.814    564.443    564.713    564.443    564.544    564.443
 17.570    576.000    564.599     11.401    564.227    564.496    564.227    564.330    564.227
 17.670    609.000    564.381     44.619    564.009    564.278    564.009    564.112    564.009
 17.770    555.000    564.163     -9.163    563.788    564.059    563.788    563.892    563.788
 17.870    539.000    563.942    -24.942    563.565    563.838    563.565    563.670    563.565
 17.970    582.609    563.719     18.890    563.340    563.613    563.340    563.445    563.340
 18.070    532.000    563.495    -31.495    563.112    563.389    563.112    563.218    563.112
 18.170    542.052    563.267    -21.216    562.882    563.161    562.882    562.989    562.882
 18.270    570.000    563.037      6.963    562.650    562.930    562.650    562.757    562.650
 18.370    565.000    562.805      2.195    562.415    562.697    562.415    562.524    562.415
 18.470    553.000    562.571     -9.571    562.179    562.462    562.179    562.288    562.179
 18.570    566.000    562.336      3.664    561.940    562.226    561.940    562.050    561.940
 18.670    563.000    562.098      0.902    561.699    561.987    561.699    561.810    561.699
 18.770    584.000    561.858     22.142    561.456    561.747    561.456    561.567    561.456
 18.870    563.072    561.617      1.455    561.211    561.505    561.211    561.323    561.211
 18.970    549.000    561.374    -12.374    560.964    561.261    560.964    561.077    560.964
 19.070    545.000    561.129    -16.129    560.715    561.015    560.715    560.829    560.715
 19.170    578.000    560.883     17.117    560.464    560.768    560.464    560.579    560.464
 19.270    539.548    560.635    -21.087    560.211    560.519    560.211    560.327    560.211
 19.370    565.000    560.386      4.614    559.956    560.269    559.956    560.073    559.956
 19.470    600.000    560.135     39.865    559.700    560.017    559.700    559.818    559.700
 19.570    564.095    559.883      4.213    559.441    559.764    559.441    559.560    559.441
 19.670    588.948    559.629     29.319    559.181    559.509    559.181    559.301    559.181
 19.770    566.000    559.374      6.626    558.919    559.253    558.919    559.040    558.919
 19.870    571.100    559.117     11.983    558.656    558.995    558.656    558.778    558.656
 19.970    594.000    558.859     35.141    558.391    558.736    558.391    558.514    558.391
 20.070    563.000    558.600      4.400    558.124    558.476    558.124    558.248    558.124
 20.170    549.000    558.340     -9.340    557.855    558.214    557.855    557.981    557.855
 20.270    564.000    558.078      5.922    557.585    557.952    557.585    557.712    557.585
 20.370    565.000    557.816      7.184    557.314    557.688    557.314    557.442    557.314
 20.470    581.378    557.553     23.825    557.041    557.424    557.041    557.170    557.041
 20.570    543.000    557.290    -14.290    556.766    557.160    556.766    556.897    556.766
 20.670    517.000    557.025    -40.025    556.491    556.893    556.491    556.622    556.491
 20.770    516.769    556.760    -39.991    556.213    556.627    556.213    556.346    556.213
 20.870    541.000    556.506    -15.506    555.935    556.372    555.935    556.069    555.935
 20.970    579.541    556.248     23.293    555.655    556.113    555.655    555.790    555.655
 21.070    543.000    555.981    -12.981    555.373    555.845    555.373    555.510    555.373
 21.170    556.000    555.713      0.287    555.091    555.575    555.091    555.229    555.091
 21.270    589.192    555.445     33.748    554.807    555.305    554.807    554.947    554.807
 21.370    522.000    555.176    -33.176    554.522    555.035    554.522    554.663    554.522
 21.470    536.000    554.907    -18.907    554.236    554.764    554.236    554.378    554.236
 21.570    510.483    554.639    -44.156    553.948    554.494    553.948    554.093    553.948
 21.670    565.000    554.373     10.627    553.660    554.224    553.660    553.808    553.660
 21.770    569.000    554.106     14.894    553.370    553.954    553.370    553.522    553.370
 21.870    513.605    553.838    -40.234    553.079    553.685    553.079    553.233    553.079
 21.970    597.218    553.574     43.644    552.788    553.419    552.788    552.943    552.788
 22.070    554.000    553.330      0.670    552.495    553.173    552.495    552.652    552.495
 22.170    574.992    553.102     21.890    552.201    552.943    552.201    552.360    552.201
 22.270    587.000    552.926     34.074    551.907    552.765    551.907    552.068    551.907
 22.370    558.789    552.688      6.101    551.611    552.525    551.611    551.774    551.611
 22.470    579.000    552.433     26.567    551.315    552.268    551.315    551.480    551.315
 22.570    552.493    552.180      0.314    551.017    552.012    551.017    551.185    551.017
 22.670    506.695    551.931    -45.235    550.719    551.761    550.719    550.889    550.719
 22.770    535.000    551.691    -16.691    550.420    551.519    550.420    550.593    550.420
 22.870    530.000    551.497    -21.497    550.121    551.322    550.121    550.295    550.121
 22.970    585.938    551.285     34.653    549.820    551.108    549.820    549.998    549.820
 23.070    548.132    551.066     -2.934    549.519    550.886    549.519    549.699    549.519
 23.170    558.000    550.857      7.143    549.217    550.675    549.217    549.400    549.217
 23.270    562.000    550.664     11.336    548.915    550.478    548.915    549.100    548.915
 23.370    509.000    550.490    -41.490    548.611    550.302    548.611    548.800    548.611
 23.470    508.222    550.343    -42.121    548.308    550.151    548.308    548.500    548.308
 23.570    535.000    550.230    -15.230    548.003    550.036    548.003    548.199    548.003
 23.670    518.000    550.159    -32.159    547.698    549.961    547.698    547.897    547.698
 23.770    531.000    550.149    -19.149    547.393    549.948    547.393    547.595    547.393
 23.870    504.000    550.227    -46.227    547.087    550.022    547.087    547.293    547.087
 23.970    532.000    550.439    -18.439    546.780    550.231    546.780    546.990    546.780
 24.070    593.296    550.895     42.401    546.473    550.683    546.473    546.688    546.473
 24.170    556.000    551.916      4.084    546.166    551.701    546.166    546.384    546.166
 24.270    543.888    554.427    -10.539    545.858    554.209    545.858    546.081    545.858
 24.370    597.000    560.522     36.478    545.550    560.304    545.550    545.778    545.550
 24.470    616.000    573.345     42.655    545.242    573.131    545.242    545.474    545.242
 24.570    577.000    594.743    -17.743    544.933    594.539    544.933    545.171    544.933
 24.670    603.000    620.627    -17.627    544.624    620.436    544.624    544.867    544.624
 24.770    599.000    637.963    -38.963    544.314    637.778    544.314    544.564    544.314
 24.870    627.464    633.704     -6.240    544.004    633.510    544.004    544.260    544.004
 24.970    589.000    611.411    -22.411    543.694    611.195    543.694    543.957    543.694
 25.070    594.887    585.687      9.200    543.384    585.446    543.384    543.654    543.384
 25.170    585.217    566.572     18.646    543.074    566.310    543.074    543.351    543.074
 25.270    574.772    555.734     19.037    542.764    555.457    542.764    543.048    542.764
 25.370    552.000    550.542      1.458    542.453    550.253    542.453    542.746    542.453
 25.470    550.000    548.149      1.851    542.142    547.850    542.142    542.444    542.142
 25.570    588.000    546.861     41.139    541.831    546.551    541.831    542.143    541.831
 25.670    520.878    546.004    -25.126    541.520    545.683    541.520    541.842    541.520
 25.770    543.657    545.355     -1.698    541.209    545.023    541.209    541.543    541.209
 25.870    605.000    544.836     60.164    540.898    544.492    540.898    541.243    540.898
 25.970    584.000    544.412     39.588    540.587    544.054    540.587    540.945    540.587
 26.070    590.000    544.053     45.947    540.276    543.682    540.276    540.648    540.276
 26.170    554.705    543.752     10.953    539.965    543.366    539.965    540.352    539.965
 26.270    533.000    543.500    -10.500    539.655    543.097    539.655    540.057    539.655
 26.370    519.000    543.295    -24.295    539.344    542.875    539.344    539.764    539.344
 26.470    552.000    543.139      8.861    539.033    542.699    539.033    539.473    539.033
 26.570    578.000    543.033     34.967    538.723    542.572    538.723    539.183    538.723
 26.670    546.175    542.982      3.193    538.412    542.498    538.412    538.896    538.412
 26.770    535.000    542.999     -7.999    538.102    542.489    538.102    538.611    538.102
 26.870    536.000    543.117     -7.117    537.792    542.580    537.792    538.329    537.792
 26.970    525.000    543.328    -18.328    537.482    542.760    537.482    538.050    537.482
 27.070    570.000    543.641     26.359    537.172    543.037    537.172    537.775    537.172
 27.170    551.000    544.111      6.889    536.863    543.469    536.863    537.504    536.863
 27.270    609.000    544.799     64.201    536.554    544.114    536.554    537.238    536.554
 27.370    558.000    545.791     12.209    536.245    545.057    536.245    536.978    536.245
 27.470    598.000    547.247     50.753    535.936    546.458    535.936    536.724    535.936
 27.570    525.507    549.578    -24.070    535.628    548.725    535.628    536.479    535.628
 27.670    575.000    554.193     20.807    535.320    553.267    535.320    536.243    535.320
 27.770    541.959    565.762    -23.804    535.013    564.749    535.013    536.018    535.013
 27.870    624.000    595.848     28.152    534.706    594.728    534.706    535.807    534.706
 27.970    662.187    662.017      0.169    534.399    660.763    534.399    535.613    534.399
 28.070    805.349    771.704     33.646    534.093    770.284    534.093    535.440    534.093
 28.170    922.000    894.018     27.982    533.787    892.412    533.787    535.292    533.787
 28.270    998.839    954.425     44.414    533.482    952.630    533.482    535.177    533.482
 28.370    940.224    903.441     36.783    533.177    901.450    533.177    535.104    533.177
 28.470    845.275    793.673     51.601    532.873    791.431    532.873    535.087    532.873
 28.570    702.000    708.616     -6.616    532.569    706.023    532.569    535.148    532.569
 28.670    695.000    691.212      3.788    532.265    688.134    532.265    535.327    532.265
 28.770    706.317    736.927    -30.610    531.963    733.181    531.963    535.688    531.963
 28.870    760.000    806.065    -46.065    531.660    801.363    531.660    536.346    531.660
 28.970    821.678    838.936    -17.257    531.359    832.812    531.359    537.481    531.359
 29.070    763.058    800.094    -37.036    531.058    791.818    531.058    539.343    531.058
 29.170    702.000    720.700    -18.700    530.757    709.250    530.757    542.217    530.757
 29.270    695.000    648.515     46.485    530.458    632.638    530.458    546.341    530.458
 29.370    597.000    604.809     -7.809    530.159    583.241    530.159    551.728    530.159
 29.470    581.000    586.511     -5.511    529.860    558.506    529.860    557.864    529.860
 29.570    554.000    581.508    -27.508    529.562    547.800    529.562    563.267    529.562
 29.670    599.129    579.367     19.762    529.265    543.036    529.265    565.594    529.265
 29.770    587.000    574.891     12.109    528.969    540.453    528.969    563.404    528.969
 29.870    588.000    567.880     20.120    528.674    538.759    528.674    557.792    528.674
 29.970    534.529    560.265    -25.737    528.379    537.561    528.379    551.081    528.379
 30.070    570.092    553.567     16.525    528.085    536.727    528.085    544.923    528.085
 30.170    585.875    548.419     37.456    527.791    536.232    527.791    539.976    527.791
 30.270    602.000    544.983     57.017    527.499    536.180    527.499    536.299    527.499
 30.370    580.192    543.474     36.718    527.207    536.995    527.207    533.682    527.207
