neutron_powder_diffraction_0121
R_wp: 4.100
Temperature (K): 992.555
Counts: 83660.00
Wavelength (Ã…): 2.52098
COMMENTS
Test file for demonstrating the .xyy file format in Reel1.0
END OF HEADER
   tth       Y_obs     Y_calc      Y_res    Background    Phase_1_Nuc    Phase_1_Mag    Phase_2_Nuc    Phase_2_Mag
  9.970    573.851    556.436     17.415    555.307    556.226    555.307    555.517    555.307
 10.070    617.000    556.833     60.167    555.625    556.622    555.625    555.835    555.625
 10.170    509.856    557.233    -47.377    555.933    557.021    555.933    556.144    555.933
 10.270    517.068    557.638    -40.570    556.233    557.425    556.233    556.445    556.233
 10.370    588.000    558.051     29.949    556.524    557.837    556.524    556.737    556.524
 10.470    530.728    558.476    -27.747    556.807    558.261    556.807    557.021    556.807
 10.570    584.304    558.918     25.386    557.081    558.702    557.081    557.296    557.081
 10.670    589.000    559.383     29.617    557.347    559.167    557.347    557.563    557.347
 10.770    575.000    559.881     15.119    557.605    559.663    557.605    557.821    557.605
 10.870    579.000    560.423     18.577    557.854    560.204    557.854    558.072    557.854
 10.970    587.000    561.025     25.975    558.096    560.805    558.096    558.314    558.096
 11.070    624.000    561.710     62.290    558.329    561.489    558.329    558.548    558.329
 11.170    576.557    562.513     14.044    558.554    562.291    558.554    558.774    558.554
 11.270    598.000    563.486     34.514    558.771    563.263    558.771    558.992    558.771
 11.370    559.000    564.726     -5.726    558.981    564.501    558.981    559.202    558.981
 11.470    589.000    566.443     22.557    559.182    566.216    559.182    559.405    559.182
 11.570    576.827    569.152      7.675    559.376    568.923    559.376    559.600    559.376
 11.670    600.381    574.043     26.338    559.562    573.810    559.562    559.787    559.562
 11.770    565.000    583.355    -18.355    559.741    583.116    559.741    559.967    559.741
 11.870    603.547    600.089      3.457    559.912    599.840    559.912    560.139    559.912
 11.970    709.000    626.120     82.880    560.075    625.856    560.075    560.303    560.075
 12.070    708.000    658.407     49.593    560.232    658.124    560.232    560.460    560.232
 12.170    660.000    685.148    -25.148    560.381    684.849    560.381    560.610    560.381
 12.270    672.000    689.944    -17.944    560.522    689.641    560.522    560.753    560.522
 12.370    626.000    668.913    -42.913    560.657    668.621    560.657    560.889    560.657
 12.470    615.000    636.661    -21.661    560.784    636.386    560.784    561.017    560.784
 12.570    619.591    608.104     11.487    560.905    607.844    560.905    561.139    560.905
 12.670    580.255    588.763     -8.508    561.018    588.512    561.018    561.253    561.018
 12.770    562.000    577.769    -15.769    561.124    577.524    561.124    561.361    561.124
 12.870    559.000    572.123    -13.123    561.224    571.880    561.224    561.461    561.224
 12.970    559.000    569.226    -10.226    561.317    568.983    561.317    561.555    561.317
 13.070    588.000    567.583     20.417    561.403    567.340    561.403    561.642    561.403
 13.170    594.938    566.524     28.414    561.482    566.281    561.482    561.723    561.482
 13.270    554.000    565.776    -11.776    561.555    565.532    561.555    561.797    561.555
 13.370    561.630    565.222     -3.592    561.622    564.977    561.622    561.865    561.622
 13.470    515.000    564.800    -49.800    561.682    564.554    561.682    561.926    561.682
 13.570    563.000    564.472     -1.472    561.735    564.225    561.735    561.981    561.735
 13.670    501.000    564.212    -63.212    561.783    563.965    561.783    562.029    561.783
 13.770    551.000    564.003    -13.003    561.823    563.755    561.823    562.071    561.823
 13.870    542.000    563.832    -21.832    561.858    563.582    561.858    562.107    561.858
 13.970    547.000    563.688    -16.688    561.887    563.437    561.887    562.137    561.887
 14.070    581.532    563.567     17.965    561.909    563.315    561.909    562.161    561.909
 14.170    558.000    563.461     -5.461    561.926    563.208    561.926    562.179    561.926
 14.270    590.000    563.366     26.634    561.937    563.112    561.937    562.190    561.937
 14.370    547.000    563.282    -16.282    561.941    563.026    561.941    562.196    561.941
 14.470    557.130    563.204     -6.075    561.940    562.948    561.940    562.197    561.940
 14.570    536.000    563.130    -27.130    561.933    562.871    561.933    562.191    561.933
 14.670    566.747    563.058      3.690    561.921    562.798    561.921    562.180    561.921
 14.770    589.584    562.987     26.597    561.903    562.726    561.903    562.163    561.903
 14.870    534.824    562.917    -28.093    561.879    562.655    561.879    562.141    561.879
 14.970    539.373    562.847    -23.474    561.849    562.584    561.849    562.113    561.849
 15.070    560.000    562.776     -2.776    561.815    562.511    561.815    562.079    561.815
 15.170    526.000    562.706    -36.706    561.774    562.440    561.774    562.040    561.774
 15.270    548.000    562.632    -14.632    561.729    562.364    561.729    561.996    561.729
 15.370    594.513    562.556     31.957    561.678    562.287    561.678    561.947    561.678
 15.470    521.939    562.477    -40.538    561.622    562.206    561.622    561.892    561.622
 15.570    560.989    562.395     -1.406    561.561    562.123    561.561    561.833    561.561
 15.670    593.693    562.311     31.382    561.494    562.037    561.494    561.768    561.494
 15.770    539.000    562.223    -23.223    561.423    561.948    561.423    561.698    561.423
 15.870    538.000    562.132    -24.132    561.347    561.855    561.347    561.623    561.347
 15.970    583.000    562.038     20.962    561.265    561.760    561.265    561.543    561.265
 16.070    540.000    561.940    -21.940    561.179    561.660    561.179    561.459    561.179
 16.170    539.897    561.838    -21.942    561.088    561.557    561.088    561.369    561.088
 16.270    598.000    561.734     36.266    560.992    561.451    560.992    561.275    560.992
 16.370    552.000    561.625     -9.625    560.892    561.340    560.892    561.176    560.892
 16.470    492.000    561.513    -69.513    560.787    561.226    560.787    561.073    560.787
 16.570    554.000    561.397     -7.397    560.677    561.109    560.677    560.965    560.677
 16.670    545.000    561.277    -16.277    560.562    560.987    560.562    560.852    560.562
 16.770    524.000    561.157    -37.157    560.444    560.866    560.444    560.735    560.444
 16.870    542.000    561.053    -19.053    560.320    560.760    560.320    560.614    560.320
 16.970    552.000    560.925     -8.925    560.193    560.630    560.193    560.488    560.193
 17.070    517.142    560.790    -43.649    560.061    560.494    560.061    560.358    560.061
 17.170    546.000    560.653    -14.653    559.924    560.354    559.924    560.223    559.924
 17.270    559.000    560.511     -1.511    559.784    560.210    559.784    560.085    559.784
 17.370    564.536    560.365      4.171    559.639    560.063    559.639    559.942    559.639
 17.470    564.686    560.217      4.470    559.490    559.912    559.490    559.795    559.490
 17.570    528.000    560.064    -32.064    559.338    559.758    559.338    559.644    559.338
 17.670    599.000    559.908     39.092    559.181    559.599    559.181    559.489    559.181
 17.770    587.441    559.756     27.685    559.020    559.445    559.020    559.330    559.020
 17.870    534.000    559.668    -25.668    558.855    559.356    558.855    559.168    558.855
 17.970    587.000    559.545     27.455    558.686    559.230    558.686    559.001    558.686
 18.070    572.000    559.380     12.620    558.514    559.063    558.514    558.831    558.514
 18.170    594.000    559.207     34.793    558.338    558.888    558.338    558.657    558.338
 18.270    524.000    559.031    -35.031    558.158    558.710    558.158    558.479    558.158
 18.370    534.000    558.852    -24.852    557.974    558.528    557.974    558.298    557.974
 18.470    567.879    558.669      9.210    557.787    558.343    557.787    558.113    557.787
 18.570    567.021    558.483      8.538    557.597    558.155    557.597    557.925    557.597
 18.670    522.168    558.294    -36.127    557.402    557.964    557.402    557.733    557.402
 18.770    517.000    558.102    -41.102    557.205    557.769    557.205    557.538    557.205
 18.870    539.000    557.907    -18.907    557.004    557.572    557.004    557.339    557.004
 18.970    541.000    557.710    -16.710    556.799    557.372    556.799    557.137    556.799
 19.070    583.000    557.514     25.486    556.591    557.173    556.591    556.932    556.591
 19.170    500.000    557.313    -57.313    556.380    556.969    556.380    556.724    556.380
 19.270    557.000    557.106     -0.106    556.166    556.760    556.166    556.512    556.166
 19.370    579.042    556.897     22.144    555.949    556.549    555.949    556.297    555.949
 19.470    581.000    556.686     24.314    555.728    556.334    555.728    556.080    555.728
 19.570    569.000    556.471     12.529    555.504    556.117    555.504    555.859    555.504
 19.670    558.000    556.255      1.745    555.278    555.897    555.278    555.635    555.278
 19.770    525.000    556.035    -31.035    555.048    555.675    555.048    555.408    555.048
 19.870    564.000    555.814      8.186    554.815    555.450    554.815    555.179    554.815
 19.970    562.000    555.590      6.410    554.580    555.223    554.580    554.946    554.580
 20.070    527.332    555.364    -28.032    554.342    554.994    554.342    554.711    554.342
 20.170    534.000    555.137    -21.137    554.100    554.765    554.100    554.473    554.100
 20.270    541.000    554.931    -13.931    553.857    554.555    553.857    554.233    553.857
 20.370    576.000    554.744     21.256    553.610    554.364    553.610    553.990    553.610
 20.470    536.000    554.514    -18.514    553.361    554.131    553.361    553.744    553.361
 20.570    570.000    554.280     15.720    553.109    553.893    553.109    553.496    553.109
 20.670    520.000    554.044    -34.044    552.854    553.653    552.854    553.245    552.854
 20.770    545.037    553.809     -8.772    552.597    553.415    552.597    552.992    552.597
 20.870    563.268    553.569      9.699    552.338    553.171    552.338    552.736    552.338
 20.970    545.000    553.327     -8.327    552.076    552.926    552.076    552.478    552.076
 21.070    563.000    553.085      9.915    551.812    552.679    551.812    552.218    551.812
 21.170    561.000    552.841      8.159    551.545    552.431    551.545    551.955    551.545
 21.270    556.000    552.604      3.396    551.276    552.189    551.276    551.690    551.276
 21.370    575.675    552.398     23.277    551.004    551.980    551.004    551.423    551.004
 21.470    535.000    552.157    -17.157    550.731    551.734    550.731    551.154    550.731
 21.570    509.534    551.911    -42.376    550.455    551.483    550.455    550.883    550.455
 21.670    596.427    551.665     44.762    550.177    551.232    550.177    550.610    550.177
 21.770    560.000    551.419      8.581    549.897    550.982    549.897    550.335    549.897
 21.870    590.724    551.174     39.550    549.615    550.732    549.615    550.058    549.615
 21.970    496.000    550.931    -54.931    549.331    550.483    549.331    549.779    549.331
 22.070    521.796    550.692    -28.896    549.045    550.238    549.045    549.498    549.045
 22.170    581.000    550.461     30.539    548.757    550.003    548.757    549.216    548.757
 22.270    565.000    550.248     14.752    548.467    549.784    548.467    548.932    548.467
 22.370    585.000    550.023     34.977    548.175    549.553    548.175    548.646    548.175
 22.470    565.000    549.792     15.208    547.882    549.316    547.882    548.358    547.882
 22.570    578.268    549.565     28.703    547.586    549.083    547.586    548.069    547.586
 22.670    571.000    549.344     21.656    547.289    548.855    547.289    547.779    547.289
 22.770    593.000    549.130     43.870    546.990    548.634    546.990    547.486    546.990
 22.870    535.520    548.925    -13.405    546.690    548.422    546.690    547.193    546.690
 22.970    530.000    548.732    -18.732    546.387    548.222    546.387    546.898    546.387
 23.070    563.000    548.560     14.440    546.084    548.043    546.084    546.602    546.084
 23.170    566.000    548.428     17.572    545.778    547.903    545.778    546.304    545.778
 23.270    535.000    548.311    -13.311    545.471    547.777    545.471    546.005    545.471
 23.370    518.000    548.202    -30.202    545.163    547.661    545.163    545.705    545.163
 23.470    508.000    548.130    -40.130    544.853    547.580    544.853    545.404    544.853
 23.570    536.000    548.106    -12.106    544.542    547.547    544.542    545.102    544.542
 23.670    571.759    548.154     23.606    544.229    547.586    544.229    544.799    544.229
 23.770    549.533    548.340      1.193    543.915    547.762    543.915    544.495    543.915
 23.870    589.341    548.619     40.722    543.600    548.032    543.600    544.190    543.600
 23.970    539.000    549.090    -10.090    543.284    548.492    543.284    543.884    543.284
 24.070    546.000    549.935     -3.935    542.966    549.327    542.966    543.578    542.966
 24.170    563.000    551.562     11.438    542.647    550.943    542.647    543.271    542.647
 24.270    547.000    554.860     -7.860    542.327    554.231    542.327    542.963    542.327
 24.370    575.000    561.300     13.700    542.006    560.663    542.006    542.655    542.006
 24.470    587.000    572.652     14.348    541.683    572.010    541.683    542.346    541.683
 24.570    630.000    589.730     40.270    541.360    589.086    541.360    542.037    541.360
 24.670    648.000    610.091     37.909    541.036    609.447    541.036    541.727    541.036
 24.770    657.000    626.009     30.991    540.710    625.361    540.710    541.418    540.710
 24.870    637.000    627.724      9.276    540.384    627.061    540.384    541.108    540.384
 24.970    624.000    613.650     10.350    540.057    612.960    540.057    540.798    540.057
 25.070    549.700    592.764    -43.063    539.728    592.040    539.728    540.489    539.728
 25.170    562.147    574.031    -11.884    539.399    573.274    539.399    540.179    539.399
 25.270    568.933    560.925      8.008    539.070    560.139    539.070    539.870    539.070
 25.370    551.000    553.103     -2.103    538.739    552.289    538.739    539.561    538.739
 25.470    573.551    548.819     24.732    538.408    547.979    538.408    539.253    538.408
 25.570    548.329    546.448      1.881    538.076    545.582    538.076    538.945    538.076
 25.670    499.035    544.995    -45.961    537.743    544.102    537.743    538.639    537.743
 25.770    575.729    543.982     31.747    537.409    543.060    537.409    538.333    537.409
 25.870    532.000    543.207    -11.207    537.075    542.255    537.075    538.029    537.075
 25.970    570.000    542.586     27.414    536.740    541.602    536.740    537.726    536.740
 26.070    523.000    542.077    -19.077    536.405    541.058    536.405    537.425    536.405
 26.170    548.473    541.656      6.817    536.069    540.601    536.069    537.126    536.069
 26.270    581.268    541.310     39.959    535.733    540.215    535.733    536.829    535.733
 26.370    565.000    541.029     23.971    535.396    539.892    535.396    536.534    535.396
 26.470    569.000    540.809     28.191    535.059    539.626    535.059    536.242    535.059
 26.570    542.000    540.649      1.351    534.721    539.417    534.721    535.954    534.721
 26.670    580.000    540.552     39.448    534.383    539.266    534.383    535.669    534.383
 26.770    585.000    540.525     44.475    534.045    539.182    534.045    535.389    534.045
 26.870    574.781    540.579     34.201    533.706    539.173    533.706    535.113    533.706
 26.970    557.347    540.731     16.616    533.367    539.256    533.367    534.842    533.367
 27.070    565.000    541.005     23.995    533.028    539.455    533.028    534.578    533.028
 27.170    570.000    541.434     28.566    532.688    539.801    532.688    534.320    532.688
 27.270    498.772    542.069    -43.298    532.349    540.347    532.349    534.070    532.349
 27.370    585.865    542.991     42.874    532.009    541.170    532.009    533.829    532.009
 27.470    585.000    544.346     40.654    531.668    542.415    531.668    533.598    531.668
 27.570    586.000    546.518     39.482    531.328    544.467    531.328    533.377    531.328
 27.670    527.000    550.832    -23.832    530.988    548.647    530.988    533.170    530.988
 27.770    565.000    561.559      3.441    530.647    559.223    530.647    532.975    530.647
 27.870    611.000    589.058     21.942    530.307    586.551    530.307    532.797    530.307
 27.970    657.000    649.116      7.884    529.966    646.409    529.966    532.636    529.966
 28.070    801.395    749.458     51.937    529.626    746.522    529.626    532.494    529.626
 28.170    844.000    865.753    -21.753    529.285    862.572    529.285    532.373    529.285
 28.270    936.000    934.809      1.191    528.945    931.385    528.945    532.275    528.945
 28.370    826.000    906.644    -80.644    528.604    902.984    528.604    532.201    528.604
 28.470    795.000    812.786    -17.786    528.264    808.867    528.264    532.155    528.264
 28.570    741.504    726.904     14.599    527.924    722.682    527.924    532.135    527.924
 28.670    704.696    697.525      7.171    527.584    692.955    527.584    532.142    527.584
 28.770    718.000    728.454    -10.454    527.244    723.504    527.244    532.175    527.244
 28.870    729.615    787.812    -58.197    526.905    782.464    526.905    532.230    526.905
 28.970    781.150    823.471    -42.321    526.565    817.720    526.565    532.302    526.565
 29.070    743.000    798.501    -55.501    526.226    792.349    526.226    532.380    526.226
 29.170    719.000    728.890     -9.890    525.887    722.338    525.887    532.451    525.887
 29.270    653.497    654.615     -1.118    525.549    647.679    525.549    532.499    525.549
 29.370    555.514    600.461    -44.948    525.211    593.179    525.211    532.503    525.211
 29.470    579.513    569.804      9.709    524.873    562.239    524.873    532.443    524.873
 29.570    577.000    555.173     21.827    524.535    547.413    524.535    532.298    524.535
 29.670    593.000    548.518     44.482    524.198    540.664    524.198    532.054    524.198
 29.770    545.000    545.098     -0.098    523.862    537.257    523.862    531.704    523.862
 29.870    510.361    542.918    -32.556    523.525    535.196    523.525    531.248    523.525
 29.970    637.000    541.300     95.700    523.189    533.793    523.189    530.696    523.189
 30.070    574.000    540.042     33.958    522.854    532.830    522.854    530.067    522.854
 30.170    570.394    539.122     31.272    522.519    532.262    522.519    529.379    522.519
 30.270    558.144    538.668     19.476    522.185    532.198    522.185    528.654    522.185
 30.370    550.000    539.118     10.882    521.851    533.056    521.851    527.912    521.851
