neutron_powder_diffraction_0218
R_wp: 3.963
Temperature (K): 1074.000
Counts: 83441.00
Wavelength (Ã…): 2.52098
COMMENTS
Test file for demonstrating the .xyy file format in Reel1.0
END OF HEADER
   tth       Y_obs     Y_calc      Y_res    Background    Phase_1_Nuc    Phase_1_Mag    Phase_2_Nuc    Phase_2_Mag
  9.970    631.000    569.316     61.684    568.708    569.289    568.708    568.734    568.708
 10.070    543.700    569.448    -25.748    568.772    569.421    568.772    568.798    568.772
 10.170    605.000    569.568     35.432    568.830    569.541    568.830    568.857    568.830
 10.270    575.703    569.689      6.013    568.883    569.662    568.883    568.910    568.883
 10.370    563.755    569.816     -6.061    568.930    569.789    568.930    568.957    568.930
 10.470    586.000    569.951     16.049    568.973    569.924    568.973    569.000    568.973
 10.570    552.597    570.098    -17.501    569.010    570.071    569.010    569.037    569.010
 10.670    553.000    570.261    -17.261    569.042    570.233    569.042    569.069    569.042
 10.770    597.254    570.446     26.808    569.069    570.418    569.069    569.097    569.069
 10.870    600.000    570.661     29.339    569.091    570.633    569.091    569.119    569.091
 10.970    626.000    570.918     55.082    569.108    570.889    569.108    569.136    569.108
 11.070    636.000    571.232     64.768    569.120    571.203    569.120    569.148    569.120
 11.170    579.000    571.627      7.373    569.127    571.598    569.127    569.155    569.127
 11.270    579.000    572.139      6.861    569.129    572.109    569.129    569.158    569.129
 11.370    589.422    572.829     16.594    569.127    572.799    569.127    569.155    569.127
 11.470    582.997    573.832      9.166    569.120    573.800    569.120    569.149    569.120
 11.570    531.872    575.523    -43.651    569.108    575.489    569.108    569.138    569.108
 11.670    592.000    579.014     12.986    569.091    578.978    569.091    569.122    569.091
 11.770    552.948    587.008    -34.060    569.070    586.967    569.070    569.101    569.070
 11.870    681.000    604.050     76.950    569.044    604.000    569.044    569.075    569.044
 11.970    621.934    633.887    -11.954    569.014    633.821    569.014    569.045    569.014
 12.070    647.105    672.832    -25.728    568.979    672.743    568.979    569.010    568.979
 12.170    622.000    703.675    -81.675    568.940    703.568    568.940    568.971    568.940
 12.270    718.000    704.642     13.358    568.896    704.535    568.896    568.928    568.896
 12.370    659.324    674.815    -15.491    568.848    674.723    568.848    568.881    568.848
 12.470    604.000    635.597    -31.597    568.796    635.516    568.796    568.840    568.796
 12.570    593.428    604.966    -11.538    568.740    604.901    568.740    568.785    568.740
 12.670    572.000    587.232    -15.232    568.679    587.175    568.679    568.726    568.679
 12.770    575.000    578.820     -3.820    568.614    578.768    568.614    568.661    568.614
 12.870    576.000    575.107      0.893    568.546    575.056    568.546    568.593    568.546
 12.970    523.000    573.283    -50.283    568.473    573.233    568.473    568.520    568.473
 13.070    595.482    572.178     23.305    568.396    572.128    568.396    568.443    568.396
 13.170    612.874    571.395     41.480    568.315    571.345    568.315    568.363    568.315
 13.270    611.000    570.796     40.204    568.230    570.746    568.230    568.279    568.230
 13.370    552.207    570.322    -18.116    568.141    570.267    568.141    568.196    568.141
 13.470    614.534    569.927     44.607    568.049    569.871    568.049    568.104    568.049
 13.570    555.000    569.591    -14.591    567.953    569.535    567.953    568.008    567.953
 13.670    565.676    569.298     -3.622    567.852    569.241    567.852    567.908    567.852
 13.770    510.000    569.037    -59.037    567.749    568.980    567.749    567.805    567.749
 13.870    524.128    568.800    -44.672    567.641    568.743    567.641    567.698    567.641
 13.970    553.000    568.581    -15.581    567.530    568.523    567.530    567.587    567.530
 14.070    529.000    568.375    -39.375    567.415    568.317    567.415    567.473    567.415
 14.170    556.076    568.179    -12.104    567.297    568.122    567.297    567.355    567.297
 14.270    573.000    567.991      5.009    567.176    567.933    567.176    567.233    567.176
 14.370    570.000    567.809      2.191    567.050    567.751    567.050    567.108    567.050
 14.470    591.000    567.631     23.369    566.922    567.573    566.922    566.980    566.922
 14.570    612.357    567.457     44.900    566.790    567.398    566.790    566.849    566.790
 14.670    536.000    567.284    -31.284    566.655    567.225    566.655    566.714    566.655
 14.770    554.000    567.115    -13.115    566.516    567.056    566.516    566.575    566.516
 14.870    543.000    566.946    -23.946    566.374    566.886    566.374    566.434    566.374
 14.970    586.306    566.775     19.531    566.229    566.715    566.229    566.289    566.229
 15.070    581.630    566.604     15.026    566.081    566.543    566.081    566.141    566.081
 15.170    533.000    566.432    -33.432    565.930    566.371    565.930    565.990    565.930
 15.270    518.000    566.260    -48.260    565.775    566.198    565.775    565.836    565.775
 15.370    540.000    566.086    -26.086    565.618    566.024    565.618    565.679    565.618
 15.470    552.000    565.911    -13.911    565.457    565.849    565.457    565.519    565.457
 15.570    525.094    565.735    -40.641    565.294    565.672    565.294    565.356    565.294
 15.670    532.000    565.558    -33.558    565.127    565.495    565.127    565.191    565.127
 15.770    610.694    565.383     45.311    564.958    565.316    564.958    565.024    564.958
 15.870    565.000    565.202     -0.202    564.786    565.135    564.786    564.853    564.786
 15.970    559.468    565.020     -5.552    564.611    564.951    564.611    564.680    564.611
 16.070    557.912    564.835     -6.923    564.433    564.765    564.433    564.502    564.433
 16.170    579.000    564.648     14.352    564.253    564.578    564.253    564.322    564.253
 16.270    596.082    564.459     31.623    564.070    564.388    564.070    564.140    564.070
 16.370    592.462    564.268     28.194    563.884    564.197    563.884    563.955    563.884
 16.470    537.000    564.075    -27.075    563.695    564.003    563.695    563.767    563.695
 16.570    536.000    563.880    -27.880    563.504    563.808    563.504    563.576    563.504
 16.670    590.000    563.683     26.317    563.311    563.610    563.311    563.383    563.311
 16.770    508.000    563.483    -55.483    563.114    563.411    563.114    563.187    563.114
 16.870    557.730    563.282     -5.553    562.916    563.209    562.916    562.989    562.916
 16.970    572.419    563.079      9.340    562.715    563.005    562.715    562.788    562.715
 17.070    608.000    562.874     45.126    562.511    562.800    562.511    562.585    562.511
 17.170    558.000    562.667     -4.667    562.305    562.592    562.305    562.380    562.305
 17.270    581.000    562.458     18.542    562.097    562.382    562.097    562.172    562.097
 17.370    564.000    562.247      1.753    561.887    562.171    561.887    561.962    561.887
 17.470    577.000    562.036     14.964    561.674    561.960    561.674    561.750    561.674
 17.570    602.118    561.821     40.297    561.459    561.745    561.459    561.535    561.459
 17.670    549.139    561.605    -12.466    561.242    561.527    561.242    561.319    561.242
 17.770    543.364    561.386    -18.022    561.022    561.308    561.022    561.100    561.022
 17.870    551.000    561.166    -10.166    560.801    561.087    560.801    560.879    560.801
 17.970    531.000    560.944    -29.944    560.577    560.864    560.577    560.656    560.577
 18.070    565.000    560.721      4.279    560.351    560.640    560.351    560.433    560.351
 18.170    586.000    560.495     25.505    560.124    560.413    560.124    560.206    560.124
 18.270    548.920    560.268    -11.347    559.894    560.185    559.894    559.977    559.894
 18.370    593.000    560.038     32.962    559.662    559.955    559.662    559.746    559.662
 18.470    603.123    559.807     43.316    559.429    559.724    559.429    559.513    559.429
 18.570    560.401    559.575      0.826    559.193    559.490    559.193    559.278    559.193
 18.670    547.521    559.341    -11.820    558.956    559.256    558.956    559.041    558.956
 18.770    540.000    559.105    -19.105    558.717    559.019    558.717    558.803    558.717
 18.870    506.000    558.868    -52.868    558.476    558.781    558.476    558.562    558.476
 18.970    594.241    558.629     35.612    558.233    558.542    558.233    558.320    558.233
 19.070    593.986    558.389     35.597    557.989    558.301    557.989    558.077    557.989
 19.170    562.000    558.148      3.852    557.743    558.059    557.743    557.831    557.743
 19.270    554.231    557.906     -3.675    557.495    557.817    557.495    557.584    557.495
 19.370    539.000    557.663    -18.663    557.246    557.573    557.246    557.336    557.246
 19.470    537.000    557.418    -20.418    556.995    557.327    556.995    557.085    556.995
 19.570    566.000    557.171      8.829    556.742    557.080    556.742    556.834    556.742
 19.670    562.000    556.923      5.077    556.488    556.831    556.488    556.580    556.488
 19.770    571.000    556.675     14.325    556.232    556.581    556.232    556.326    556.232
 19.870    524.000    556.429    -32.429    555.975    556.330    555.975    556.074    555.975
 19.970    512.571    556.181    -43.610    555.717    556.079    555.717    555.818    555.717
 20.070    587.337    555.942     31.395    555.457    555.839    555.457    555.559    555.457
 20.170    590.000    555.698     34.302    555.196    555.595    555.196    555.299    555.196
 20.270    537.692    555.445    -17.753    554.933    555.341    554.933    555.037    554.933
 20.370    538.078    555.191    -17.113    554.669    555.085    554.669    554.774    554.669
 20.470    512.007    554.935    -42.928    554.403    554.829    554.403    554.510    554.403
 20.570    557.647    554.679      2.968    554.137    554.572    554.137    554.244    554.137
 20.670    567.000    554.422     12.578    553.869    554.314    553.869    553.978    553.869
 20.770    523.040    554.165    -31.124    553.600    554.055    553.600    553.710    553.600
 20.870    520.000    553.907    -33.907    553.330    553.796    553.330    553.440    553.330
 20.970    568.639    553.649     14.990    553.059    553.537    553.059    553.170    553.059
 21.070    556.301    553.390      2.911    552.786    553.277    552.786    552.899    552.786
 21.170    587.000    553.131     33.869    552.513    553.017    552.513    552.627    552.513
 21.270    546.000    552.872     -6.872    552.238    552.757    552.238    552.353    552.238
 21.370    513.000    552.614    -39.614    551.962    552.497    551.962    552.079    551.962
 21.470    538.000    552.355    -14.355    551.686    552.237    551.686    551.803    551.686
 21.570    581.000    552.097     28.903    551.408    551.978    551.408    551.527    551.408
 21.670    586.000    551.839     34.161    551.129    551.718    551.129    551.250    551.129
 21.770    533.000    551.582    -18.582    550.850    551.460    550.850    550.972    550.850
 21.870    551.981    551.325      0.655    550.569    551.202    550.569    550.693    550.569
 21.970    582.444    551.072     31.372    550.288    550.947    550.288    550.413    550.288
 22.070    556.101    550.848      5.254    550.006    550.721    550.006    550.132    550.006
 22.170    603.000    550.707     52.293    549.723    550.579    549.723    549.851    549.723
 22.270    528.005    550.482    -22.477    549.439    550.352    549.439    549.569    549.439
 22.370    540.000    550.236    -10.236    549.155    550.105    549.155    549.286    549.155
 22.470    502.000    549.995    -47.995    548.869    549.862    548.869    549.003    548.869
 22.570    558.000    549.758      8.242    548.583    549.624    548.583    548.719    548.583
 22.670    586.000    549.528     36.472    548.297    549.391    548.297    548.434    548.297
 22.770    531.283    549.343    -18.059    548.009    549.204    548.009    548.148    548.009
 22.870    553.000    549.138      3.862    547.722    548.997    547.722    547.863    547.722
 22.970    563.000    548.925     14.075    547.433    548.782    547.433    547.576    547.433
 23.070    513.000    548.721    -35.721    547.144    548.576    547.144    547.289    547.144
 23.170    567.000    548.530     18.470    546.854    548.383    546.854    547.002    546.854
 23.270    512.000    548.356    -36.356    546.564    548.206    546.564    546.714    546.564
 23.370    542.000    548.204     -6.204    546.273    548.052    546.273    546.426    546.273
 23.470    605.000    548.077     56.923    545.982    547.923    545.982    546.137    545.982
 23.570    557.000    547.986      9.014    545.690    547.828    545.690    545.848    545.690
 23.670    568.000    547.944     20.056    545.398    547.782    545.398    545.561    545.398
 23.770    568.000    547.966     20.034    545.105    547.801    545.105    545.272    545.105
 23.870    557.000    548.082      8.918    544.813    547.913    544.813    544.982    544.813
 23.970    578.216    548.342     29.874    544.519    548.171    544.519    544.692    544.519
 24.070    540.000    548.870     -8.870    544.226    548.696    544.226    544.402    544.226
 24.170    530.000    550.016    -20.016    543.932    549.839    543.932    544.112    543.932
 24.270    510.586    552.742    -42.156    543.637    552.564    543.637    543.821    543.637
 24.370    596.303    559.105     37.199    543.343    558.927    543.343    543.531    543.343
 24.470    567.000    572.015     -5.015    543.048    571.843    543.048    543.240    543.048
 24.570    599.324    592.972      6.352    542.753    592.811    542.753    542.949    542.753
 24.670    628.554    617.874     10.680    542.458    617.727    542.458    542.659    542.458
 24.770    682.545    634.397     48.148    542.162    634.257    542.162    542.368    542.162
 24.870    607.670    630.356    -22.686    541.867    630.208    541.867    542.078    541.867
 24.970    581.286    609.061    -27.776    541.571    608.893    541.571    541.787    541.571
 25.070    617.000    584.198     32.802    541.275    584.006    541.275    541.497    541.275
 25.170    565.000    565.371     -0.371    540.979    565.160    540.979    541.207    540.979
 25.270    543.000    554.375    -11.375    540.683    554.148    540.683    540.918    540.683
 25.370    534.000    548.959    -14.959    540.387    548.722    540.387    540.629    540.387
 25.470    591.000    546.396     44.604    540.091    546.150    540.091    540.340    540.091
 25.570    569.000    545.021     23.979    539.795    544.767    539.795    540.052    539.795
 25.670    569.000    544.129     24.871    539.499    543.865    539.499    539.764    539.499
 25.770    549.000    543.466      5.534    539.203    543.193    539.203    539.477    539.203
 25.870    584.000    542.939     41.061    538.907    542.656    538.907    539.191    538.907
 25.970    572.000    542.511     29.489    538.611    542.217    538.611    538.906    538.611
 26.070    529.000    542.153    -13.153    538.315    541.848    538.315    538.621    538.315
 26.170    575.000    541.854     33.146    538.019    541.536    538.019    538.338    538.019
 26.270    497.863    541.608    -43.745    537.723    541.276    537.723    538.055    537.723
 26.370    635.000    541.411     93.589    537.428    541.065    537.428    537.774    537.428
 26.470    555.000    541.263     13.737    537.133    540.901    537.133    537.495    537.133
 26.570    506.000    541.170    -35.170    536.838    540.790    536.838    537.217    536.838
 26.670    557.000    541.157     15.843    536.543    540.759    536.543    536.941    536.543
 26.770    520.000    541.207    -21.207    536.248    540.788    536.248    536.667    536.248
 26.870    571.540    541.315     30.225    535.954    540.873    535.954    536.396    535.954
 26.970    563.000    541.524     21.476    535.659    541.055    535.659    536.128    535.659
 27.070    537.000    541.865     -4.865    535.365    541.367    535.365    535.862    535.365
 27.170    576.410    542.358     34.052    535.072    541.829    535.072    535.600    535.072
 27.270    524.741    543.072    -18.331    534.779    542.507    534.779    535.343    534.779
 27.370    569.616    544.089     25.526    534.486    543.484    534.486    535.090    534.486
 27.470    575.000    545.585     29.415    534.193    544.934    534.193    534.843    534.193
 27.570    522.000    547.975    -25.975    533.901    547.270    533.901    534.603    533.901
 27.670    579.505    552.654     26.851    533.609    551.889    533.609    534.371    533.609
 27.770    548.000    564.375    -16.375    533.318    563.537    533.318    534.148    533.318
 27.870    614.411    594.856     19.555    533.027    593.928    533.027    533.937    533.027
 27.970    703.000    661.933     41.067    532.736    660.891    532.736    533.740    532.736
 28.070    765.408    773.102     -7.694    532.446    771.919    532.446    533.560    532.446
 28.170    906.000    897.038      8.962    532.157    895.698    532.157    533.402    532.157
 28.270   1017.207    958.241     58.965    531.867    956.745    531.867    533.271    531.867
 28.370    905.000    906.643     -1.643    531.579    904.990    531.579    533.176    531.579
 28.470    795.816    795.567      0.249    531.291    793.707    531.291    533.127    531.291
 28.570    700.000    709.664     -9.664    531.003    707.514    531.003    533.143    531.003
 28.670    733.636    692.543     41.092    530.716    689.992    530.716    533.254    530.716
 28.770    731.000    739.572     -8.572    530.430    736.470    530.430    533.515    530.430
 28.870    770.196    810.280    -40.084    530.144    806.386    530.144    534.028    530.144
 28.970    879.562    843.741     35.821    529.859    838.631    529.859    534.974    529.859
 29.070    775.517    803.797    -28.280    529.574    796.758    529.574    536.628    529.574
 29.170    691.000    722.341    -31.341    529.291    712.305    529.291    539.341    529.291
 29.270    674.718    648.284     26.434    529.007    633.862    529.007    543.438    529.007
 29.370    614.000    603.520     10.480    528.725    583.231    528.725    549.017    528.725
 29.470    631.176    584.992     46.184    528.443    557.847    528.443    555.588    528.443
 29.570    605.000    580.244     24.756    528.162    546.857    528.162    561.546    528.162
 29.670    607.000    578.286     28.714    527.881    541.975    527.881    564.189    527.881
 29.770    592.000    573.533     18.467    527.601    539.341    527.601    561.791    527.601
 29.870    587.000    565.972     21.028    527.322    537.620    527.322    555.672    527.322
 29.970    555.000    557.889     -2.889    527.044    536.404    527.044    548.527    527.044
 30.070    568.052    550.963     17.089    526.767    535.561    526.767    542.166    526.767
 30.170    516.000    545.820    -29.820    526.490    535.063    526.490    537.245    526.490
 30.270    561.000    542.541     18.459    526.214    535.009    526.214    533.744    526.214
 30.370    562.000    541.248     20.752    525.939    535.819    525.939    531.365    525.939
