neutron_powder_diffraction_0043
R_wp: 3.832
Temperature (K): 608.253
Counts: 83717.00
Wavelength (Ã…): 2.52098
COMMENTS
Test file for demonstrating the .xyy file format in Reel1.0
END OF HEADER
   tth       Y_obs     Y_calc      Y_res    Background    Phase_1_Nuc    Phase_1_Mag    Phase_2_Nuc    Phase_2_Mag
  9.970    686.062    682.250      3.813    680.701    681.779    681.171    680.701    680.701
 10.070    695.000    681.627     13.373    679.985    681.151    680.461    679.985    679.985
 10.170    727.000    681.017     45.983    679.271    680.536    679.752    679.271    679.271
 10.270    710.000    680.423     29.577    678.558    679.937    679.044    678.558    678.558
 10.370    660.000    679.847    -19.847    677.846    679.356    678.337    677.846    677.846
 10.470    632.500    679.294    -46.794    677.135    678.797    677.632    677.135    677.135
 10.570    671.094    678.768     -7.674    676.426    678.265    676.927    676.426    676.426
 10.670    669.797    678.275     -8.478    675.717    677.767    676.224    675.717    675.717
 10.770    752.000    677.824     74.176    675.009    677.310    675.522    675.009    675.009
 10.870    675.896    677.425     -1.529    674.303    676.906    674.821    674.303    674.303
 10.970    735.000    677.094     57.906    673.597    676.569    674.122    673.597    673.597
 11.070    639.000    676.852    -37.852    672.893    676.320    673.423    672.893    672.893
 11.170    691.000    676.727     14.273    672.190    676.188    672.726    672.190    672.190
 11.270    695.000    676.765     18.235    671.489    676.220    672.031    671.489    671.489
 11.370    735.000    677.038     57.962    670.788    676.486    671.337    670.788    670.788
 11.470    715.314    677.683     37.630    670.089    677.125    670.644    670.089    670.089
 11.570    718.460    679.009     39.452    669.391    678.442    669.953    669.391    669.391
 11.670    706.000    681.693     24.307    668.695    681.118    669.262    668.695    668.695
 11.770    659.857    687.073    -27.216    667.999    686.488    668.574    667.999    667.999
 11.870    722.000    697.242     24.758    667.305    696.644    667.887    667.305    667.305
 11.970    770.000    714.441     55.559    666.613    713.826    667.201    666.613    666.613
 12.070    831.000    739.266     91.734    665.921    738.629    666.517    665.921    665.921
 12.170    745.541    767.590    -22.049    665.232    766.930    665.834    665.232    665.232
 12.270    794.620    787.951      6.669    664.543    787.272    665.153    664.543    664.543
 12.370    780.000    787.387     -7.387    663.856    786.700    664.473    663.856    663.856
 12.470    769.000    765.808      3.192    663.171    765.125    663.795    663.171    663.171
 12.570    727.000    736.134     -9.134    662.486    735.460    663.118    662.486    662.486
 12.670    705.000    709.892     -4.892    661.804    709.226    662.444    661.804    661.804
 12.770    690.000    691.267     -1.267    661.123    690.603    661.770    661.123    661.123
 12.870    672.000    679.690     -7.690    660.443    679.024    661.099    660.443    660.443
 12.970    726.916    672.924     53.993    659.765    672.252    660.429    659.765    659.765
 13.070    638.000    668.868    -30.868    659.088    668.191    659.761    659.088    659.088
 13.170    646.000    666.181    -20.181    658.413    665.496    659.094    658.413    658.413
 13.270    623.000    664.184    -41.184    657.739    663.491    658.429    657.739    657.739
 13.370    651.558    662.627    -11.069    657.068    661.925    657.766    657.068    657.068
 13.470    664.000    661.314      2.686    656.397    660.604    657.105    656.397    656.397
 13.570    667.000    660.093      6.907    655.729    659.374    656.446    655.729    655.729
 13.670    659.000    658.984      0.016    655.061    658.255    655.788    655.061    655.061
 13.770    641.000    657.976    -16.976    654.396    657.238    655.133    654.396    654.396
 13.870    631.000    657.040    -26.040    653.732    656.292    654.479    653.732    653.732
 13.970    663.037    656.142      6.895    653.070    655.384    653.827    653.070    653.070
 14.070    647.000    655.284     -8.284    652.410    654.517    653.177    652.410    652.410
 14.170    708.793    654.462     54.332    651.751    653.683    652.528    651.751    651.751
 14.270    637.000    653.667    -16.667    651.094    652.878    651.882    651.094    651.094
 14.370    615.000    652.895    -37.895    650.439    652.095    651.238    650.439    650.439
 14.470    646.000    652.142     -6.142    649.785    651.332    650.595    649.785    649.785
 14.570    604.000    651.407    -47.407    649.134    650.585    649.955    649.134    649.134
 14.670    602.000    650.685    -48.685    648.484    649.852    649.317    648.484    648.484
 14.770    603.999    649.976    -45.977    647.835    649.130    648.680    647.835    647.835
 14.870    600.353    649.277    -48.924    647.189    648.420    648.046    647.189    647.189
 14.970    659.858    648.588     11.270    646.545    647.719    647.414    646.545    646.545
 15.070    654.000    647.908      6.092    645.902    647.025    646.784    645.902    645.902
 15.170    658.000    647.235     10.765    645.261    646.340    646.156    645.261    645.261
 15.270    687.938    646.569     41.369    644.622    645.661    645.530    644.622    644.622
 15.370    657.515    645.909     11.606    643.985    644.988    644.906    643.985    643.985
 15.470    668.365    645.256     23.109    643.350    644.320    644.285    643.350    643.350
 15.570    696.175    644.608     51.567    642.716    643.659    643.665    642.716    642.716
 15.670    602.000    643.969    -41.969    642.085    643.005    643.048    642.085    642.085
 15.770    655.000    643.333     11.667    641.455    642.354    642.434    641.455    641.455
 15.870    661.527    642.699     18.828    640.828    641.705    641.821    640.828    640.828
 15.970    689.102    642.070     47.032    640.202    641.061    641.211    640.202    640.202
 16.070    652.398    641.449     10.949    639.578    640.424    640.603    639.578    639.578
 16.170    608.000    640.832    -32.832    638.956    639.791    639.998    638.956    638.956
 16.270    673.000    640.216     32.784    638.337    639.158    639.394    638.337    638.337
 16.370    595.610    639.602    -43.993    637.719    638.528    638.794    637.719    637.719
 16.470    610.000    638.993    -28.993    637.103    637.901    638.195    637.103    637.103
 16.570    680.000    638.387     41.613    636.489    637.277    637.599    636.489    636.489
 16.670    611.000    637.785    -26.785    635.878    636.656    637.006    635.878    635.878
 16.770    626.000    637.186    -11.186    635.268    636.039    636.415    635.268    635.268
 16.870    618.000    636.591    -18.591    634.660    635.424    635.827    634.660    634.660
 16.970    627.685    635.999     -8.314    634.055    634.813    635.241    634.055    634.055
 17.070    650.000    635.419     14.581    633.451    634.212    634.658    633.451    633.451
 17.170    666.152    634.905     31.247    632.850    633.676    634.079    632.850    632.850
 17.270    616.000    634.331    -18.331    632.251    633.081    633.501    632.251    632.251
 17.370    619.000    633.759    -14.759    631.653    632.487    632.925    631.653    631.653
 17.470    641.000    633.212      7.788    631.058    631.918    632.353    631.058    631.058
 17.570    657.976    632.655     25.321    630.465    631.338    631.783    630.465    630.465
 17.670    671.000    632.088     38.912    629.874    630.747    631.216    629.874    629.874
 17.770    633.000    631.524      1.476    629.286    630.158    630.651    629.286    629.286
 17.870    615.882    630.962    -15.080    628.699    629.572    630.089    628.699    628.699
 17.970    637.000    630.405      6.595    628.115    628.988    629.531    628.115    628.115
 18.070    584.000    629.850    -45.850    627.533    628.408    628.975    627.533    627.533
 18.170    640.007    629.299     10.708    626.953    627.829    628.422    626.953    626.953
 18.270    612.000    628.751    -16.751    626.375    627.254    627.872    626.375    626.375
 18.370    637.000    628.207      8.793    625.799    626.681    627.325    625.799    625.799
 18.470    621.810    627.667     -5.856    625.226    626.111    626.781    625.226    625.226
 18.570    577.148    627.130    -49.982    624.654    625.544    626.240    624.654    624.654
 18.670    642.000    626.601     15.399    624.085    624.983    625.703    624.085    624.085
 18.770    587.128    626.082    -38.954    623.519    624.432    625.169    623.519    623.519
 18.870    573.673    625.557    -51.884    622.954    623.874    624.637    622.954    622.954
 18.970    606.000    625.035    -19.035    622.392    623.317    624.109    622.392    622.392
 19.070    621.085    624.516     -3.431    621.832    622.763    623.585    621.832    621.832
 19.170    637.000    624.005     12.995    621.274    622.214    623.064    621.274    621.274
 19.270    644.000    623.527     20.473    620.719    621.692    622.554    620.719    620.719
 19.370    634.000    623.062     10.938    620.165    621.178    622.049    620.165    620.165
 19.470    656.690    622.563     34.126    619.615    620.638    621.539    619.615    619.615
 19.570    621.000    622.065     -1.065    619.066    620.099    621.032    619.066    619.066
 19.670    653.702    621.572     32.131    618.520    619.562    620.529    618.520    618.520
 19.770    604.000    621.083    -17.083    617.976    619.029    620.029    617.976    617.976
 19.870    629.000    620.611      8.389    617.434    618.511    619.534    617.434    617.434
 19.970    605.977    620.146    -14.169    616.895    617.998    619.042    616.895    616.895
 20.070    639.866    619.681     20.185    616.358    617.481    618.557    616.358    616.358
 20.170    599.000    619.245    -20.245    615.823    616.983    618.085    615.823    615.823
 20.270    606.157    618.797    -12.640    615.291    616.480    617.608    615.291    615.291
 20.370    626.211    618.389      7.822    614.761    616.016    617.134    614.761    614.761
 20.470    654.623    617.954     36.669    614.233    615.524    616.663    614.233    614.233
 20.570    605.000    617.532    -12.532    613.708    615.044    616.197    613.708    613.708
 20.670    565.864    617.092    -51.229    613.185    614.542    615.735    613.185    613.185
 20.770    560.000    616.669    -56.669    612.665    614.055    615.278    612.665    612.665
 20.870    576.000    616.289    -40.289    612.147    613.609    614.827    612.147    612.147
 20.970    578.000    615.868    -37.868    611.631    613.119    614.379    611.631    611.631
 21.070    628.000    615.453     12.547    611.118    612.633    613.938    611.118    611.118
 21.170    595.000    615.048    -20.048    610.607    612.151    613.504    610.607    610.607
 21.270    627.450    614.644     12.806    610.099    611.670    613.073    610.099    610.099
 21.370    586.000    614.257    -28.257    609.593    611.203    612.647    609.593    609.593
 21.470    606.036    613.869     -7.833    609.089    610.732    612.226    609.089    609.089
 21.570    633.000    613.488     19.512    608.588    610.264    611.812    608.588    608.588
 21.670    598.430    613.112    -14.682    608.089    609.798    611.403    608.089    608.089
 21.770    572.000    612.744    -40.744    607.593    609.336    611.001    607.593    607.593
 21.870    590.020    612.386    -22.365    607.099    608.879    610.606    607.099    607.099
 21.970    578.000    612.037    -34.037    606.608    608.427    610.217    606.608    606.608
 22.070    616.452    611.698      4.754    606.119    607.981    609.836    606.119    606.119
 22.170    649.000    611.371     37.629    605.632    607.541    609.462    605.632    605.632
 22.270    615.000    611.055      3.945    605.148    607.108    609.095    605.148    605.148
 22.370    660.171    610.752     49.420    604.667    606.681    608.737    604.667    604.667
 22.470    558.776    610.463    -51.687    604.188    606.263    608.387    604.188    604.188
 22.570    610.964    610.190      0.774    603.711    605.855    608.046    603.711    603.711
 22.670    646.000    609.941     36.059    603.237    605.461    607.716    603.237    603.237
 22.770    559.000    609.704    -50.704    602.765    605.074    607.395    602.765    602.765
 22.870    601.000    609.484     -8.484    602.296    604.697    607.083    602.296    602.296
 22.970    578.000    609.286    -31.286    601.829    604.333    606.783    601.829    601.829
 23.070    586.859    609.113    -22.254    601.365    603.985    606.493    601.365    601.365
 23.170    586.000    608.968    -22.968    600.904    603.657    606.216    600.904    600.904
 23.270    638.000    608.857     29.143    600.445    603.351    605.951    600.445    600.445
 23.370    610.000    608.783      1.217    599.988    603.072    605.700    599.988    599.988
 23.470    649.365    608.755     40.609    599.534    602.826    605.463    599.534    599.534
 23.570    605.000    608.782     -3.782    599.082    602.622    605.243    599.082    599.082
 23.670    608.240    608.876     -0.636    598.633    602.471    605.038    598.633    598.633
 23.770    647.000    609.052     37.948    598.186    602.388    604.851    598.186    598.186
 23.870    658.768    609.335     49.433    597.742    602.396    604.683    597.742    597.742
 23.970    630.000    609.760     20.240    597.301    602.528    604.535    597.301    597.301
 24.070    608.595    610.387     -1.792    596.862    602.843    604.409    596.862    596.862
 24.170    620.000    611.336      8.664    596.425    603.459    604.306    596.425    596.425
 24.270    601.000    612.869    -11.869    595.991    604.635    604.229    595.991    595.991
 24.370    602.000    615.535    -13.535    595.560    606.921    604.180    595.560    595.560
 24.470    633.000    620.331     12.669    595.131    611.310    604.161    595.131    595.131
 24.570    623.000    628.659     -5.659    594.705    619.204    604.175    594.705    594.705
 24.670    612.793    641.772    -28.979    594.281    631.852    604.226    594.281    594.281
 24.770    683.000    659.517     23.483    593.860    649.098    604.315    593.860    593.860
 24.870    670.182    678.387     -8.204    593.441    667.430    604.448    593.441    593.441
 24.970    695.000    690.322      4.678    593.025    678.775    604.630    593.025    593.025
 25.070    679.000    687.926     -8.926    592.611    675.729    604.865    592.611    592.611
 25.170    695.000    673.250     21.750    592.200    660.337    605.159    592.200    592.200
 25.270    685.453    654.822     30.631    591.792    641.127    605.519    591.792    591.792
 25.370    650.000    639.151     10.849    591.386    624.604    605.954    591.386    591.386
 25.470    623.000    628.423     -5.423    590.983    612.945    606.472    590.983    590.983
 25.570    624.529    622.178      2.352    590.582    605.682    607.085    590.582    590.582
 25.670    619.000    619.047     -0.047    590.184    601.431    607.805    590.184    590.184
 25.770    578.360    617.767    -39.407    589.788    598.911    608.647    589.788    589.788
 25.870    632.562    617.524     15.038    589.395    597.292    609.629    589.395    589.395
 25.970    591.000    617.908    -26.908    589.004    596.141    610.772    589.004    589.004
 26.070    575.444    618.744    -43.300    588.616    595.258    612.103    588.616    588.616
 26.170    639.000    619.972     19.028    588.231    594.551    613.651    588.231    588.231
 26.270    677.614    621.585     56.028    587.848    593.976    615.457    587.848    587.848
 26.370    618.594    623.606     -5.012    587.467    593.506    617.565    587.467    587.467
 26.470    649.000    626.080     22.920    587.090    593.129    620.039    587.090    587.090
 26.570    620.735    629.068     -8.333    586.714    592.834    622.946    586.714    586.714
 26.670    670.000    632.665     37.335    586.342    592.622    626.382    586.342    586.342
 26.770    633.329    636.989     -3.660    585.972    592.491    630.466    585.972    585.972
 26.870    620.000    642.204    -22.204    585.604    592.446    635.358    585.604    585.604
 26.970    633.000    648.533    -15.533    585.239    592.502    641.265    585.239    585.239
 27.070    662.000    656.276      5.724    584.877    592.678    648.470    584.877    584.877
 27.170    647.128    665.850    -18.722    584.517    593.000    657.360    584.517    584.517
 27.270    708.106    677.838     30.267    584.160    593.509    668.480    584.160    584.160
 27.370    730.000    693.093     36.907    583.805    594.264    682.623    583.805    583.805
 27.470    691.000    712.931    -21.931    583.453    595.357    701.013    583.453    583.453
 27.570    768.025    739.745     28.280    583.103    596.955    725.876    583.103    583.103
 27.670    810.000    779.276     30.724    582.756    599.456    762.552    582.756    582.756
 27.770    880.000    848.216     31.784    582.412    604.015    826.572    582.412    582.412
 27.870   1060.707    992.900     67.807    582.070    613.828    961.060    582.070    582.070
 27.970   1290.000   1315.867    -25.867    581.731    635.969   1261.458    581.731    581.731
 28.070   1806.000   1973.462   -167.462    581.394    681.220   1873.305    581.394    581.394
 28.170   3052.730   3077.204    -24.473    581.060    757.291   2900.437    581.060    581.060
 28.270   4367.000   4486.779   -119.779    580.728    854.575   4212.254    580.728    580.728
 28.370   5594.000   5650.088    -56.088    580.399    935.174   5294.701    580.399    580.399
 28.470   5864.239   5862.170      2.069    580.072    950.843   5491.062    580.072    580.072
 28.570   5013.556   5014.272     -0.716    579.748    894.800   4699.132    579.748    579.748
 28.670   3904.000   3797.976    106.024    579.427    816.005   3561.404    579.427    579.427
 28.770   2874.000   2938.575    -64.575    579.108    766.106   2751.561    579.108    579.108
 28.870   2653.000   2711.426    -58.426    578.791    764.929   2525.223    578.791    578.791
 28.970   2892.252   2972.984    -80.732    578.477    800.557   2750.835    578.477    578.477
 29.070   3303.419   3325.658    -22.239    578.166    839.088   3064.749    578.166    578.166
 29.170   3391.000   3344.133     46.867    577.857    842.781   3079.348    577.857    577.857
 29.270   3067.000   2897.408    169.592    577.551    800.582   2674.582    577.551    577.551
 29.370   2245.096   2228.189     16.907    577.247    736.512   2069.112    577.247    577.247
 29.470   1602.884   1620.313    -17.429    576.946    678.175   1519.215    576.946    576.946
 29.570   1171.000   1197.119    -26.119    576.648    637.561   1136.280    576.648    576.648
 29.670    943.022    951.606     -8.584    576.352    614.039    913.955    576.352    576.352
 29.770    872.000    824.227     47.773    576.058    601.889    798.413    576.058    576.058
 29.870    756.948    758.821     -1.872    575.767    595.711    738.884    575.767    575.767
 29.970    772.000    721.695     50.305    575.478    592.275    704.902    575.478    575.478
 30.070    719.000    697.434     21.566    575.192    590.114    682.513    575.192    575.192
 30.170    772.000    679.955     92.045    574.909    588.672    666.191    574.909    574.909
 30.270    732.000    666.854     65.146    574.628    587.769    653.712    574.628    574.628
 30.370    694.000    657.123     36.877    574.349    587.415    644.054    574.349    574.349
