neutron_powder_diffraction_0088
R_wp: 4.500
Temperature (K): 832.197
Counts: 83603.00
Wavelength (Ã…): 2.52098
COMMENTS
Test file for demonstrating the .xyy file format in Reel1.0
END OF HEADER
   tth       Y_obs     Y_calc      Y_res    Background    Phase_1_Nuc    Phase_1_Mag    Phase_2_Nuc    Phase_2_Mag
  9.970    588.000    561.340     26.660    560.226    561.340    560.226    560.226    560.226
 10.070    591.000    561.897     29.103    560.692    561.896    560.692    560.692    560.692
 10.170    579.000    562.456     16.544    561.148    562.455    561.148    561.148    561.148
 10.270    648.000    563.020     84.980    561.594    563.020    561.594    561.594    561.594
 10.370    600.000    563.593     36.407    562.029    563.593    562.029    562.029    562.029
 10.470    625.000    564.179     60.821    562.455    564.178    562.455    562.455    562.455
 10.570    596.015    564.784     31.231    562.871    564.783    562.871    562.871    562.871
 10.670    562.000    565.416     -3.416    563.277    565.415    563.277    563.277    563.277
 10.770    523.385    566.079    -42.694    563.673    566.078    563.673    563.673    563.673
 10.870    643.000    566.790     76.210    564.060    566.788    564.060    564.060    564.060
 10.970    598.000    567.564     30.436    564.437    567.562    564.437    564.437    564.437
 11.070    621.000    568.426     52.574    564.804    568.424    564.804    564.804    564.804
 11.170    592.493    569.410     23.083    565.162    569.407    565.162    565.162    565.162
 11.270    613.588    570.568     43.020    565.511    570.565    565.511    565.511    565.511
 11.370    613.000    571.988     41.012    565.851    571.985    565.851    565.851    565.851
 11.470    584.000    573.850     10.150    566.181    573.845    566.181    566.181    566.181
 11.570    587.000    576.569     10.431    566.503    576.564    566.503    566.503    566.503
 11.670    640.000    581.117     58.883    566.815    581.109    566.815    566.815    566.815
 11.770    615.000    589.425     25.575    567.118    589.412    567.118    567.118    567.118
 11.870    669.000    604.427     64.573    567.412    604.406    567.412    567.412    567.412
 11.970    600.253    628.741    -28.488    567.698    628.707    567.698    567.698    567.698
 12.070    620.314    661.486    -41.173    567.975    661.433    567.975    567.975    567.975
 12.170    721.619    694.299     27.320    568.243    694.227    568.243    568.243    568.243
 12.270    672.000    709.238    -37.238    568.503    709.157    568.503    568.503    568.503
 12.370    735.836    694.383     41.453    568.754    694.312    568.754    568.754    568.754
 12.470    617.626    661.928    -44.302    568.996    661.875    568.996    568.996    568.996
 12.570    594.426    629.789    -35.363    569.231    629.755    569.231    569.231    569.231
 12.670    586.000    606.262    -20.262    569.457    606.241    569.457    569.457    569.457
 12.770    554.000    591.970    -37.970    569.674    591.957    569.674    569.674    569.674
 12.870    600.858    584.277     16.581    569.884    584.269    569.884    569.884    569.884
 12.970    578.519    580.298     -1.779    570.085    580.292    570.085    570.085    570.085
 13.070    586.000    578.122      7.878    570.279    578.117    570.279    570.279    570.279
 13.170    610.000    576.794     33.206    570.464    576.790    570.464    570.464    570.464
 13.270    586.601    575.920     10.681    570.642    575.917    570.642    570.642    570.642
 13.370    628.664    575.300     53.364    570.812    575.298    570.812    570.812    570.812
 13.470    614.271    574.845     39.426    570.974    574.843    570.974    570.974    570.974
 13.570    574.000    574.511     -0.511    571.128    574.510    571.128    571.128    571.128
 13.670    551.740    574.267    -22.527    571.275    574.266    571.275    571.275    571.275
 13.770    562.000    574.089    -12.089    571.414    574.087    571.414    571.414    571.414
 13.870    584.726    573.959     10.767    571.546    573.958    571.546    571.546    571.546
 13.970    540.850    573.865    -33.016    571.670    573.865    571.670    571.670    571.670
 14.070    548.000    573.800    -25.800    571.787    573.799    571.787    571.787    571.787
 14.170    586.000    573.755     12.245    571.897    573.754    571.897    571.897    571.897
 14.270    571.595    573.725     -2.130    572.000    573.724    572.000    572.000    572.000
 14.370    547.000    573.707    -26.707    572.095    573.706    572.095    572.095    572.095
 14.470    550.000    573.697    -23.697    572.184    573.697    572.184    572.184    572.184
 14.570    523.665    573.698    -50.032    572.265    573.697    572.265    572.265    572.265
 14.670    549.000    573.699    -24.699    572.339    573.698    572.339    572.339    572.339
 14.770    566.000    573.702     -7.702    572.407    573.701    572.407    572.407    572.407
 14.870    548.000    573.706    -25.706    572.468    573.706    572.468    572.468    572.468
 14.970    549.000    573.709    -24.709    572.522    573.709    572.522    572.522    572.522
 15.070    573.000    573.711     -0.711    572.569    573.711    572.569    572.569    572.569
 15.170    570.790    573.712     -2.922    572.610    573.712    572.610    572.610    572.610
 15.270    551.490    573.710    -22.220    572.644    573.710    572.644    572.644    572.644
 15.370    543.000    573.706    -30.706    572.672    573.706    572.672    572.672    572.672
 15.470    541.464    573.711    -32.247    572.693    573.711    572.693    572.693    572.693
 15.570    577.000    573.771      3.229    572.708    573.771    572.708    572.708    572.708
 15.670    555.482    573.764    -18.282    572.717    573.764    572.717    572.717    572.717
 15.770    576.000    573.747      2.253    572.720    573.747    572.720    572.720    572.720
 15.870    571.695    573.732     -2.037    572.716    573.732    572.716    572.716    572.716
 15.970    542.000    573.707    -31.707    572.706    573.707    572.706    572.706    572.706
 16.070    599.364    573.677     25.687    572.690    573.677    572.690    572.690    572.690
 16.170    570.000    573.642     -3.642    572.668    573.642    572.668    572.668    572.668
 16.270    620.638    573.604     47.034    572.641    573.604    572.641    572.641    572.641
 16.370    525.000    573.564    -48.564    572.607    573.564    572.607    572.607    572.607
 16.470    543.000    573.527    -30.527    572.568    573.526    572.568    572.568    572.568
 16.570    591.000    573.475     17.525    572.522    573.475    572.522    572.522    572.522
 16.670    560.308    573.417    -13.110    572.472    573.417    572.472    572.472    572.472
 16.770    544.211    573.355    -29.144    572.415    573.355    572.415    572.415    572.415
 16.870    556.000    573.289    -17.289    572.353    573.289    572.353    572.353    572.353
 16.970    542.000    573.229    -31.229    572.286    573.229    572.286    572.286    572.286
 17.070    565.261    573.208     -7.947    572.213    573.208    572.213    572.213    572.213
 17.170    545.000    573.135    -28.135    572.134    573.135    572.134    572.134    572.134
 17.270    578.782    573.072      5.710    572.051    573.072    572.051    572.051    572.051
 17.370    546.090    572.991    -26.901    571.962    572.991    571.962    571.962    571.962
 17.470    595.000    572.907     22.093    571.868    572.907    571.868    571.868    571.868
 17.570    583.000    572.813     10.187    571.768    572.813    571.768    571.768    571.768
 17.670    544.000    572.710    -28.710    571.664    572.710    571.664    571.664    571.664
 17.770    548.000    572.603    -24.603    571.554    572.603    571.554    571.554    571.554
 17.870    568.000    572.491     -4.491    571.440    572.491    571.440    571.440    571.440
 17.970    538.000    572.375    -34.375    571.321    572.375    571.321    571.321    571.321
 18.070    567.000    572.254     -5.254    571.196    572.254    571.196    571.196    571.196
 18.170    576.000    572.129      3.871    571.067    572.129    571.067    571.067    571.067
 18.270    557.075    572.002    -14.928    570.933    572.002    570.933    570.933    570.933
 18.370    623.130    571.896     51.234    570.795    571.896    570.795    570.795    570.795
 18.470    551.000    571.767    -20.767    570.652    571.767    570.652    570.652    570.652
 18.570    542.000    571.635    -29.635    570.504    571.635    570.504    570.504    570.504
 18.670    613.000    571.519     41.481    570.352    571.519    570.352    570.352    570.352
 18.770    553.311    571.396    -18.085    570.195    571.396    570.195    570.195    570.195
 18.870    534.977    571.276    -36.299    570.033    571.276    570.033    570.033    570.033
 18.970    588.000    571.160     16.840    569.868    571.160    569.868    569.868    569.868
 19.070    546.000    571.003    -25.003    569.698    571.003    569.698    569.698    569.698
 19.170    543.000    570.839    -27.839    569.524    570.839    569.524    569.524    569.524
 19.270    563.000    570.674     -7.674    569.345    570.674    569.345    569.345    569.345
 19.370    576.000    570.535      5.465    569.163    570.535    569.163    569.163    569.163
 19.470    581.000    570.411     10.589    568.976    570.411    568.976    568.976    568.976
 19.570    543.012    570.243    -27.231    568.785    570.243    568.785    568.785    568.785
 19.670    584.000    570.062     13.938    568.590    570.062    568.590    568.590    568.590
 19.770    606.028    569.877     36.151    568.391    569.877    568.391    568.391    568.391
 19.870    615.469    569.689     45.780    568.189    569.689    568.189    568.189    568.189
 19.970    527.000    569.500    -42.500    567.982    569.500    567.982    567.982    567.982
 20.070    600.000    569.310     30.690    567.772    569.310    567.772    567.772    567.772
 20.170    553.000    569.114    -16.114    567.557    569.114    567.557    567.557    567.557
 20.270    535.000    568.920    -33.920    567.340    568.920    567.340    567.340    567.340
 20.370    562.864    568.721     -5.856    567.118    568.721    567.118    567.118    567.118
 20.470    547.390    568.518    -21.128    566.893    568.518    566.893    566.893    566.893
 20.570    518.740    568.315    -49.576    566.664    568.315    566.664    566.664    566.664
 20.670    551.000    568.107    -17.107    566.432    568.107    566.432    566.432    566.432
 20.770    548.000    567.894    -19.894    566.196    567.894    566.196    566.196    566.196
 20.870    574.913    567.678      7.235    565.957    567.678    565.957    565.957    565.957
 20.970    548.317    567.462    -19.146    565.714    567.463    565.714    565.714    565.714
 21.070    547.000    567.244    -20.244    565.469    567.244    565.469    565.469    565.469
 21.170    548.000    567.024    -19.024    565.220    567.024    565.220    565.220    565.220
 21.270    559.000    566.803     -7.803    564.967    566.803    564.967    564.967    564.967
 21.370    532.000    566.579    -34.579    564.712    566.579    564.712    564.712    564.712
 21.470    588.354    566.354     22.000    564.453    566.354    564.453    564.453    564.453
 21.570    536.000    566.128    -30.128    564.191    566.128    564.191    564.191    564.191
 21.670    565.365    565.901     -0.535    563.926    565.901    563.926    563.926    563.926
 21.770    577.246    565.673     11.573    563.659    565.674    563.659    563.659    563.659
 21.870    601.357    565.446     35.911    563.388    565.446    563.388    563.388    563.388
 21.970    543.000    565.219    -22.219    563.114    565.219    563.114    563.114    563.114
 22.070    573.000    564.993      8.007    562.838    564.993    562.838    562.838    562.838
 22.170    584.000    564.769     19.231    562.558    564.769    562.558    562.558    562.558
 22.270    577.000    564.546     12.454    562.276    564.547    562.276    562.276    562.276
 22.370    572.085    564.326      7.759    561.992    564.326    561.992    561.992    561.992
 22.470    543.000    564.109    -21.109    561.704    564.109    561.704    561.704    561.704
 22.570    610.956    563.897     47.059    561.414    563.897    561.414    561.414    561.414
 22.670    575.567    563.690     11.877    561.121    563.690    561.121    561.121    561.121
 22.770    568.000    563.491      4.509    560.826    563.492    560.826    560.826    560.826
 22.870    556.000    563.301     -7.301    560.528    563.302    560.528    560.528    560.528
 22.970    608.000    563.122     44.878    560.228    563.122    560.228    560.228    560.228
 23.070    596.000    562.956     33.044    559.925    562.957    559.925    559.925    559.925
 23.170    586.000    562.808     23.192    559.620    562.808    559.620    559.620    559.620
 23.270    566.000    562.682      3.318    559.313    562.682    559.313    559.313    559.313
 23.370    551.336    562.584    -11.247    559.003    562.585    559.003    559.003    559.003
 23.470    531.000    562.522    -31.522    558.691    562.523    558.691    558.691    558.691
 23.570    576.000    562.509     13.491    558.377    562.510    558.377    558.377    558.377
 23.670    538.793    562.558    -23.765    558.060    562.560    558.060    558.060    558.060
 23.770    598.000    562.692     35.308    557.742    562.693    557.742    557.742    557.742
 23.870    519.000    562.942    -43.942    557.421    562.945    557.421    557.421    557.421
 23.970    589.000    563.367     25.633    557.099    563.370    557.099    557.099    557.099
 24.070    552.482    564.077    -11.595    556.774    564.081    556.774    556.774    556.774
 24.170    583.523    565.329     18.194    556.447    565.333    556.447    556.447    556.447
 24.270    546.000    567.696    -21.696    556.119    567.703    556.119    556.119    556.119
 24.370    609.000    572.296     36.704    555.788    572.306    555.788    555.788    555.788
 24.470    596.700    580.805     15.895    555.456    580.820    555.456    555.456    555.456
 24.570    637.046    594.826     42.220    555.122    594.852    555.122    555.122    555.122
 24.670    668.696    614.312     54.383    554.786    614.352    554.786    554.786    554.786
 24.770    648.993    635.157     13.836    554.448    635.212    554.448    554.448    554.448
 24.870    647.000    647.750     -0.750    554.109    647.814    554.109    554.109    554.109
 24.970    685.565    643.530     42.035    553.768    643.592    553.768    553.768    553.768
 25.070    647.000    625.609     21.391    553.426    625.658    553.426    553.426    553.426
 25.170    646.000    604.161     41.839    553.081    604.195    553.081    553.081    553.081
 25.270    576.000    586.384    -10.384    552.736    586.405    552.736    552.736    552.736
 25.370    529.053    574.364    -45.311    552.388    574.377    552.388    552.388    552.388
 25.470    595.000    567.231     27.769    552.040    567.239    552.040    552.040    552.040
 25.570    553.000    563.248    -10.248    551.689    563.253    551.689    551.689    551.689
 25.670    601.000    560.968     40.032    551.338    560.971    551.338    551.338    551.338
 25.770    549.508    559.531    -10.023    550.985    559.534    550.985    550.985    550.985
 25.870    609.000    558.523     50.477    550.631    558.525    550.631    550.631    550.631
 25.970    607.000    557.765     49.235    550.275    557.767    550.275    550.275    550.275
 26.070    581.000    557.178     23.822    549.918    557.179    549.918    549.918    549.918
 26.170    616.000    556.720     59.280    549.560    556.721    549.560    549.560    549.560
 26.270    565.000    556.371      8.629    549.201    556.371    549.201    549.201    549.201
 26.370    595.000    556.117     38.883    548.840    556.117    548.840    548.840    548.840
 26.470    598.000    555.954     42.046    548.479    555.954    548.479    548.479    548.479
 26.570    595.000    555.883     39.117    548.116    555.883    548.116    548.116    548.116
 26.670    606.879    555.909     50.970    547.753    555.909    547.753    547.753    547.753
 26.770    554.000    556.045     -2.045    547.388    556.045    547.388    547.388    547.388
 26.870    524.359    556.309    -31.950    547.022    556.308    547.022    547.022    547.022
 26.970    536.000    556.727    -20.727    546.656    556.726    546.656    546.656    546.656
 27.070    525.212    557.339    -32.127    546.288    557.338    546.288    546.288    546.288
 27.170    537.787    558.200    -20.414    545.920    558.199    545.920    545.920    545.920
 27.270    645.000    559.391     85.609    545.551    559.389    545.551    545.551    545.551
 27.370    663.000    561.040    101.960    545.180    561.037    545.180    545.180    545.180
 27.470    621.000    563.379     57.621    544.810    563.376    544.810    544.810    544.810
 27.570    601.799    566.939     34.860    544.438    566.934    544.438    544.438    544.438
 27.670    613.000    573.077     39.923    544.066    573.071    544.066    544.066    544.066
 27.770    626.000    585.062     40.938    543.692    585.051    543.692    543.692    543.692
 27.870    596.326    609.276    -12.949    543.319    609.255    543.319    543.319    543.319
 27.970    653.000    654.556     -1.556    542.944    654.520    542.944    542.944    542.944
 28.070    670.252    726.773    -56.521    542.569    726.716    542.569    542.569    542.569
 28.170    841.700    818.238     23.463    542.194    818.162    542.194    542.194    542.194
 28.270    838.517    898.086    -59.569    541.818    898.005    541.818    541.818    541.818
 28.370    874.007    922.407    -48.400    541.441    922.339    541.441    541.441    541.441
 28.470    917.000    878.654     38.346    541.064    878.606    541.064    541.064    541.064
 28.570    815.000    808.127      6.873    540.687    808.094    540.687    540.687    540.687
 28.670    744.000    758.744    -14.744    540.309    758.718    540.309    540.309    540.309
 28.770    747.000    751.197     -4.197    539.930    751.173    539.930    539.930    539.930
 28.870    773.941    778.250     -4.309    539.552    778.226    539.552    539.552    539.552
 28.970    837.000    811.435     25.565    539.173    811.418    539.173    539.173    539.173
 29.070    814.000    815.359     -1.359    538.793    815.354    538.793    538.793    538.793
 29.170    787.000    776.387     10.613    538.414    776.390    538.414    538.414    538.414
 29.270    758.000    714.771     43.229    538.034    714.777    538.034    538.034    538.034
 29.370    672.000    656.316     15.684    537.654    656.321    537.654    537.654    537.654
 29.470    665.000    613.199     51.801    537.274    613.201    537.274    537.274    537.274
 29.570    650.000    586.224     63.776    536.893    586.224    536.893    536.893    536.893
 29.670    599.000    571.038     27.962    536.513    571.037    536.513    536.513    536.513
 29.770    663.000    562.741    100.259    536.132    562.739    536.132    536.132    536.132
 29.870    596.375    557.955     38.420    535.751    557.953    535.751    535.751    535.751
 29.970    582.000    554.920     27.080    535.370    554.918    535.370    535.370    535.370
 30.070    601.000    552.878     48.122    534.990    552.876    534.990    534.990    534.990
 30.170    584.000    551.560     32.440    534.609    551.557    534.609    534.609    534.609
 30.270    615.000    550.959     64.041    534.228    550.955    534.228    534.228    534.228
 30.370    622.000    551.322     70.678    533.847    551.317    533.847    533.847    533.847
