neutron_powder_diffraction_0001
R_wp: 3.669
Temperature (K): 430.806
Counts: 83643.00
Wavelength (Ã…): 2.52098
COMMENTS
Test file for demonstrating the .xyy file format in Reel1.0
END OF HEADER
   tth       Y_obs     Y_calc      Y_res    Background    Phase_1_Nuc    Phase_1_Mag    Phase_2_Nuc    Phase_2_Mag
  9.970    828.000    775.704     52.296    773.979    774.978    774.706    773.979    773.979
 10.070    815.000    774.470     40.530    772.658    773.736    773.392    772.658    772.658
 10.170    827.000    773.255     53.745    771.344    772.513    772.086    771.344    771.344
 10.270    730.799    772.061    -41.262    770.039    771.311    770.788    770.039    770.039
 10.370    798.000    770.891     27.109    768.741    770.133    769.499    768.741    768.741
 10.470    796.092    769.748     26.344    767.452    768.982    768.218    767.452    767.452
 10.570    763.000    768.636     -5.636    766.170    767.861    766.944    766.170    766.170
 10.670    798.000    767.561     30.439    764.897    766.778    765.679    764.897    764.897
 10.770    783.000    766.530     16.470    763.631    765.738    764.423    763.631    763.631
 10.870    741.000    765.552    -24.552    762.374    764.751    763.174    762.374    762.374
 10.970    744.000    764.641    -20.641    761.124    763.831    761.933    761.124    761.124
 11.070    730.587    763.813    -33.226    759.882    762.994    760.700    759.882    759.882
 11.170    755.000    763.094     -8.094    758.648    762.265    759.475    758.648    758.648
 11.270    820.000    762.521     57.479    757.422    761.682    758.259    757.422    757.422
 11.370    747.000    762.151    -15.151    756.204    761.302    757.050    756.204    756.204
 11.470    784.000    762.097     21.903    754.993    761.238    755.849    754.993    754.993
 11.570    791.025    762.653     28.372    753.791    761.783    754.656    753.791    753.791
 11.670    716.455    764.218    -47.763    752.596    763.337    753.471    752.596    752.596
 11.770    818.000    767.801     50.199    751.408    766.907    752.294    751.408    751.408
 11.870    807.000    775.259     31.741    750.228    774.349    751.125    750.228    750.228
 11.970    811.832    788.877     22.954    749.056    787.949    749.964    749.056    749.056
 12.070    896.000    810.067     85.933    747.892    809.115    748.810    747.892    747.892
 12.170    887.000    836.768     50.232    746.735    835.790    747.664    746.735    746.735
 12.270    901.000    860.302     40.698    745.586    859.298    746.526    745.586    745.586
 12.370    941.000    866.719     74.281    744.444    865.700    745.395    744.444    744.444
 12.470    905.000    850.043     54.957    743.310    849.021    744.273    743.310    743.310
 12.570    784.000    821.204    -37.204    742.183    820.186    743.158    742.183    742.183
 12.670    787.000    793.591     -6.591    741.064    792.576    742.051    741.064    741.064
 12.770    734.000    773.070    -39.070    739.952    772.053    740.951    739.952    739.952
 12.870    773.000    759.889     13.111    738.848    758.867    739.859    738.848    738.848
 12.970    738.907    752.006    -13.099    737.751    750.975    738.775    737.751    737.751
 13.070    695.000    747.203    -52.203    736.662    746.161    737.698    736.662    736.662
 13.170    793.945    743.970     49.975    735.579    742.917    736.629    735.579    735.579
 13.270    722.000    741.507    -19.507    734.504    740.440    735.568    734.504    734.504
 13.370    749.974    739.458     10.516    733.437    738.378    734.514    733.437    733.437
 13.470    680.712    737.664    -56.952    732.377    736.571    733.467    732.377    732.377
 13.570    729.422    736.046     -6.624    731.324    734.939    732.428    731.324    731.324
 13.670    716.000    734.556    -18.556    730.278    733.435    731.397    730.278    730.278
 13.770    682.000    733.164    -51.164    729.239    732.028    730.373    729.239    729.239
 13.870    704.000    731.847    -27.847    728.208    730.696    729.357    728.208    728.208
 13.970    720.955    730.590     -9.634    727.183    729.424    728.348    727.183    727.183
 14.070    748.000    729.381     18.619    726.166    728.200    727.346    726.166    726.166
 14.170    737.809    728.213      9.596    725.156    727.016    726.352    725.156    725.156
 14.270    736.000    727.080      8.920    724.153    725.867    725.366    724.153    724.153
 14.370    775.464    725.975     49.489    723.157    724.745    724.386    723.157    723.157
 14.470    766.455    724.899     41.556    722.168    723.652    723.415    722.168    722.168
 14.570    740.310    723.864     16.447    721.186    722.599    722.451    721.186    721.186
 14.670    711.000    722.827    -11.827    720.212    721.544    721.493    720.212    720.212
 14.770    681.000    721.805    -40.805    719.244    720.505    720.544    719.244    719.244
 14.870    664.718    720.802    -56.084    718.283    719.483    719.601    718.283    718.283
 14.970    702.000    719.813    -17.813    717.328    718.476    718.666    717.328    717.328
 15.070    684.000    718.836    -34.836    716.381    717.479    717.738    716.381    716.381
 15.170    742.000    717.871     24.129    715.441    716.494    716.817    715.441    715.441
 15.270    715.145    716.918     -1.774    714.507    715.522    715.904    714.507    714.507
 15.370    658.528    715.977    -57.449    713.581    714.560    714.998    713.581    713.581
 15.470    735.000    715.047     19.953    712.661    713.608    714.099    712.661    712.661
 15.570    705.000    714.127     -9.127    711.747    712.667    713.207    711.747    711.747
 15.670    675.000    713.217    -38.217    710.841    711.735    712.323    710.841    710.841
 15.770    672.000    712.317    -40.317    709.941    710.812    711.446    709.941    709.941
 15.870    712.000    711.426      0.574    709.048    709.898    710.576    709.048    709.048
 15.970    676.000    710.544    -34.544    708.162    708.993    709.713    708.162    708.162
 16.070    684.000    709.672    -25.672    707.282    708.097    708.857    707.282    707.282
 16.170    666.000    708.808    -42.808    706.409    707.208    708.009    706.409    706.409
 16.270    677.000    707.954    -30.954    705.542    706.328    707.168    705.542    705.542
 16.370    722.000    707.107     14.893    704.682    705.456    706.334    704.682    704.682
 16.470    706.000    706.269     -0.269    703.829    704.591    705.507    703.829    703.829
 16.570    702.326    705.440     -3.114    702.982    703.735    704.687    702.982    702.982
 16.670    671.818    704.618    -32.800    702.141    702.885    703.874    702.141    702.141
 16.770    692.000    703.805    -11.805    701.307    702.043    703.069    701.307    701.307
 16.870    719.000    703.000     16.000    700.480    701.209    702.271    700.480    700.480
 16.970    690.000    702.210    -12.210    699.659    700.389    701.480    699.659    699.659
 17.070    673.000    701.426    -28.426    698.844    699.574    700.696    698.844    698.844
 17.170    658.000    700.656    -42.656    698.036    698.772    699.919    698.036    698.036
 17.270    649.157    699.884    -50.727    697.234    697.967    699.150    697.234    697.234
 17.370    669.032    699.124    -30.092    696.438    697.173    698.389    696.438    696.438
 17.470    733.000    698.418     34.582    695.649    696.430    697.636    695.649    695.649
 17.570    701.000    697.694      3.306    694.866    695.671    696.889    694.866    694.866
 17.670    718.000    696.954     21.046    694.089    694.895    696.148    694.089    694.089
 17.770    745.619    696.220     49.399    693.318    694.124    695.414    693.318    693.318
 17.870    642.000    695.495    -53.495    692.554    693.360    694.688    692.554    692.554
 17.970    673.000    694.790    -21.790    691.795    692.616    693.969    691.795    691.795
 18.070    643.068    694.097    -51.029    691.043    691.883    693.257    691.043    691.043
 18.170    672.000    693.395    -21.395    690.297    691.140    692.553    690.297    690.297
 18.270    743.528    692.700     50.828    689.557    690.402    691.855    689.557    689.557
 18.370    683.000    692.012     -9.012    688.824    689.670    691.165    688.824    688.824
 18.470    626.000    691.332    -65.332    688.096    688.945    690.482    688.096    688.096
 18.570    678.000    690.660    -12.660    687.374    688.227    689.807    687.374    687.374
 18.670    691.568    689.995      1.573    686.658    687.515    689.139    686.658    686.658
 18.770    666.916    689.339    -22.423    685.949    686.809    688.478    685.949    685.949
 18.870    722.339    688.690     33.650    685.245    686.110    687.825    685.245    685.245
 18.970    690.000    688.050      1.950    684.547    685.417    687.180    684.547    684.547
 19.070    657.000    687.425    -30.425    683.855    684.739    686.542    683.855    683.855
 19.170    660.000    686.805    -26.805    683.169    684.063    685.911    683.169    683.169
 19.270    694.229    686.189      8.040    682.489    683.390    685.288    682.489    682.489
 19.370    660.000    685.583    -25.583    681.815    682.724    684.674    681.815    681.815
 19.470    643.000    685.011    -42.011    681.146    682.081    684.076    681.146    681.146
 19.570    677.000    684.471     -7.471    680.484    681.461    683.493    680.484    680.484
 19.670    634.367    683.909    -49.543    679.827    680.833    682.904    679.827    679.827
 19.770    691.000    683.345      7.655    679.176    680.200    682.320    679.176    679.176
 19.870    661.608    682.780    -21.172    678.530    679.567    681.744    678.530    678.530
 19.970    688.395    682.235      6.160    677.891    678.949    681.177    677.891    677.891
 20.070    707.000    681.696     25.304    677.257    678.335    680.617    677.257    677.257
 20.170    642.000    681.159    -39.159    676.628    677.720    680.067    676.628    676.628
 20.270    669.000    680.655    -11.655    676.005    677.121    679.539    676.005    676.005
 20.370    627.000    680.176    -53.176    675.388    676.541    679.023    675.388    675.388
 20.470    672.000    679.685     -7.685    674.777    675.963    678.499    674.777    674.777
 20.570    638.278    679.236    -40.958    674.171    675.423    677.983    674.171    674.171
 20.670    682.000    678.766      3.234    673.570    674.861    677.475    673.570    673.570
 20.770    670.912    678.294     -7.381    672.975    674.293    676.976    672.975    672.975
 20.870    656.579    677.823    -21.244    672.386    673.723    676.486    672.386    672.386
 20.970    697.271    677.377     19.894    671.802    673.173    676.006    671.802    671.802
 21.070    659.845    676.959    -17.114    671.223    672.646    675.536    671.223    671.223
 21.170    676.000    676.521     -0.521    670.650    672.097    675.074    670.650    670.650
 21.270    669.000    676.094     -7.094    670.082    671.554    674.622    670.082    670.082
 21.370    694.000    675.684     18.316    669.520    671.022    674.183    669.520    669.520
 21.470    651.000    675.299    -24.299    668.963    670.504    673.759    668.963    668.963
 21.570    685.000    674.914     10.086    668.411    669.986    673.339    668.411    668.411
 21.670    714.393    674.537     39.856    667.865    669.472    672.929    667.865    667.865
 21.770    669.000    674.170     -5.170    667.323    668.964    672.530    667.323    667.323
 21.870    635.000    673.816    -38.816    666.788    668.462    672.142    666.788    666.788
 21.970    666.000    673.475     -7.475    666.257    667.966    671.766    666.257    666.257
 22.070    702.607    673.150     29.456    665.731    667.479    671.403    665.731    665.731
 22.170    606.000    672.841    -66.841    665.211    667.001    671.052    665.211    665.211
 22.270    670.000    672.549     -2.549    664.696    666.531    670.714    664.696    664.696
 22.370    713.250    672.275     40.975    664.186    666.072    670.389    664.186    664.186
 22.470    665.000    672.018     -7.018    663.681    665.621    670.078    663.681    663.681
 22.570    669.000    671.780     -2.780    663.181    665.180    669.782    663.181    663.181
 22.670    672.000    671.564      0.436    662.687    664.750    669.501    662.687    662.687
 22.770    630.000    671.374    -41.374    662.197    664.335    669.237    662.197    662.197
 22.870    636.000    671.210    -35.210    661.713    663.933    668.989    661.713    661.713
 22.970    695.375    671.068     24.307    661.233    663.544    668.758    661.233    661.233
 23.070    661.177    670.956     -9.779    660.758    663.170    668.545    660.758    660.758
 23.170    656.000    670.877    -14.877    660.289    662.815    668.351    660.289    660.289
 23.270    677.537    670.836      6.701    659.824    662.482    668.178    659.824    659.824
 23.370    671.519    670.835      0.684    659.364    662.174    668.025    659.364    659.364
 23.470    590.000    670.882    -80.882    658.909    661.897    667.895    658.909    658.909
 23.570    723.892    670.984     52.907    658.459    661.656    667.788    658.459    658.459
 23.670    611.000    671.153    -60.153    658.014    661.460    667.707    658.014    658.014
 23.770    692.000    671.400     20.600    657.573    661.322    667.653    657.573    657.573
 23.870    652.286    671.745    -19.460    657.138    661.257    667.627    657.138    657.138
 23.970    644.000    672.215    -28.215    656.707    661.291    667.633    656.707    656.707
 24.070    662.490    672.849    -10.359    656.281    661.461    667.671    656.281    656.281
 24.170    666.000    673.720     -7.720    655.859    661.836    667.746    655.859    655.859
 24.270    639.373    674.970    -35.597    655.443    662.558    667.858    655.443    655.443
 24.370    677.000    676.923      0.077    655.031    663.947    668.012    655.031    655.031
 24.470    713.000    680.249     32.751    654.623    666.670    668.210    654.623    654.623
 24.570    704.000    686.108     17.892    654.221    671.882    668.457    654.221    654.221
 24.670    721.000    695.995     25.005    653.822    681.077    668.758    653.822    653.822
 24.770    698.390    710.951    -12.561    653.429    695.291    669.117    653.429    653.429
 24.870    785.000    730.014     54.986    653.040    713.556    669.540    653.040    653.040
 24.970    768.000    748.124     19.876    652.656    730.801    670.033    652.656    652.656
 25.070    768.000    755.914     12.086    652.276    737.646    670.604    652.276    652.276
 25.170    715.000    747.908    -32.908    651.900    728.601    671.261    651.900    651.900
 25.270    772.311    730.539     41.772    651.529    710.095    672.014    651.529    651.529
 25.370    737.000    713.107     23.893    651.163    691.424    672.874    651.163    651.163
 25.470    701.000    700.169      0.831    650.801    677.133    673.853    650.801    650.801
 25.570    740.052    692.355     47.697    650.443    667.841    674.968    650.443    650.443
 25.670    662.492    688.516    -26.024    650.090    662.377    676.236    650.090    650.090
 25.770    716.000    687.183     28.817    649.741    659.252    677.677    649.741    649.741
 25.870    717.000    687.280     29.720    649.397    657.363    679.317    649.397    649.397
 25.970    673.000    688.226    -15.226    649.057    656.099    681.186    649.057    649.057
 26.070    711.000    689.762     21.238    648.721    655.164    683.321    648.721    648.721
 26.170    711.000    691.800     19.200    648.389    654.432    685.758    648.389    648.389
 26.270    662.169    694.331    -32.162    648.062    653.845    688.550    648.062    648.062
 26.370    713.000    697.391     15.609    647.739    653.369    691.761    647.739    647.739
 26.470    706.000    701.038      4.962    647.420    652.986    695.471    647.420    647.420
 26.570    707.793    705.357      2.435    647.105    652.685    699.777    647.105    647.105
 26.670    711.000    710.468      0.532    646.794    652.460    704.802    646.794    646.794
 26.770    729.000    716.526     12.474    646.488    652.308    710.704    646.488    646.488
 26.870    680.261    723.738    -43.477    646.186    652.235    717.688    646.186    646.186
 26.970    792.490    732.380     60.110    645.888    652.246    726.020    645.888    645.888
 27.070    722.000    742.822    -20.822    645.593    652.353    736.059    645.593    645.593
 27.170    751.040    755.569     -4.529    645.303    652.577    748.292    645.303    645.303
 27.270    728.790    771.325    -42.535    645.017    652.945    763.393    645.017    645.017
 27.370    800.000    791.090      8.910    644.735    653.496    782.323    644.735    644.735
 27.470    775.000    816.319    -41.319    644.457    654.291    806.477    644.457    644.457
 27.570    823.000    849.372    -26.372    644.183    655.426    838.118    644.183    644.183
 27.670    905.000    894.932     10.068    643.913    657.094    881.736    643.913    643.913
 27.770    926.000    965.737    -39.737    643.647    659.816    949.544    643.647    643.647
 27.870   1100.000   1101.576     -1.576    643.385    665.213   1079.700    643.385    643.385
 27.970   1366.369   1412.363    -45.994    643.126    677.759   1377.622    643.126    643.126
 28.070   2200.553   2124.881     75.672    642.872    706.676   2060.829    642.872    642.872
 28.170   3206.000   3531.320   -325.320    642.621    763.852   3409.597    642.621    642.621
 28.270   5499.000   5716.022   -217.022    642.374    852.746   5504.864    642.374    642.374
 28.370   8088.682   8149.091    -60.409    642.131    951.899   7838.389    642.131    642.131
 28.470   9354.000   9592.130   -238.130    641.892   1011.164   9222.145    641.892    641.892
 28.570   9277.000   9064.398    212.602    641.656    991.124   8714.753    641.656    641.656
 28.670   7049.218   7130.227    -81.009    641.424    915.655   6856.228    641.424    641.424
 28.770   5228.000   5182.319     45.681    641.196    842.964   4980.881    641.196    641.196
 28.870   4152.000   4168.329    -16.329    640.972    813.252   3996.297    640.972    640.972
 28.970   4174.000   4224.635    -50.635    640.751    832.119   4033.436    640.751    640.751
 29.070   4864.440   4875.927    -11.487    640.534    876.405   4640.263    640.534    640.534
 29.170   5372.795   5343.655     29.140    640.320    906.038   5078.313    640.320    640.320
 29.270   5156.000   5038.566    117.434    640.110    889.938   4789.296    640.110    640.110
 29.370   3997.000   4064.224    -67.224    639.904    835.055   3869.663    639.904    639.904
 29.470   2936.526   2930.968      5.559    639.701    770.854   2800.290    639.701    639.701
 29.570   2047.000   2020.623     26.377    639.502    719.240   1941.199    639.502    639.502
 29.670   1436.000   1440.902     -4.902    639.306    686.413   1393.974    639.306    639.306
 29.770   1198.000   1127.010     70.990    639.114    668.711   1097.506    639.114    639.114
 29.870    908.088    970.279    -62.190    638.925    659.958    949.296    638.925    638.925
 29.970    959.000    889.338     69.662    638.740    655.532    872.576    638.740    638.740
 30.070    946.000    841.585    104.415    638.558    653.021    827.143    638.558    638.558
 30.170    826.556    809.183     17.373    638.380    651.431    796.147    638.380    638.380
 30.270    815.834    785.328     30.506    638.205    650.407    773.136    638.205    638.205
 30.370    811.000    767.259     43.741    638.033    649.859    755.440    638.033    638.033
