neutron_powder_diffraction_0076
R_wp: 4.695
Temperature (K): 774.491
Counts: 83325.00
Wavelength (Ã…): 2.52098
COMMENTS
Test file for demonstrating the .xyy file format in Reel1.0
END OF HEADER
   tth       Y_obs     Y_calc      Y_res    Background    Phase_1_Nuc    Phase_1_Mag    Phase_2_Nuc    Phase_2_Mag
  9.970    690.000    599.110     90.890    598.072    599.110    598.072    598.072    598.072
 10.070    557.963    599.914    -41.951    598.793    599.914    598.793    598.793    598.793
 10.170    625.030    600.716     24.314    599.500    600.716    599.500    599.500    599.500
 10.270    551.920    601.519    -49.599    600.194    601.518    600.194    600.194    600.194
 10.370    617.000    602.324     14.676    600.874    602.324    600.874    600.874    600.874
 10.470    679.000    603.137     75.863    601.541    603.136    601.541    601.541    601.541
 10.570    656.272    603.962     52.310    602.194    603.961    602.194    602.194    602.194
 10.670    655.000    604.806     50.194    602.834    604.804    602.834    602.834    602.834
 10.770    713.000    605.676    107.324    603.461    605.675    603.461    603.461    603.461
 10.870    628.000    606.584     21.416    604.075    606.583    604.075    604.075    604.075
 10.970    635.194    607.560     27.634    604.675    607.558    604.675    604.675    604.675
 11.070    642.352    608.717     33.635    605.263    608.715    605.263    605.263    605.263
 11.170    652.000    609.902     42.098    605.838    609.900    605.838    605.838    605.838
 11.270    643.000    611.200     31.800    606.401    611.198    606.401    606.401    606.401
 11.370    635.000    612.724     22.276    606.951    612.721    606.951    606.951    606.951
 11.470    659.572    614.624     44.948    607.488    614.620    607.488    607.488    607.488
 11.570    590.692    617.253    -26.561    608.013    617.248    608.013    608.013    608.013
 11.670    686.000    621.476     64.524    608.526    621.469    608.526    608.526    608.526
 11.770    610.600    629.165    -18.565    609.027    629.154    609.027    609.027    609.027
 11.870    654.000    643.414     10.586    609.515    643.395    609.515    609.515    609.515
 11.970    679.000    667.437     11.563    609.992    667.406    609.992    609.992    609.992
 12.070    645.948    701.348    -55.400    610.457    701.298    610.457    610.457    610.457
 12.170    736.000    737.216     -1.216    610.909    737.145    610.909    610.909    610.909
 12.270    698.000    756.455    -58.455    611.351    756.374    611.351    611.351    611.351
 12.370    761.000    744.631     16.369    611.780    744.557    611.780    611.780    611.780
 12.470    671.000    711.945    -40.945    612.198    711.889    612.198    612.198    612.198
 12.570    714.000    677.563     36.437    612.605    677.527    612.605    612.605    612.605
 12.670    653.000    651.891      1.109    613.001    651.869    613.001    613.001    613.001
 12.770    619.000    636.357    -17.357    613.385    636.344    613.385    613.385    613.385
 12.870    633.000    628.200      4.800    613.758    628.192    613.758    613.758    613.758
 12.970    605.000    624.169    -19.169    614.120    624.164    614.120    614.120    614.120
 13.070    681.233    622.105     59.128    614.471    622.101    614.471    614.471    614.471
 13.170    561.000    620.936    -59.936    614.811    620.933    614.811    614.811    614.811
 13.270    605.000    620.214    -15.214    615.141    620.211    615.141    615.141    615.141
 13.370    605.000    619.751    -14.751    615.460    619.749    615.460    615.460    615.460
 13.470    553.000    619.459    -66.459    615.768    619.457    615.768    615.768    615.768
 13.570    562.000    619.290    -57.290    616.066    619.288    616.066    616.066    616.066
 13.670    631.000    619.226     11.774    616.353    619.225    616.353    616.353    616.353
 13.770    619.000    619.200     -0.200    616.630    619.199    616.630    616.630    616.630
 13.870    622.000    619.217      2.783    616.897    619.216    616.897    616.897    616.897
 13.970    668.388    619.266     49.123    617.154    619.265    617.154    617.154    617.154
 14.070    582.043    619.338    -37.295    617.401    619.337    617.401    617.401    617.401
 14.170    615.949    619.427     -3.478    617.638    619.427    617.638    617.638    617.638
 14.270    601.000    619.529    -18.529    617.865    619.528    617.865    617.865    617.865
 14.370    578.000    619.638    -41.638    618.082    619.638    618.082    618.082    618.082
 14.470    629.000    619.756      9.244    618.289    619.755    618.289    618.289    618.289
 14.570    648.000    619.875     28.125    618.487    619.875    618.487    618.487    618.487
 14.670    641.000    619.994     21.006    618.676    619.993    618.676    618.676    618.676
 14.770    609.000    620.111    -11.111    618.855    620.110    618.855    618.855    618.855
 14.870    628.662    620.226      8.436    619.024    620.226    619.024    619.024    619.024
 14.970    639.225    620.338     18.886    619.185    620.338    619.185    619.185    619.185
 15.070    634.574    620.447     14.127    619.336    620.447    619.336    619.336    619.336
 15.170    602.019    620.552    -18.532    619.478    620.551    619.478    619.478    619.478
 15.270    595.000    620.651    -25.651    619.611    620.651    619.611    619.611    619.611
 15.370    617.000    620.747     -3.747    619.735    620.747    619.735    619.735    619.735
 15.470    600.000    620.841    -20.841    619.851    620.840    619.851    619.851    619.851
 15.570    584.000    620.967    -36.967    619.957    620.967    619.957    619.957    619.957
 15.670    567.000    621.083    -54.083    620.055    621.083    620.055    620.055    620.055
 15.770    620.000    621.157     -1.157    620.145    621.157    620.145    620.145    620.145
 15.870    604.000    621.221    -17.221    620.226    621.221    620.226    620.226    620.226
 15.970    563.000    621.279    -58.279    620.298    621.279    620.298    620.298    620.298
 16.070    621.924    621.330      0.593    620.362    621.330    620.362    620.362    620.362
 16.170    611.231    621.378    -10.147    620.418    621.378    620.418    620.418    620.418
 16.270    579.000    621.420    -42.420    620.466    621.420    620.466    620.466    620.466
 16.370    634.000    621.455     12.545    620.505    621.455    620.505    620.505    620.505
 16.470    617.645    621.522     -3.878    620.537    621.522    620.537    620.537    620.537
 16.570    618.735    621.565     -2.830    620.560    621.565    620.560    620.560    620.560
 16.670    582.382    621.590    -39.208    620.576    621.590    620.576    620.576    620.576
 16.770    563.000    621.595    -58.595    620.584    621.595    620.584    620.584    620.584
 16.870    663.000    621.592     41.408    620.584    621.592    620.584    620.584    620.584
 16.970    629.559    621.582      7.977    620.577    621.582    620.577    620.577    620.577
 17.070    606.777    621.565    -14.788    620.562    621.565    620.562    620.562    620.562
 17.170    574.056    621.542    -47.486    620.540    621.541    620.540    620.540    620.540
 17.270    576.000    621.511    -45.511    620.510    621.511    620.510    620.510    620.510
 17.370    606.000    621.475    -15.475    620.473    621.475    620.473    620.473    620.473
 17.470    607.000    621.444    -14.444    620.428    621.444    620.428    620.428    620.428
 17.570    582.000    621.413    -39.413    620.377    621.412    620.377    620.377    620.377
 17.670    592.598    621.369    -28.770    620.318    621.369    620.318    620.318    620.318
 17.770    558.000    621.307    -63.307    620.253    621.307    620.253    620.253    620.253
 17.870    591.000    621.237    -30.237    620.180    621.237    620.180    620.180    620.180
 17.970    563.000    621.161    -58.161    620.100    621.161    620.100    620.100    620.100
 18.070    663.747    621.079     42.668    620.014    621.079    620.014    620.014    620.014
 18.170    581.007    620.991    -39.984    619.921    620.991    619.921    619.921    619.921
 18.270    581.834    620.910    -39.076    619.821    620.910    619.821    619.821    619.821
 18.370    603.000    620.850    -17.850    619.715    620.850    619.715    619.715    619.715
 18.470    613.230    620.765     -7.535    619.602    620.765    619.602    619.602    619.602
 18.570    609.000    620.654    -11.654    619.483    620.654    619.483    619.483    619.483
 18.670    601.000    620.536    -19.536    619.358    620.536    619.358    619.358    619.358
 18.770    602.000    620.414    -18.414    619.226    620.414    619.226    619.226    619.226
 18.870    541.000    620.308    -79.308    619.088    620.307    619.088    619.088    619.088
 18.970    586.000    620.234    -34.234    618.943    620.233    618.943    618.943    618.943
 19.070    616.000    620.126     -4.126    618.793    620.126    618.793    618.793    618.793
 19.170    563.000    619.995    -56.995    618.637    619.995    618.637    618.637    618.637
 19.270    615.000    619.851     -4.851    618.475    619.851    618.475    618.475    618.475
 19.370    562.000    619.695    -57.695    618.306    619.695    618.306    618.306    618.306
 19.470    572.000    619.533    -47.533    618.132    619.533    618.132    618.132    618.132
 19.570    658.111    619.378     38.734    617.953    619.378    617.953    617.953    617.953
 19.670    581.623    619.245    -37.621    617.767    619.245    617.767    617.767    617.767
 19.770    625.112    619.074      6.038    617.576    619.074    617.576    617.576    617.576
 19.870    573.482    618.893    -45.410    617.380    618.893    617.380    617.380    617.380
 19.970    606.000    618.709    -12.709    617.178    618.709    617.178    617.178    617.178
 20.070    653.165    618.524     34.641    616.971    618.524    616.971    616.971    616.971
 20.170    577.651    618.332    -40.681    616.758    618.332    616.758    616.758    616.758
 20.270    569.000    618.139    -49.139    616.540    618.139    616.540    616.540    616.540
 20.370    626.457    617.935      8.523    616.317    617.935    616.317    616.317    616.317
 20.470    575.000    617.726    -42.726    616.088    617.726    616.088    616.088    616.088
 20.570    633.000    617.516     15.484    615.855    617.516    615.855    615.855    615.855
 20.670    580.000    617.303    -37.303    615.616    617.303    615.616    615.616    615.616
 20.770    601.293    617.084    -15.791    615.373    617.084    615.373    615.373    615.373
 20.870    628.000    616.861     11.139    615.125    616.861    615.125    615.125    615.125
 20.970    575.000    616.633    -41.633    614.872    616.633    614.872    614.872    614.872
 21.070    568.000    616.402    -48.402    614.614    616.402    614.614    614.614    614.614
 21.170    600.000    616.168    -16.168    614.351    616.168    614.351    614.351    614.351
 21.270    560.863    615.932    -55.068    614.084    615.932    614.084    614.084    614.084
 21.370    600.161    615.691    -15.530    613.812    615.691    613.812    613.812    613.812
 21.470    625.882    615.448     10.434    613.536    615.448    613.536    613.536    613.536
 21.570    636.368    615.202     21.166    613.255    615.202    613.255    613.255    613.255
 21.670    554.000    614.953    -60.953    612.970    614.954    612.970    612.970    612.970
 21.770    576.000    614.703    -38.703    612.681    614.704    612.681    612.681    612.681
 21.870    595.000    614.452    -19.452    612.387    614.452    612.387    612.387    612.387
 21.970    629.620    614.199     15.420    612.090    614.199    612.090    612.090    612.090
 22.070    553.480    613.946    -60.466    611.787    613.946    611.787    611.787    611.787
 22.170    552.000    613.693    -61.693    611.481    613.693    611.481    611.481    611.481
 22.270    574.814    613.440    -38.626    611.171    613.440    611.171    611.171    611.171
 22.370    605.722    613.188     -7.466    610.857    613.188    610.857    610.857    610.857
 22.470    634.000    612.937     21.063    610.539    612.937    610.539    610.539    610.539
 22.570    558.618    612.691    -54.072    610.217    612.691    610.217    610.217    610.217
 22.670    556.941    612.447    -55.506    609.892    612.447    609.892    609.892    609.892
 22.770    604.000    612.208     -8.208    609.562    612.208    609.562    609.562    609.562
 22.870    600.000    611.975    -11.975    609.229    611.976    609.229    609.229    609.229
 22.970    645.931    611.752     34.179    608.893    611.752    608.893    608.893    608.893
 23.070    604.000    611.539     -7.539    608.552    611.540    608.552    608.552    608.552
 23.170    577.804    611.342    -33.538    608.209    611.342    608.209    608.209    608.209
 23.270    621.404    611.163     10.241    607.861    611.164    607.861    607.861    607.861
 23.370    565.087    611.008    -45.921    607.511    611.009    607.511    607.511    607.511
 23.470    604.000    610.883     -6.883    607.157    610.884    607.157    607.157    607.157
 23.570    615.000    610.800      4.200    606.800    610.801    606.800    606.800    606.800
 23.670    648.000    610.770     37.230    606.439    610.771    606.439    606.439    606.439
 23.770    625.000    610.813     14.187    606.075    610.815    606.075    606.075    606.075
 23.870    666.000    610.957     55.043    605.709    610.959    605.709    605.709    605.709
 23.970    586.852    611.247    -24.395    605.339    611.249    605.339    605.339    605.339
 24.070    666.153    611.769     54.384    604.966    611.772    604.966    604.966    604.966
 24.170    665.000    612.720     52.280    604.590    612.724    604.590    604.590    604.590
 24.270    597.000    614.560    -17.560    604.211    614.565    604.211    604.211    604.211
 24.370    646.342    618.263     28.079    603.830    618.271    603.830    603.830    603.830
 24.470    683.000    625.486     57.514    603.445    625.500    603.445    603.445    603.445
 24.570    624.225    638.173    -13.948    603.058    638.196    603.058    603.058    603.058
 24.670    639.639    657.101    -17.462    602.668    657.138    602.668    602.668    602.668
 24.770    667.000    679.379    -12.379    602.276    679.432    602.276    602.276    602.276
 24.870    678.424    696.304    -17.880    601.881    696.369    601.881    601.881    601.881
 24.970    724.000    697.348     26.652    601.483    697.415    601.483    601.483    601.483
 25.070    697.000    681.437     15.563    601.083    681.492    601.083    601.083    601.083
 25.170    709.000    658.555     50.445    600.680    658.594    600.680    600.680    600.680
 25.270    672.000    638.248     33.752    600.275    638.273    600.275    600.275    600.275
 25.370    650.000    624.112     25.888    599.868    624.127    599.868    599.868    599.868
 25.470    650.343    615.686     34.657    599.458    615.694    599.458    599.458    599.458
 25.570    604.774    611.061     -6.286    599.046    611.066    599.046    599.046    599.046
 25.670    651.086    608.491     42.595    598.632    608.495    598.632    598.632    598.632
 25.770    646.000    606.911     39.089    598.215    606.914    598.215    598.215    598.215
 25.870    594.690    605.813    -11.124    597.797    605.816    597.797    597.797    597.797
 25.970    652.000    604.984     47.016    597.376    604.985    597.376    597.376    597.376
 26.070    642.000    604.332     37.668    596.954    604.333    596.954    596.954    596.954
 26.170    675.000    603.814     71.186    596.529    603.815    596.529    596.529    596.529
 26.270    671.000    603.407     67.593    596.103    603.407    596.103    596.103    596.103
 26.370    575.787    603.096    -27.309    595.675    603.097    595.675    595.675    595.675
 26.470    684.000    602.878     81.122    595.244    602.878    595.244    595.244    595.244
 26.570    625.000    602.752     22.248    594.812    602.751    594.812    594.812    594.812
 26.670    616.842    602.724     14.119    594.379    602.723    594.379    594.379    594.379
 26.770    671.000    602.805     68.195    593.943    602.805    593.943    593.943    593.943
 26.870    634.000    603.015     30.985    593.506    603.015    593.506    593.506    593.506
 26.970    638.000    603.380     34.620    593.068    603.379    593.068    593.068    593.068
 27.070    644.000    603.938     40.062    592.628    603.937    592.628    592.628    592.628
 27.170    563.124    604.742    -41.618    592.186    604.740    592.186    592.186    592.186
 27.270    665.000    605.871     59.129    591.743    605.869    591.743    591.743    591.743
 27.370    651.000    607.444     43.556    591.298    607.442    591.298    591.298    591.298
 27.470    644.390    609.667     34.723    590.852    609.664    590.852    590.852    590.852
 27.570    661.000    612.977     48.023    590.404    612.973    590.404    590.404    590.404
 27.670    696.000    618.464     77.536    589.956    618.457    589.956    589.956    589.956
 27.770    684.298    628.815     55.483    589.506    628.804    589.506    589.506    589.506
 27.870    726.000    649.604     76.396    589.055    649.585    589.055    589.055    589.055
 27.970    725.000    689.350     35.650    588.602    689.317    588.602    588.602    588.602
 28.070    824.000    755.486     68.514    588.149    755.434    588.149    588.149    588.149
 28.170    906.000    845.016     60.984    587.694    844.946    587.694    587.694    587.694
 28.270    982.000    933.361     48.639    587.238    933.283    587.238    587.238    587.238
 28.370   1021.522    974.289     47.233    586.782    974.221    586.782    586.782    586.782
 28.470   1006.000    941.390     64.610    586.324    941.339    586.324    586.324    586.324
 28.570    805.515    870.412    -64.896    585.865    870.376    585.865    585.865    585.865
 28.670    788.000    813.376    -25.376    585.406    813.348    585.406    585.406    585.406
 28.770    763.123    796.930    -33.807    584.946    796.905    584.946    584.946    584.946
 28.870    852.313    819.684     32.630    584.484    819.660    584.484    584.484    584.484
 28.970    791.329    857.411    -66.081    584.022    857.395    584.022    584.022    584.022
 29.070    966.000    871.835     94.165    583.560    871.831    583.560    583.560    583.560
 29.170    788.428    839.667    -51.240    583.096    839.671    583.096    583.096    583.096
 29.270    733.384    777.957    -44.572    582.632    777.963    582.632    582.632    582.632
 29.370    741.000    715.555     25.445    582.167    715.560    582.167    582.167    582.167
 29.470    746.000    667.692     78.308    581.702    667.695    581.702    581.702    581.702
 29.570    674.644    636.846     37.797    581.236    636.847    581.236    581.236    581.236
 29.670    697.000    619.123     77.877    580.770    619.123    580.770    580.770    580.770
 29.770    656.599    609.362     47.237    580.303    609.361    580.303    580.303    580.303
 29.870    665.262    603.745     61.517    579.836    603.743    579.836    579.836    579.836
 29.970    692.000    600.188     91.812    579.368    600.186    579.368    579.368    579.368
 30.070    713.000    597.760    115.240    578.900    597.758    578.900    578.900    578.900
 30.170    623.211    596.105     27.105    578.431    596.102    578.431    578.431    578.431
 30.270    718.000    595.156    122.844    577.962    595.152    577.962    577.962    577.962
 30.370    601.935    595.085      6.850    577.493    595.081    577.493    577.493    577.493
