neutron_powder_diffraction_0050
R_wp: 3.784
Temperature (K): 645.683
Counts: 83393.00
Wavelength (Ã…): 2.52098
COMMENTS
Test file for demonstrating the .xyy file format in Reel1.0
END OF HEADER
   tth       Y_obs     Y_calc      Y_res    Background    Phase_1_Nuc    Phase_1_Mag    Phase_2_Nuc    Phase_2_Mag
  9.970    657.000    675.638    -18.638    674.305    675.252    674.690    674.305    674.305
 10.070    629.002    674.944    -45.942    673.531    674.554    673.920    673.531    673.531
 10.170    693.000    674.263     18.737    672.759    673.869    673.152    672.759    672.759
 10.270    671.000    673.597     -2.597    671.989    673.199    672.387    671.989    671.989
 10.370    677.000    672.949      4.051    671.221    672.546    671.623    671.221    671.221
 10.470    717.254    672.321     44.934    670.455    671.913    670.862    670.455    670.455
 10.570    689.000    671.718     17.282    669.691    671.306    670.102    669.691    669.691
 10.670    740.000    671.146     68.854    668.929    670.729    669.345    668.929    668.929
 10.770    661.740    670.612     -8.871    668.170    670.190    668.590    668.170    668.170
 10.870    649.000    670.125    -21.125    667.413    669.699    667.838    667.413    667.413
 10.970    712.000    669.700     42.300    666.657    669.269    667.087    666.657    666.657
 11.070    739.000    669.355     69.645    665.904    668.919    666.339    665.904    665.904
 11.170    636.084    669.116    -33.032    665.153    668.675    665.593    665.153    665.153
 11.270    656.000    669.024    -13.024    664.405    668.577    664.849    664.405    664.405
 11.370    679.000    669.145      9.855    663.658    668.692    664.108    663.658    663.658
 11.470    702.000    669.595     32.405    662.914    669.137    663.368    662.914    662.914
 11.570    698.000    670.657     27.343    662.171    670.192    662.631    662.171    662.171
 11.670    752.000    673.009     78.991    661.431    672.537    661.897    661.431    661.431
 11.770    703.441    678.123     25.317    660.694    677.643    661.165    660.694    660.694
 11.870    712.792    688.512     24.280    659.958    688.020    660.435    659.958    659.958
 11.970    725.000    707.065     17.935    659.225    706.556    659.707    659.225    659.225
 12.070    812.000    734.699     77.301    658.494    734.168    658.982    658.494    658.494
 12.170    803.000    766.378     36.622    657.765    765.823    658.259    657.765    657.765
 12.270    772.000    788.099    -16.099    657.038    787.525    657.538    657.038    657.038
 12.370    781.000    785.103     -4.103    656.314    784.524    656.820    656.314    656.314
 12.470    785.000    759.260     25.740    655.592    758.689    656.104    655.592    655.592
 12.570    685.000    726.222    -41.222    654.872    725.663    655.391    654.872    654.872
 12.670    687.000    698.507    -11.507    654.155    697.957    654.680    654.155    654.155
 12.770    652.000    679.947    -27.947    653.439    679.401    653.971    653.439    653.439
 12.870    688.000    669.129     18.871    652.727    668.582    653.265    652.727    652.727
 12.970    642.639    663.191    -20.552    652.016    662.640    652.561    652.016    652.016
 13.070    664.088    659.745      4.343    651.308    659.189    651.860    651.308    651.308
 13.170    645.000    657.376    -12.376    650.602    656.814    651.161    650.602    650.602
 13.270    609.786    655.555    -45.769    649.898    654.986    650.464    649.898    649.898
 13.370    675.746    654.043     21.704    649.197    653.467    649.770    649.197    649.197
 13.470    643.000    652.729     -9.729    648.498    652.146    649.079    648.498    648.498
 13.570    668.219    651.554     16.666    647.802    650.964    648.390    647.802    647.802
 13.670    636.000    650.481    -14.481    647.107    649.884    647.704    647.107    647.107
 13.770    605.000    649.488    -44.488    646.416    648.882    647.020    646.416    646.416
 13.870    640.696    648.572     -7.876    645.726    647.958    646.339    645.726    645.726
 13.970    619.000    647.690    -28.690    645.039    647.068    645.660    645.039    645.039
 14.070    626.000    646.838    -20.838    644.355    646.208    644.984    644.355    644.355
 14.170    647.000    646.015      0.985    643.672    645.376    644.310    643.672    643.672
 14.270    618.000    645.218    -27.218    642.993    644.570    643.639    642.993    642.993
 14.370    626.000    644.441    -18.441    642.315    643.784    642.971    642.315    642.315
 14.470    614.000    643.681    -29.681    641.640    643.016    642.305    641.640    641.640
 14.570    625.103    642.936    -17.834    640.967    642.262    641.642    640.967    640.967
 14.670    658.000    642.205     15.795    640.297    641.521    640.981    640.297    640.297
 14.770    686.303    641.485     44.818    639.630    640.791    640.323    639.630    639.630
 14.870    662.011    640.775     21.237    638.964    640.071    639.668    638.964    638.964
 14.970    681.068    640.074     40.995    638.301    639.360    639.015    638.301    638.301
 15.070    612.000    639.381    -27.381    637.641    638.657    638.365    637.641    637.641
 15.170    640.151    638.696      1.456    636.983    637.961    637.718    636.983    636.983
 15.270    648.473    638.017     10.456    636.328    637.271    637.073    636.328    636.328
 15.370    632.256    637.345     -5.089    635.675    636.588    636.431    635.675    635.675
 15.470    611.000    636.679    -25.679    635.024    635.910    635.792    635.024    635.024
 15.570    633.447    636.019     -2.571    634.376    635.239    635.156    634.376    634.376
 15.670    627.755    635.364     -7.609    633.731    634.573    634.522    633.731    633.731
 15.770    652.000    634.720     17.280    633.087    633.916    633.891    633.087    633.087
 15.870    610.000    634.075    -24.075    632.447    633.259    633.263    632.447    632.447
 15.970    642.900    633.434      9.465    631.809    632.605    632.638    631.809    631.809
 16.070    667.281    632.798     34.483    631.173    631.955    632.015    631.173    631.173
 16.170    602.000    632.165    -30.165    630.540    631.310    631.395    630.540    630.540
 16.270    677.673    631.537     46.136    629.910    630.668    630.779    629.910    629.910
 16.370    638.000    630.913      7.087    629.282    630.030    630.165    629.282    629.282
 16.470    565.000    630.293    -65.293    628.656    629.395    629.553    628.656    628.656
 16.570    607.596    629.677    -22.080    628.033    628.764    628.945    628.033    628.033
 16.670    674.376    629.067     45.309    627.413    628.140    628.340    627.413    627.413
 16.770    582.081    628.462    -46.381    626.795    627.519    627.737    626.795    626.795
 16.870    650.467    627.870     22.598    626.179    626.911    627.138    626.179    626.179
 16.970    666.111    627.285     38.825    625.566    626.310    626.541    625.566    625.566
 17.070    593.000    626.689    -33.689    624.956    625.698    625.947    624.956    624.956
 17.170    588.000    626.095    -38.095    624.348    625.087    625.357    624.348    624.348
 17.270    592.000    625.505    -33.505    623.743    624.479    624.769    623.743    623.743
 17.370    607.000    624.921    -17.921    623.141    623.876    624.185    623.141    623.141
 17.470    588.833    624.338    -35.506    622.540    623.275    623.603    622.540    622.540
 17.570    577.358    623.759    -46.401    621.943    622.677    623.025    621.943    621.943
 17.670    633.000    623.183      9.817    621.348    622.081    622.450    621.348    621.348
 17.770    618.000    622.613     -4.613    620.756    621.491    621.877    620.756    620.756
 17.870    633.000    622.073     10.927    620.166    620.931    621.308    620.166    620.166
 17.970    659.083    621.557     37.527    619.579    620.393    620.743    619.579    619.579
 18.070    639.000    621.000     18.000    618.994    619.814    620.180    618.994    618.994
 18.170    611.000    620.443     -9.443    618.412    619.235    619.620    618.412    618.412
 18.270    606.000    619.892    -13.892    617.832    618.660    619.064    617.832    617.832
 18.370    623.000    619.354      3.646    617.256    618.099    618.511    617.256    617.256
 18.470    624.000    618.809      5.191    616.681    617.529    617.961    616.681    616.681
 18.570    607.000    618.266    -11.266    616.110    616.961    617.414    616.110    616.110
 18.670    574.000    617.727    -43.727    615.540    616.397    616.871    615.540    615.540
 18.770    638.479    617.197     21.282    614.974    615.839    616.332    614.974    614.974
 18.870    626.442    616.713      9.729    614.410    615.318    615.805    614.410    614.410
 18.970    640.796    616.210     24.585    613.849    614.782    615.277    613.849    613.849
 19.070    611.689    615.690     -4.000    613.290    614.232    614.748    613.290    613.290
 19.170    600.000    615.171    -15.171    612.734    613.683    614.222    612.734    612.734
 19.270    624.000    614.656      9.344    612.180    613.137    613.700    612.180    612.180
 19.370    622.000    614.146      7.854    611.630    612.594    613.181    611.630    611.630
 19.470    591.702    613.647    -21.945    611.081    612.062    612.666    611.081    611.081
 19.570    553.000    613.150    -60.150    610.536    611.530    612.155    610.536    610.536
 19.670    587.000    612.652    -25.652    609.993    610.997    611.648    609.993    609.993
 19.770    610.000    612.158     -2.158    609.452    610.467    611.144    609.452    609.452
 19.870    609.000    611.672     -2.672    608.915    609.943    610.644    608.915    608.915
 19.970    568.000    611.189    -43.189    608.379    609.420    610.148    608.379    608.379
 20.070    597.000    610.709    -13.709    607.847    608.899    609.656    607.847    607.847
 20.170    628.000    610.233     17.767    607.317    608.382    609.168    607.317    607.317
 20.270    589.000    609.762    -20.762    606.790    607.867    608.684    606.790    606.790
 20.370    643.582    609.296     34.286    606.265    607.356    608.205    606.265    606.265
 20.470    623.506    608.835     14.671    605.743    606.849    607.730    605.743    605.743
 20.570    578.816    608.384    -29.568    605.223    606.348    607.259    605.223    605.223
 20.670    619.000    607.964     11.036    604.707    605.874    606.797    604.707    604.707
 20.770    626.003    607.542     18.462    604.193    605.395    606.339    604.193    604.193
 20.870    596.000    607.134    -11.134    603.681    604.929    605.886    603.681    603.681
 20.970    605.000    606.723     -1.723    603.172    604.461    605.434    603.172    603.172
 21.070    605.000    606.299     -1.299    602.666    603.979    604.986    602.666    602.666
 21.170    567.166    605.897    -38.731    602.162    603.515    604.544    602.162    602.162
 21.270    606.000    605.533      0.467    601.661    603.087    604.107    601.661    601.661
 21.370    597.000    605.146     -8.146    601.163    602.634    603.675    601.163    601.163
 21.470    562.485    604.766    -42.281    600.667    602.185    603.248    600.667    600.667
 21.570    595.071    604.399     -9.327    600.174    601.746    602.827    600.174    600.174
 21.670    603.000    604.036     -1.036    599.684    601.308    602.412    599.684    599.684
 21.770    593.000    603.661    -10.661    599.196    600.855    602.002    599.196    599.196
 21.870    618.000    603.301     14.699    598.711    600.411    601.601    598.711    598.711
 21.970    608.000    602.946      5.054    598.228    599.970    601.205    598.228    598.228
 22.070    605.000    602.596      2.404    597.748    599.530    600.814    597.748    597.748
 22.170    594.000    602.256     -8.256    597.271    599.097    600.430    597.271    597.271
 22.270    603.000    601.928      1.072    596.796    598.671    600.053    596.796    596.796
 22.370    582.620    601.618    -18.998    596.324    598.257    599.685    596.324    596.324
 22.470    576.000    601.316    -25.316    595.855    597.847    599.324    595.855    595.855
 22.570    568.000    601.025    -33.025    595.388    597.444    598.969    595.388    595.388
 22.670    629.000    600.749     28.251    594.924    597.049    598.624    594.924    594.924
 22.770    607.000    600.488      6.512    594.462    596.664    598.286    594.462    594.462
 22.870    603.685    600.246      3.438    594.004    596.292    597.958    594.004    594.004
 22.970    652.000    600.025     51.975    593.547    595.933    597.640    593.547    593.547
 23.070    622.000    599.826     22.174    593.094    595.588    597.331    593.094    593.094
 23.170    610.000    599.652     10.348    592.643    595.262    597.034    592.643    592.643
 23.270    629.215    599.508     29.707    592.194    594.956    596.747    592.194    592.194
 23.370    573.000    599.400    -26.400    591.749    594.677    596.472    591.749    591.749
 23.470    558.454    599.335    -40.880    591.305    594.431    596.210    591.305    591.305
 23.570    620.000    599.317     20.683    590.865    594.222    595.962    590.865    590.865
 23.670    591.000    599.361     -8.361    590.427    594.062    595.727    590.427    590.427
 23.770    643.940    599.482     44.457    589.992    593.967    595.508    589.992    589.992
 23.870    623.457    599.702     23.754    589.559    593.958    595.305    589.559    589.559
 23.970    618.081    600.055     18.026    589.129    594.066    595.120    589.129    589.129
 24.070    556.244    600.601    -44.356    588.702    594.351    594.953    588.702    588.702
 24.170    588.662    601.461    -12.800    588.277    594.933    594.808    588.277    588.277
 24.270    612.000    602.919      9.081    587.855    596.094    594.684    587.855    587.855
 24.370    635.028    605.596     29.432    587.435    598.454    594.583    587.435    587.435
 24.470    576.313    610.647    -34.335    587.018    603.166    594.509    587.018    587.018
 24.570    576.507    619.692    -43.185    586.604    611.849    594.462    586.604    586.604
 24.670    643.000    634.076      8.924    586.192    625.847    594.447    586.192    586.192
 24.770    629.863    653.308    -23.445    585.783    644.666    594.465    585.783    585.783
 24.870    733.000    672.901     60.099    585.376    663.810    594.521    585.376    585.376
 24.970    701.000    683.543     17.457    584.972    673.960    594.617    584.972    584.972
 25.070    652.939    678.099    -25.160    584.571    667.968    594.759    584.571    584.571
 25.170    685.024    660.841     24.183    584.172    650.107    594.951    584.172    584.172
 25.270    649.000    641.307      7.693    583.776    629.913    595.200    583.776    583.776
 25.370    617.000    625.599     -8.599    583.382    613.488    595.512    583.382    583.382
 25.470    599.000    615.346    -16.346    582.991    602.453    595.895    582.991    582.991
 25.570    621.144    609.656     11.489    582.603    595.906    596.359    582.603    582.603
 25.670    616.000    606.918      9.082    582.217    592.225    596.914    582.217    582.217
 25.770    612.000    605.822      6.178    581.834    590.086    597.572    581.834    581.834
 25.870    595.280    605.602    -10.322    581.453    588.706    598.350    581.453    581.453
 25.970    586.002    605.903    -19.901    581.075    587.713    599.266    581.075    581.075
 26.070    582.928    606.586    -23.657    580.699    586.944    600.342    580.699    580.699
 26.170    681.000    607.604     73.396    580.326    586.327    601.604    580.326    580.326
 26.270    568.000    608.960    -40.960    579.956    585.829    603.086    579.956    579.956
 26.370    630.000    610.673     19.327    579.588    585.431    604.830    579.588    579.588
 26.470    631.000    612.769     18.231    579.223    585.110    606.881    579.223    579.223
 26.570    648.000    615.315     32.685    578.860    584.867    609.307    578.860    578.860
 26.670    643.000    618.391     24.609    578.500    584.702    612.187    578.500    578.500
 26.770    662.152    622.106     40.046    578.142    584.619    615.627    578.142    578.142
 26.870    668.109    626.606     41.503    577.787    584.626    619.764    577.787    577.787
 26.970    691.000    632.088     58.912    577.434    584.738    624.781    577.434    577.434
 27.070    615.865    638.819    -22.954    577.084    584.975    630.924    577.084    577.084
 27.170    675.000    647.171     27.829    576.737    585.368    638.535    576.737    576.737
 27.270    629.012    657.675    -28.663    576.392    585.963    648.097    576.392    576.392
 27.370    626.852    671.092    -44.239    576.049    586.822    660.311    576.049    576.049
 27.470    716.000    688.635     27.365    575.709    588.050    676.284    575.709    575.709
 27.570    732.000    712.597     19.403    575.372    589.843    698.112    575.372    575.372
 27.670    747.000    748.682     -1.682    575.037    592.686    731.014    575.037    575.037
 27.770    809.000    813.389     -4.389    574.704    597.974    790.087    574.704    574.704
 27.870    905.000    950.566    -45.566    574.374    609.414    915.462    574.374    574.374
 27.970   1185.000   1250.876    -65.876    574.047    634.661   1190.126    574.047    574.047
 28.070   1699.000   1839.290   -140.290    573.722    684.274   1728.479    573.722    573.722
 28.170   2861.747   2780.865     80.882    573.399    763.769   2590.087    573.399    573.399
 28.270   4001.209   3913.878     87.331    573.079    859.568   3626.887    573.079    573.079
 28.370   4702.000   4751.678    -49.678    572.762    930.766   4393.248    572.762    572.762
 28.470   4851.000   4772.004     78.996    572.447    933.662   4410.595    572.447    572.447
 28.570   4033.000   4016.873     16.127    572.134    872.595   3716.412    572.134    572.134
 28.670   3156.633   3071.586     85.047    571.824    798.364   2845.105    571.824    571.824
 28.770   2399.000   2463.177    -64.177    571.517    757.120   2277.601    571.517    571.517
 28.870   2427.621   2358.678     68.943    571.211    763.530   2166.339    571.211    571.211
 28.970   2525.025   2607.749    -82.723    570.909    802.217   2376.416    570.909    570.909
 29.070   2969.661   2868.840    100.820    570.608    837.082   2602.411    570.608    570.608
 29.170   2850.914   2815.034     35.880    570.311    832.545   2552.946    570.311    570.311
 29.270   2425.000   2399.927     25.073    570.015    784.535   2185.600    570.015    570.015
 29.370   1851.959   1844.319      7.640    569.722    719.598   1694.613    569.722    569.722
 29.470   1330.000   1363.865    -33.865    569.432    663.334   1270.079    569.432    569.432
 29.570    983.126   1040.243    -57.116    569.144    625.447    984.006    569.144    569.144
 29.670    812.225    856.811    -44.586    568.858    604.019    821.684    568.858    568.858
 29.770    882.000    762.568    119.432    568.575    593.068    738.091    568.575    568.575
 29.870    772.000    713.767     58.233    568.294    587.462    694.607    568.294    568.294
 29.970    739.808    685.474     54.333    568.016    584.282    669.212    568.016    568.016
 30.070    647.911    666.641    -18.730    567.740    582.249    652.134    567.740    567.740
 30.170    619.313    652.957    -33.645    567.466    580.887    639.537    567.466    567.466
 30.270    655.000    642.712     12.288    567.195    580.049    629.857    567.195    567.195
 30.370    628.772    635.223     -6.450    566.926    579.776    622.371    566.926    566.926
