neutron_powder_diffraction_0194
R_wp: 4.043
Temperature (K): 1074.100
Counts: 83725.00
Wavelength (Ã…): 2.52098
COMMENTS
Test file for demonstrating the .xyy file format in Reel1.0
END OF HEADER
   tth       Y_obs     Y_calc      Y_res    Background    Phase_1_Nuc    Phase_1_Mag    Phase_2_Nuc    Phase_2_Mag
  9.970    607.360    568.625     38.736    567.968    568.565    567.968    568.027    567.968
 10.070    582.000    568.741     13.259    568.030    568.681    568.030    568.089    568.030
 10.170    582.644    568.875     13.769    568.086    568.815    568.086    568.145    568.086
 10.270    593.000    569.000     24.000    568.137    568.939    568.137    568.197    568.137
 10.370    532.462    569.128    -36.666    568.182    569.067    568.182    568.243    568.182
 10.470    588.362    569.265     19.097    568.223    569.203    568.223    568.284    568.223
 10.570    562.000    569.414     -7.414    568.259    569.352    568.259    568.320    568.259
 10.670    558.893    569.581    -10.687    568.290    569.518    568.290    568.351    568.290
 10.770    593.000    569.770     23.230    568.315    569.707    568.315    568.377    568.315
 10.870    573.000    569.991      3.009    568.336    569.928    568.336    568.399    568.336
 10.970    588.000    570.255     17.745    568.353    570.192    568.353    568.415    568.353
 11.070    616.000    570.579     45.421    568.364    570.515    568.364    568.427    568.364
 11.170    570.000    570.986     -0.986    568.371    570.922    568.371    568.434    568.371
 11.270    614.725    571.515     43.210    568.372    571.450    568.372    568.436    568.372
 11.370    540.782    572.229    -31.447    568.370    572.163    568.370    568.433    568.370
 11.470    599.064    573.267     25.797    568.362    573.201    568.362    568.426    568.362
 11.570    565.000    575.021    -10.021    568.351    574.953    568.351    568.415    568.351
 11.670    607.720    578.627     29.092    568.334    578.557    568.334    568.399    568.334
 11.770    547.149    586.799    -39.650    568.314    586.724    568.314    568.378    568.314
 11.870    598.000    604.017     -6.017    568.288    603.932    568.288    568.353    568.288
 11.970    602.141    633.883    -31.741    568.259    633.780    568.259    568.324    568.259
 12.070    635.618    672.627    -37.009    568.225    672.502    568.225    568.291    568.225
 12.170    656.000    703.211    -47.211    568.187    703.069    568.187    568.253    568.187
 12.270    687.000    704.165    -17.165    568.145    704.021    568.145    568.211    568.145
 12.370    678.000    674.585      3.415    568.098    674.458    568.098    568.165    568.098
 12.470    646.358    635.572     10.786    568.048    635.467    568.048    568.114    568.048
 12.570    577.217    604.931    -27.714    567.993    604.843    567.993    568.060    567.993
 12.670    597.484    587.029     10.455    567.934    586.950    567.934    568.002    567.934
 12.770    545.000    578.442    -33.442    567.871    578.366    567.871    567.941    567.871
 12.870    602.209    574.613     27.595    567.805    574.540    567.805    567.875    567.805
 12.970    558.000    572.727    -14.727    567.734    572.654    567.734    567.804    567.734
 13.070    559.334    571.587    -12.254    567.659    571.514    567.659    567.730    567.659
 13.170    601.229    570.783     30.446    567.581    570.710    567.581    567.652    567.581
 13.270    530.461    570.169    -39.707    567.499    570.096    567.499    567.570    567.499
 13.370    576.006    569.679      6.326    567.413    569.606    567.413    567.485    567.413
 13.470    591.000    569.276     21.724    567.324    569.203    567.324    567.396    567.324
 13.570    559.311    568.935     -9.623    567.231    568.861    567.231    567.303    567.231
 13.670    544.000    568.638    -24.638    567.134    568.565    567.134    567.206    567.134
 13.770    569.176    568.375      0.800    567.033    568.301    567.033    567.106    567.033
 13.870    530.268    568.137    -37.869    566.929    568.063    566.929    567.003    566.929
 13.970    603.988    567.918     36.071    566.822    567.843    566.822    566.896    566.822
 14.070    532.764    567.713    -34.948    566.711    567.638    566.711    566.786    566.711
 14.170    540.129    567.518    -27.389    566.597    567.443    566.597    566.672    566.597
 14.270    592.920    567.332     25.588    566.479    567.257    566.479    566.554    566.479
 14.370    550.000    567.152    -17.152    566.359    567.076    566.359    566.434    566.359
 14.470    556.000    566.977    -10.977    566.234    566.901    566.234    566.310    566.234
 14.570    561.000    566.805     -5.805    566.107    566.728    566.107    566.183    566.107
 14.670    576.143    566.635      9.508    565.976    566.558    565.976    566.053    565.976
 14.770    529.000    566.468    -37.468    565.842    566.390    565.842    565.920    565.842
 14.870    557.000    566.303     -9.303    565.706    566.226    565.706    565.783    565.706
 14.970    585.143    566.138     19.005    565.566    566.060    565.566    565.643    565.566
 15.070    592.737    565.971     26.766    565.422    565.893    565.422    565.501    565.422
 15.170    552.000    565.804    -13.804    565.276    565.725    565.276    565.355    565.276
 15.270    551.000    565.637    -14.637    565.127    565.557    565.127    565.207    565.127
 15.370    570.000    565.469      4.531    564.975    565.389    564.975    565.055    564.975
 15.470    560.000    565.301     -5.301    564.821    565.220    564.821    564.901    564.821
 15.570    549.000    565.130    -16.130    564.663    565.049    564.663    564.744    564.663
 15.670    525.142    564.957    -39.816    564.502    564.876    564.502    564.584    564.502
 15.770    602.000    564.788     37.212    564.339    564.701    564.339    564.426    564.339
 15.870    594.229    564.614     29.615    564.173    564.525    564.173    564.262    564.173
 15.970    574.000    564.437      9.563    564.004    564.347    564.004    564.094    564.004
 16.070    520.000    564.257    -44.257    563.833    564.168    563.833    563.923    563.833
 16.170    557.000    564.077     -7.077    563.659    563.986    563.659    563.749    563.659
 16.270    578.000    563.894     14.106    563.482    563.803    563.482    563.573    563.482
 16.370    575.000    563.709     11.291    563.303    563.618    563.303    563.395    563.303
 16.470    555.000    563.523     -8.523    563.122    563.431    563.122    563.214    563.122
 16.570    608.000    563.334     44.666    562.938    563.242    562.938    563.030    562.938
 16.670    532.000    563.144    -31.144    562.751    563.051    562.751    562.844    562.751
 16.770    546.000    562.952    -16.952    562.562    562.858    562.562    562.656    562.562
 16.870    575.154    562.758     12.396    562.371    562.664    562.371    562.465    562.371
 16.970    561.699    562.562     -0.863    562.177    562.467    562.177    562.272    562.177
 17.070    533.000    562.364    -29.364    561.981    562.269    561.981    562.076    561.981
 17.170    523.000    562.165    -39.165    561.783    562.068    561.783    561.879    561.783
 17.270    525.000    561.963    -36.963    561.582    561.867    561.582    561.679    561.582
 17.370    584.000    561.760     22.240    561.380    561.663    561.380    561.477    561.380
 17.470    550.000    561.557    -11.557    561.175    561.459    561.175    561.273    561.175
 17.570    534.000    561.351    -27.351    560.968    561.252    560.968    561.066    560.968
 17.670    507.000    561.142    -54.142    560.759    561.043    560.759    560.858    560.759
 17.770    573.230    560.931     12.298    560.548    560.832    560.548    560.647    560.548
 17.870    518.438    560.719    -42.281    560.334    560.619    560.334    560.435    560.334
 17.970    523.344    560.505    -37.161    560.119    560.404    560.119    560.221    560.119
 18.070    547.542    560.290    -12.748    559.902    560.188    559.902    560.004    559.902
 18.170    524.394    560.072    -35.678    559.683    559.970    559.683    559.786    559.683
 18.270    592.557    559.853     32.703    559.462    559.750    559.462    559.566    559.462
 18.370    559.991    559.633      0.358    559.239    559.529    559.239    559.344    559.239
 18.470    535.000    559.411    -24.411    559.015    559.306    559.015    559.120    559.015
 18.570    569.000    559.188      9.812    558.788    559.082    558.788    558.894    558.788
 18.670    601.000    558.963     42.037    558.560    558.857    558.560    558.667    558.560
 18.770    552.000    558.737     -6.737    558.330    558.630    558.330    558.438    558.330
 18.870    608.000    558.510     49.490    558.099    558.402    558.099    558.207    558.099
 18.970    577.000    558.282     18.718    557.865    558.173    557.865    557.974    557.865
 19.070    525.000    558.051    -33.051    557.631    557.941    557.631    557.740    557.631
 19.170    541.860    557.819    -15.959    557.394    557.709    557.394    557.505    557.394
 19.270    546.000    557.586    -11.586    557.156    557.474    557.156    557.267    557.156
 19.370    582.000    557.352     24.648    556.916    557.239    556.916    557.029    556.916
 19.470    599.000    557.116     41.884    556.675    557.003    556.675    556.789    556.675
 19.570    539.000    556.879    -17.879    556.433    556.765    556.433    556.547    556.433
 19.670    513.496    556.641    -43.146    556.188    556.526    556.188    556.304    556.188
 19.770    576.000    556.402     19.598    555.943    556.286    555.943    556.059    555.943
 19.870    597.238    556.162     41.076    555.696    556.045    555.696    555.813    555.696
 19.970    586.468    555.923     30.545    555.448    555.804    555.448    555.566    555.448
 20.070    551.000    555.694     -4.694    555.198    555.575    555.198    555.318    555.198
 20.170    507.552    555.461    -47.910    554.947    555.341    554.947    555.068    554.947
 20.270    546.704    555.219     -8.515    554.695    555.097    554.695    554.817    554.695
 20.370    584.000    554.975     29.025    554.442    554.852    554.442    554.565    554.442
 20.470    549.000    554.732     -5.732    554.187    554.606    554.187    554.313    554.187
 20.570    598.619    554.488     44.131    553.931    554.360    553.931    554.060    553.931
 20.670    535.000    554.242    -19.242    553.674    554.112    553.674    553.804    553.674
 20.770    538.000    553.996    -15.996    553.416    553.865    553.416    553.547    553.416
 20.870    494.000    553.749    -59.749    553.157    553.617    553.157    553.289    553.157
 20.970    584.000    553.502     30.498    552.897    553.368    552.897    553.030    552.897
 21.070    580.483    553.254     27.228    552.636    553.120    552.636    552.770    552.636
 21.170    599.410    553.007     46.403    552.373    552.871    552.373    552.509    552.373
 21.270    595.000    552.760     42.240    552.110    552.622    552.110    552.248    552.110
 21.370    531.275    552.521    -21.246    551.846    552.382    551.846    551.985    551.846
 21.470    574.507    552.357     22.150    551.580    552.216    551.580    551.721    551.580
 21.570    596.197    552.132     44.065    551.314    551.990    551.314    551.456    551.314
 21.670    579.094    551.888     27.207    551.047    551.744    551.047    551.191    551.047
 21.770    553.000    551.642      1.358    550.779    551.497    550.779    550.925    550.779
 21.870    582.000    551.398     30.602    550.511    551.251    550.511    550.658    550.511
 21.970    535.000    551.156    -16.156    550.241    551.007    550.241    550.390    550.241
 22.070    544.000    550.916     -6.916    549.971    550.765    549.971    550.122    549.971
 22.170    553.000    550.697      2.303    549.700    550.545    549.700    549.853    549.700
 22.270    525.000    550.487    -25.487    549.428    550.333    549.428    549.583    549.428
 22.370    564.020    550.258     13.762    549.156    550.101    549.156    549.312    549.156
 22.470    552.000    550.031      1.969    548.883    549.872    548.883    549.041    548.883
 22.570    538.510    549.804    -11.294    548.609    549.643    548.609    548.770    548.609
 22.670    504.984    549.586    -44.603    548.334    549.423    548.334    548.497    548.334
 22.770    555.000    549.414      5.586    548.059    549.249    548.059    548.225    548.059
 22.870    559.260    549.223     10.038    547.784    549.055    547.784    547.951    547.784
 22.970    535.000    549.024    -14.024    547.508    548.854    547.508    547.678    547.508
 23.070    532.950    548.835    -15.885    547.231    548.663    547.231    547.404    547.231
 23.170    563.000    548.662     14.338    546.954    548.487    546.954    547.129    546.954
 23.270    503.232    548.503    -45.270    546.676    548.325    546.676    546.854    546.676
 23.370    568.000    548.365     19.635    546.398    548.184    546.398    546.579    546.398
 23.470    539.559    548.255     -8.696    546.119    548.072    546.119    546.304    546.119
 23.570    504.935    548.182    -43.247    545.840    547.995    545.840    546.028    545.840
 23.670    530.000    548.158    -18.158    545.561    547.968    545.561    545.752    545.561
 23.770    547.000    548.202     -1.202    545.281    548.009    545.281    545.475    545.281
 23.870    570.000    548.343     21.657    545.001    548.147    545.001    545.199    545.001
 23.970    504.592    548.636    -44.044    544.721    548.436    544.721    544.922    544.721
 24.070    549.000    549.207     -0.207    544.440    549.004    544.440    544.646    544.440
 24.170    571.000    550.423     20.577    544.159    550.217    544.159    544.369    544.159
 24.270    515.000    553.262    -38.262    543.878    553.054    543.878    544.092    543.878
 24.370    551.000    559.775     -8.775    543.597    559.567    543.597    543.815    543.597
 24.470    614.000    572.792     41.208    543.315    572.589    543.315    543.538    543.315
 24.570    585.638    593.694     -8.056    543.034    593.501    543.034    543.262    543.034
 24.670    577.000    618.360    -41.360    542.752    618.179    542.752    542.985    542.752
 24.770    593.000    634.669    -41.669    542.469    634.494    542.469    542.709    542.469
 24.870    614.000    630.688    -16.688    542.187    630.505    542.187    542.432    542.187
 24.970    576.000    609.661    -33.661    541.905    609.457    541.905    542.156    541.905
 25.070    559.056    585.007    -25.950    541.623    584.778    541.623    541.881    541.623
 25.170    557.000    566.198     -9.198    541.340    565.950    541.340    541.605    541.340
 25.270    519.000    555.096    -36.096    541.058    554.832    541.058    541.330    541.058
 25.370    576.000    549.567     26.433    540.775    549.291    540.775    541.056    540.775
 25.470    577.009    546.929     30.080    540.493    546.643    540.493    540.782    540.493
 25.570    622.000    545.516     76.484    540.210    545.220    540.210    540.509    540.210
 25.670    588.099    544.606     43.494    539.928    544.299    539.928    540.236    539.928
 25.770    521.000    543.931    -22.931    539.646    543.614    539.646    539.964    539.646
 25.870    540.000    543.401     -3.401    539.363    543.072    539.363    539.694    539.363
 25.970    542.000    542.971     -0.971    539.081    542.629    539.081    539.424    539.081
 26.070    553.837    542.610     11.227    538.799    542.255    538.799    539.155    538.799
 26.170    587.000    542.310     44.690    538.517    541.941    538.517    538.887    538.517
 26.270    552.000    542.063      9.937    538.236    541.678    538.236    538.621    538.236
 26.370    522.000    541.865    -19.865    537.954    541.463    537.954    538.356    537.954
 26.470    525.828    541.715    -15.887    537.673    541.295    537.673    538.093    537.673
 26.570    636.000    541.617     94.383    537.392    541.176    537.392    537.832    537.392
 26.670    545.451    541.598      3.853    537.111    541.135    537.111    537.573    537.111
 26.770    535.000    541.639     -6.639    536.830    541.152    536.830    537.317    536.830
 26.870    537.000    541.739     -4.739    536.550    541.225    536.550    537.063    536.550
 26.970    496.605    541.938    -45.333    536.270    541.395    536.270    536.813    536.270
 27.070    581.630    542.244     39.386    535.990    541.668    535.990    536.566    535.990
 27.170    500.000    542.694    -42.694    535.710    542.081    535.710    536.323    535.710
 27.270    583.000    543.348     39.652    535.431    542.694    535.431    536.085    535.431
 27.370    535.000    544.289     -9.289    535.153    543.588    535.153    535.853    535.153
 27.470    567.000    545.675     21.325    534.874    544.921    534.874    535.627    534.874
 27.570    564.000    547.896     16.104    534.596    547.082    534.596    535.408    534.596
 27.670    600.722    552.295     48.427    534.319    551.411    534.319    535.199    534.319
 27.770    607.000    563.563     43.437    534.042    562.596    534.042    535.001    534.042
 27.870    595.000    593.531      1.469    533.765    592.464    533.765    534.816    533.765
 27.970    692.000    660.555     31.445    533.489    659.359    533.489    534.646    533.489
 28.070    740.557    772.666    -32.109    533.213    771.313    533.213    534.496    533.213
 28.170    864.000    897.984    -33.984    532.938    896.454    532.938    534.371    532.938
 28.270    922.000    959.728    -37.728    532.663    958.021    532.663    534.276    532.663
 28.370    908.000    907.357      0.643    532.389    905.466    532.389    534.221    532.389
 28.470    821.729    794.621     27.108    532.116    792.493    532.116    534.220    532.116
 28.570    693.000    707.552    -14.552    531.842    705.090    531.842    534.294    531.842
 28.670    710.027    690.594     19.433    531.570    687.670    531.570    534.481    531.570
 28.770    747.000    738.768      8.232    531.298    735.207    531.298    534.840    531.298
 28.870    814.000    810.707      3.293    531.027    806.248    531.027    535.473    531.027
 28.970    840.179    844.806     -4.626    530.756    839.037    530.756    536.529    530.756
 29.070    818.485    804.756     13.729    530.486    797.055    530.486    538.201    530.486
 29.170    686.000    722.519    -36.519    530.217    712.048    530.217    540.701    530.217
 29.270    665.145    647.418     17.727    529.948    633.185    529.948    544.189    529.948
 29.370    609.000    601.564      7.436    529.680    582.604    529.680    548.643    529.680
 29.470    637.000    581.748     55.252    529.413    557.545    529.413    553.615    529.413
 29.570    646.000    575.647     70.353    529.146    546.880    529.146    557.912    529.146
 29.670    632.000    573.071     58.929    528.880    542.228    528.880    559.722    528.880
 29.770    623.000    569.093     53.907    528.615    539.746    528.615    557.961    528.615
 29.870    602.000    563.233     38.767    528.350    538.132    528.350    553.450    528.350
 29.970    578.000    556.889     21.111    528.087    536.997    528.087    547.978    528.087
 30.070    554.699    551.257      3.442    527.824    536.216    527.824    542.864    527.824
 30.170    550.164    546.869      3.295    527.562    535.762    527.562    538.667    527.562
 30.270    551.905    543.908      7.996    527.300    535.737    527.300    535.469    527.300
 30.370    638.000    542.663     95.337    527.040    536.567    527.040    533.132    527.040
