neutron_powder_diffraction_0040
R_wp: 3.926
Temperature (K): 593.114
Counts: 83562.00
Wavelength (Ã…): 2.52098
COMMENTS
Test file for demonstrating the .xyy file format in Reel1.0
END OF HEADER
   tth       Y_obs     Y_calc      Y_res    Background    Phase_1_Nuc    Phase_1_Mag    Phase_2_Nuc    Phase_2_Mag
  9.970    735.000    683.297     51.703    681.774    682.834    682.237    681.774    681.774
 10.070    729.203    682.606     46.597    680.992    682.137    681.459    680.992    680.992
 10.170    646.929    681.928    -35.000    680.212    681.455    680.684    680.212    680.212
 10.270    718.000    681.268     36.732    679.434    680.789    679.912    679.434    679.434
 10.370    691.000    680.627     10.373    678.658    680.143    679.141    678.658    678.658
 10.470    672.615    680.009     -7.394    677.885    679.520    678.374    677.885    677.885
 10.570    726.000    679.419     46.581    677.115    678.924    677.608    677.115    677.115
 10.670    709.000    678.863     30.137    676.346    678.363    676.845    676.346    676.346
 10.770    708.906    678.350     30.557    675.580    677.844    676.085    675.580    675.580
 10.870    685.000    677.889      7.111    674.817    677.378    675.327    674.817    674.817
 10.970    649.473    677.496    -28.023    674.056    676.979    674.572    674.056    674.056
 11.070    722.153    677.191     44.963    673.297    676.667    673.819    673.297    673.297
 11.170    622.324    677.002    -54.678    672.541    676.472    673.069    672.541    672.541
 11.270    688.000    676.973     11.027    671.788    676.437    672.321    671.788    671.788
 11.370    684.000    677.173      6.827    671.036    676.631    671.576    671.036    671.036
 11.470    737.000    677.739     59.261    670.287    677.190    670.833    670.287    670.287
 11.570    646.535    678.965    -32.430    669.541    678.408    670.093    669.541    669.541
 11.670    741.000    681.503     59.497    668.797    680.938    669.356    668.797    668.797
 11.770    737.000    686.645     50.355    668.056    686.070    668.621    668.056    668.056
 11.870    810.000    696.423    113.577    667.317    695.835    667.889    667.317    667.317
 11.970    726.164    713.055     13.108    666.581    712.450    667.159    666.581    666.581
 12.070    841.000    737.216    103.784    665.847    736.590    666.432    665.847    665.847
 12.170    794.185    765.051     29.135    665.115    764.401    665.708    665.115    665.115
 12.270    816.354    785.528     30.826    664.387    784.859    664.986    664.387    664.387
 12.370    822.000    785.727     36.273    663.660    785.051    664.267    663.660    663.660
 12.470    717.455    764.924    -47.468    662.937    764.251    663.551    662.937    662.937
 12.570    764.000    735.671     28.329    662.215    735.008    662.837    662.215    662.215
 12.670    708.000    709.572     -1.572    661.497    708.915    662.126    661.497    661.497
 12.770    646.000    690.941    -44.941    660.781    690.287    661.418    660.781    660.781
 12.870    639.614    679.306    -39.692    660.067    678.650    660.712    660.067    660.067
 12.970    649.000    672.481    -23.481    659.356    671.821    660.009    659.356    659.356
 13.070    623.898    668.381    -44.482    658.648    667.714    659.309    658.648    658.648
 13.170    646.000    665.658    -19.658    657.942    664.984    658.612    657.942    657.942
 13.270    699.655    663.627     36.029    657.239    662.945    657.917    657.239    657.239
 13.370    639.000    661.997    -22.997    656.538    661.307    657.225    656.538    656.538
 13.470    646.808    660.703    -13.895    655.840    660.005    656.536    655.840    655.840
 13.570    656.000    659.462     -3.462    655.145    658.754    655.850    655.145    655.145
 13.670    641.000    658.327    -17.327    654.452    657.611    655.166    654.452    654.452
 13.770    684.854    657.282     27.572    653.762    656.557    654.486    653.762    653.762
 13.870    668.000    656.306     11.694    653.074    655.572    653.808    653.074    653.074
 13.970    621.594    655.385    -33.791    652.389    654.640    653.133    652.389    652.389
 14.070    595.000    654.507    -59.507    651.707    653.752    652.461    651.707    651.707
 14.170    617.000    653.666    -36.666    651.027    652.902    651.791    651.027    651.027
 14.270    618.701    652.862    -34.161    650.350    652.087    651.125    650.350    650.350
 14.370    604.000    652.092    -48.092    649.676    651.305    650.462    649.676    649.676
 14.470    645.000    651.323     -6.323    649.004    650.526    649.801    649.004    649.004
 14.570    642.945    650.571     -7.626    648.335    649.762    649.143    648.335    648.335
 14.670    593.000    649.833    -56.833    647.669    649.013    648.488    647.669    647.669
 14.770    629.000    649.108    -20.108    647.005    648.277    647.836    647.005    647.005
 14.870    604.000    648.395    -44.395    646.344    647.552    647.187    646.344    646.344
 14.970    591.000    647.692    -56.692    645.686    646.837    646.541    645.686    645.686
 15.070    649.876    646.999      2.877    645.030    646.131    645.897    645.030    645.030
 15.170    632.000    646.314    -14.314    644.378    645.434    645.257    644.378    644.378
 15.270    625.850    645.637    -19.787    643.727    644.744    644.620    643.727    643.727
 15.370    578.000    644.967    -66.967    643.080    644.060    643.986    643.080    643.080
 15.470    672.000    644.303     27.697    642.435    643.384    643.354    642.435    642.435
 15.570    640.000    643.646     -3.646    641.793    642.713    642.726    641.793    641.793
 15.670    646.588    642.995      3.592    641.153    642.048    642.101    641.153    641.153
 15.770    605.000    642.352    -37.352    640.517    641.390    641.479    640.517    640.517
 15.870    623.000    641.715    -18.715    639.883    640.738    640.859    639.883    639.883
 15.970    664.000    641.081     22.919    639.252    640.088    640.243    639.252    639.252
 16.070    607.000    640.450    -33.450    638.623    639.443    639.630    638.623    638.623
 16.170    626.000    639.825    -13.825    637.997    638.802    639.021    637.997    637.997
 16.270    619.000    639.205    -20.205    637.374    638.165    638.414    637.374    637.374
 16.370    656.777    638.588     18.189    636.754    637.532    637.810    636.754    636.754
 16.470    649.000    637.977     11.023    636.136    636.903    637.210    636.136    636.136
 16.570    609.000    637.370    -28.370    635.522    636.279    636.612    635.522    635.522
 16.670    605.899    636.769    -30.871    634.910    635.660    636.018    634.910    634.910
 16.770    574.000    636.175    -62.175    634.300    635.048    635.427    634.300    634.300
 16.870    598.000    635.581    -37.581    633.694    634.435    634.840    633.694    633.694
 16.970    645.000    634.990     10.010    633.090    633.825    634.255    633.090    633.090
 17.070    589.000    634.404    -45.404    632.489    633.218    633.674    632.489    632.489
 17.170    656.613    633.821     22.792    631.891    632.616    633.096    631.891    631.891
 17.270    626.000    633.243     -7.243    631.295    632.016    632.521    631.295    631.295
 17.370    637.000    632.668      4.332    630.702    631.420    631.950    630.702    630.702
 17.470    637.000    632.104      4.896    630.113    630.834    631.383    630.113    630.113
 17.570    577.000    631.602    -54.602    629.525    630.308    630.819    629.525    629.525
 17.670    617.823    631.068    -13.244    628.941    629.750    630.259    628.941    628.941
 17.770    656.866    630.512     26.354    628.359    629.170    629.701    628.359    628.359
 17.870    603.000    629.957    -26.957    627.780    628.591    629.146    627.780    627.780
 17.970    598.562    629.407    -30.845    627.204    628.016    628.596    627.204    627.204
 18.070    626.000    628.861     -2.861    626.631    627.444    628.048    626.631    626.631
 18.170    679.236    628.328     50.907    626.061    626.885    627.504    626.061    626.061
 18.270    604.000    627.812    -23.812    625.493    626.340    626.964    625.493    625.493
 18.370    646.610    627.279     19.331    624.928    625.780    626.427    624.928    624.928
 18.470    627.000    626.749      0.251    624.366    625.221    625.894    624.366    624.366
 18.570    586.971    626.223    -39.252    623.807    624.665    625.365    623.807    623.807
 18.670    627.000    625.701      1.299    623.250    624.112    624.839    623.250    623.250
 18.770    628.197    625.183      3.014    622.696    623.563    624.317    622.696    622.696
 18.870    648.000    624.670     23.330    622.145    623.016    623.798    622.145    622.145
 18.970    620.000    624.162     -4.162    621.597    622.475    623.284    621.597    621.597
 19.070    676.000    623.668     52.332    621.052    621.947    622.773    621.052    621.052
 19.170    647.693    623.169     24.524    620.509    621.411    622.267    620.509    620.509
 19.270    597.000    622.673    -25.673    619.970    620.878    621.764    619.970    619.970
 19.370    607.595    622.181    -14.585    619.433    620.348    621.265    619.433    619.433
 19.470    580.870    621.693    -40.824    618.898    619.822    620.770    618.898    618.898
 19.570    616.000    621.213     -5.213    618.367    619.300    620.280    618.367    618.367
 19.670    651.000    620.760     30.240    617.839    618.799    619.800    617.839    617.839
 19.770    597.000    620.333    -23.333    617.313    618.317    619.328    617.313    617.313
 19.870    606.000    619.870    -13.870    616.790    617.808    618.851    616.790    616.790
 19.970    585.396    619.409    -34.013    616.270    617.301    618.378    616.270    616.270
 20.070    608.242    618.958    -10.716    615.752    616.801    617.909    615.752    615.752
 20.170    597.000    618.525    -21.525    615.238    616.319    617.444    615.238    615.238
 20.270    574.000    618.080    -44.080    614.726    615.822    616.984    614.726    614.726
 20.370    641.000    617.641     23.359    614.217    615.328    616.530    614.217    614.217
 20.470    607.000    617.238    -10.238    613.711    614.857    616.092    613.711    613.711
 20.570    611.000    616.832     -5.832    613.208    614.390    615.651    613.208    613.208
 20.670    607.000    616.451     -9.451    612.708    613.948    615.211    612.708    612.708
 20.770    638.000    616.058     21.942    612.210    613.492    614.775    612.210    612.210
 20.870    576.079    615.655    -39.576    611.715    613.025    614.345    611.715    611.715
 20.970    584.000    615.293    -31.293    611.223    612.596    613.920    611.223    611.223
 21.070    651.579    614.939     36.640    610.734    612.172    613.501    610.734    610.734
 21.170    566.223    614.556    -48.333    610.247    611.716    613.087    610.247    610.247
 21.270    617.000    614.172      2.828    609.764    611.257    612.679    609.764    609.764
 21.370    654.751    613.795     40.956    609.283    610.802    612.276    609.283    609.283
 21.470    607.232    613.438     -6.205    608.805    610.358    611.884    608.805    608.805
 21.570    643.458    613.079     30.380    608.330    609.914    611.494    608.330    608.330
 21.670    601.000    612.728    -11.728    607.857    609.475    611.110    607.857    607.857
 21.770    651.826    612.398     39.428    607.388    609.053    610.733    607.388    607.388
 21.870    545.000    612.069    -67.069    606.921    608.627    610.363    606.921    606.921
 21.970    635.000    611.744     23.256    606.457    608.202    609.999    606.457    606.457
 22.070    634.000    611.429     22.571    605.995    607.782    609.643    605.995    605.995
 22.170    560.000    611.126    -51.126    605.537    607.368    609.295    605.537    605.537
 22.270    615.000    610.834      4.166    605.081    606.961    608.954    605.081    605.081
 22.370    589.000    610.554    -21.554    604.629    606.561    608.622    604.629    604.629
 22.470    624.000    610.289     13.711    604.178    606.169    608.298    604.178    604.178
 22.570    599.000    610.038    -11.038    603.731    605.786    607.983    603.731    603.731
 22.670    624.160    609.804     14.356    603.287    605.412    607.678    603.287    603.287
 22.770    623.000    609.588     13.412    602.845    605.051    607.383    602.845    602.845
 22.870    634.000    609.392     24.608    602.406    604.701    607.098    602.406    602.406
 22.970    609.951    609.219      0.733    601.970    604.365    606.824    601.970    601.970
 23.070    607.000    609.073     -2.073    601.537    604.048    606.563    601.537    601.537
 23.170    618.256    608.954      9.302    601.106    603.747    606.313    601.106    601.106
 23.270    584.739    608.863    -24.124    600.678    603.467    606.075    600.678    600.678
 23.370    617.000    608.810      8.190    600.253    603.213    605.851    600.253    600.253
 23.470    596.000    608.801    -12.801    599.831    602.991    605.641    599.831    599.831
 23.570    596.000    608.844    -12.844    599.412    602.810    605.447    599.412    599.412
 23.670    648.000    608.953     39.047    598.995    602.680    605.269    598.995    598.995
 23.770    645.000    609.142     35.858    598.581    602.615    605.109    598.581    598.581
 23.870    648.000    609.434     38.566    598.170    602.638    604.967    598.170    598.170
 23.970    662.000    609.863     52.137    597.761    602.780    604.846    597.761    597.761
 24.070    574.311    610.484    -36.173    597.356    603.097    604.745    597.356    597.356
 24.170    602.000    611.409     -9.409    596.953    603.696    604.668    596.953    596.953
 24.270    616.000    612.879      3.121    596.553    604.820    604.616    596.553    596.553
 24.370    646.380    615.413     30.967    596.155    606.982    604.592    596.155    596.155
 24.470    608.000    619.970    -11.970    595.761    611.143    604.597    595.761    595.761
 24.570    702.000    627.950     74.050    595.369    618.698    604.634    595.369    595.369
 24.670    642.000    640.679      1.321    594.980    630.974    604.708    594.980    594.980
 24.770    653.000    658.178     -5.178    594.593    647.987    604.819    594.593    594.593
 24.870    694.000    677.210     16.790    594.209    666.494    604.973    594.209    594.209
 24.970    707.000    689.927     17.073    593.829    678.638    605.175    593.829    593.829
 25.070    646.142    688.577    -42.435    593.450    676.655    605.428    593.450    593.450
 25.170    669.000    674.439     -5.439    593.075    661.820    605.739    593.075    593.075
 25.270    653.539    655.964     -2.425    592.702    642.584    606.115    592.702    592.702
 25.370    696.000    640.034     55.966    592.332    625.824    606.563    592.332    592.332
 25.470    626.000    629.072     -3.072    591.965    613.957    607.092    591.965    591.965
 25.570    663.000    622.685     40.315    591.600    606.578    607.714    591.600    591.600
 25.670    652.000    619.487     32.513    591.238    602.291    608.439    591.238    591.238
 25.770    583.079    618.177    -35.098    590.879    599.776    609.283    590.879    590.879
 25.870    580.346    617.917    -37.571    590.522    598.178    610.262    590.522    590.522
 25.970    667.160    618.281     48.879    590.168    597.052    611.398    590.168    590.168
 26.070    608.000    619.092    -11.092    589.817    596.195    612.715    589.817    589.817
 26.170    631.000    620.288     10.712    589.469    595.512    614.244    589.469    589.469
 26.270    654.000    621.857     32.143    589.123    594.959    616.020    589.123    589.123
 26.370    608.000    623.821    -15.821    588.780    594.509    618.090    588.780    588.780
 26.470    657.000    626.218     30.782    588.440    594.147    620.509    588.440    588.440
 26.570    693.000    629.113     63.887    588.102    593.864    623.349    588.102    588.102
 26.670    647.213    632.595     14.618    587.767    593.658    626.701    587.767    587.767
 26.770    618.000    636.776    -18.776    587.434    593.529    630.678    587.434    587.434
 26.870    632.000    641.814     -9.814    587.105    593.484    635.430    587.105    587.105
 26.970    627.000    647.920    -20.920    586.778    593.533    641.159    586.778    586.778
 27.070    650.686    655.374     -4.688    586.453    593.688    648.133    586.453    586.453
 27.170    737.000    664.575     72.425    586.131    593.974    656.725    586.131    586.131
 27.270    622.367    676.079    -53.712    585.812    594.430    667.453    585.812    585.812
 27.370    717.000    690.693     26.307    585.496    595.106    681.072    585.496    585.496
 27.470    745.000    709.653     35.347    585.182    596.084    698.738    585.182    585.182
 27.570    715.815    735.162    -19.347    584.871    597.506    722.508    584.871    584.871
 27.670    778.000    772.449      5.551    584.562    599.715    757.272    584.562    584.562
 27.770    849.980    837.122     12.859    584.256    603.719    817.617    584.256    584.256
 27.870    958.374    974.758    -16.385    583.952    612.465    946.163    583.952    583.952
 27.970   1249.000   1292.423    -43.423    583.652    632.865   1243.031    583.652    583.652
 28.070   1785.000   1965.105   -180.105    583.353    676.216   1871.888    583.353    583.353
 28.170   3017.000   3136.291   -119.291    583.058    751.797   2966.968    583.058    583.058
 28.270   4554.000   4682.913   -128.913    582.765    851.724   4413.202    582.765    582.765
 28.370   5885.000   6015.826   -130.826    582.474    938.122   5659.488    582.474    582.474
 28.470   6321.627   6327.961     -6.334    582.187    959.229   5950.523    582.187    582.187
 28.570   5603.000   5427.009    175.991    581.901    903.322   5105.469    581.901    581.901
 28.670   4148.000   4061.900     86.100    581.619    820.034   3823.476    581.619    581.619
 28.770   3045.000   3071.845    -26.845    581.338    765.302   2887.852    581.338    581.338
 28.870   2720.504   2794.432    -73.928    581.061    762.007   2613.400    581.061    581.061
 28.970   3211.000   3083.436    127.564    580.786    798.926   2865.202    580.786    580.786
 29.070   3605.000   3501.815    103.185    580.513    841.349   3240.977    580.513    580.513
 29.170   3599.000   3566.685     32.315    580.243    849.085   3297.982    580.243    580.243
 29.270   3108.000   3103.626      4.374    579.976    807.996   2875.820    579.976    579.976
 29.370   2454.125   2373.112     81.013    579.711    742.289   2210.730    579.711    579.711
 29.470   1649.000   1700.848    -51.848    579.449    681.685   1598.748    579.449    579.449
 29.570   1270.000   1233.516     36.484    579.189    639.560   1173.221    579.189    579.189
 29.670    977.963    965.817     12.146    578.932    615.475    929.311    578.932    578.932
 29.770    884.000    829.948     54.052    578.677    603.310    805.331    578.677    578.677
 29.870    782.333    761.960     20.373    578.425    597.290    743.102    578.425    578.425
 29.970    794.000    724.128     69.872    578.175    594.014    708.291    578.175    578.175
 30.070    764.000    699.634     64.366    577.927    591.979    685.583    577.927    577.927
 30.170    657.870    682.040    -24.169    577.683    590.628    669.093    577.683    577.683
 30.270    677.000    668.854      8.146    577.440    589.781    656.512    577.440    577.440
 30.370    763.000    659.022    103.978    577.200    589.437    646.782    577.200    577.200
