neutron_powder_diffraction_0130
R_wp: 3.820
Temperature (K): 1037.720
Counts: 83329.00
Wavelength (Ã…): 2.52098
COMMENTS
Test file for demonstrating the .xyy file format in Reel1.0
END OF HEADER
   tth       Y_obs     Y_calc      Y_res    Background    Phase_1_Nuc    Phase_1_Mag    Phase_2_Nuc    Phase_2_Mag
  9.970    587.000    570.018     16.982    569.007    569.944    569.007    569.080    569.007
 10.070    603.000    570.151     32.849    569.058    570.076    569.058    569.132    569.058
 10.170    636.000    570.290     65.710    569.104    570.216    569.104    569.178    569.104
 10.270    605.000    570.439     34.561    569.144    570.364    569.144    569.218    569.144
 10.370    604.000    570.600     33.400    569.179    570.524    569.179    569.254    569.179
 10.470    574.000    570.777      3.223    569.208    570.701    569.208    569.284    569.208
 10.570    606.000    570.975     35.025    569.233    570.898    569.233    569.308    569.233
 10.670    624.000    571.201     52.799    569.252    571.124    569.252    569.328    569.252
 10.770    562.957    571.464     -8.508    569.266    571.387    569.266    569.342    569.266
 10.870    584.000    571.777     12.223    569.275    571.700    569.275    569.351    569.275
 10.970    519.000    572.159    -53.159    569.279    572.081    569.279    569.356    569.279
 11.070    572.000    572.631     -0.631    569.278    572.552    569.278    569.355    569.278
 11.170    596.173    573.229     22.945    569.272    573.149    569.272    569.349    569.272
 11.270    580.000    574.010      5.990    569.261    573.930    569.261    569.339    569.261
 11.370    541.624    575.080    -33.456    569.245    574.999    569.245    569.323    569.245
 11.470    593.000    576.672     16.328    569.225    576.589    569.225    569.303    569.225
 11.570    579.882    579.349      0.533    569.200    579.265    569.200    569.278    569.200
 11.670    630.000    584.362     45.638    569.170    584.274    569.170    569.249    569.170
 11.770    616.000    593.950     22.050    569.135    593.857    569.135    569.214    569.135
 11.870    639.000    610.922     28.078    569.096    610.819    569.096    569.176    569.096
 11.970    666.000    636.705     29.295    569.052    636.587    569.052    569.132    569.052
 12.070    710.489    667.705     42.784    569.004    667.570    569.004    569.084    569.004
 12.170    688.000    691.900     -3.900    568.951    691.751    568.951    569.032    568.951
 12.270    683.000    694.104    -11.104    568.894    693.953    568.894    568.975    568.894
 12.370    635.000    672.449    -37.449    568.833    672.309    568.833    568.914    568.833
 12.470    616.000    641.246    -25.246    568.767    641.124    568.767    568.849    568.767
 12.570    617.000    614.010      2.990    568.697    613.903    568.697    568.779    568.697
 12.670    558.000    595.524    -37.524    568.623    595.426    568.623    568.705    568.623
 12.770    575.000    584.851     -9.851    568.544    584.759    568.544    568.627    568.544
 12.870    584.000    579.201      4.799    568.462    579.111    568.462    568.545    568.462
 12.970    609.622    576.167     33.455    568.375    576.079    568.375    568.459    568.375
 13.070    551.000    574.353    -23.353    568.284    574.265    568.284    568.368    568.284
 13.170    588.864    573.116     15.748    568.190    573.029    568.190    568.274    568.190
 13.270    559.555    572.192    -12.637    568.091    572.105    568.091    568.176    568.091
 13.370    578.000    571.464      6.536    567.988    571.377    567.988    568.074    567.988
 13.470    576.000    570.872      5.128    567.882    570.784    567.882    567.968    567.882
 13.570    515.000    570.376    -55.376    567.772    570.288    567.772    567.858    567.772
 13.670    547.000    569.951    -22.951    567.658    569.863    567.658    567.744    567.658
 13.770    533.263    569.579    -36.316    567.540    569.491    567.540    567.627    567.540
 13.870    598.000    569.248     28.752    567.419    569.159    567.419    567.506    567.419
 13.970    526.000    568.947    -42.947    567.294    568.859    567.294    567.381    567.294
 14.070    553.000    568.671    -15.671    567.165    568.582    567.165    567.253    567.165
 14.170    544.000    568.413    -24.413    567.033    568.323    567.033    567.121    567.033
 14.270    553.674    568.169    -14.496    566.897    568.080    566.897    566.986    566.897
 14.370    595.397    567.937     27.459    566.758    567.847    566.758    566.847    566.758
 14.470    582.886    567.714     15.172    566.615    567.624    566.615    566.705    566.615
 14.570    570.000    567.498      2.502    566.469    567.407    566.469    566.560    566.469
 14.670    550.000    567.287    -17.287    566.320    567.195    566.320    566.411    566.320
 14.770    575.000    567.080      7.920    566.167    566.988    566.167    566.259    566.167
 14.870    548.000    566.878    -18.878    566.011    566.786    566.011    566.103    566.011
 14.970    594.546    566.677     27.869    565.852    566.585    565.852    565.944    565.852
 15.070    571.403    566.477      4.926    565.690    566.384    565.690    565.783    565.690
 15.170    550.000    566.278    -16.278    565.524    566.184    565.524    565.618    565.524
 15.270    592.501    566.080     26.421    565.356    565.985    565.356    565.450    565.356
 15.370    573.000    565.882      7.118    565.184    565.788    565.184    565.279    565.184
 15.470    548.000    565.683    -17.683    565.010    565.588    565.010    565.104    565.010
 15.570    523.000    565.484    -42.484    564.832    565.388    564.832    564.927    564.832
 15.670    554.000    565.283    -11.283    564.651    565.187    564.651    564.747    564.651
 15.770    596.000    565.082     30.918    564.468    564.985    564.468    564.564    564.468
 15.870    561.000    564.879     -3.879    564.282    564.782    564.282    564.379    564.282
 15.970    608.008    564.676     43.332    564.093    564.578    564.093    564.190    564.093
 16.070    508.000    564.471    -56.471    563.901    564.372    563.901    563.999    563.901
 16.170    570.686    564.264      6.421    563.706    564.166    563.706    563.805    563.706
 16.270    566.178    564.057      2.121    563.509    563.958    563.509    563.608    563.509
 16.370    546.000    563.847    -17.847    563.309    563.747    563.309    563.409    563.309
 16.470    573.000    563.636      9.364    563.106    563.535    563.106    563.207    563.106
 16.570    529.110    563.423    -34.313    562.901    563.322    562.901    563.002    562.901
 16.670    605.148    563.208     41.939    562.693    563.107    562.693    562.795    562.693
 16.770    583.851    562.992     20.859    562.483    562.889    562.483    562.585    562.483
 16.870    536.000    562.774    -26.774    562.270    562.671    562.270    562.373    562.270
 16.970    574.000    562.554     11.446    562.055    562.450    562.055    562.158    562.055
 17.070    551.000    562.332    -11.332    561.837    562.228    561.837    561.941    561.837
 17.170    565.000    562.109      2.891    561.617    562.004    561.617    561.722    561.617
 17.270    575.000    561.894     13.106    561.395    561.789    561.395    561.500    561.395
 17.370    571.000    561.683      9.317    561.170    561.577    561.170    561.277    561.170
 17.470    578.652    561.456     17.196    560.943    561.349    560.943    561.050    560.943
 17.570    527.000    561.225    -34.225    560.714    561.118    560.714    560.822    560.714
 17.670    532.595    560.993    -28.398    560.483    560.885    560.483    560.591    560.483
 17.770    525.840    560.759    -34.919    560.250    560.650    560.250    560.359    560.250
 17.870    594.779    560.524     34.256    560.014    560.414    560.014    560.124    560.014
 17.970    540.000    560.287    -20.287    559.777    560.176    559.777    559.887    559.777
 18.070    548.348    560.048    -11.700    559.537    559.936    559.537    559.648    559.537
 18.170    547.000    559.807    -12.807    559.295    559.695    559.295    559.407    559.295
 18.270    567.000    559.565      7.435    559.052    559.452    559.052    559.164    559.052
 18.370    575.000    559.321     15.679    558.806    559.208    558.806    558.920    558.806
 18.470    515.000    559.076    -44.076    558.558    558.962    558.558    558.673    558.558
 18.570    538.933    558.830    -19.896    558.309    558.714    558.309    558.424    558.309
 18.670    565.000    558.581      6.419    558.058    558.465    558.058    558.174    558.058
 18.770    546.737    558.332    -11.595    557.805    558.215    557.805    557.922    557.805
 18.870    565.836    558.081      7.755    557.550    557.963    557.550    557.668    557.550
 18.970    568.000    557.828     10.172    557.294    557.710    557.294    557.412    557.294
 19.070    580.823    557.575     23.248    557.035    557.455    557.035    557.155    557.035
 19.170    555.000    557.323     -2.323    556.775    557.202    556.775    556.896    556.775
 19.270    520.858    557.068    -36.210    556.514    556.947    556.514    556.635    556.514
 19.370    519.000    556.811    -37.811    556.251    556.689    556.251    556.373    556.251
 19.470    584.000    556.553     27.447    555.986    556.429    555.986    556.109    555.986
 19.570    572.000    556.294     15.706    555.720    556.170    555.720    555.844    555.720
 19.670    539.000    556.039    -17.039    555.452    555.914    555.452    555.577    555.452
 19.770    555.929    555.778      0.151    555.182    555.651    555.182    555.309    555.182
 19.870    561.000    555.519      5.481    554.912    555.392    554.912    555.039    554.912
 19.970    549.000    555.298     -6.298    554.639    555.169    554.639    554.768    554.639
 20.070    536.251    555.094    -18.843    554.366    554.964    554.366    554.496    554.366
 20.170    533.000    554.834    -21.834    554.091    554.703    554.091    554.222    554.091
 20.270    550.000    554.569     -4.569    553.815    554.437    553.815    553.947    553.815
 20.370    535.000    554.303    -19.303    553.537    554.170    553.537    553.670    553.537
 20.470    520.000    554.036    -34.036    553.258    553.902    553.258    553.393    553.258
 20.570    593.000    553.769     39.231    552.978    553.633    552.978    553.114    552.978
 20.670    542.000    553.501    -11.501    552.697    553.364    552.697    552.834    552.697
 20.770    590.383    553.233     37.150    552.414    553.095    552.414    552.553    552.414
 20.870    562.000    552.966      9.034    552.131    552.827    552.131    552.271    552.131
 20.970    557.139    552.703      4.437    551.846    552.562    551.846    551.987    551.846
 21.070    583.000    552.472     30.528    551.560    552.330    551.560    551.703    551.560
 21.170    546.194    552.233     -6.039    551.273    552.089    551.273    551.417    551.273
 21.270    579.000    551.968     27.032    550.985    551.823    550.985    551.131    550.985
 21.370    577.000    551.702     25.298    550.696    551.555    550.696    550.844    550.696
 21.470    517.912    551.436    -33.524    550.406    551.287    550.406    550.555    550.406
 21.570    549.000    551.170     -2.170    550.116    551.020    550.116    550.266    550.116
 21.670    591.749    550.906     40.842    549.824    550.754    549.824    549.976    549.824
 21.770    547.912    550.644     -2.731    549.531    550.490    549.531    549.685    549.531
 21.870    527.000    550.382    -23.382    549.238    550.227    549.238    549.393    549.238
 21.970    533.582    550.124    -16.541    548.943    549.966    548.943    549.101    548.943
 22.070    592.962    549.869     43.093    548.648    549.710    548.648    548.808    548.648
 22.170    545.000    549.617     -4.617    548.352    549.456    548.352    548.514    548.352
 22.270    557.000    549.367      7.633    548.055    549.204    548.055    548.219    548.055
 22.370    564.000    549.122     14.878    547.758    548.956    547.758    547.923    547.758
 22.470    551.000    548.894      2.106    547.460    548.727    547.460    547.627    547.460
 22.570    571.000    548.688     22.312    547.161    548.518    547.161    547.331    547.161
 22.670    544.000    548.463     -4.463    546.861    548.291    546.861    547.034    546.861
 22.770    567.267    548.251     19.016    546.561    548.076    546.561    546.736    546.561
 22.870    508.257    548.046    -39.790    546.260    547.870    546.260    546.438    546.260
 22.970    576.000    547.851     28.149    545.959    547.671    545.959    546.139    545.959
 23.070    585.000    547.670     37.330    545.657    547.488    545.657    545.840    545.657
 23.170    564.000    547.510     16.490    545.355    547.325    545.355    545.540    545.355
 23.270    537.000    547.390    -10.390    545.052    547.203    545.052    545.240    545.052
 23.370    531.582    547.292    -15.710    544.748    547.102    544.748    544.940    544.748
 23.470    545.931    547.236     -1.305    544.445    547.042    544.445    544.639    544.445
 23.570    564.000    547.225     16.775    544.140    547.028    544.140    544.338    544.140
 23.670    541.000    547.283     -6.283    543.836    547.083    543.836    544.037    543.836
 23.770    533.000    547.438    -14.438    543.531    547.234    543.531    543.736    543.531
 23.870    562.877    547.733     15.144    543.225    547.526    543.225    543.434    543.225
 23.970    524.000    548.256    -24.256    542.920    548.046    542.920    543.132    542.920
 24.070    561.000    549.211     11.789    542.614    548.998    542.614    542.831    542.614
 24.170    562.744    551.046     11.698    542.307    550.830    542.307    542.529    542.307
 24.270    535.602    554.707    -19.105    542.001    554.489    542.001    542.227    542.001
 24.370    597.350    561.721     35.630    541.694    561.503    541.694    541.925    541.694
 24.470    571.000    573.771     -2.771    541.387    573.557    541.387    541.623    541.387
 24.570    623.000    591.310     31.690    541.080    591.103    541.080    541.321    541.080
 24.670    649.000    611.208     37.792    540.772    611.011    540.772    541.019    540.772
 24.770    672.000    625.024     46.976    540.465    624.831    540.465    540.717    540.465
 24.870    603.000    623.848    -20.848    540.157    623.648    540.157    540.416    540.157
 24.970    585.000    608.421    -23.421    539.849    608.203    539.849    540.115    539.849
 25.070    628.587    588.071     40.516    539.542    587.833    539.542    539.814    539.542
 25.170    562.818    570.557     -7.739    539.234    570.298    539.234    539.513    539.234
 25.270    537.000    558.566    -21.566    538.926    558.291    538.926    539.213    538.926
 25.370    573.000    551.461     21.539    538.618    551.173    538.618    538.914    538.618
 25.470    561.000    547.546     13.454    538.310    547.246    538.310    538.615    538.310
 25.570    527.000    545.351    -18.351    538.002    545.041    538.002    538.316    538.002
 25.670    540.000    543.962     -3.962    537.694    543.640    537.694    538.019    537.694
 25.770    514.774    542.971    -28.197    537.386    542.638    537.386    537.722    537.386
 25.870    538.161    542.205     -4.044    537.079    541.859    537.079    537.426    537.079
 25.970    583.000    541.588     41.412    536.771    541.230    536.771    537.131    536.771
 26.070    572.127    541.076     31.051    536.464    540.704    536.464    536.837    536.464
 26.170    543.000    540.642      2.358    536.156    540.255    536.156    536.545    536.156
 26.270    524.597    540.278    -15.681    535.849    539.874    535.849    536.253    535.849
 26.370    528.000    539.983    -11.983    535.542    539.562    535.542    535.964    535.542
 26.470    535.000    539.732     -4.732    535.236    539.292    535.236    535.676    535.236
 26.570    542.561    539.532      3.029    534.929    539.072    534.929    535.390    534.929
 26.670    538.000    539.387     -1.387    534.623    538.904    534.623    535.106    534.623
 26.770    563.000    539.304     23.696    534.317    538.796    534.317    534.825    534.317
 26.870    542.000    539.286      2.714    534.011    538.751    534.011    534.546    534.011
 26.970    522.000    539.349    -17.349    533.706    538.784    533.706    534.271    533.706
 27.070    546.000    539.512      6.488    533.401    538.914    533.401    533.999    533.401
 27.170    548.000    539.803      8.197    533.096    539.168    533.096    533.731    533.096
 27.270    502.000    540.265    -38.265    532.792    539.588    532.792    533.468    532.792
 27.370    608.000    540.962     67.038    532.488    540.239    532.488    533.210    532.488
 27.470    570.000    542.015     27.985    532.184    541.239    532.184    532.959    532.184
 27.570    566.000    543.740     22.260    531.881    542.905    531.881    532.715    531.881
 27.670    554.000    547.339      6.661    531.578    546.435    531.578    532.479    531.578
 27.770    572.000    557.149     14.851    531.276    556.165    531.276    532.254    531.276
 27.870    546.610    584.797    -38.187    530.974    583.715    530.974    532.040    530.974
 27.970    679.780    649.462     30.317    530.673    648.256    530.673    531.842    530.673
 28.070    814.000    761.274     52.726    530.372    759.913    530.372    531.662    530.372
 28.170    905.422    889.857     15.565    530.072    888.324    530.072    531.505    530.072
 28.270    868.000    958.295    -90.295    529.772    956.591    529.772    531.378    529.772
 28.370    863.000    912.799    -49.799    529.473    910.922    529.473    531.288    529.473
 28.470    819.477    800.519     18.957    529.174    798.421    529.174    531.249    529.174
 28.570    724.000    708.560     15.440    528.876    706.155    528.876    531.276    528.876
 28.670    708.000    685.912     22.088    528.579    683.095    528.579    531.387    528.579
 28.770    700.797    729.482    -28.685    528.282    726.138    528.282    531.608    528.282
 28.870    795.000    799.154     -4.154    527.986    795.152    527.986    531.965    527.986
 28.970    812.490    835.503    -23.013    527.690    830.691    527.690    532.488    527.690
 29.070    786.000    801.276    -15.276    527.396    795.472    527.396    533.202    527.396
 29.170    676.000    722.311    -46.311    527.101    715.304    527.101    534.122    527.101
 29.270    667.000    645.185     21.815    526.808    636.773    526.808    535.234    526.808
 29.370    624.000    593.878     30.122    526.515    583.938    526.515    536.465    526.515
 29.470    589.000    567.960     21.040    526.223    556.542    526.223    537.645    526.223
 29.570    579.805    557.096     22.710    525.932    544.522    525.932    538.506    525.932
 29.670    597.000    552.446     44.554    525.641    539.337    525.641    538.750    525.641
 29.770    595.000    549.566     45.434    525.351    536.705    525.351    538.213    525.351
 29.870    592.240    546.980     45.260    525.062    535.066    525.062    536.976    525.062
 29.970    605.000    544.473     60.527    524.774    533.941    524.774    535.305    524.774
 30.070    538.615    542.192     -3.576    524.487    533.184    524.487    533.494    524.487
 30.170    569.000    540.321     28.679    524.200    532.772    524.200    531.748    524.200
 30.270    519.422    539.088    -19.666    523.914    532.827    523.914    530.174    523.914
 30.370    523.353    538.972    -15.619    523.630    533.795    523.630    528.804    523.630
