neutron_powder_diffraction_0159
R_wp: 4.023
Temperature (K): 1074.000
Counts: 83898.00
Wavelength (Ã…): 2.52098
COMMENTS
Test file for demonstrating the .xyy file format in Reel1.0
END OF HEADER
   tth       Y_obs     Y_calc      Y_res    Background    Phase_1_Nuc    Phase_1_Mag    Phase_2_Nuc    Phase_2_Mag
  9.970    530.395    574.877    -44.482    574.108    574.821    574.108    574.163    574.108
 10.070    581.932    574.933      6.999    574.103    574.878    574.103    574.158    574.103
 10.170    607.000    574.994     32.006    574.092    574.938    574.092    574.148    574.092
 10.270    599.000    575.061     23.939    574.077    575.004    574.077    574.133    574.077
 10.370    635.000    575.136     59.864    574.057    575.079    574.057    574.114    574.057
 10.470    622.000    575.223     46.777    574.033    575.166    574.033    574.089    574.033
 10.570    577.000    575.325      1.675    574.003    575.268    574.003    574.060    574.003
 10.670    572.000    575.448     -3.448    573.969    575.391    573.969    574.026    573.969
 10.770    549.895    575.600    -25.705    573.930    575.542    573.930    573.988    573.930
 10.870    598.383    575.789     22.594    573.887    575.731    573.887    573.944    573.887
 10.970    595.000    576.028     18.972    573.839    575.969    573.839    573.897    573.839
 11.070    600.000    576.337     23.663    573.787    576.278    573.787    573.845    573.787
 11.170    569.000    576.743     -7.743    573.730    576.684    573.730    573.788    573.730
 11.270    587.311    577.291     10.020    573.669    577.230    573.669    573.727    573.669
 11.370    586.047    578.054      7.993    573.603    577.993    573.603    573.662    573.603
 11.470    581.463    579.201      2.262    573.533    579.139    573.533    573.592    573.533
 11.570    601.000    581.189     19.811    573.459    581.125    573.459    573.518    573.459
 11.670    588.000    585.257      2.743    573.381    585.191    573.381    573.440    573.381
 11.770    573.043    594.138    -21.095    573.298    594.067    573.298    573.358    573.298
 11.870    605.000    612.012     -7.012    573.212    611.931    573.212    573.272    573.212
 11.970    623.469    641.862    -18.393    573.121    641.763    573.121    573.181    573.121
 12.070    687.000    679.640      7.360    573.026    679.519    573.026    573.087    573.026
 12.170    716.000    709.062      6.938    572.927    708.924    572.927    572.988    572.927
 12.270    652.000    709.919    -57.919    572.824    709.780    572.824    572.886    572.824
 12.370    693.661    681.358     12.302    572.718    681.235    572.718    572.779    572.718
 12.470    607.000    643.234    -36.234    572.607    643.132    572.607    572.669    572.607
 12.570    606.040    612.536     -6.496    572.493    612.451    572.493    572.555    572.493
 12.670    592.614    593.870     -1.256    572.375    593.796    572.375    572.437    572.375
 12.770    537.545    584.439    -46.893    572.253    584.369    572.253    572.316    572.253
 12.870    568.000    580.013    -12.013    572.127    579.945    572.127    572.190    572.127
 12.970    562.000    577.762    -15.762    571.998    577.696    571.998    572.062    571.998
 13.070    572.000    576.392     -4.392    571.866    576.323    571.866    571.933    571.866
 13.170    533.000    575.417    -42.417    571.729    575.346    571.729    571.798    571.729
 13.270    579.119    574.662      4.457    571.589    574.591    571.589    571.659    571.589
 13.370    556.000    574.052    -18.052    571.446    573.981    571.446    571.516    571.446
 13.470    544.000    573.544    -29.544    571.299    573.472    571.299    571.370    571.299
 13.570    601.822    573.108     28.714    571.149    573.036    571.149    571.220    571.149
 13.670    543.000    572.724    -29.724    570.996    572.652    570.996    571.067    570.996
 13.770    537.070    572.378    -35.308    570.839    572.306    570.839    570.910    570.839
 13.870    584.000    572.062     11.938    570.679    571.990    570.679    570.751    570.679
 13.970    608.425    571.769     36.656    570.515    571.697    570.515    570.588    570.515
 14.070    566.000    571.496     -5.496    570.349    571.423    570.349    570.421    570.349
 14.170    542.000    571.235    -29.235    570.179    571.162    570.179    570.252    570.179
 14.270    540.000    570.983    -30.983    570.007    570.910    570.007    570.080    570.007
 14.370    564.831    570.739     -5.908    569.831    570.665    569.831    569.904    569.831
 14.470    529.000    570.501    -41.501    569.652    570.426    569.652    569.726    569.652
 14.570    587.000    570.267     16.733    569.470    570.192    569.470    569.544    569.470
 14.670    598.604    570.037     28.567    569.285    569.962    569.285    569.360    569.285
 14.770    573.141    569.809      3.332    569.098    569.734    569.098    569.173    569.098
 14.870    567.562    569.583     -2.021    568.907    569.508    568.907    568.983    568.907
 14.970    534.000    569.359    -35.359    568.714    569.283    568.714    568.790    568.714
 15.070    564.000    569.135     -5.135    568.518    569.058    568.518    568.594    568.518
 15.170    601.222    568.911     32.310    568.319    568.834    568.319    568.395    568.319
 15.270    580.000    568.687     11.313    568.117    568.610    568.117    568.194    568.117
 15.370    548.000    568.463    -20.463    567.913    568.386    567.913    567.990    567.913
 15.470    558.309    568.239     -9.930    567.706    568.160    567.706    567.784    567.706
 15.570    502.000    568.013    -66.013    567.496    567.935    567.496    567.575    567.496
 15.670    544.000    567.787    -23.787    567.284    567.708    567.284    567.363    567.284
 15.770    603.190    567.559     35.630    567.069    567.480    567.069    567.149    567.069
 15.870    572.000    567.331      4.669    566.852    567.251    566.852    566.932    566.852
 15.970    562.000    567.101     -5.101    566.633    567.021    566.633    566.713    566.633
 16.070    578.000    566.870     11.130    566.411    566.789    566.411    566.491    566.411
 16.170    564.851    566.637     -1.786    566.186    566.556    566.186    566.267    566.186
 16.270    533.000    566.403    -33.403    565.959    566.321    565.959    566.041    565.959
 16.370    574.000    566.167      7.833    565.730    566.085    565.730    565.813    565.730
 16.470    560.327    565.930     -5.603    565.499    565.848    565.499    565.582    565.499
 16.570    540.000    565.694    -25.694    565.265    565.611    565.265    565.349    565.265
 16.670    599.411    565.454     33.957    565.030    565.370    565.030    565.113    565.030
 16.770    532.593    565.212    -32.619    564.792    565.128    564.792    564.876    564.792
 16.870    571.000    564.969      6.031    564.552    564.884    564.552    564.636    564.552
 16.970    544.735    564.724    -19.989    564.310    564.638    564.310    564.395    564.310
 17.070    541.000    564.477    -23.477    564.065    564.391    564.065    564.151    564.065
 17.170    589.000    564.229     24.771    563.819    564.142    563.819    563.905    563.819
 17.270    539.570    563.979    -24.409    563.571    563.892    563.571    563.658    563.571
 17.370    535.000    563.728    -28.728    563.321    563.640    563.321    563.408    563.321
 17.470    573.442    563.475      9.967    563.068    563.387    563.068    563.157    563.068
 17.570    595.669    563.221     32.449    562.814    563.132    562.814    562.903    562.814
 17.670    499.000    562.966    -63.966    562.559    562.876    562.559    562.648    562.559
 17.770    580.000    562.710     17.290    562.301    562.620    562.301    562.391    562.301
 17.870    556.049    562.451     -6.403    562.041    562.361    562.041    562.132    562.041
 17.970    559.000    562.191     -3.191    561.780    562.100    561.780    561.871    561.780
 18.070    573.693    561.929     11.764    561.517    561.838    561.517    561.609    561.517
 18.170    543.000    561.666    -18.666    561.252    561.574    561.252    561.345    561.252
 18.270    562.147    561.402      0.745    560.986    561.309    560.986    561.079    560.986
 18.370    585.000    561.138     23.862    560.718    561.042    560.718    560.814    560.718
 18.470    521.989    560.872    -38.883    560.448    560.775    560.448    560.545    560.448
 18.570    559.000    560.604     -1.604    560.177    560.506    560.177    560.275    560.177
 18.670    549.766    560.334    -10.568    559.905    560.235    559.905    560.003    559.905
 18.770    537.000    560.063    -23.063    559.630    559.964    559.630    559.730    559.630
 18.870    515.000    559.791    -44.791    559.355    559.691    559.355    559.455    559.355
 18.970    591.000    559.520     31.480    559.078    559.419    559.078    559.178    559.078
 19.070    528.000    559.260    -31.260    558.799    559.158    558.799    558.901    558.799
 19.170    528.044    558.995    -30.951    558.519    558.893    558.519    558.622    558.519
 19.270    529.821    558.720    -28.899    558.238    558.617    558.238    558.341    558.238
 19.370    538.290    558.443    -20.154    557.955    558.339    557.955    558.059    557.955
 19.470    549.000    558.165     -9.165    557.672    558.060    557.672    557.776    557.672
 19.570    586.000    557.887     28.113    557.386    557.781    557.386    557.492    557.386
 19.670    556.000    557.607     -1.607    557.100    557.500    557.100    557.207    557.100
 19.770    570.000    557.326     12.674    556.813    557.219    556.813    556.920    556.813
 19.870    575.000    557.045     17.955    556.524    556.937    556.524    556.632    556.524
 19.970    594.787    556.763     38.023    556.234    556.654    556.234    556.343    556.234
 20.070    532.000    556.481    -24.481    555.943    556.371    555.943    556.053    555.943
 20.170    555.000    556.198     -1.198    555.651    556.087    555.651    555.762    555.651
 20.270    513.406    555.914    -42.508    555.358    555.802    555.358    555.470    555.358
 20.370    537.633    555.630    -17.997    555.064    555.517    555.064    555.177    555.064
 20.470    575.000    555.346     19.654    554.768    555.231    554.768    554.883    554.768
 20.570    598.775    555.061     43.714    554.472    554.945    554.472    554.588    554.472
 20.670    585.000    554.784     30.216    554.175    554.668    554.175    554.292    554.175
 20.770    578.000    554.584     23.416    553.877    554.466    553.877    553.995    553.877
 20.870    539.000    554.321    -15.321    553.578    554.202    553.578    553.697    553.578
 20.970    552.000    554.037     -2.037    553.279    553.917    553.279    553.399    553.279
 21.070    532.303    553.752    -21.449    552.978    553.631    552.978    553.099    552.978
 21.170    526.000    553.467    -27.467    552.677    553.345    552.677    552.799    552.677
 21.270    552.000    553.183     -1.183    552.375    553.059    552.375    552.499    552.375
 21.370    559.000    552.901      6.099    552.072    552.776    552.072    552.197    552.072
 21.470    586.325    552.623     33.703    551.768    552.496    551.768    551.895    551.768
 21.570    560.000    552.343      7.657    551.464    552.215    551.464    551.592    551.464
 21.670    579.000    552.062     26.938    551.159    551.933    551.159    551.288    551.159
 21.770    512.221    551.782    -39.560    550.853    551.651    550.853    550.984    550.853
 21.870    562.000    551.505     10.495    550.547    551.372    550.547    550.679    550.547
 21.970    528.203    551.248    -23.046    550.240    551.114    550.240    550.374    550.240
 22.070    522.000    551.005    -29.005    549.933    550.870    549.933    550.068    549.933
 22.170    575.000    550.782     24.218    549.625    550.644    549.625    549.762    549.625
 22.270    505.944    550.531    -44.587    549.316    550.392    549.316    549.455    549.316
 22.370    528.562    550.267    -21.705    549.007    550.126    549.007    549.148    549.007
 22.470    562.376    550.005     12.371    548.698    549.862    548.698    548.841    548.698
 22.570    585.484    549.748     35.736    548.388    549.604    548.388    548.533    548.388
 22.670    562.000    549.497     12.503    548.077    549.351    548.077    548.224    548.077
 22.770    615.000    549.253     65.747    547.767    549.104    547.767    547.916    547.767
 22.870    591.350    549.017     42.333    547.456    548.866    547.456    547.607    547.456
 22.970    539.000    548.792     -9.792    547.144    548.639    547.144    547.297    547.144
 23.070    519.000    548.579    -29.579    546.832    548.424    546.832    546.988    546.832
 23.170    520.784    548.383    -27.598    546.520    548.225    546.520    546.678    546.520
 23.270    526.000    548.205    -22.205    546.208    548.045    546.208    546.368    546.208
 23.370    556.628    548.052      8.576    545.895    547.890    545.895    546.058    545.895
 23.470    592.208    547.932     44.276    545.582    547.767    545.582    545.748    545.582
 23.570    559.540    547.853     11.687    545.269    547.686    545.269    545.438    545.269
 23.670    568.000    547.832     20.168    544.956    547.662    544.956    545.128    544.956
 23.770    511.000    547.889    -36.889    544.643    547.716    544.643    544.817    544.643
 23.870    547.507    548.059     -0.552    544.329    547.882    544.329    544.507    544.329
 23.970    574.630    548.405     26.225    544.015    548.226    544.015    544.197    544.015
 24.070    548.184    549.082     -0.898    543.702    548.900    543.702    543.887    543.702
 24.170    568.000    550.511     17.489    543.388    550.326    543.388    543.576    543.388
 24.270    594.000    553.730     40.270    543.074    553.544    543.074    543.266    543.074
 24.370    595.000    560.752     34.248    542.760    560.567    542.760    542.957    542.760
 24.470    627.000    574.098     52.902    542.446    573.919    542.446    542.647    542.446
 24.570    649.000    594.753     54.247    542.132    594.583    542.132    542.338    542.132
 24.670    646.000    618.583     27.417    541.818    618.426    541.818    542.028    541.818
 24.770    612.000    634.169    -22.169    541.504    634.018    541.504    541.720    541.504
 24.870    596.000    630.368    -34.368    541.190    630.210    541.190    541.411    541.190
 24.970    630.000    610.176     19.824    540.876    609.997    540.876    541.103    540.876
 25.070    540.000    586.135    -46.135    540.563    585.934    540.563    540.796    540.563
 25.170    585.582    567.259     18.322    540.249    567.038    540.249    540.489    540.249
 25.270    594.114    555.662     38.452    539.936    555.426    539.936    540.182    539.936
 25.370    578.280    549.578     28.702    539.623    549.330    539.623    539.876    539.623
 25.470    592.000    546.551     45.449    539.310    546.293    539.310    539.571    539.310
 25.570    570.848    544.919     25.929    538.997    544.653    538.997    539.267    538.997
 25.670    529.000    543.866    -14.866    538.685    543.590    538.685    538.963    538.685
 25.770    563.000    543.096     19.904    538.373    542.810    538.373    538.660    538.373
 25.870    532.000    542.515    -10.515    538.061    542.218    538.061    538.358    538.061
 25.970    574.389    542.036     32.353    537.749    541.728    537.749    538.058    537.749
 26.070    558.000    541.618     16.382    537.437    541.298    537.437    537.758    537.437
 26.170    571.826    541.267     30.559    537.126    540.934    537.126    537.460    537.126
 26.270    572.152    540.974     31.178    536.816    540.627    536.816    537.163    536.816
 26.370    556.000    540.735     15.265    536.505    540.372    536.505    536.868    536.505
 26.470    526.222    540.547    -14.325    536.195    540.168    536.195    536.575    536.195
 26.570    549.000    540.414      8.586    535.886    540.017    535.886    536.283    535.886
 26.670    551.565    540.350     11.215    535.577    539.933    535.577    535.994    535.577
 26.770    602.000    540.364     61.636    535.268    539.925    535.268    535.707    535.268
 26.870    523.902    540.433    -16.531    534.960    539.969    534.960    535.423    534.960
 26.970    573.486    540.594     32.892    534.652    540.103    534.652    535.142    534.652
 27.070    548.916    540.874      8.042    534.345    540.354    534.345    534.864    534.345
 27.170    530.000    541.311    -11.311    534.038    540.758    534.038    534.590    534.038
 27.270    551.000    541.959      9.041    533.732    541.369    533.732    534.321    533.732
 27.370    562.000    542.906     19.094    533.426    542.274    533.426    534.057    533.426
 27.470    539.000    544.296     -5.296    533.121    543.616    533.121    533.799    533.121
 27.570    549.440    546.545      2.895    532.816    545.811    532.816    533.548    532.816
 27.670    585.000    551.070     33.930    532.512    550.273    532.512    533.305    532.512
 27.770    544.000    562.648    -18.648    532.209    561.777    532.209    533.072    532.209
 27.870    581.000    593.231    -12.231    531.906    592.268    531.906    532.851    531.906
 27.970    648.000    661.062    -13.062    531.604    659.982    531.604    532.644    531.604
 28.070    763.644    773.754    -10.109    531.302    772.530    531.302    532.455    531.302
 28.170    969.000    899.189     69.811    531.001    897.805    531.001    532.288    531.001
 28.270    968.000    960.935      7.065    530.701    959.393    530.701    532.149    530.701
 28.370    890.000    908.895    -18.895    530.402    907.193    530.402    532.045    530.402
 28.470    811.944    796.542     15.402    530.103    794.631    530.103    531.990    530.103
 28.570    686.000    709.527    -23.527    529.805    707.318    529.805    532.004    529.805
 28.670    752.000    692.146     59.854    529.508    689.521    529.508    532.119    529.508
 28.770    701.857    739.292    -37.435    529.211    736.099    529.211    532.386    529.211
 28.870    767.000    809.833    -42.833    528.916    805.855    528.916    532.881    528.916
 28.970    864.581    843.032     21.548    528.621    837.946    528.621    533.710    528.621
 29.070    749.000    803.128    -54.128    528.326    796.468    528.326    535.000    528.326
 29.170    728.214    721.169      7.045    528.033    712.340    528.033    536.876    528.033
 29.270    601.000    645.374    -44.374    527.741    633.701    527.741    539.421    527.741
 29.370    573.554    597.727    -24.172    527.449    582.594    527.449    542.585    527.449
 29.470    568.000    575.675     -7.675    527.158    556.812    527.158    546.020    527.158
 29.570    524.481    567.657    -43.176    526.868    545.631    526.868    548.893    526.868
 29.670    575.000    564.142     10.858    526.579    540.699    526.579    550.019    526.579
 29.770    577.000    560.498     16.502    526.291    538.071    526.291    548.716    526.291
 29.870    592.000    555.867     36.133    526.004    536.372    526.004    545.497    526.004
 29.970    599.000    550.989     48.011    525.718    535.181    525.718    541.524    525.718
 30.070    563.000    546.642     16.358    525.432    534.365    525.432    537.707    525.432
 30.170    543.000    543.223     -0.223    525.148    533.900    525.148    534.468    525.148
 30.270    593.000    540.940     52.060    524.865    533.902    524.865    531.900    524.865
 30.370    590.000    540.186     49.814    524.582    534.826    524.582    529.938    524.582
