neutron_powder_diffraction_0193
R_wp: 3.926
Temperature (K): 1074.000
Counts: 83682.00
Wavelength (Ã…): 2.52098
COMMENTS
Test file for demonstrating the .xyy file format in Reel1.0
END OF HEADER
   tth       Y_obs     Y_calc      Y_res    Background    Phase_1_Nuc    Phase_1_Mag    Phase_2_Nuc    Phase_2_Mag
  9.970    571.256    576.486     -5.230    575.864    576.445    575.864    575.906    575.864
 10.070    535.306    576.488    -41.182    575.815    576.445    575.815    575.858    575.815
 10.170    596.000    576.491     19.509    575.762    576.448    575.762    575.805    575.762
 10.270    591.000    576.499     14.501    575.704    576.455    575.704    575.747    575.704
 10.370    563.064    576.513    -13.449    575.642    576.469    575.642    575.686    575.642
 10.470    585.000    576.536      8.464    575.576    576.492    575.576    575.620    575.576
 10.570    568.495    576.571     -8.076    575.506    576.526    575.506    575.550    575.506
 10.670    597.000    576.622     20.378    575.432    576.577    575.432    575.476    575.432
 10.770    568.000    576.695     -8.695    575.354    576.650    575.354    575.398    575.354
 10.870    551.000    576.798    -25.798    575.271    576.753    575.271    575.316    575.271
 10.970    577.000    576.946      0.054    575.185    576.895    575.185    575.235    575.185
 11.070    615.000    577.146     37.854    575.095    577.094    575.095    575.146    575.095
 11.170    583.183    577.423      5.760    575.001    577.371    575.001    575.052    575.001
 11.270    600.000    577.814     22.186    574.903    577.761    574.903    574.954    574.903
 11.370    601.000    578.376     22.624    574.801    578.322    574.801    574.853    574.801
 11.470    615.000    579.234     35.766    574.695    579.179    574.695    574.747    574.695
 11.570    578.412    580.747     -2.335    574.586    580.691    574.586    574.638    574.586
 11.670    650.000    584.009     65.991    574.473    583.952    574.473    574.526    574.473
 11.770    617.000    591.791     25.209    574.357    591.729    574.357    574.410    574.357
 11.870    654.000    608.943     45.057    574.237    608.871    574.237    574.290    574.237
 11.970    631.000    639.691     -8.691    574.113    639.601    574.113    574.166    574.113
 12.070    713.000    680.403     32.597    573.986    680.289    573.986    574.039    573.986
 12.170    682.000    712.849    -30.849    573.855    712.717    573.855    573.909    573.855
 12.270    695.000    713.786    -18.786    573.721    713.654    573.721    573.775    573.721
 12.370    605.000    682.228    -77.228    573.584    682.112    573.584    573.638    573.584
 12.470    676.979    641.020     35.959    573.443    640.927    573.443    573.498    573.443
 12.570    595.000    609.244    -14.244    573.299    609.166    573.299    573.357    573.299
 12.670    575.000    591.189    -16.189    573.151    591.119    573.151    573.211    573.151
 12.770    596.000    582.803     13.197    573.000    582.737    573.000    573.060    573.000
 12.870    572.000    579.140     -7.140    572.847    579.076    572.847    572.907    572.847
 12.970    581.000    577.314      3.686    572.690    577.251    572.690    572.750    572.690
 13.070    565.000    576.173    -11.173    572.529    576.110    572.529    572.591    572.529
 13.170    538.151    575.338    -37.187    572.366    575.275    572.366    572.428    572.366
 13.270    598.000    574.679     23.321    572.200    574.615    572.200    572.262    572.200
 13.370    600.000    574.135     25.865    572.031    574.072    572.031    572.093    572.031
 13.470    557.000    573.673    -16.673    571.858    573.609    571.858    571.921    571.858
 13.570    550.711    573.268    -22.557    571.683    573.205    571.683    571.746    571.683
 13.670    553.000    572.906    -19.906    571.505    572.842    571.505    571.568    571.505
 13.770    556.000    572.574    -16.574    571.324    572.510    571.324    571.387    571.324
 13.870    585.000    572.267     12.733    571.140    572.202    571.140    571.204    571.140
 13.970    553.000    571.977    -18.977    570.953    571.912    570.953    571.018    570.953
 14.070    522.000    571.700    -49.700    570.764    571.635    570.764    570.829    570.764
 14.170    517.000    571.435    -54.435    570.572    571.369    570.572    570.637    570.572
 14.270    566.152    571.177     -5.025    570.377    571.111    570.377    570.443    570.377
 14.370    578.000    570.925      7.075    570.180    570.859    570.180    570.245    570.180
 14.470    538.000    570.678    -32.678    569.980    570.612    569.980    570.046    569.980
 14.570    546.000    570.434    -24.434    569.777    570.368    569.777    569.844    569.777
 14.670    603.018    570.194     32.825    569.572    570.127    569.572    569.639    569.572
 14.770    595.000    569.955     25.045    569.365    569.888    569.365    569.432    569.365
 14.870    563.000    569.720     -6.720    569.154    569.652    569.154    569.222    569.154
 14.970    592.000    569.485     22.515    568.942    569.417    568.942    569.010    568.942
 15.070    548.339    569.248    -20.909    568.727    569.180    568.727    568.796    568.727
 15.170    554.000    569.013    -15.013    568.510    568.943    568.510    568.580    568.510
 15.270    542.000    568.776    -26.776    568.290    568.706    568.290    568.361    568.290
 15.370    566.000    568.539     -2.539    568.068    568.468    568.068    568.139    568.068
 15.470    555.624    568.301    -12.678    567.844    568.230    567.844    567.915    567.844
 15.570    600.967    568.063     32.904    567.618    567.991    567.618    567.689    567.618
 15.670    567.000    567.823     -0.823    567.389    567.751    567.389    567.461    567.389
 15.770    591.000    567.583     23.417    567.158    567.510    567.158    567.231    567.158
 15.870    513.000    567.341    -54.341    566.925    567.268    566.925    566.998    566.925
 15.970    622.000    567.098     54.902    566.690    567.025    566.690    566.764    566.690
 16.070    606.365    566.855     39.509    566.453    566.781    566.453    566.527    566.453
 16.170    527.000    566.612    -39.612    566.214    566.537    566.214    566.289    566.214
 16.270    519.148    566.366    -47.217    565.973    566.291    565.973    566.048    565.973
 16.370    574.000    566.118      7.882    565.730    566.042    565.730    565.805    565.730
 16.470    565.536    565.869     -0.333    565.485    565.793    565.485    565.561    565.485
 16.570    537.000    565.618    -28.618    565.238    565.542    565.238    565.314    565.238
 16.670    509.000    565.366    -56.366    564.989    565.289    564.989    565.066    564.989
 16.770    539.000    565.113    -26.113    564.739    565.036    564.739    564.816    564.739
 16.870    504.000    564.858    -60.858    564.486    564.781    564.486    564.564    564.486
 16.970    587.442    564.602     22.840    564.232    564.524    564.232    564.310    564.232
 17.070    608.720    564.345     44.375    563.976    564.266    563.976    564.055    563.976
 17.170    573.000    564.087      8.913    563.718    564.007    563.718    563.798    563.718
 17.270    556.156    563.827     -7.670    563.459    563.747    563.459    563.539    563.459
 17.370    583.000    563.565     19.435    563.198    563.485    563.198    563.279    563.198
 17.470    578.000    563.303     14.697    562.936    563.222    562.936    563.016    562.936
 17.570    549.329    563.042    -13.713    562.671    562.960    562.671    562.753    562.671
 17.670    579.000    562.782     16.218    562.406    562.695    562.406    562.492    562.406
 17.770    558.000    562.517     -4.517    562.138    562.428    562.138    562.227    562.138
 17.870    591.000    562.250     28.750    561.869    562.160    561.869    561.959    561.869
 17.970    542.000    561.981    -19.981    561.599    561.891    561.599    561.689    561.599
 18.070    546.000    561.711    -15.711    561.327    561.620    561.327    561.418    561.327
 18.170    577.000    561.440     15.560    561.054    561.348    561.054    561.146    561.054
 18.270    515.000    561.168    -46.168    560.780    561.076    560.780    560.872    560.780
 18.370    538.970    560.895    -21.924    560.504    560.802    560.504    560.597    560.504
 18.470    549.000    560.620    -11.620    560.226    560.527    560.226    560.320    560.226
 18.570    557.000    560.345     -3.345    559.948    560.250    559.948    560.042    559.948
 18.670    586.488    560.068     26.419    559.668    559.973    559.668    559.763    559.668
 18.770    543.000    559.791    -16.791    559.387    559.695    559.387    559.483    559.387
 18.870    585.106    559.513     25.592    559.105    559.417    559.105    559.201    559.105
 18.970    588.000    559.234     28.766    558.821    559.137    558.821    558.918    558.821
 19.070    570.000    558.954     11.046    558.537    558.856    558.537    558.635    558.537
 19.170    595.694    558.673     37.020    558.251    558.575    558.251    558.350    558.251
 19.270    549.000    558.392     -9.392    557.964    558.292    557.964    558.063    557.964
 19.370    561.000    558.109      2.891    557.676    558.009    557.676    557.776    557.676
 19.470    573.419    557.826     15.592    557.387    557.725    557.387    557.488    557.387
 19.570    588.000    557.542     30.458    557.097    557.440    557.097    557.199    557.097
 19.670    554.546    557.258     -2.712    556.806    557.155    556.806    556.909    556.806
 19.770    531.063    556.972    -25.910    556.514    556.869    556.514    556.618    556.514
 19.870    528.000    556.688    -28.688    556.221    556.583    556.221    556.326    556.221
 19.970    531.000    556.402    -25.402    555.927    556.297    555.927    556.033    555.927
 20.070    528.368    556.115    -27.747    555.632    556.009    555.632    555.739    555.632
 20.170    594.437    555.829     38.607    555.337    555.722    555.337    555.444    555.337
 20.270    551.000    555.555     -4.555    555.040    555.447    555.040    555.149    555.040
 20.370    519.113    555.277    -36.164    554.743    555.168    554.743    554.852    554.743
 20.470    569.000    554.990     14.010    554.445    554.879    554.445    554.555    554.445
 20.570    587.732    554.702     33.030    554.146    554.590    554.146    554.257    554.146
 20.670    541.810    554.413    -12.603    553.846    554.301    553.846    553.959    553.846
 20.770    553.000    554.125     -1.125    553.546    554.011    553.546    553.660    553.546
 20.870    520.000    553.836    -33.836    553.245    553.721    553.245    553.360    553.245
 20.970    547.000    553.548     -6.548    552.943    553.432    552.943    553.059    552.943
 21.070    573.897    553.260     20.638    552.641    553.142    552.641    552.758    552.641
 21.170    544.589    552.972     -8.383    552.338    552.853    552.338    552.456    552.338
 21.270    580.000    552.684     27.316    552.034    552.564    552.034    552.154    552.034
 21.370    550.000    552.397     -2.397    551.730    552.276    551.730    551.851    551.730
 21.470    525.102    552.121    -27.019    551.425    551.999    551.425    551.548    551.425
 21.570    585.000    551.946     33.054    551.120    551.821    551.120    551.244    551.120
 21.670    542.000    551.713     -9.713    550.814    551.588    550.814    550.940    550.814
 21.770    574.629    551.434     23.195    550.508    551.307    550.508    550.635    550.508
 21.870    576.450    551.155     25.295    550.201    551.024    550.201    550.332    550.201
 21.970    543.000    550.875     -7.875    549.894    550.742    549.894    550.027    549.894
 22.070    592.000    550.597     41.403    549.587    550.462    549.587    549.721    549.587
 22.170    578.000    550.320     27.680    549.279    550.184    549.279    549.415    549.279
 22.270    584.283    550.046     34.237    548.971    549.908    548.971    549.109    548.971
 22.370    512.814    549.775    -36.961    548.662    549.635    548.662    548.802    548.662
 22.470    582.000    549.512     32.488    548.353    549.370    548.353    548.495    548.353
 22.570    544.050    549.294     -5.245    548.044    549.151    548.044    548.188    548.044
 22.670    509.000    549.056    -40.056    547.734    548.911    547.734    547.880    547.734
 22.770    598.000    548.809     49.191    547.425    548.661    547.425    547.572    547.425
 22.870    571.000    548.563     22.437    547.115    548.413    547.115    547.265    547.115
 22.970    521.000    548.326    -27.326    546.804    548.174    546.804    546.957    546.804
 23.070    538.000    548.099    -10.099    546.494    547.945    546.494    546.649    546.494
 23.170    573.000    547.885     25.115    546.184    547.728    546.184    546.340    546.184
 23.270    529.000    547.686    -18.686    545.873    547.527    545.873    546.032    545.873
 23.370    542.000    547.508     -5.508    545.562    547.347    545.562    545.724    545.562
 23.470    537.000    547.356    -10.356    545.251    547.192    545.251    545.416    545.251
 23.570    510.000    547.240    -37.240    544.940    547.073    544.940    545.108    544.940
 23.670    507.815    547.171    -39.356    544.629    547.001    544.629    544.799    544.629
 23.770    568.000    547.163     20.837    544.318    546.991    544.318    544.491    544.318
 23.870    541.000    547.245     -6.245    544.007    547.070    544.007    544.183    544.007
 23.970    591.486    547.466     44.020    543.695    547.287    543.695    543.876    543.695
 24.070    565.000    547.938     17.062    543.384    547.757    543.384    543.568    543.384
 24.170    558.000    548.997      9.003    543.073    548.813    543.073    543.261    543.073
 24.270    505.096    551.597    -46.501    542.762    551.411    542.762    542.954    542.762
 24.370    580.000    557.872     22.128    542.451    557.687    542.451    542.647    542.451
 24.470    534.374    570.982    -36.608    542.140    570.801    542.140    542.340    542.140
 24.570    615.000    592.717     22.283    541.829    592.548    541.829    542.034    541.829
 24.670    629.000    618.877     10.123    541.519    618.722    541.519    541.728    541.519
 24.770    680.294    636.344     43.950    541.208    636.197    541.208    541.422    541.208
 24.870    626.000    632.090     -6.090    540.898    631.935    540.898    541.117    540.898
 24.970    563.637    609.634    -45.997    540.588    609.457    540.588    540.813    540.588
 25.070    564.335    583.633    -19.298    540.278    583.431    540.278    540.509    540.278
 25.170    591.354    564.203     27.151    539.968    563.981    539.968    540.206    539.968
 25.270    569.000    553.102     15.898    539.658    552.865    539.658    539.903    539.658
 25.370    568.000    547.759     20.241    539.349    547.511    539.349    539.601    539.349
 25.470    535.312    545.279     -9.968    539.040    545.022    539.040    539.300    539.040
 25.570    543.000    543.962     -0.962    538.732    543.697    538.732    538.999    538.732
 25.670    536.000    543.103     -7.103    538.423    542.828    538.423    538.700    538.423
 25.770    511.130    542.459    -31.328    538.115    542.174    538.115    538.401    538.115
 25.870    537.000    541.944     -4.944    537.808    541.648    537.808    538.104    537.808
 25.970    537.000    541.523     -4.523    537.500    541.216    537.500    537.808    537.500
 26.070    550.000    541.174      8.826    537.193    540.855    537.193    537.512    537.193
 26.170    537.000    540.887     -3.887    536.887    540.555    536.887    537.219    536.887
 26.270    539.000    540.653     -1.653    536.581    540.307    536.581    536.927    536.581
 26.370    527.000    540.473    -13.473    536.275    540.112    536.275    536.636    536.275
 26.470    492.421    540.369    -47.948    535.970    539.991    535.970    536.347    535.970
 26.570    522.000    540.317    -18.317    535.665    539.921    535.665    536.061    535.665
 26.670    537.000    540.304     -3.304    535.360    539.888    535.360    535.776    535.360
 26.770    557.000    540.360     16.640    535.057    539.922    535.057    535.494    535.057
 26.870    529.723    540.502    -10.779    534.753    540.040    534.753    535.215    534.753
 26.970    603.000    540.750     62.250    534.451    540.262    534.451    534.939    534.451
 27.070    550.744    541.138      9.606    534.148    540.619    534.148    534.666    534.148
 27.170    504.352    541.712    -37.360    533.847    541.160    533.847    534.398    533.847
 27.270    561.000    542.530     18.470    533.546    541.941    533.546    534.134    533.546
 27.370    546.000    543.686      2.314    533.245    543.054    533.245    533.875    533.245
 27.470    546.000    545.371      0.629    532.945    544.692    532.945    533.622    532.945
 27.570    547.743    548.019     -0.276    532.646    547.285    532.646    533.377    532.646
 27.670    553.054    553.202     -0.148    532.347    552.404    532.347    533.140    532.347
 27.770    527.560    565.819    -38.260    532.049    564.946    532.049    532.914    532.049
 27.870    612.513    597.419     15.094    531.752    596.453    531.752    532.699    531.752
 27.970    672.000    664.744      7.256    531.455    663.659    531.455    532.499    531.455
 28.070    746.572    773.898    -27.326    531.159    772.668    531.159    532.317    531.159
 28.170    885.000    894.286     -9.286    530.864    892.894    530.864    532.158    530.864
 28.270    998.196    953.705     44.492    530.569    952.152    530.569    532.027    530.569
 28.370    888.191    904.239    -16.048    530.275    902.520    530.275    531.933    530.275
 28.470    840.898    797.239     43.659    529.982    795.307    529.982    531.888    529.982
 28.570    716.000    713.855      2.145    529.690    711.622    529.690    531.910    529.690
 28.670    707.000    696.259     10.741    529.398    693.609    529.398    532.033    529.398
 28.770    686.492    740.614    -54.123    529.107    737.389    529.107    532.313    529.107
 28.870    760.000    808.178    -48.178    528.817    804.132    528.817    532.851    528.817
 28.970    824.550    840.028    -15.477    528.528    834.754    528.528    533.803    528.528
 29.070    747.270    800.932    -53.662    528.240    793.791    528.240    535.393    528.240
 29.170    756.611    721.378     35.233    527.952    711.466    527.952    537.876    527.952
 29.270    603.651    648.303    -44.652    527.666    634.509    527.666    541.467    527.666
 29.370    643.854    602.914     40.941    527.380    584.110    527.380    546.185    527.380
 29.470    604.000    582.772     21.228    527.095    558.284    527.095    551.582    527.095
 29.570    554.137    576.356    -22.219    526.811    546.818    526.811    556.346    526.811
 29.670    635.000    573.494     61.506    526.528    541.628    526.528    558.390    526.528
 29.770    597.000    568.999     28.001    526.245    538.814    526.245    556.427    526.245
 29.870    569.710    562.456      7.254    525.964    536.980    525.964    551.437    525.964
 29.970    603.000    555.497     47.503    525.684    535.690    525.684    545.488    525.684
 30.070    557.000    549.442      7.558    525.404    534.799    525.404    540.045    525.404
 30.170    522.000    544.835    -22.835    525.126    534.275    525.126    535.684    525.126
 30.270    497.148    541.830    -44.683    524.848    534.226    524.848    532.450    524.848
 30.370    561.000    540.678     20.322    524.572    535.092    524.572    530.153    524.572
