neutron_powder_diffraction_0098
R_wp: 3.992
Temperature (K): 879.789
Counts: 83730.00
Wavelength (Ã…): 2.52098
COMMENTS
Test file for demonstrating the .xyy file format in Reel1.0
END OF HEADER
   tth       Y_obs     Y_calc      Y_res    Background    Phase_1_Nuc    Phase_1_Mag    Phase_2_Nuc    Phase_2_Mag
  9.970    635.000    548.752     86.248    547.533    548.578    547.533    547.706    547.533
 10.070    654.000    549.368    104.632    548.061    549.193    548.061    548.236    548.061
 10.170    570.000    549.986     20.014    548.579    549.810    548.579    548.754    548.579
 10.270    516.575    550.607    -34.033    549.085    550.431    549.085    549.261    549.085
 10.370    582.152    551.236     30.917    549.580    551.058    549.580    549.756    549.580
 10.470    603.000    551.875     51.125    550.064    551.697    550.064    550.241    550.064
 10.570    563.314    552.531     10.783    550.536    552.352    550.536    550.715    550.536
 10.670    579.000    553.210     25.790    550.998    553.030    550.998    551.177    550.998
 10.770    575.000    553.921     21.079    551.450    553.740    551.450    551.629    551.450
 10.870    540.953    554.677    -13.724    551.890    554.495    551.890    552.071    551.890
 10.970    574.000    555.494     18.506    552.320    555.312    552.320    552.501    552.320
 11.070    581.000    556.397     24.603    552.740    556.213    552.740    552.921    552.740
 11.170    564.000    557.420      6.580    553.148    557.235    553.148    553.331    553.148
 11.270    576.000    558.616     17.384    553.547    558.430    553.547    553.730    553.547
 11.370    532.000    560.078    -28.078    553.935    559.890    553.935    554.119    553.935
 11.470    585.000    561.999     23.001    554.313    561.810    554.313    554.498    554.313
 11.570    626.000    564.832     61.168    554.681    564.641    554.681    554.867    554.681
 11.670    576.000    569.587      6.413    555.039    569.392    555.039    555.226    555.039
 11.770    585.000    578.161      6.839    555.387    577.962    555.387    555.575    555.387
 11.870    615.000    593.210     21.790    555.725    593.001    555.725    555.914    555.725
 11.970    663.200    616.786     46.414    556.054    616.564    556.054    556.243    556.054
 12.070    648.000    647.412      0.588    556.373    647.173    556.373    556.562    556.373
 12.170    646.698    676.249    -29.551    556.682    675.993    556.682    556.872    556.682
 12.270    687.000    687.208     -0.208    556.981    686.945    556.981    557.173    556.981
 12.370    636.000    671.660    -35.660    557.271    671.405    557.271    557.464    557.271
 12.470    605.000    641.504    -36.504    557.552    641.265    557.552    557.746    557.552
 12.570    616.000    612.425      3.575    557.824    612.201    557.824    558.018    557.824
 12.670    588.000    591.383     -3.383    558.086    591.170    558.086    558.281    558.086
 12.770    554.000    578.663    -24.663    558.339    578.456    558.339    558.535    558.339
 12.870    565.000    571.821     -6.821    558.584    571.617    558.584    558.781    558.584
 12.970    532.000    568.277    -36.277    558.819    568.074    558.819    559.017    558.819
 13.070    555.000    566.340    -11.340    559.045    566.137    559.045    559.244    559.045
 13.170    536.000    565.164    -29.164    559.263    564.961    559.263    559.463    559.263
 13.270    522.036    564.384    -42.348    559.472    564.181    559.472    559.672    559.472
 13.370    520.000    563.843    -43.843    559.672    563.639    559.672    559.874    559.672
 13.470    526.000    563.460    -37.460    559.864    563.256    559.864    560.066    559.864
 13.570    548.340    563.190    -14.850    560.047    562.985    560.047    560.251    560.047
 13.670    524.000    563.002    -39.002    560.222    562.796    560.222    560.426    560.222
 13.770    582.611    562.872     19.739    560.388    562.665    560.388    560.594    560.388
 13.870    554.000    562.786     -8.786    560.547    562.579    560.547    560.753    560.547
 13.970    580.000    562.733     17.267    560.697    562.525    560.697    560.904    560.697
 14.070    582.000    562.705     19.295    560.839    562.495    560.839    561.047    560.839
 14.170    587.000    562.694     24.306    560.973    562.484    560.973    561.183    560.973
 14.270    530.568    562.696    -32.128    561.099    562.485    561.099    561.310    561.099
 14.370    524.721    562.708    -37.988    561.217    562.496    561.217    561.429    561.217
 14.470    563.000    562.727      0.273    561.328    562.513    561.328    561.541    561.328
 14.570    535.000    562.749    -27.749    561.430    562.535    561.430    561.644    561.430
 14.670    576.000    562.775     13.225    561.526    562.559    561.526    561.741    561.526
 14.770    545.000    562.806    -17.806    561.613    562.589    561.613    561.829    561.613
 14.870    512.000    562.855    -50.855    561.693    562.638    561.693    561.910    561.693
 14.970    542.000    562.884    -20.884    561.766    562.666    561.766    561.984    561.766
 15.070    535.000    562.908    -27.908    561.831    562.688    561.831    562.051    561.831
 15.170    573.000    562.929     10.071    561.889    562.708    561.889    562.110    561.889
 15.270    547.000    562.956    -15.956    561.940    562.733    561.940    562.162    561.940
 15.370    509.000    563.025    -54.025    561.984    562.801    561.984    562.207    561.984
 15.470    517.000    563.113    -46.113    562.020    562.888    562.020    562.245    562.020
 15.570    519.000    563.126    -44.126    562.050    562.901    562.050    562.276    562.050
 15.670    567.000    563.128      3.872    562.073    562.901    562.073    562.300    562.073
 15.770    554.000    563.125     -9.125    562.089    562.897    562.089    562.317    562.089
 15.870    543.000    563.118    -20.118    562.098    562.888    562.098    562.327    562.098
 15.970    522.436    563.105    -40.670    562.100    562.875    562.100    562.331    562.100
 16.070    594.350    563.088     31.263    562.096    562.856    562.096    562.328    562.096
 16.170    519.430    563.065    -43.635    562.085    562.832    562.085    562.319    562.085
 16.270    600.167    563.038     37.129    562.068    562.803    562.068    562.303    562.068
 16.370    584.000    563.005     20.995    562.044    562.769    562.044    562.280    562.044
 16.470    563.000    562.967      0.033    562.014    562.729    562.014    562.252    562.014
 16.570    585.000    562.923     22.077    561.978    562.684    561.978    562.217    561.978
 16.670    558.000    562.875     -4.875    561.936    562.635    561.936    562.176    561.936
 16.770    523.715    562.821    -39.106    561.887    562.579    561.887    562.129    561.887
 16.870    582.000    562.762     19.238    561.832    562.519    561.832    562.075    561.832
 16.970    609.000    562.698     46.302    561.771    562.453    561.771    562.016    561.771
 17.070    574.000    562.628     11.372    561.704    562.382    561.704    561.951    561.704
 17.170    541.000    562.554    -21.554    561.632    562.306    561.632    561.880    561.632
 17.270    569.378    562.474      6.904    561.553    562.225    561.553    561.803    561.553
 17.370    566.383    562.393      3.990    561.469    562.142    561.469    561.720    561.469
 17.470    548.000    562.307    -14.307    561.379    562.054    561.379    561.632    561.379
 17.570    519.000    562.216    -43.216    561.284    561.962    561.284    561.538    561.284
 17.670    588.000    562.120     25.880    561.183    561.864    561.183    561.438    561.183
 17.770    556.000    562.051     -6.051    561.076    561.793    561.076    561.334    561.076
 17.870    511.000    561.980    -50.980    560.964    561.720    560.964    561.223    560.964
 17.970    568.000    561.869      6.131    560.847    561.608    560.847    561.108    560.847
 18.070    536.055    561.749    -25.694    560.724    561.487    560.724    560.987    560.724
 18.170    558.987    561.625     -2.638    560.596    561.361    560.596    560.861    560.596
 18.270    565.000    561.497      3.503    560.463    561.230    560.463    560.729    560.463
 18.370    582.229    561.363     20.866    560.324    561.095    560.324    560.593    560.324
 18.470    548.000    561.225    -13.225    560.181    560.955    560.181    560.451    560.181
 18.570    509.000    561.083    -52.083    560.033    560.811    560.033    560.305    560.033
 18.670    553.000    560.936     -7.936    559.879    560.662    559.879    560.154    559.879
 18.770    493.000    560.785    -67.785    559.721    560.508    559.721    559.998    559.721
 18.870    519.000    560.629    -41.629    559.558    560.351    559.558    559.837    559.558
 18.970    558.000    560.469     -2.469    559.391    560.189    559.391    559.671    559.391
 19.070    541.411    560.308    -18.898    559.218    560.026    559.218    559.501    559.218
 19.170    577.000    560.150     16.850    559.041    559.865    559.041    559.326    559.041
 19.270    549.000    559.978    -10.978    558.859    559.691    558.859    559.146    558.859
 19.370    580.016    559.802     20.214    558.673    559.513    558.673    558.962    558.673
 19.470    591.000    559.630     31.370    558.483    559.338    558.483    558.774    558.483
 19.570    574.000    559.500     14.500    558.288    559.206    558.288    558.581    558.288
 19.670    540.000    559.351    -19.351    558.088    559.055    558.088    558.385    558.088
 19.770    530.000    559.163    -29.163    557.885    558.865    557.885    558.183    557.885
 19.870    521.000    558.969    -37.969    557.677    558.667    557.677    557.978    557.677
 19.970    516.989    558.770    -41.782    557.465    558.467    557.465    557.768    557.465
 20.070    525.000    558.569    -33.569    557.248    558.262    557.248    557.555    557.248
 20.170    556.985    558.364     -1.379    557.028    558.055    557.028    557.337    557.028
 20.270    522.000    558.156    -36.156    556.804    557.844    556.804    557.116    556.804
 20.370    558.000    557.945      0.055    556.576    557.630    556.576    556.890    556.576
 20.470    542.000    557.730    -15.730    556.343    557.413    556.343    556.661    556.343
 20.570    558.000    557.513      0.487    556.108    557.193    556.108    556.428    556.108
 20.670    530.000    557.294    -27.294    555.868    556.971    555.868    556.191    555.868
 20.770    557.675    557.084      0.591    555.624    556.758    555.624    555.951    555.624
 20.870    517.275    556.882    -39.607    555.377    556.552    555.377    555.707    555.377
 20.970    568.946    556.657     12.289    555.126    556.324    555.126    555.460    555.126
 21.070    516.957    556.434    -39.477    554.872    556.098    554.872    555.209    554.872
 21.170    512.000    556.271    -44.271    554.614    555.931    554.614    554.954    554.614
 21.270    559.000    556.064      2.936    554.353    555.720    554.353    554.696    554.353
 21.370    555.000    555.847     -0.847    554.088    555.500    554.088    554.435    554.088
 21.470    522.686    555.618    -32.932    553.820    555.268    553.820    554.171    553.820
 21.570    543.000    555.386    -12.386    553.549    555.031    553.549    553.903    553.549
 21.670    573.987    555.172     18.816    553.274    554.813    553.274    553.633    553.274
 21.770    546.000    554.956     -8.956    552.996    554.594    552.996    553.359    552.996
 21.870    550.582    554.723     -4.141    552.715    554.356    552.715    553.082    552.715
 21.970    519.000    554.493    -35.493    552.431    554.122    552.431    552.802    552.431
 22.070    594.789    554.257     40.532    552.144    553.881    552.144    552.520    552.144
 22.170    556.000    554.035      1.965    551.854    553.655    551.854    552.234    551.854
 22.270    584.000    553.806     30.194    551.561    553.422    551.561    551.946    551.561
 22.370    578.298    553.573     24.725    551.265    553.184    551.265    551.654    551.265
 22.470    585.731    553.346     32.385    550.966    552.952    550.966    551.361    550.966
 22.570    586.000    553.123     32.877    550.664    552.723    550.664    551.064    550.664
 22.670    525.000    552.902    -27.902    550.360    552.497    550.360    550.765    550.360
 22.770    559.455    552.687      6.768    550.053    552.277    550.053    550.464    550.053
 22.870    519.100    552.484    -33.384    549.743    552.068    549.743    550.160    549.743
 22.970    560.000    552.290      7.710    549.431    551.868    549.431    549.853    549.431
 23.070    531.000    552.109    -21.109    549.116    551.681    549.116    549.544    549.116
 23.170    574.000    551.949     22.051    548.798    551.515    548.798    549.233    548.798
 23.270    560.000    551.806      8.194    548.478    551.365    548.478    548.920    548.478
 23.370    586.000    551.690     34.310    548.156    551.242    548.156    548.605    548.156
 23.470    535.000    551.610    -16.610    547.831    551.155    547.831    548.287    547.831
 23.570    584.491    551.577     32.915    547.504    551.115    547.504    547.968    547.504
 23.670    557.000    551.606      5.394    547.175    551.136    547.175    547.646    547.175
 23.770    588.761    551.721     37.040    546.843    551.244    546.843    547.323    546.843
 23.870    567.000    551.956     15.044    546.509    551.471    546.509    546.997    546.509
 23.970    550.000    552.366     -2.366    546.174    551.872    546.174    546.670    546.174
 24.070    557.000    553.072      3.928    545.836    552.569    545.836    546.342    545.836
 24.170    569.000    554.351     14.649    545.496    553.840    545.496    546.011    545.496
 24.270    580.000    556.822     23.178    545.153    556.303    545.153    545.679    545.153
 24.370    592.000    561.658     30.342    544.809    561.132    544.809    545.346    544.809
 24.470    587.000    570.544     16.456    544.463    570.013    544.463    545.011    544.463
 24.570    559.024    584.915    -25.891    544.116    584.384    544.116    544.675    544.116
 24.670    628.000    604.282     23.718    543.766    603.753    543.766    544.337    543.766
 24.770    659.000    623.789     35.211    543.414    623.261    543.414    543.999    543.414
 24.870    674.847    633.203     41.644    543.061    632.669    543.061    543.659    543.061
 24.970    577.701    625.273    -47.572    542.706    624.719    542.706    543.319    542.706
 25.070    604.286    606.000     -1.715    542.350    605.418    542.350    542.977    542.350
 25.170    616.319    585.749     30.570    541.991    585.136    541.991    542.635    541.991
 25.270    553.644    570.084    -16.440    541.632    569.442    541.632    542.292    541.632
 25.370    587.021    559.965     27.056    541.270    559.298    541.270    541.948    541.270
 25.470    588.000    554.124     33.876    540.907    553.435    540.907    541.604    540.907
 25.570    525.821    550.864    -25.044    540.543    550.153    540.543    541.260    540.543
 25.670    596.000    548.937     47.063    540.177    548.203    540.177    540.916    540.177
 25.770    590.000    547.661     42.339    539.810    546.903    539.810    540.571    539.810
 25.870    590.000    546.724     43.276    539.442    545.941    539.442    540.227    539.442
 25.970    548.000    545.993      2.007    539.072    545.184    539.072    539.883    539.072
 26.070    617.000    545.406     71.594    538.701    544.569    538.701    539.540    538.701
 26.170    577.000    544.931     32.069    538.329    544.063    538.329    539.197    538.329
 26.270    522.385    544.548    -22.163    537.955    543.648    537.955    538.856    537.955
 26.370    572.785    544.244     28.541    537.581    543.311    537.581    538.515    537.581
 26.470    548.000    544.017      3.983    537.205    543.046    537.205    538.177    537.205
 26.570    525.000    543.864    -18.864    536.828    542.853    536.828    537.840    536.828
 26.670    543.000    543.791     -0.791    536.450    542.737    536.450    537.505    536.450
 26.770    512.850    543.805    -30.955    536.071    542.704    536.071    537.173    536.071
 26.870    547.348    543.920      3.428    535.692    542.768    535.692    536.844    535.692
 26.970    563.000    544.156     18.844    535.311    542.948    535.311    536.519    535.311
 27.070    577.000    544.544     32.456    534.929    543.275    534.929    536.198    534.929
 27.170    592.725    545.126     47.599    534.547    543.790    534.547    535.882    534.547
 27.270    579.000    545.963     33.037    534.164    544.555    534.164    535.571    534.164
 27.370    573.000    547.151     25.849    533.779    545.663    533.779    535.267    533.779
 27.470    512.793    548.867    -36.074    533.395    547.290    533.395    534.970    533.395
 27.570    514.350    551.529    -37.179    533.009    549.855    533.009    534.681    533.009
 27.670    584.000    556.375     27.625    532.623    554.592    532.623    534.402    532.623
 27.770    606.000    566.880     39.120    532.236    564.974    532.236    534.134    532.236
 27.870    577.280    590.785    -13.505    531.849    588.739    531.849    533.878    531.849
 27.970    596.795    639.838    -43.043    531.461    637.630    531.461    533.636    531.461
 28.070    717.000    721.977     -4.977    531.072    719.585    531.072    533.409    531.072
 28.170    838.014    825.427     12.587    530.683    822.835    530.683    533.199    530.683
 28.270    896.000    907.494    -11.494    530.294    904.701    530.294    533.008    530.294
 28.370    921.138    917.645      3.492    529.904    914.653    529.904    532.838    529.904
 28.470    903.000    854.256     48.744    529.514    851.046    529.514    532.689    529.514
 28.570    789.000    771.930     17.070    529.123    768.469    529.123    532.565    529.123
 28.670    750.000    723.894     26.106    528.732    720.146    528.732    532.464    528.732
 28.770    734.000    728.208      5.792    528.340    724.144    528.340    532.388    528.340
 28.870    784.000    769.101     14.899    527.949    764.700    527.949    532.333    527.949
 28.970    815.000    808.029      6.971    527.557    803.281    527.557    532.296    527.557
 29.070    809.000    806.046      2.954    527.165    800.944    527.165    532.272    527.165
 29.170    730.554    757.007    -26.452    526.773    751.544    526.773    532.249    526.773
 29.270    709.000    688.898     20.102    526.380    683.078    526.380    532.214    526.380
 29.370    642.898    629.628     13.270    525.988    623.475    525.988    532.150    525.988
 29.470    583.000    589.880     -6.880    525.595    583.442    525.595    532.040    525.595
 29.570    600.000    567.605     32.395    525.202    560.949    525.202    531.862    525.202
 29.670    577.000    556.326     20.674    524.810    549.536    524.810    531.601    524.810
 29.770    571.956    550.529     21.427    524.417    543.702    524.417    531.246    524.417
 29.870    569.000    547.131     21.869    524.024    540.363    524.024    530.793    524.024
 29.970    600.000    544.808     55.192    523.632    538.192    523.632    530.248    523.632
 30.070    513.798    543.088    -29.290    523.239    536.703    523.239    529.625    523.239
 30.170    555.000    541.843     13.157    522.847    535.750    522.847    528.940    522.847
 30.270    607.000    541.140     65.860    522.455    535.381    522.455    528.212    522.455
 30.370    554.000    541.299     12.701    522.063    535.897    522.063    527.462    522.063
