neutron_powder_diffraction_0224
R_wp: 3.942
Temperature (K): 1074.000
Counts: 84020.00
Wavelength (Ã…): 2.52098
COMMENTS
Test file for demonstrating the .xyy file format in Reel1.0
END OF HEADER
   tth       Y_obs     Y_calc      Y_res    Background    Phase_1_Nuc    Phase_1_Mag    Phase_2_Nuc    Phase_2_Mag
  9.970    592.000    577.231     14.769    576.641    577.183    576.641    576.689    576.641
 10.070    625.000    577.302     47.698    576.647    577.253    576.647    576.695    576.647
 10.170    581.000    577.361      3.639    576.648    577.312    576.648    576.697    576.648
 10.270    589.000    577.421     11.579    576.644    577.372    576.644    576.693    576.644
 10.370    564.000    577.486    -13.486    576.636    577.436    576.636    576.684    576.636
 10.470    583.000    577.558      5.442    576.622    577.509    576.622    576.671    576.622
 10.570    551.707    577.642    -25.936    576.603    577.592    576.603    576.653    576.603
 10.670    569.000    577.746     -8.746    576.580    577.690    576.580    576.636    576.580
 10.770    536.679    577.866    -41.187    576.552    577.809    576.552    576.609    576.552
 10.870    579.000    578.013      0.987    576.520    577.955    576.520    576.576    576.520
 10.970    599.447    578.198     21.249    576.482    578.140    576.482    576.539    576.482
 11.070    583.000    578.436      4.564    576.440    578.378    576.440    576.498    576.440
 11.170    567.000    578.750    -11.750    576.394    578.691    576.394    576.451    576.394
 11.270    564.000    579.173    -15.173    576.343    579.113    576.343    576.401    576.343
 11.370    570.000    579.760     -9.760    576.287    579.700    576.287    576.345    576.287
 11.470    554.120    580.633    -26.513    576.227    580.572    576.227    576.286    576.227
 11.570    576.000    582.136     -6.136    576.163    582.074    576.163    576.222    576.163
 11.670    622.286    585.336     36.949    576.094    585.272    576.094    576.153    576.094
 11.770    593.406    592.986      0.420    576.021    592.917    576.021    576.081    576.021
 11.870    622.741    609.993     12.748    575.944    609.914    575.944    576.004    575.944
 11.970    632.000    640.744     -8.744    575.863    640.648    575.863    575.923    575.863
 12.070    700.473    681.710     18.763    575.777    681.590    575.777    575.838    575.777
 12.170    735.240    714.483     20.758    575.688    714.343    575.688    575.749    575.688
 12.270    673.000    715.473    -42.473    575.594    715.329    575.594    575.659    575.594
 12.370    668.423    683.677    -15.254    575.496    683.550    575.496    575.562    575.496
 12.470    602.996    642.284    -39.288    575.395    642.179    575.395    575.461    575.395
 12.570    601.000    610.570     -9.570    575.289    610.483    575.289    575.356    575.289
 12.670    600.487    592.737      7.750    575.180    592.659    575.180    575.247    575.180
 12.770    609.318    584.567     24.750    575.066    584.494    575.066    575.134    575.066
 12.870    587.000    581.052      5.948    574.949    580.980    574.949    575.018    574.949
 12.970    572.000    579.319     -7.319    574.828    579.248    574.828    574.897    574.828
 13.070    558.000    578.245    -20.245    574.704    578.174    574.704    574.773    574.704
 13.170    588.416    577.465     10.951    574.575    577.394    574.575    574.645    574.575
 13.270    609.563    576.856     32.707    574.444    576.785    574.444    574.513    574.444
 13.370    550.610    576.358    -25.748    574.308    576.287    574.308    574.378    574.308
 13.470    543.000    575.938    -32.938    574.169    575.866    574.169    574.240    574.169
 13.570    557.000    575.573    -18.573    574.027    575.501    574.027    574.098    574.027
 13.670    618.725    575.248     43.477    573.881    575.176    573.881    573.952    573.881
 13.770    562.209    574.953    -12.745    573.731    574.881    573.731    573.803    573.731
 13.870    550.226    574.681    -24.454    573.578    574.608    573.578    573.651    573.578
 13.970    592.000    574.424     17.576    573.422    574.351    573.422    573.495    573.422
 14.070    576.000    574.181      1.819    573.263    574.108    573.263    573.336    573.263
 14.170    591.000    573.947     17.053    573.100    573.873    573.100    573.174    573.100
 14.270    606.595    573.720     32.876    572.934    573.646    572.934    573.008    572.934
 14.370    601.311    573.498     27.813    572.765    573.424    572.765    572.839    572.765
 14.470    564.178    573.280     -9.103    572.593    573.206    572.593    572.668    572.593
 14.570    542.000    573.066    -31.066    572.418    572.991    572.418    572.493    572.418
 14.670    587.000    572.853     14.147    572.240    572.777    572.240    572.315    572.240
 14.770    520.000    572.641    -52.641    572.058    572.565    572.058    572.134    572.058
 14.870    555.000    572.432    -17.432    571.874    572.354    571.874    571.952    571.874
 14.970    556.000    572.221    -16.221    571.687    572.142    571.687    571.765    571.687
 15.070    573.317    572.010      1.307    571.497    571.931    571.497    571.575    571.497
 15.170    541.000    571.798    -30.798    571.304    571.719    571.304    571.383    571.304
 15.270    563.000    571.589     -8.589    571.108    571.509    571.108    571.187    571.108
 15.370    567.000    571.377     -4.377    570.909    571.297    570.909    570.989    570.909
 15.470    602.000    571.163     30.837    570.708    571.082    570.708    570.788    570.708
 15.570    540.143    570.947    -30.804    570.504    570.866    570.504    570.585    570.504
 15.670    536.000    570.730    -34.730    570.297    570.648    570.297    570.378    570.297
 15.770    612.787    570.511     42.277    570.088    570.429    570.088    570.170    570.088
 15.870    578.000    570.291      7.709    569.876    570.208    569.876    569.958    569.876
 15.970    544.000    570.069    -26.069    569.661    569.986    569.661    569.744    569.661
 16.070    587.000    569.845     17.155    569.444    569.761    569.444    569.527    569.444
 16.170    632.000    569.620     62.380    569.225    569.536    569.225    569.308    569.225
 16.270    523.000    569.392    -46.392    569.003    569.308    569.003    569.087    569.003
 16.370    601.034    569.163     31.870    568.778    569.078    568.778    568.863    568.778
 16.470    605.116    568.933     36.183    568.551    568.847    568.551    568.637    568.551
 16.570    573.222    568.700      4.522    568.322    568.614    568.322    568.408    568.322
 16.670    595.868    568.466     27.402    568.091    568.379    568.091    568.177    568.091
 16.770    506.000    568.230    -62.230    567.857    568.143    567.857    567.944    567.857
 16.870    599.717    567.992     31.725    567.621    567.904    567.621    567.709    567.621
 16.970    559.686    567.752     -8.066    567.383    567.664    567.383    567.471    567.383
 17.070    606.944    567.510     39.433    567.143    567.422    567.143    567.232    567.143
 17.170    584.183    567.267     16.915    566.900    567.178    566.900    566.990    566.900
 17.270    558.000    567.023     -9.023    566.656    566.932    566.656    566.746    566.656
 17.370    545.979    566.781    -20.802    566.409    566.685    566.409    566.505    566.409
 17.470    594.862    566.534     28.328    566.161    566.436    566.161    566.259    566.161
 17.570    605.000    566.284     38.716    565.910    566.185    565.910    566.009    565.910
 17.670    550.000    566.032    -16.032    565.657    565.932    565.657    565.757    565.657
 17.770    548.000    565.779    -17.779    565.403    565.678    565.403    565.503    565.403
 17.870    540.000    565.524    -25.524    565.147    565.423    565.147    565.248    565.147
 17.970    612.010    565.268     46.742    564.888    565.166    564.888    564.990    564.888
 18.070    597.000    565.012     31.988    564.628    564.909    564.628    564.731    564.628
 18.170    591.000    564.755     26.245    564.366    564.651    564.366    564.470    564.366
 18.270    553.434    564.494    -11.059    564.103    564.390    564.103    564.207    564.103
 18.370    522.819    564.231    -41.412    563.837    564.126    563.837    563.942    563.837
 18.470    560.000    563.967     -3.967    563.570    563.861    563.570    563.676    563.570
 18.570    541.423    563.701    -22.279    563.302    563.595    563.302    563.408    563.302
 18.670    565.000    563.435      1.565    563.031    563.327    563.031    563.138    563.031
 18.770    578.000    563.166     14.834    562.759    563.058    562.759    562.867    562.759
 18.870    600.000    562.897     37.103    562.486    562.788    562.486    562.594    562.486
 18.970    561.000    562.626     -1.626    562.211    562.517    562.211    562.320    562.211
 19.070    567.789    562.355      5.434    561.934    562.244    561.934    562.044    561.934
 19.170    538.000    562.081    -24.081    561.656    561.970    561.656    561.767    561.656
 19.270    567.993    561.807      6.186    561.376    561.695    561.376    561.489    561.376
 19.370    556.000    561.531     -5.531    561.095    561.418    561.095    561.209    561.095
 19.470    556.000    561.255     -5.255    560.813    561.141    560.813    560.927    560.813
 19.570    600.812    560.977     39.835    560.530    560.862    560.530    560.645    560.530
 19.670    528.000    560.699    -32.699    560.245    560.583    560.245    560.361    560.245
 19.770    544.000    560.419    -16.419    559.958    560.302    559.958    560.075    559.958
 19.870    533.527    560.139    -26.612    559.671    560.021    559.671    559.789    559.671
 19.970    556.000    559.857     -3.857    559.382    559.738    559.382    559.501    559.382
 20.070    533.000    559.575    -26.575    559.092    559.455    559.092    559.212    559.092
 20.170    523.000    559.292    -36.292    558.801    559.171    558.801    558.922    558.801
 20.270    567.468    559.009      8.459    558.508    558.886    558.508    558.631    558.508
 20.370    518.032    558.725    -40.692    558.215    558.601    558.215    558.338    558.215
 20.470    550.000    558.440     -8.440    557.920    558.315    557.920    558.045    557.920
 20.570    543.000    558.154    -15.154    557.625    558.029    557.625    557.751    557.625
 20.670    562.000    557.869      4.131    557.328    557.742    557.328    557.455    557.328
 20.770    551.000    557.583     -6.583    557.031    557.454    557.031    557.159    557.031
 20.870    511.471    557.298    -45.827    556.732    557.169    556.732    556.862    556.732
 20.970    589.156    557.025     32.131    556.432    556.894    556.432    556.563    556.432
 21.070    579.344    556.748     22.596    556.132    556.616    556.132    556.264    556.132
 21.170    534.112    556.462    -22.351    555.830    556.329    555.830    555.964    555.830
 21.270    535.000    556.176    -21.176    555.528    556.040    555.528    555.663    555.528
 21.370    566.000    555.889     10.111    555.225    555.752    555.225    555.362    555.225
 21.470    562.825    555.603      7.222    554.921    555.465    554.921    555.059    554.921
 21.570    542.000    555.326    -13.326    554.616    555.186    554.616    554.756    554.616
 21.670    549.000    555.129     -6.129    554.311    554.987    554.311    554.453    554.311
 21.770    515.562    554.891    -39.330    554.005    554.746    554.005    554.150    554.005
 21.870    590.612    554.640     35.972    553.698    554.492    553.698    553.846    553.698
 21.970    585.629    554.361     31.268    553.390    554.211    553.390    553.540    553.390
 22.070    522.000    554.081    -32.081    553.082    553.929    553.082    553.234    553.082
 22.170    508.000    553.802    -45.802    552.773    553.648    552.773    552.927    552.773
 22.270    568.000    553.526     14.474    552.464    553.370    552.464    552.619    552.464
 22.370    556.000    553.252      2.748    552.153    553.094    552.153    552.311    552.153
 22.470    584.000    552.981     31.019    551.843    552.821    551.843    552.003    551.843
 22.570    523.000    552.714    -29.714    551.532    552.552    551.532    551.694    551.532
 22.670    550.000    552.456     -2.456    551.220    552.291    551.220    551.384    551.220
 22.770    536.339    552.243    -15.904    550.908    552.077    550.908    551.074    550.908
 22.870    595.453    552.010     43.443    550.595    551.841    550.595    550.764    550.595
 22.970    507.366    551.769    -44.402    550.282    551.597    550.282    550.454    550.282
 23.070    584.000    551.535     32.465    549.969    551.361    549.969    550.143    549.969
 23.170    556.000    551.314      4.686    549.655    551.137    549.655    549.832    549.655
 23.270    621.000    551.107     69.893    549.340    550.928    549.340    549.520    549.340
 23.370    530.000    550.920    -20.920    549.026    550.738    549.026    549.209    549.026
 23.470    589.748    550.758     38.991    548.711    550.573    548.711    548.897    548.711
 23.570    572.000    550.630     21.370    548.396    550.441    548.396    548.585    548.396
 23.670    557.000    550.547      6.453    548.080    550.356    548.080    548.273    548.080
 23.770    575.668    550.522     25.146    547.765    550.327    547.765    547.960    547.765
 23.870    569.000    550.582     18.418    547.449    550.384    547.449    547.648    547.449
 23.970    548.000    550.773     -2.773    547.133    550.571    547.133    547.336    547.133
 24.070    512.920    551.199    -38.279    546.816    550.994    546.816    547.024    546.816
 24.170    504.556    552.174    -47.618    546.500    551.966    546.500    546.711    546.500
 24.270    586.000    554.621     31.379    546.183    554.410    546.183    546.399    546.183
 24.370    559.000    560.694     -1.694    545.867    560.483    545.867    546.087    545.867
 24.470    557.779    573.726    -15.947    545.550    573.519    545.550    545.775    545.550
 24.570    566.358    595.784    -29.426    545.233    595.588    545.233    545.463    545.233
 24.670    645.000    622.693     22.307    544.916    622.511    544.916    545.152    544.916
 24.770    606.649    640.789    -34.140    544.599    640.615    544.599    544.841    544.599
 24.870    605.289    636.347    -31.057    544.282    636.164    544.282    544.530    544.282
 24.970    585.000    613.130    -28.130    543.965    612.924    543.965    544.219    543.965
 25.070    540.888    586.473    -45.586    543.649    586.242    543.649    543.909    543.649
 25.170    551.000    566.865    -15.865    543.332    566.612    543.332    543.600    543.332
 25.270    535.000    555.908    -20.908    543.015    555.640    543.015    543.291    543.015
 25.370    593.595    550.756     42.839    542.698    550.476    542.698    542.982    542.698
 25.470    606.000    548.389     57.611    542.382    548.099    542.382    542.674    542.382
 25.570    564.476    547.126     17.351    542.065    546.826    542.065    542.367    542.065
 25.670    529.000    546.292    -17.292    541.749    545.982    541.749    542.061    541.749
 25.770    547.000    545.662      1.338    541.433    545.340    541.433    541.756    541.433
 25.870    584.000    545.155     38.845    541.117    544.822    541.117    541.451    541.117
 25.970    571.000    544.738     26.262    540.802    544.392    540.802    541.148    540.802
 26.070    577.000    544.388     32.612    540.486    544.029    540.486    540.846    540.486
 26.170    583.000    544.097     38.903    540.171    543.724    540.171    540.545    540.171
 26.270    541.612    543.858     -2.247    539.856    543.469    539.856    540.246    539.856
 26.370    561.000    543.669     17.331    539.542    543.262    539.542    539.949    539.542
 26.470    555.000    543.529     11.471    539.228    543.103    539.228    539.653    539.228
 26.570    587.000    543.445     43.555    538.914    542.999    538.914    539.360    538.914
 26.670    550.000    543.445      6.555    538.600    542.976    538.600    539.068    538.600
 26.770    512.000    543.511    -31.511    538.287    543.018    538.287    538.780    538.287
 26.870    513.303    543.639    -30.337    537.974    543.119    537.974    538.494    537.974
 26.970    579.000    543.870     35.130    537.662    543.319    537.662    538.212    537.662
 27.070    618.000    544.233     73.767    537.350    543.649    537.350    537.933    537.350
 27.170    543.000    544.770     -1.770    537.038    544.149    537.038    537.659    537.038
 27.270    564.000    545.543     18.457    536.727    544.879    536.727    537.390    536.727
 27.370    580.000    546.646     33.354    536.416    545.935    536.416    537.126    536.416
 27.470    528.000    548.260    -20.260    536.106    547.495    536.106    536.869    536.106
 27.570    508.169    550.834    -42.665    535.797    550.007    535.797    536.621    535.797
 27.670    581.080    555.897     25.183    535.488    554.999    535.488    536.381    535.488
 27.770    563.000    568.345     -5.345    535.179    567.363    535.179    536.153    535.179
 27.870    593.278    599.863     -6.586    534.871    598.778    534.871    535.938    534.871
 27.970    669.000    667.733      1.267    534.564    666.517    534.564    535.740    534.564
 28.070    760.000    778.559    -18.559    534.257    777.183    534.257    535.561    534.257
 28.170    874.000    901.203    -27.203    533.950    899.649    533.950    535.408    533.950
 28.270   1010.769    961.736     49.033    533.645    960.000    533.645    535.287    533.645
 28.370    878.013    911.139    -33.126    533.340    909.213    533.340    535.207    533.340
 28.470    846.000    801.864     44.136    533.036    799.694    533.036    535.181    533.036
 28.570    749.192    716.972     32.219    532.732    714.461    532.732    535.232    532.732
 28.670    737.000    699.626     37.374    532.429    696.645    532.429    535.395    532.429
 28.770    732.000    745.764    -13.764    532.127    742.136    532.127    535.736    532.127
 28.870    854.000    815.587     38.413    531.825    811.034    531.825    536.366    531.825
 28.970    901.563    848.646     52.917    531.524    842.716    531.524    537.458    531.524
 29.070    790.000    808.850    -18.850    531.224    800.833    531.224    539.255    531.224
 29.170    690.000    727.631    -37.631    530.925    716.534    530.925    542.036    530.925
 29.270    653.000    653.332     -0.332    530.626    637.937    530.626    546.030    530.626
 29.370    550.000    607.693    -57.693    530.329    586.772    530.329    551.253    530.329
 29.470    619.000    587.961     31.039    530.032    560.787    530.032    557.206    530.032
 29.570    605.460    582.077     23.383    529.736    549.365    529.736    562.447    529.736
 29.670    583.000    579.490      3.510    529.440    544.228    529.440    564.700    529.440
 29.770    609.000    574.865     34.135    529.146    541.443    529.146    562.566    529.146
 29.870    522.722    567.880    -45.159    528.852    539.622    528.852    557.109    528.852
 29.970    515.657    560.359    -44.702    528.560    538.332    528.560    550.584    528.560
 30.070    546.000    553.763     -7.763    528.268    537.431    528.268    544.599    528.268
 30.170    558.000    548.703      9.297    527.977    536.887    527.977    539.791    527.977
 30.270    549.000    545.337      3.663    527.687    536.805    527.687    536.217    527.687
 30.370    563.000    543.886     19.114    527.398    537.607    527.398    533.673    527.398
