neutron_powder_diffraction_0212
R_wp: 4.209
Temperature (K): 1074.000
Counts: 83811.00
Wavelength (Ã…): 2.52098
COMMENTS
Test file for demonstrating the .xyy file format in Reel1.0
END OF HEADER
   tth       Y_obs     Y_calc      Y_res    Background    Phase_1_Nuc    Phase_1_Mag    Phase_2_Nuc    Phase_2_Mag
  9.970    577.000    573.703      3.297    573.018    573.633    573.018    573.088    573.018
 10.070    561.777    573.743    -11.966    573.003    573.673    573.003    573.073    573.003
 10.170    538.219    573.788    -35.569    572.983    573.717    572.983    573.054    572.983
 10.270    611.000    573.853     37.147    572.959    573.782    572.959    573.030    572.959
 10.370    616.000    573.912     42.088    572.930    573.841    572.930    573.001    572.930
 10.470    570.000    573.979     -3.979    572.897    573.907    572.897    572.969    572.897
 10.570    619.026    574.061     44.965    572.860    573.987    572.860    572.933    572.860
 10.670    601.909    574.160     27.750    572.818    574.085    572.818    572.892    572.818
 10.770    590.000    574.283     15.717    572.772    574.208    572.772    572.847    572.772
 10.870    595.738    574.440     21.299    572.722    574.364    572.722    572.797    572.722
 10.970    547.884    574.642    -26.758    572.668    574.566    572.668    572.743    572.668
 11.070    596.000    574.906     21.094    572.610    574.830    572.610    572.685    572.610
 11.170    600.000    575.258     24.742    572.548    575.181    572.548    572.623    572.548
 11.270    585.428    575.736      9.692    572.481    575.659    572.481    572.557    572.481
 11.370    595.000    576.406     18.594    572.411    576.328    572.411    572.487    572.411
 11.470    607.000    577.414     29.586    572.337    577.335    572.337    572.413    572.337
 11.570    575.853    579.163     -3.309    572.259    579.082    572.259    572.335    572.259
 11.670    607.000    582.795     24.205    572.177    582.712    572.177    572.254    572.177
 11.770    667.000    590.958     76.042    572.091    590.870    572.091    572.168    572.091
 11.870    639.000    607.910     31.090    572.001    607.812    572.001    572.079    572.001
 11.970    644.000    636.941      7.059    571.908    636.827    571.908    571.986    571.908
 12.070    634.483    674.297    -39.814    571.811    674.162    571.811    571.890    571.811
 12.170    714.000    703.653     10.347    571.710    703.501    571.710    571.789    571.710
 12.270    698.404    704.511     -6.106    571.606    704.358    571.606    571.685    571.606
 12.370    610.000    676.003    -66.003    571.498    675.865    571.498    571.578    571.498
 12.470    629.000    638.272     -9.272    571.387    638.155    571.387    571.467    571.387
 12.570    602.000    608.374     -6.374    571.272    608.273    571.272    571.353    571.272
 12.670    572.000    590.633    -18.633    571.154    590.542    571.154    571.235    571.154
 12.770    564.000    581.933    -17.933    571.033    581.846    571.033    571.114    571.033
 12.870    551.806    577.954    -26.147    570.908    577.868    570.908    570.989    570.908
 12.970    544.000    575.946    -31.946    570.779    575.862    570.779    570.861    570.779
 13.070    575.000    574.712      0.288    570.648    574.628    570.648    570.730    570.648
 13.170    579.000    573.827      5.173    570.513    573.742    570.513    570.596    570.513
 13.270    559.134    573.139    -14.005    570.375    573.055    570.375    570.458    570.375
 13.370    533.000    572.581    -39.581    570.234    572.496    570.234    570.317    570.234
 13.470    573.000    572.112      0.888    570.090    572.027    570.090    570.174    570.090
 13.570    529.000    571.708    -42.708    569.942    571.623    569.942    570.027    569.942
 13.670    542.101    571.352    -29.251    569.792    571.266    569.792    569.877    569.792
 13.770    538.843    571.030    -32.187    569.638    570.944    569.638    569.724    569.638
 13.870    527.000    570.735    -43.735    569.482    570.648    569.482    569.568    569.482
 13.970    560.141    570.465    -10.324    569.323    570.373    569.323    569.414    569.323
 14.070    606.546    570.207     36.339    569.160    570.113    569.160    569.254    569.160
 14.170    575.641    569.959      5.681    568.995    569.864    568.995    569.090    568.995
 14.270    578.190    569.720      8.470    568.827    569.625    568.827    568.922    568.827
 14.370    541.000    569.489    -28.489    568.657    569.393    568.657    568.752    568.657
 14.470    566.466    569.262     -2.796    568.483    569.166    568.483    568.579    568.483
 14.570    564.000    569.040     -5.040    568.307    568.943    568.307    568.403    568.307
 14.670    575.382    568.821      6.561    568.128    568.723    568.128    568.225    568.128
 14.770    576.000    568.604      7.396    567.946    568.506    567.946    568.044    567.946
 14.870    534.000    568.388    -34.388    567.762    568.290    567.762    567.860    567.762
 14.970    544.010    568.177    -24.167    567.576    568.078    567.576    567.674    567.576
 15.070    520.000    567.965    -47.965    567.386    567.865    567.386    567.485    567.386
 15.170    573.000    567.751      5.249    567.194    567.651    567.194    567.294    567.194
 15.270    539.000    567.537    -28.537    567.000    567.437    567.000    567.100    567.000
 15.370    606.898    567.323     39.575    566.804    567.222    566.804    566.904    566.804
 15.470    566.000    567.108     -1.108    566.604    567.007    566.604    566.706    566.604
 15.570    551.348    566.893    -15.545    566.403    566.791    566.403    566.505    566.403
 15.670    564.000    566.677     -2.677    566.199    566.574    566.199    566.302    566.199
 15.770    531.481    566.459    -34.979    565.993    566.356    565.993    566.096    565.993
 15.870    608.000    566.241     41.759    565.785    566.137    565.785    565.888    565.785
 15.970    559.000    566.021     -7.021    565.574    565.917    565.574    565.678    565.574
 16.070    536.514    565.801    -29.287    565.362    565.696    565.362    565.466    565.362
 16.170    547.000    565.578    -18.578    565.147    565.473    565.147    565.252    565.147
 16.270    560.000    565.355     -5.355    564.930    565.249    564.930    565.036    564.930
 16.370    539.000    565.130    -26.130    564.710    565.023    564.710    564.817    564.710
 16.470    508.000    564.904    -56.904    564.489    564.796    564.489    564.596    564.489
 16.570    564.000    564.676     -0.676    564.266    564.568    564.266    564.374    564.266
 16.670    530.000    564.447    -34.447    564.041    564.338    564.041    564.149    564.041
 16.770    556.000    564.217     -8.217    563.813    564.108    563.813    563.923    563.813
 16.870    611.368    563.987     47.381    563.584    563.877    563.584    563.694    563.584
 16.970    542.000    563.754    -21.754    563.353    563.643    563.353    563.464    563.353
 17.070    596.063    563.519     32.544    563.120    563.407    563.120    563.232    563.120
 17.170    569.000    563.282      5.718    562.886    563.170    562.886    562.998    562.886
 17.270    605.725    563.045     42.681    562.649    562.932    562.649    562.762    562.649
 17.370    561.432    562.805     -1.373    562.411    562.692    562.411    562.524    562.411
 17.470    588.000    562.565     25.435    562.170    562.451    562.170    562.285    562.170
 17.570    565.763    562.323      3.440    561.929    562.208    561.929    562.044    561.929
 17.670    590.000    562.082     27.918    561.685    561.966    561.685    561.801    561.685
 17.770    591.315    561.838     29.476    561.440    561.722    561.440    561.556    561.440
 17.870    564.000    561.592      2.408    561.193    561.475    561.193    561.311    561.193
 17.970    555.000    561.345     -6.345    560.945    561.227    560.945    561.063    560.945
 18.070    533.000    561.096    -28.096    560.695    560.978    560.695    560.814    560.695
 18.170    549.000    560.847    -11.847    560.443    560.727    560.443    560.563    560.443
 18.270    586.682    560.596     26.086    560.190    560.475    560.190    560.311    560.190
 18.370    554.000    560.343     -6.343    559.936    560.222    559.936    560.057    559.936
 18.470    535.243    560.090    -24.847    559.680    559.968    559.680    559.802    559.680
 18.570    577.000    559.835     17.165    559.423    559.712    559.423    559.546    559.423
 18.670    553.000    559.580     -6.580    559.164    559.456    559.164    559.288    559.164
 18.770    579.536    559.323     20.212    558.904    559.198    558.904    559.029    558.904
 18.870    574.648    559.065     15.582    558.642    558.939    558.642    558.769    558.642
 18.970    552.000    558.807     -6.807    558.380    558.679    558.380    558.507    558.380
 19.070    551.989    558.549     -6.560    558.116    558.419    558.116    558.246    558.116
 19.170    563.000    558.290      4.710    557.850    558.157    557.850    557.983    557.850
 19.270    593.902    558.028     35.874    557.584    557.894    557.584    557.718    557.584
 19.370    603.000    557.767     45.233    557.316    557.632    557.316    557.451    557.316
 19.470    542.000    557.505    -15.505    557.048    557.369    557.048    557.183    557.048
 19.570    551.000    557.241     -6.241    556.778    557.104    556.778    556.915    556.778
 19.670    562.451    556.976      5.474    556.507    556.838    556.507    556.645    556.507
 19.770    545.000    556.711    -11.711    556.234    556.571    556.234    556.374    556.234
 19.870    529.000    556.444    -27.444    555.961    556.304    555.961    556.102    555.961
 19.970    524.000    556.177    -32.177    555.687    556.036    555.687    555.829    555.687
 20.070    573.000    555.910     17.090    555.412    555.767    555.412    555.555    555.412
 20.170    512.000    555.642    -43.642    555.135    555.498    555.135    555.280    555.135
 20.270    587.000    555.375     31.625    554.858    555.229    554.858    555.004    554.858
 20.370    577.000    555.119     21.881    554.580    554.972    554.580    554.727    554.580
 20.470    573.515    554.860     18.655    554.301    554.711    554.301    554.449    554.301
 20.570    512.000    554.591    -42.591    554.021    554.441    554.021    554.171    554.021
 20.670    557.000    554.321      2.679    553.741    554.170    553.741    553.892    553.741
 20.770    539.000    554.051    -15.051    553.459    553.899    553.459    553.612    553.459
 20.870    534.000    553.782    -19.782    553.177    553.628    553.177    553.331    553.177
 20.970    575.000    553.512     21.488    552.894    553.356    552.894    553.049    552.894
 21.070    579.980    553.242     26.739    552.610    553.085    552.610    552.767    552.610
 21.170    575.000    552.972     22.028    552.325    552.813    552.325    552.484    552.325
 21.270    588.533    552.703     35.830    552.040    552.542    552.040    552.201    552.040
 21.370    532.450    552.434    -19.984    551.754    552.272    551.754    551.916    551.754
 21.470    525.000    552.165    -27.165    551.467    552.002    551.467    551.631    551.467
 21.570    528.000    551.898    -23.898    551.180    551.732    551.180    551.346    551.180
 21.670    563.000    551.631     11.369    550.892    551.463    550.892    551.060    550.892
 21.770    543.000    551.365     -8.365    550.604    551.196    550.604    550.774    550.604
 21.870    596.000    551.101     44.899    550.315    550.929    550.315    550.487    550.315
 21.970    595.000    550.838     44.162    550.026    550.664    550.026    550.199    550.026
 22.070    527.504    550.576    -23.072    549.736    550.401    549.736    549.911    549.736
 22.170    601.000    550.317     50.683    549.445    550.139    549.445    549.623    549.445
 22.270    538.000    550.061    -12.061    549.154    549.881    549.154    549.335    549.154
 22.370    514.519    549.815    -35.296    548.863    549.633    548.863    549.046    548.863
 22.470    537.000    549.645    -12.645    548.571    549.460    548.571    548.756    548.571
 22.570    589.840    549.422     40.419    548.279    549.234    548.279    548.466    548.279
 22.670    499.000    549.202    -50.202    547.986    549.013    547.986    548.177    547.986
 22.770    530.000    548.994    -18.994    547.693    548.802    547.693    547.886    547.693
 22.870    511.243    548.776    -37.533    547.400    548.581    547.400    547.596    547.400
 22.970    553.000    548.606      4.394    547.107    548.408    547.107    547.305    547.107
 23.070    546.000    548.418     -2.418    546.813    548.217    546.813    547.014    546.813
 23.170    512.425    548.227    -35.801    546.519    548.022    546.519    546.724    546.519
 23.270    568.000    548.051     19.949    546.225    547.844    546.225    546.432    546.225
 23.370    553.778    547.898      5.880    545.930    547.688    545.930    546.141    545.930
 23.470    555.269    547.773      7.495    545.635    547.559    545.635    545.850    545.635
 23.570    533.000    547.686    -14.686    545.340    547.468    545.340    545.559    545.340
 23.670    585.000    547.648     37.352    545.045    547.427    545.045    545.268    545.045
 23.770    572.000    547.680     24.320    544.750    547.455    544.750    544.977    544.750
 23.870    558.793    547.810     10.983    544.455    547.581    544.455    544.685    544.455
 23.970    526.000    548.092    -22.092    544.159    547.859    544.159    544.394    544.159
 24.070    566.341    548.656     17.686    543.864    548.419    543.864    544.104    543.864
 24.170    502.650    549.861    -47.212    543.568    549.620    543.568    543.813    543.568
 24.270    564.000    552.665     11.335    543.273    552.422    543.273    543.522    543.273
 24.370    535.646    559.077    -23.431    542.977    558.833    542.977    543.232    542.977
 24.470    585.243    571.871     13.372    542.682    571.631    542.682    542.942    542.682
 24.570    624.808    592.418     32.391    542.386    592.186    542.386    542.652    542.386
 24.670    619.359    616.707      2.652    542.091    616.487    542.091    542.363    542.091
 24.770    616.000    632.794    -16.794    541.795    632.580    541.795    542.074    541.795
 24.870    592.000    628.849    -36.849    541.500    628.625    541.500    541.786    541.500
 24.970    560.145    608.089    -47.943    541.204    607.843    541.204    541.498    541.204
 25.070    586.000    583.787      2.213    540.909    583.516    540.909    541.211    540.909
 25.170    600.642    565.233     35.408    540.614    564.940    540.614    540.924    540.614
 25.270    531.000    554.267    -23.267    540.319    553.957    540.319    540.638    540.319
 25.370    534.856    548.765    -13.909    540.025    548.442    540.025    540.353    540.025
 25.470    577.377    546.112     31.265    539.730    545.777    539.730    540.068    539.730
 25.570    547.000    544.697      2.303    539.436    544.351    539.436    539.785    539.436
 25.670    604.000    543.787     60.213    539.142    543.428    539.142    539.502    539.142
 25.770    500.000    543.108    -43.108    538.848    542.737    538.848    539.220    538.848
 25.870    533.000    542.560     -9.560    538.555    542.176    538.555    538.940    538.555
 25.970    520.000    542.106    -22.106    538.261    541.707    538.261    538.661    538.261
 26.070    537.398    541.728     -4.329    537.968    541.313    537.968    538.384    537.968
 26.170    522.689    541.411    -18.722    537.676    540.979    537.676    538.108    537.676
 26.270    573.000    541.144     31.856    537.383    540.695    537.383    537.833    537.383
 26.370    530.000    540.928    -10.928    537.092    540.459    537.092    537.561    537.092
 26.470    582.417    540.759     41.658    536.800    540.268    536.800    537.291    536.800
 26.570    531.000    540.636     -9.636    536.509    540.122    536.509    537.023    536.509
 26.670    564.780    540.567     24.213    536.218    540.027    536.218    536.758    536.218
 26.770    499.000    540.582    -41.582    535.927    540.014    535.927    536.495    535.927
 26.870    578.000    540.665     37.335    535.638    540.065    535.638    536.237    535.638
 26.970    537.000    540.812     -3.812    535.348    540.178    535.348    535.981    535.348
 27.070    554.000    541.067     12.933    535.059    540.395    535.059    535.731    535.059
 27.170    513.893    541.465    -27.573    534.770    540.750    534.770    535.485    534.770
 27.270    532.404    542.057     -9.654    534.482    541.294    534.482    535.245    534.482
 27.370    608.000    542.921     65.079    534.195    542.103    534.195    535.011    534.195
 27.470    582.414    544.184     38.230    533.908    543.305    533.908    534.785    533.908
 27.570    576.254    546.219     30.035    533.621    545.271    533.621    534.568    533.621
 27.670    555.000    550.308      4.692    533.335    549.279    533.335    534.361    533.335
 27.770    529.528    560.908    -31.380    533.050    559.783    533.050    534.167    533.050
 27.870    617.000    589.937     27.063    532.765    588.697    532.765    533.989    532.765
 27.970    654.000    656.621     -2.621    532.481    655.237    532.481    533.828    532.481
 28.070    815.366    770.321     45.045    532.197    768.759    532.197    533.690    532.197
 28.170    894.000    898.759     -4.759    531.914    896.996    531.914    533.581    531.914
 28.270    920.000    962.194    -42.194    531.632    960.226    531.632    533.507    531.632
 28.370    911.000    907.976      3.024    531.350    905.791    531.350    533.479    531.350
 28.470    786.000    791.729     -5.729    531.069    789.263    531.069    533.514    531.069
 28.570    704.000    702.452      1.548    530.789    699.595    530.789    533.638    530.789
 28.670    685.000    685.406     -0.406    530.509    682.010    530.509    533.892    530.509
 28.770    693.072    734.776    -41.704    530.230    730.644    530.230    534.345    530.230
 28.870    766.000    808.238    -42.238    529.952    803.078    529.952    535.102    529.952
 28.970    770.000    843.274    -73.274    529.675    836.643    529.675    536.311    529.675
 29.070    805.000    803.130      1.870    529.398    794.389    529.398    538.155    529.398
 29.170    675.000    720.450    -45.450    529.122    708.765    529.122    540.823    529.122
 29.270    599.000    645.368    -46.368    528.847    629.782    528.847    544.442    528.847
 29.370    646.550    600.036     46.514    528.573    579.654    528.573    548.958    528.573
 29.470    602.000    580.781     21.219    528.299    555.179    528.299    553.901    528.299
 29.570    543.069    574.990    -31.921    528.026    544.922    528.026    558.093    528.026
 29.670    610.738    572.566     38.171    527.754    540.488    527.754    559.831    527.754
 29.770    611.000    568.756     42.244    527.483    538.121    527.483    558.117    527.483
 29.870    568.000    563.068      4.932    527.213    536.577    527.213    553.702    527.213
 29.970    574.000    556.810     17.190    526.944    535.489    526.944    548.264    526.944
 30.070    555.891    551.156      4.735    526.675    534.740    526.675    543.090    526.675
 30.170    556.000    546.662      9.338    526.408    534.308    526.408    538.760    526.408
 30.270    584.000    543.544     40.456    526.141    534.295    526.141    535.387    526.141
 30.370    564.867    542.113     22.755    525.875    535.119    525.875    532.865    525.875
