neutron_powder_diffraction_0085
R_wp: 4.477
Temperature (K): 817.758
Counts: 83342.00
Wavelength (Ã…): 2.52098
COMMENTS
Test file for demonstrating the .xyy file format in Reel1.0
END OF HEADER
   tth       Y_obs     Y_calc      Y_res    Background    Phase_1_Nuc    Phase_1_Mag    Phase_2_Nuc    Phase_2_Mag
  9.970    621.000    570.583     50.417    569.474    570.582    569.474    569.474    569.474
 10.070    643.000    571.191     71.809    569.993    571.190    569.993    569.993    569.993
 10.170    633.000    571.800     61.200    570.501    571.800    570.501    570.501    570.501
 10.270    629.000    572.415     56.585    570.998    572.414    570.998    570.998    570.998
 10.370    556.782    573.036    -16.254    571.485    573.036    571.485    571.485    571.485
 10.470    592.707    573.671     19.036    571.961    573.670    571.961    571.961    571.961
 10.570    583.000    574.325      8.675    572.426    574.324    572.426    572.426    572.426
 10.670    523.875    575.000    -51.125    572.881    574.999    572.881    572.881    572.881
 10.770    653.000    575.707     77.293    573.326    575.706    573.326    573.326    573.326
 10.870    595.789    576.461     19.328    573.761    576.459    573.761    573.761    573.761
 10.970    579.216    577.276      1.940    574.186    577.274    574.186    574.186    574.186
 11.070    617.441    578.177     39.265    574.600    578.175    574.600    574.600    574.600
 11.170    625.000    579.197     45.803    575.005    579.194    575.005    575.005    575.005
 11.270    584.000    580.386      3.614    575.399    580.384    575.399    575.399    575.399
 11.370    617.000    581.831     35.169    575.784    581.828    575.784    575.784    575.784
 11.470    619.000    583.700     35.300    576.159    583.696    576.159    576.159    576.159
 11.570    596.497    586.395     10.102    576.524    586.389    576.524    576.524    576.524
 11.670    618.000    590.881     27.119    576.880    590.874    576.880    576.880    576.880
 11.770    549.429    599.231    -49.802    577.226    599.219    577.226    577.226    577.226
 11.870    666.000    614.288     51.712    577.563    614.268    577.563    577.563    577.563
 11.970    666.000    639.037     26.963    577.891    639.004    577.891    577.891    577.891
 12.070    646.502    673.049    -26.547    578.209    672.997    578.209    578.209    578.209
 12.170    681.000    707.754    -26.754    578.518    707.684    578.518    578.518    578.518
 12.270    717.000    724.300     -7.300    578.818    724.220    578.818    578.818    578.818
 12.370    639.000    709.577    -70.577    579.108    709.506    579.108    579.108    579.108
 12.470    607.000    675.911    -68.911    579.390    675.858    579.390    579.390    579.390
 12.570    622.205    642.256    -20.051    579.663    642.222    579.663    579.663    579.663
 12.670    613.000    617.638     -4.638    579.927    617.618    579.927    579.927    579.927
 12.770    609.490    602.801      6.690    580.182    602.788    580.182    580.182    580.182
 12.870    564.000    594.920    -30.920    580.428    594.912    580.428    580.428    580.428
 12.970    509.000    590.907    -81.907    580.666    590.901    580.666    580.666    580.666
 13.070    555.000    588.747    -33.747    580.896    588.743    580.896    580.896    580.896
 13.170    619.000    587.448     31.552    581.116    587.444    581.116    581.116    581.116
 13.270    567.000    586.602    -19.602    581.329    586.600    581.329    581.329    581.329
 13.370    550.000    586.020    -36.020    581.533    586.018    581.533    581.533    581.533
 13.470    576.000    585.599     -9.599    581.729    585.597    581.729    581.729    581.729
 13.570    561.000    585.299    -24.299    581.916    585.298    581.916    581.916    581.916
 13.670    623.281    585.089     38.192    582.096    585.087    582.096    582.096    582.096
 13.770    581.496    584.943     -3.447    582.267    584.942    582.267    582.267    582.267
 13.870    575.000    584.846     -9.846    582.431    584.845    582.431    582.431    582.431
 13.970    615.533    584.785     30.748    582.586    584.784    582.586    582.586    582.586
 14.070    610.782    584.751     26.031    582.734    584.750    582.734    582.734    582.734
 14.170    562.000    584.737    -22.737    582.874    584.736    582.874    582.874    582.874
 14.270    571.000    584.738    -13.738    583.006    584.737    583.006    583.006    583.006
 14.370    534.000    584.750    -50.750    583.131    584.749    583.131    583.131    583.131
 14.470    583.000    584.772     -1.772    583.248    584.772    583.248    583.248    583.248
 14.570    578.000    584.800     -6.800    583.357    584.799    583.357    583.357    583.357
 14.670    565.601    584.828    -19.227    583.459    584.827    583.459    583.459    583.459
 14.770    584.000    584.858     -0.858    583.554    584.857    583.554    583.554    583.554
 14.870    574.000    584.888    -10.888    583.641    584.887    583.641    583.641    583.641
 14.970    578.000    584.917     -6.917    583.721    584.917    583.721    583.721    583.721
 15.070    569.000    584.946    -15.946    583.794    584.945    583.794    583.794    583.794
 15.170    554.102    584.979    -30.876    583.860    584.978    583.860    583.860    583.860
 15.270    566.000    585.074    -19.074    583.919    585.074    583.919    583.919    583.919
 15.370    573.000    585.109    -12.109    583.971    585.108    583.971    583.971    583.971
 15.470    559.000    585.126    -26.126    584.016    585.126    584.016    584.016    584.016
 15.570    607.788    585.140     22.649    584.054    585.139    584.054    584.054    584.054
 15.670    565.707    585.149    -19.442    584.085    585.149    584.085    584.085    584.085
 15.770    531.000    585.154    -54.154    584.110    585.154    584.110    584.110    584.110
 15.870    587.845    585.161      2.684    584.128    585.161    584.128    584.128    584.128
 15.970    612.514    585.158     27.356    584.139    585.158    584.139    584.139    584.139
 16.070    521.000    585.149    -64.149    584.144    585.149    584.144    584.144    584.144
 16.170    558.000    585.135    -27.135    584.142    585.135    584.142    584.142    584.142
 16.270    607.434    585.117     22.317    584.134    585.117    584.134    584.134    584.134
 16.370    560.153    585.105    -24.952    584.120    585.105    584.120    584.120    584.120
 16.470    596.000    585.085     10.915    584.099    585.085    584.099    584.099    584.099
 16.570    538.000    585.113    -47.113    584.072    585.113    584.072    584.072    584.072
 16.670    554.000    585.081    -31.081    584.039    585.081    584.039    584.039    584.039
 16.770    572.000    585.037    -13.037    584.000    585.037    584.000    584.000    584.000
 16.870    562.039    584.988    -22.949    583.955    584.988    583.955    583.955    583.955
 16.970    561.000    584.934    -23.934    583.904    584.934    583.904    583.904    583.904
 17.070    621.046    584.875     36.171    583.847    584.875    583.847    583.847    583.847
 17.170    631.000    584.812     46.188    583.784    584.812    583.784    583.784    583.784
 17.270    563.000    584.763    -21.763    583.715    584.763    583.715    583.715    583.715
 17.370    595.000    584.711     10.289    583.641    584.711    583.641    583.641    583.641
 17.470    583.000    584.634     -1.634    583.561    584.634    583.561    583.561    583.561
 17.570    577.000    584.549     -7.549    583.475    584.549    583.475    583.475    583.475
 17.670    567.000    584.460    -17.460    583.384    584.460    583.384    583.384    583.384
 17.770    591.000    584.366      6.634    583.287    584.366    583.287    583.287    583.287
 17.870    572.000    584.266    -12.266    583.185    584.266    583.185    583.185    583.185
 17.970    553.000    584.165    -31.165    583.077    584.164    583.077    583.077    583.077
 18.070    625.830    584.079     41.752    582.964    584.079    582.964    582.964    582.964
 18.170    582.000    583.980     -1.980    582.846    583.980    582.846    582.846    582.846
 18.270    570.000    583.898    -13.898    582.723    583.898    582.723    582.723    582.723
 18.370    538.000    583.779    -45.779    582.595    583.779    582.595    582.595    582.595
 18.470    585.000    583.654      1.346    582.461    583.654    582.461    582.461    582.461
 18.570    637.000    583.544     53.456    582.322    583.543    582.322    582.322    582.322
 18.670    509.000    583.473    -74.473    582.179    583.473    582.179    582.179    582.179
 18.770    550.521    583.349    -32.828    582.030    583.349    582.030    582.030    582.030
 18.870    539.000    583.206    -44.206    581.877    583.206    581.877    581.877    581.877
 18.970    536.000    583.068    -47.068    581.719    583.068    581.719    581.719    581.719
 19.070    627.492    582.920     44.572    581.556    582.920    581.556    581.556    581.556
 19.170    559.000    582.768    -23.768    581.388    582.768    581.388    581.388    581.388
 19.270    577.657    582.651     -4.994    581.216    582.651    581.216    581.216    581.216
 19.370    546.000    582.513    -36.513    581.039    582.513    581.039    581.039    581.039
 19.470    633.742    582.350     51.393    580.858    582.350    580.858    580.858    580.858
 19.570    569.000    582.178    -13.178    580.672    582.178    580.672    580.672    580.672
 19.670    532.000    582.001    -50.001    580.482    582.001    580.482    580.482    580.482
 19.770    567.000    581.822    -14.822    580.287    581.822    580.287    580.287    580.287
 19.870    613.315    581.644     31.671    580.088    581.644    580.088    580.088    580.088
 19.970    609.000    581.458     27.542    579.885    581.458    579.885    579.885    579.885
 20.070    565.000    581.275    -16.275    579.677    581.275    579.677    579.677    579.677
 20.170    518.000    581.085    -63.085    579.465    581.085    579.465    579.465    579.465
 20.270    594.887    580.891     13.996    579.249    580.891    579.249    579.249    579.249
 20.370    536.338    580.694    -44.355    579.030    580.694    579.030    579.030    579.030
 20.470    595.996    580.490     15.506    578.806    580.490    578.806    578.806    578.806
 20.570    596.000    580.284     15.716    578.578    580.284    578.578    578.578    578.578
 20.670    565.000    580.074    -15.074    578.346    580.074    578.346    578.346    578.346
 20.770    555.000    579.862    -24.862    578.110    579.862    578.110    578.110    578.110
 20.870    545.980    579.648    -33.668    577.871    579.648    577.871    577.871    577.871
 20.970    551.000    579.433    -28.433    577.628    579.433    577.628    577.628    577.628
 21.070    593.248    579.217     14.031    577.381    579.217    577.381    577.381    577.381
 21.170    571.000    578.996     -7.996    577.130    578.996    577.130    577.130    577.130
 21.270    585.000    578.772      6.228    576.876    578.772    576.876    576.876    576.876
 21.370    587.000    578.547      8.453    576.618    578.547    576.618    576.618    576.618
 21.470    545.183    578.320    -33.136    576.357    578.320    576.357    576.357    576.357
 21.570    582.000    578.091      3.909    576.092    578.092    576.092    576.092    576.092
 21.670    634.000    577.862     56.138    575.824    577.862    575.824    575.824    575.824
 21.770    568.000    577.632     -9.632    575.552    577.632    575.552    575.552    575.552
 21.870    560.000    577.402    -17.402    575.277    577.402    575.277    575.277    575.277
 21.970    621.112    577.171     43.941    574.999    577.171    574.999    574.999    574.999
 22.070    617.000    576.941     40.059    574.718    576.941    574.718    574.718    574.718
 22.170    593.000    576.712     16.288    574.433    576.712    574.433    574.433    574.433
 22.270    613.930    576.484     37.445    574.145    576.484    574.145    574.145    574.145
 22.370    542.000    576.259    -34.259    573.854    576.259    573.854    573.854    573.854
 22.470    592.252    576.036     16.215    573.560    576.037    573.560    573.560    573.560
 22.570    629.000    575.819     53.181    573.264    575.819    573.264    573.264    573.264
 22.670    564.000    575.607    -11.607    572.964    575.607    572.964    572.964    572.964
 22.770    532.000    575.400    -43.400    572.661    575.401    572.661    572.661    572.661
 22.870    577.000    575.202      1.798    572.355    575.203    572.355    572.355    572.355
 22.970    598.201    575.015     23.186    572.047    575.016    572.047    572.047    572.047
 23.070    586.000    574.841     11.159    571.736    574.842    571.736    571.736    571.736
 23.170    611.955    574.684     37.272    571.422    574.684    571.422    571.422    571.422
 23.270    573.000    574.547     -1.547    571.105    574.548    571.105    571.105    571.105
 23.370    561.000    574.439    -13.439    570.786    574.440    570.786    570.786    570.786
 23.470    569.000    574.366     -5.366    570.464    574.367    570.464    570.464    570.464
 23.570    575.000    574.339      0.661    570.139    574.340    570.139    570.139    570.139
 23.670    584.000    574.372      9.628    569.812    574.373    569.812    569.812    569.812
 23.770    591.000    574.486     16.514    569.483    574.488    569.483    569.483    569.483
 23.870    566.000    574.715     -8.715    569.151    574.717    569.151    569.151    569.151
 23.970    550.000    575.111    -25.111    568.816    575.113    568.816    568.816    568.816
 24.070    581.424    575.777      5.647    568.480    575.781    568.480    568.480    568.480
 24.170    635.000    576.955     58.045    568.141    576.959    568.141    568.141    568.141
 24.270    595.000    579.197     15.803    567.800    579.203    567.800    567.800    567.800
 24.370    607.000    583.614     23.386    567.456    583.624    567.456    567.456    567.456
 24.470    622.000    591.951     30.049    567.111    591.967    567.111    567.111    567.111
 24.570    658.000    605.998     52.002    566.763    606.024    566.763    566.763    566.763
 24.670    645.000    625.963     19.037    566.413    626.004    566.413    566.413    566.413
 24.770    638.000    647.898     -9.898    566.061    647.956    566.061    566.061    566.061
 24.870    714.000    662.027     51.973    565.707    662.095    565.707    565.707    565.707
 24.970    662.000    658.935      3.065    565.351    659.001    565.351    565.351    565.351
 25.070    597.397    640.870    -43.473    564.993    640.923    564.993    564.993    564.993
 25.170    680.000    618.390     61.610    564.634    618.427    564.634    564.634    564.634
 25.270    595.000    599.526     -4.526    564.272    599.549    564.272    564.272    564.272
 25.370    585.000    586.758     -1.758    563.908    586.772    563.908    563.908    563.908
 25.470    580.356    579.232      1.123    563.543    579.241    563.543    563.543    563.543
 25.570    595.000    575.080     19.920    563.176    575.086    563.176    563.176    563.176
 25.670    617.000    572.735     44.265    562.808    572.739    562.808    562.808    562.808
 25.770    546.760    571.273    -24.513    562.437    571.276    562.437    562.437    562.437
 25.870    561.107    570.253     -9.147    562.065    570.256    562.065    562.065    562.065
 25.970    574.000    569.491      4.509    561.692    569.492    561.692    561.692    561.692
 26.070    629.000    568.902     60.098    561.316    568.904    561.316    561.316    561.316
 26.170    626.000    568.448     57.552    560.940    568.449    560.940    560.940    560.940
 26.270    594.265    568.105     26.161    560.562    568.105    560.562    560.562    560.562
 26.370    525.989    567.861    -41.872    560.182    567.862    560.182    560.182    560.182
 26.470    608.000    567.713     40.287    559.801    567.713    559.801    559.801    559.801
 26.570    580.000    567.661     12.339    559.418    567.661    559.418    559.418    559.418
 26.670    599.000    567.713     31.287    559.035    567.713    559.035    559.035    559.035
 26.770    548.043    567.881    -19.839    558.650    567.881    558.650    558.650    558.650
 26.870    528.412    568.187    -39.775    558.263    568.186    558.263    558.263    558.263
 26.970    620.000    568.659     51.341    557.876    568.658    557.876    557.876    557.876
 27.070    624.000    569.338     54.662    557.487    569.337    557.487    557.487    557.487
 27.170    598.000    570.285     27.715    557.097    570.284    557.097    557.097    557.097
 27.270    549.230    571.586    -22.356    556.706    571.585    556.706    556.706    556.706
 27.370    656.000    573.379     82.621    556.314    573.377    556.314    556.314    556.314
 27.470    532.121    575.910    -43.789    555.921    575.907    555.921    555.921    555.921
 27.570    654.000    579.732     74.268    555.526    579.728    555.526    555.526    555.526
 27.670    587.740    586.213      1.527    555.131    586.207    555.131    555.131    555.131
 27.770    613.000    598.555     14.445    554.735    598.544    554.735    554.735    554.735
 27.870    647.916    622.881     25.034    554.338    622.862    554.338    554.338    554.338
 27.970    663.422    667.608     -4.185    553.940    667.574    553.940    553.940    553.940
 28.070    716.000    738.487    -22.487    553.541    738.435    553.541    553.541    553.541
 28.170    835.897    828.867      7.030    553.141    828.798    553.141    553.141    553.141
 28.270    947.000    910.075     36.925    552.741    910.002    552.741    552.741    552.741
 28.370    937.233    938.596     -1.363    552.339    938.536    552.339    552.339    552.339
 28.470    936.000    898.775     37.225    551.937    898.734    551.937    551.937    551.937
 28.570    843.000    829.737     13.263    551.535    829.709    551.535    551.535    551.535
 28.670    751.000    779.364    -28.364    551.131    779.342    551.131    551.131    551.131
 28.770    804.000    769.347     34.653    550.727    769.327    550.727    550.727    550.727
 28.870    778.000    794.238    -16.238    550.323    794.220    550.323    550.323    550.323
 28.970    796.721    827.338    -30.617    549.917    827.328    549.917    549.917    549.917
 29.070    782.520    833.130    -50.610    549.512    833.131    549.512    549.512    549.512
 29.170    834.000    795.731     38.269    549.105    795.740    549.105    549.105    549.105
 29.270    766.835    734.198     32.637    548.698    734.208    548.698    548.698    548.698
 29.370    657.604    674.663    -17.059    548.291    674.670    548.291    548.291    548.291
 29.470    645.000    629.913     15.087    547.884    629.917    547.884    547.884    547.884
 29.570    588.000    601.307    -13.307    547.475    601.308    547.475    547.475    547.475
 29.670    603.000    584.841     18.159    547.067    584.841    547.067    547.067    547.067
 29.770    631.000    575.686     55.314    546.658    575.685    546.658    546.658    546.658
 29.870    645.000    570.361     74.639    546.249    570.359    546.249    546.249    546.249
 29.970    649.000    566.978     82.022    545.840    566.976    545.840    545.840    545.840
 30.070    661.000    564.692     96.308    545.430    564.690    545.430    545.430    545.430
 30.170    523.170    563.190    -40.020    545.020    563.187    545.020    545.020    545.020
 30.270    622.000    562.439     59.561    544.610    562.435    544.610    544.610    544.610
 30.370    580.000    562.663     17.337    544.200    562.658    544.200    544.200    544.200
