neutron_powder_diffraction_0197
R_wp: 3.975
Temperature (K): 1074.000
Counts: 83797.00
Wavelength (Ã…): 2.52098
COMMENTS
Test file for demonstrating the .xyy file format in Reel1.0
END OF HEADER
   tth       Y_obs     Y_calc      Y_res    Background    Phase_1_Nuc    Phase_1_Mag    Phase_2_Nuc    Phase_2_Mag
  9.970    607.000    574.240     32.760    573.520    574.177    573.520    573.583    573.520
 10.070    603.308    574.362     28.946    573.566    574.298    573.566    573.629    573.566
 10.170    543.910    574.473    -30.563    573.607    574.409    573.607    573.670    573.607
 10.270    616.000    574.587     41.413    573.642    574.522    573.642    573.705    573.642
 10.370    604.000    574.707     29.293    573.671    574.642    573.671    573.735    573.671
 10.470    641.000    574.837     66.163    573.695    574.772    573.695    573.760    573.695
 10.570    602.000    574.981     27.019    573.714    574.916    573.714    573.778    573.714
 10.670    586.000    575.145     10.855    573.727    575.079    573.727    573.792    573.727
 10.770    530.906    575.334    -44.427    573.735    575.268    573.735    573.800    573.735
 10.870    568.925    575.557     -6.632    573.738    575.491    573.738    573.803    573.738
 10.970    617.223    575.829     41.394    573.735    575.762    573.735    573.801    573.735
 11.070    593.723    576.166     17.557    573.727    576.099    573.727    573.794    573.727
 11.170    551.277    576.596    -25.319    573.715    576.528    573.715    573.781    573.715
 11.270    563.036    577.159    -14.124    573.697    577.091    573.697    573.764    573.697
 11.370    586.000    577.928      8.072    573.674    577.859    573.674    573.741    573.674
 11.470    548.000    579.063    -31.063    573.646    578.991    573.646    573.715    573.646
 11.570    600.000    580.995     19.005    573.614    580.922    573.614    573.683    573.614
 11.670    563.607    584.898    -21.292    573.576    584.822    573.576    573.646    573.576
 11.770    623.000    593.353     29.647    573.534    593.271    573.534    573.604    573.534
 11.870    653.000    610.297     42.703    573.487    610.206    573.487    573.557    573.487
 11.970    680.000    638.542     41.458    573.435    638.433    573.435    573.506    573.435
 12.070    625.033    674.269    -49.236    573.379    674.140    573.379    573.450    573.379
 12.170    677.000    702.106    -25.106    573.318    701.961    573.318    573.389    573.318
 12.270    655.000    702.947    -47.947    573.253    702.801    573.253    573.324    573.253
 12.370    633.076    675.988    -42.912    573.183    675.857    573.183    573.255    573.183
 12.470    637.000    639.996     -2.996    573.108    639.885    573.108    573.181    573.108
 12.570    607.000    611.016     -4.016    573.029    610.922    573.029    573.102    573.029
 12.670    598.189    593.388      4.801    572.946    593.303    572.946    573.019    572.946
 12.770    579.000    584.477     -5.477    572.859    584.397    572.859    572.932    572.859
 12.870    568.000    580.299    -12.299    572.767    580.221    572.767    572.841    572.767
 12.970    562.713    578.182    -15.469    572.671    578.104    572.671    572.745    572.671
 13.070    550.000    576.897    -26.897    572.571    576.821    572.571    572.646    572.571
 13.170    585.513    575.991      9.523    572.467    575.914    572.467    572.542    572.467
 13.270    541.000    575.296    -34.296    572.359    575.219    572.359    572.434    572.359
 13.370    561.000    574.738    -13.738    572.246    574.661    572.246    572.322    572.246
 13.470    552.000    574.275    -22.275    572.130    574.198    572.130    572.206    572.130
 13.570    615.000    573.880     41.120    572.010    573.803    572.010    572.086    572.010
 13.670    557.585    573.536    -15.950    571.886    573.458    571.886    571.963    571.886
 13.770    565.000    573.228     -8.228    571.758    573.150    571.758    571.835    571.758
 13.870    593.388    572.947     20.441    571.626    572.869    571.626    571.704    571.626
 13.970    527.000    572.688    -45.688    571.491    572.609    571.491    571.569    571.491
 14.070    572.000    572.444     -0.444    571.352    572.365    571.352    571.430    571.352
 14.170    600.000    572.212     27.788    571.209    572.133    571.209    571.288    571.209
 14.270    531.000    571.990    -40.990    571.063    571.910    571.063    571.142    571.063
 14.370    556.000    571.774    -15.774    570.913    571.695    570.913    570.992    570.913
 14.470    521.000    571.564    -50.564    570.759    571.484    570.759    570.839    570.759
 14.570    598.708    571.358     27.350    570.603    571.277    570.603    570.683    570.603
 14.670    631.000    571.157     59.843    570.442    571.076    570.442    570.523    570.442
 14.770    567.000    570.962     -3.962    570.278    570.875    570.278    570.365    570.278
 14.870    559.000    570.763    -11.763    570.111    570.674    570.111    570.200    570.111
 14.970    587.329    570.563     16.767    569.941    570.473    569.941    570.030    569.941
 15.070    592.000    570.363     21.637    569.767    570.273    569.767    569.857    569.767
 15.170    579.000    570.162      8.838    569.590    570.072    569.590    569.680    569.590
 15.270    565.000    569.961     -4.961    569.410    569.870    569.410    569.501    569.410
 15.370    556.032    569.759    -13.727    569.227    569.668    569.227    569.318    569.227
 15.470    549.000    569.556    -20.556    569.041    569.464    569.041    569.132    569.041
 15.570    555.000    569.351    -14.351    568.852    569.259    568.852    568.944    568.852
 15.670    588.000    569.146     18.854    568.659    569.053    568.659    568.752    568.659
 15.770    592.078    568.940     23.138    568.464    568.847    568.464    568.557    568.464
 15.870    520.000    568.731    -48.731    568.266    568.638    568.266    568.359    568.266
 15.970    539.503    568.520    -29.017    568.065    568.426    568.065    568.159    568.065
 16.070    526.000    568.307    -42.307    567.861    568.213    567.861    567.955    567.861
 16.170    595.811    568.093     27.718    567.654    567.997    567.654    567.749    567.654
 16.270    548.821    567.876    -19.055    567.444    567.780    567.444    567.540    567.444
 16.370    530.000    567.657    -37.657    567.232    567.561    567.232    567.328    567.232
 16.470    535.969    567.437    -31.468    567.017    567.340    567.017    567.114    567.017
 16.570    605.582    567.214     38.367    566.800    567.117    566.800    566.897    566.800
 16.670    579.540    566.990     12.550    566.579    566.891    566.579    566.678    566.579
 16.770    568.000    566.763      1.237    566.357    566.664    566.357    566.455    566.357
 16.870    591.000    566.534     24.466    566.131    566.435    566.131    566.231    566.131
 16.970    572.000    566.304      5.696    565.904    566.204    565.904    566.004    565.904
 17.070    610.541    566.072     44.470    565.673    565.971    565.673    565.774    565.673
 17.170    546.000    565.837    -19.837    565.441    565.736    565.441    565.542    565.441
 17.270    518.144    565.603    -47.459    565.206    565.501    565.206    565.308    565.206
 17.370    532.000    565.365    -33.365    564.968    565.262    564.968    565.071    564.968
 17.470    567.545    565.124      2.421    564.729    565.021    564.729    564.832    564.729
 17.570    584.688    564.882     19.806    564.487    564.778    564.487    564.591    564.487
 17.670    556.000    564.638     -8.638    564.243    564.533    564.243    564.347    564.243
 17.770    540.000    564.392    -24.392    563.997    564.287    563.997    564.102    563.997
 17.870    570.000    564.144      5.856    563.748    564.038    563.748    563.854    563.748
 17.970    605.980    563.894     42.086    563.497    563.787    563.497    563.604    563.497
 18.070    569.000    563.643      5.357    563.245    563.535    563.245    563.352    563.245
 18.170    564.000    563.389      0.611    562.990    563.281    562.990    563.098    562.990
 18.270    578.000    563.134     14.866    562.733    563.025    562.733    562.842    562.733
 18.370    575.000    562.878     12.122    562.475    562.768    562.475    562.585    562.475
 18.470    550.000    562.621    -12.621    562.214    562.510    562.214    562.325    562.214
 18.570    539.883    562.362    -22.479    561.952    562.250    561.952    562.063    561.952
 18.670    537.256    562.101    -24.845    561.687    561.988    561.687    561.799    561.687
 18.770    601.191    561.838     39.353    561.421    561.725    561.421    561.534    561.421
 18.870    514.870    561.574    -46.703    561.153    561.460    561.153    561.267    561.153
 18.970    552.000    561.308     -9.308    560.883    561.193    560.883    560.998    560.883
 19.070    571.000    561.040      9.960    560.612    560.925    560.612    560.728    560.612
 19.170    564.000    560.772      3.228    560.339    560.655    560.339    560.455    560.339
 19.270    501.000    560.502    -59.502    560.064    560.384    560.064    560.181    560.064
 19.370    602.000    560.230     41.770    559.787    560.112    559.787    559.906    559.787
 19.470    531.307    559.957    -28.650    559.509    559.838    559.509    559.629    559.509
 19.570    531.254    559.684    -28.430    559.230    559.563    559.230    559.350    559.230
 19.670    549.000    559.411    -10.411    558.949    559.287    558.949    559.072    558.949
 19.770    569.000    559.137      9.863    558.666    559.011    558.666    558.792    558.666
 19.870    564.461    558.873      5.588    558.382    558.746    558.382    558.509    558.382
 19.970    540.962    558.605    -17.643    558.096    558.477    558.096    558.224    558.096
 20.070    544.000    558.327    -14.327    557.810    558.198    557.810    557.939    557.810
 20.170    520.417    558.047    -37.630    557.521    557.917    557.521    557.652    557.521
 20.270    509.829    557.766    -47.937    557.232    557.635    557.232    557.363    557.232
 20.370    528.000    557.485    -29.485    556.941    557.352    556.941    557.073    556.941
 20.470    536.000    557.202    -21.202    556.649    557.069    556.649    556.783    556.649
 20.570    561.250    556.920      4.331    556.355    556.784    556.355    556.490    556.355
 20.670    531.000    556.636    -25.636    556.061    556.500    556.061    556.197    556.061
 20.770    546.000    556.352    -10.352    555.765    556.214    555.765    555.903    555.765
 20.870    565.000    556.068      8.932    555.468    555.929    555.468    555.607    555.468
 20.970    552.000    555.783     -3.783    555.170    555.643    555.170    555.310    555.170
 21.070    526.000    555.498    -29.498    554.871    555.356    554.871    555.013    554.871
 21.170    566.684    555.213     11.470    554.571    555.070    554.571    554.714    554.571
 21.270    529.000    554.928    -25.928    554.270    554.783    554.270    554.414    554.270
 21.370    541.719    554.643    -12.924    553.967    554.497    553.967    554.114    553.967
 21.470    560.000    554.359      5.641    553.664    554.211    553.664    553.812    553.664
 21.570    551.339    554.075     -2.736    553.360    553.925    553.360    553.510    553.360
 21.670    527.000    553.791    -26.791    553.055    553.640    553.055    553.207    553.055
 21.770    540.176    553.509    -13.332    552.749    553.356    552.749    552.902    552.749
 21.870    523.000    553.227    -30.227    552.443    553.072    552.443    552.598    552.443
 21.970    561.000    552.955      8.045    552.135    552.798    552.135    552.292    552.135
 22.070    547.000    552.756     -5.756    551.827    552.597    551.827    551.985    551.827
 22.170    551.000    552.500     -1.500    551.518    552.339    551.518    551.678    551.518
 22.270    510.920    552.229    -41.309    551.208    552.067    551.208    551.371    551.208
 22.370    563.000    551.962     11.038    550.897    551.798    550.897    551.062    550.897
 22.470    565.000    551.695     13.305    550.586    551.528    550.586    550.753    550.586
 22.570    519.000    551.432    -32.432    550.274    551.263    550.274    550.444    550.274
 22.670    545.772    551.180     -5.408    549.962    551.009    549.962    550.134    549.962
 22.770    505.888    550.992    -45.103    549.649    550.818    549.649    549.823    549.649
 22.870    517.458    550.791    -33.333    549.335    550.615    549.335    549.512    549.335
 22.970    548.000    550.561     -2.561    549.021    550.382    549.021    549.200    549.021
 23.070    573.000    550.338     22.662    548.706    550.157    548.706    548.888    548.706
 23.170    544.797    550.131     -5.334    548.391    549.947    548.391    548.576    548.391
 23.270    536.526    549.944    -13.418    548.076    549.757    548.076    548.263    548.076
 23.370    571.000    549.777     21.223    547.760    549.587    547.760    547.950    547.760
 23.470    563.000    549.641     13.359    547.443    549.448    547.443    547.637    547.443
 23.570    583.270    549.544     33.726    547.126    549.348    547.126    547.323    547.126
 23.670    532.000    549.500    -17.500    546.809    549.301    546.809    547.009    546.809
 23.770    575.000    549.530     25.470    546.491    549.327    546.491    546.695    546.491
 23.870    520.000    549.665    -29.665    546.173    549.458    546.173    546.381    546.173
 23.970    569.699    549.964     19.735    545.855    549.754    545.855    546.067    545.855
 24.070    577.000    550.569     26.431    545.537    550.356    545.537    545.753    545.537
 24.170    543.189    551.865     -8.675    545.218    551.648    545.218    545.439    545.218
 24.270    613.000    554.824     58.176    544.899    554.605    544.899    545.124    544.899
 24.370    600.000    561.369     38.631    544.580    561.150    544.580    544.810    544.580
 24.470    582.831    574.001      8.830    544.261    573.786    544.261    544.496    544.261
 24.570    630.688    593.783     36.904    543.942    593.577    543.942    544.182    543.942
 24.670    617.938    616.804      1.133    543.622    616.609    543.622    543.868    543.622
 24.770    641.000    631.916      9.084    543.303    631.726    543.303    543.554    543.303
 24.870    621.000    628.172     -7.172    542.983    627.973    542.983    543.241    542.983
 24.970    598.804    608.548     -9.744    542.663    608.329    542.663    542.928    542.663
 25.070    555.000    585.338    -30.338    542.343    585.096    542.343    542.615    542.343
 25.170    529.531    567.276    -37.745    542.024    567.014    542.024    542.303    542.024
 25.270    585.841    556.292     29.549    541.704    556.014    541.704    541.991    541.704
 25.370    548.000    550.576     -2.576    541.384    550.286    541.384    541.680    541.384
 25.470    569.000    547.750     21.250    541.065    547.449    541.065    541.369    541.065
 25.570    521.000    546.210    -25.210    540.745    545.898    540.745    541.059    540.745
 25.670    552.000    545.200      6.800    540.426    544.877    540.426    540.750    540.426
 25.770    556.914    544.443     12.471    540.107    544.109    540.107    540.442    540.107
 25.870    567.899    543.840     24.059    539.787    543.494    539.787    540.135    539.787
 25.970    586.838    543.335     43.502    539.468    542.976    539.468    539.828    539.468
 26.070    568.000    542.907     25.093    539.150    542.534    539.150    539.524    539.150
 26.170    591.000    542.542     48.458    538.831    542.154    538.831    539.220    538.831
 26.270    512.000    542.230    -30.230    538.513    541.826    538.513    538.918    538.513
 26.370    516.530    541.968    -25.438    538.195    541.545    538.195    538.617    538.195
 26.470    535.000    541.756     -6.756    537.877    541.314    537.877    538.319    537.877
 26.570    534.000    541.617     -7.617    537.560    541.154    537.560    538.022    537.560
 26.670    549.000    541.526      7.474    537.242    541.040    537.242    537.728    537.242
 26.770    528.871    541.475    -12.605    536.926    540.964    536.926    537.437    536.926
 26.870    526.035    541.490    -15.455    536.609    540.950    536.609    537.148    536.609
 26.970    529.080    541.594    -12.515    536.293    541.024    536.293    536.863    536.293
 27.070    571.000    541.790     29.210    535.977    541.185    535.977    536.582    535.977
 27.170    586.540    542.121     44.420    535.662    541.477    535.662    536.305    535.662
 27.270    578.000    542.643     35.357    535.347    541.956    535.347    536.034    535.347
 27.370    563.000    543.430     19.570    535.033    542.694    535.033    535.768    535.033
 27.470    556.000    544.579     11.421    534.719    543.787    534.719    535.509    534.719
 27.570    559.290    546.442     12.847    534.406    545.588    534.406    535.258    534.406
 27.670    562.414    550.270     12.145    534.093    549.343    534.093    535.017    534.093
 27.770    601.000    560.566     40.434    533.780    559.552    533.780    534.787    533.780
 27.870    585.000    589.426     -4.426    533.469    588.307    533.469    534.570    533.469
 27.970    731.000    656.735     74.265    533.157    655.482    533.157    534.371    533.157
 28.070    816.000    772.486     43.514    532.847    771.066    532.847    534.192    532.847
 28.170    889.000    903.587    -14.587    532.537    901.980    532.537    534.038    532.537
 28.270   1000.000    968.216     31.784    532.227    966.423    532.227    533.917    532.227
 28.370    858.476    912.698    -54.222    531.918    910.713    531.918    533.837    531.918
 28.470    805.751    793.659     12.092    531.610    791.429    531.610    533.814    531.610
 28.570    723.556    702.297     21.259    531.303    699.718    531.303    533.870    531.303
 28.670    645.000    684.898    -39.898    530.996    681.834    530.996    534.044    530.996
 28.770    746.000    735.073     10.927    530.690    731.343    530.690    534.398    530.690
 28.870    797.000    809.455    -12.455    530.384    804.790    530.384    535.032    530.384
 28.970    827.000    844.819    -17.819    530.080    838.808    530.080    536.089    530.080
 29.070    721.000    804.278    -83.278    529.776    796.316    529.776    537.748    529.776
 29.170    708.000    720.655    -12.655    529.473    709.937    529.473    540.201    529.473
 29.270    636.000    644.592     -8.592    529.170    630.184    529.170    543.584    529.170
 29.370    584.408    598.626    -14.218    528.869    579.639    528.869    547.857    528.869
 29.470    574.000    579.065     -5.065    528.568    555.053    528.568    552.578    528.568
 29.570    593.000    573.157     19.843    528.268    544.814    528.268    556.609    528.268
 29.670    567.000    570.720     -3.720    527.969    540.418    527.969    558.268    527.969
 29.770    580.946    566.971     13.975    527.671    538.077    527.671    556.562    527.671
 29.870    640.000    561.417     78.583    527.374    536.547    527.374    552.241    527.374
 29.970    556.000    555.352      0.648    527.077    535.465    527.077    546.962    527.077
 30.070    568.000    549.909     18.091    526.782    534.713    526.782    541.975    526.782
 30.170    540.128    545.618     -5.490    526.487    534.273    526.487    537.830    526.487
 30.270    499.740    542.680    -42.940    526.193    534.249    526.193    534.621    526.193
 30.370    552.000    541.405     10.595    525.901    535.066    525.901    532.236    525.901
