neutron_powder_diffraction_0060
R_wp: 4.068
Temperature (K): 696.763
Counts: 83972.00
Wavelength (Ã…): 2.52098
COMMENTS
Test file for demonstrating the .xyy file format in Reel1.0
END OF HEADER
   tth       Y_obs     Y_calc      Y_res    Background    Phase_1_Nuc    Phase_1_Mag    Phase_2_Nuc    Phase_2_Mag
  9.970    628.762    646.733    -17.971    645.449    646.437    645.744    645.449    645.449
 10.070    668.000    646.541     21.459    645.175    646.242    645.474    645.175    645.175
 10.170    676.670    646.357     30.313    644.898    646.055    645.200    644.898    644.898
 10.270    670.000    646.182     23.818    644.618    645.877    644.923    644.618    644.618
 10.370    645.000    646.021     -1.021    644.334    645.713    644.642    644.334    644.334
 10.470    684.000    645.879     38.121    644.048    645.567    644.359    644.048    644.048
 10.570    696.000    645.755     50.245    643.758    645.439    644.073    643.758    643.758
 10.670    644.283    645.657     -1.375    643.465    645.338    643.784    643.465    643.465
 10.770    645.000    645.595     -0.595    643.169    645.272    643.491    643.169    643.169
 10.870    619.880    645.581    -25.701    642.871    645.254    643.196    642.871    642.871
 10.970    658.000    645.621     12.379    642.569    645.291    642.898    642.569    642.569
 11.070    627.000    645.740    -18.740    642.264    645.405    642.597    642.264    642.264
 11.170    583.000    645.965    -62.965    641.957    645.626    642.294    641.957    641.957
 11.270    692.000    646.338     45.662    641.647    645.996    641.987    641.647    641.647
 11.370    603.137    646.929    -43.792    641.334    646.582    641.678    641.334    641.334
 11.470    671.652    647.868     23.784    641.018    647.517    641.366    641.018    641.018
 11.570    700.000    649.463     50.537    640.700    649.106    641.052    640.700    640.700
 11.670    650.000    652.465     -2.465    640.379    652.103    640.735    640.379    640.379
 11.770    678.562    658.562     20.000    640.055    658.191    640.416    640.055    640.055
 11.870    731.000    670.249     60.751    639.729    669.868    640.094    639.729    639.729
 11.970    702.000    690.475     11.525    639.400    690.078    639.770    639.400    639.400
 12.070    780.000    719.863     60.137    639.069    719.445    639.443    639.069    639.069
 12.170    789.000    752.431     36.569    638.735    751.991    639.114    638.735    638.735
 12.270    809.155    772.812     36.343    638.399    772.356    638.782    638.399    638.399
 12.370    788.000    766.652     21.348    638.061    766.194    638.448    638.061    638.061
 12.470    722.000    738.754    -16.754    637.720    738.306    638.112    637.720    637.720
 12.570    711.000    705.744      5.256    637.377    705.310    637.774    637.377    637.377
 12.670    632.929    679.156    -46.228    637.032    678.731    637.434    637.032    637.032
 12.770    632.000    661.905    -29.905    636.684    661.485    637.091    636.684    636.684
 12.870    662.000    652.139      9.861    636.334    651.718    636.747    636.334    636.334
 12.970    654.743    646.887      7.856    635.983    646.464    636.400    635.983    635.983
 13.070    653.497    643.880      9.617    635.629    643.453    636.052    635.629    635.629
 13.170    657.000    641.921     15.079    635.272    641.489    635.701    635.272    635.272
 13.270    625.865    640.475    -14.610    634.914    640.038    635.348    634.914    634.914
 13.370    600.000    639.318    -39.318    634.554    638.877    634.994    634.554    634.554
 13.470    592.793    638.350    -45.556    634.192    637.903    634.638    634.192    634.192
 13.570    688.206    637.513     50.694    633.828    637.060    634.279    633.828    633.828
 13.670    614.000    636.771    -22.771    633.462    636.313    633.919    633.462    633.462
 13.770    617.000    636.101    -19.101    633.094    635.637    633.558    633.094    633.094
 13.870    599.000    635.485    -36.485    632.725    635.015    633.194    632.725    632.725
 13.970    655.345    634.912     20.433    632.353    634.435    632.829    632.353    632.353
 14.070    682.554    634.372     48.182    631.980    633.889    632.463    631.980    631.980
 14.170    684.472    633.856     50.616    631.605    633.366    632.094    631.605    631.605
 14.270    598.000    633.360    -35.360    631.229    632.864    631.724    631.229    631.229
 14.370    636.000    632.881      3.119    630.850    632.378    631.353    630.850    630.850
 14.470    652.000    632.415     19.585    630.470    631.905    630.980    630.470    630.470
 14.570    585.303    631.960    -46.657    630.089    631.443    630.606    630.089    630.089
 14.670    621.076    631.514    -10.438    629.706    630.989    630.230    629.706    629.706
 14.770    619.000    631.075    -12.075    629.321    630.543    629.853    629.321    629.321
 14.870    598.573    630.643    -32.070    628.935    630.103    629.475    628.935    628.935
 14.970    579.000    630.220    -51.220    628.548    629.672    629.095    628.548    628.548
 15.070    623.000    629.802     -6.802    628.159    629.246    628.714    628.159    628.159
 15.170    664.000    629.386     34.614    627.769    628.822    628.332    627.769    627.769
 15.270    602.000    628.970    -26.970    627.377    628.397    627.949    627.377    627.377
 15.370    638.000    628.556      9.444    626.984    627.975    627.564    626.984    626.984
 15.470    627.000    628.143     -1.143    626.589    627.554    627.179    626.589    626.589
 15.570    618.000    627.733     -9.733    626.194    627.134    626.792    626.194    626.194
 15.670    629.304    627.324      1.980    625.797    626.716    626.405    625.797    625.797
 15.770    609.000    626.922    -17.922    625.399    626.305    626.016    625.399    625.399
 15.870    607.000    626.576    -19.576    625.000    625.949    625.626    625.000    625.000
 15.970    604.000    626.191    -22.191    624.599    625.555    625.236    624.599    624.599
 16.070    652.000    625.806     26.194    624.198    625.159    624.844    624.198    624.198
 16.170    567.000    625.415    -58.415    623.795    624.758    624.452    623.795    623.795
 16.270    623.230    625.013     -1.783    623.392    624.345    624.059    623.392    623.392
 16.370    602.000    624.610    -22.610    622.987    623.931    623.665    622.987    622.987
 16.470    669.000    624.207     44.793    622.581    623.518    623.271    622.581    622.581
 16.570    617.000    623.809     -6.809    622.175    623.109    622.875    622.175    622.175
 16.670    586.883    623.418    -36.535    621.767    622.706    622.479    621.767    621.767
 16.770    647.000    623.018     23.982    621.359    622.294    622.083    621.359    621.359
 16.870    631.000    622.629      8.371    620.950    621.891    621.687    620.950    620.950
 16.970    659.798    622.289     37.509    620.539    621.530    621.298    620.539    620.539
 17.070    618.000    621.894     -3.894    620.128    621.122    620.901    620.128    620.128
 17.170    641.767    621.494     20.273    619.717    620.709    620.502    619.717    619.717
 17.270    619.420    621.094     -1.675    619.304    620.295    620.103    619.304    619.304
 17.370    644.000    620.695     23.305    618.891    619.882    619.704    618.891    618.891
 17.470    622.000    620.296      1.704    618.477    619.469    619.304    618.477    618.477
 17.570    576.000    619.900    -43.900    618.062    619.058    618.904    618.062    618.062
 17.670    590.407    619.511    -29.104    617.647    618.654    618.504    617.647    617.647
 17.770    665.005    619.114     45.891    617.231    618.241    618.104    617.231    617.231
 17.870    622.000    618.716      3.284    616.815    617.827    617.703    616.815    616.815
 17.970    602.000    618.318    -16.318    616.397    617.413    617.303    616.397    616.397
 18.070    635.573    617.920     17.652    615.980    616.998    616.902    615.980    615.980
 18.170    631.684    617.523     14.160    615.562    616.584    616.501    615.562    615.562
 18.270    582.620    617.127    -34.507    615.143    616.170    616.100    615.143    615.143
 18.370    621.596    616.731      4.865    614.724    615.756    615.699    614.724    614.724
 18.470    632.500    616.336     16.164    614.304    615.341    615.299    614.304    614.304
 18.570    619.000    615.943      3.057    613.884    614.929    614.898    613.884    613.884
 18.670    623.000    615.567      7.433    613.464    614.532    614.499    613.464    613.464
 18.770    603.000    615.197    -12.197    613.043    614.140    614.101    613.043    613.043
 18.870    565.000    614.841    -49.841    612.622    613.759    613.704    612.622    612.622
 18.970    564.000    614.459    -50.459    612.201    613.355    613.305    612.201    612.201
 19.070    658.000    614.077     43.923    611.780    612.950    612.906    611.780    611.780
 19.170    598.615    613.713    -15.098    611.358    612.563    612.508    611.358    611.358
 19.270    581.976    613.381    -31.405    610.936    612.206    612.111    610.936    610.936
 19.370    640.619    613.018     27.601    610.513    611.818    611.714    610.513    610.513
 19.470    573.000    612.640    -39.640    610.091    611.414    611.317    610.091    610.091
 19.570    584.000    612.257    -28.257    609.668    611.005    610.921    609.668    609.668
 19.670    604.003    611.890     -7.887    609.245    610.609    610.526    609.245    609.245
 19.770    562.000    611.561    -49.561    608.823    610.252    610.132    608.823    608.823
 19.870    561.000    611.187    -50.187    608.400    609.848    609.738    608.400    608.400
 19.970    614.000    610.810      3.190    607.977    609.441    609.345    607.977    607.977
 20.070    570.518    610.435    -39.917    607.553    609.035    608.954    607.553    607.553
 20.170    657.934    610.063     47.870    607.130    608.630    608.564    607.130    607.130
 20.270    557.000    609.697    -52.697    606.707    608.229    608.176    606.707    606.707
 20.370    582.132    609.329    -27.196    606.284    607.825    607.788    606.284    606.284
 20.470    571.065    608.965    -37.900    605.861    607.424    607.402    605.861    605.861
 20.570    582.000    608.605    -26.605    605.438    607.026    607.018    605.438    605.438
 20.670    568.784    608.243    -39.459    605.015    606.624    606.634    605.015    605.015
 20.770    577.000    607.881    -30.881    604.593    606.222    606.252    604.593    604.593
 20.870    612.000    607.522      4.478    604.170    605.821    605.871    604.170    604.170
 20.970    599.000    607.166     -8.166    603.748    605.422    605.492    603.748    603.748
 21.070    583.000    606.814    -23.814    603.325    605.024    605.115    603.325    603.325
 21.170    644.930    606.464     38.466    602.903    604.627    604.740    602.903    602.903
 21.270    580.000    606.119    -26.119    602.482    604.233    604.368    602.482    602.482
 21.370    597.000    605.779     -8.779    602.060    603.841    603.997    602.060    602.060
 21.470    622.000    605.441     16.559    601.639    603.450    603.629    601.639    601.639
 21.570    610.000    605.108      4.892    601.218    603.062    603.264    601.218    601.218
 21.670    591.000    604.782    -13.782    600.797    602.678    602.901    600.797    600.797
 21.770    562.240    604.459    -42.219    600.377    602.294    602.541    600.377    600.377
 21.870    575.256    604.141    -28.885    599.957    601.913    602.185    599.957    599.957
 21.970    537.000    603.829    -66.829    599.537    601.535    601.831    599.537    599.537
 22.070    604.000    603.524      0.476    599.118    601.161    601.481    599.118    599.118
 22.170    644.720    603.226     41.495    598.699    600.791    601.134    598.699    598.699
 22.270    574.094    602.936    -28.842    598.280    600.425    600.792    598.280    598.280
 22.370    595.000    602.655     -7.655    597.862    600.064    600.453    597.862    597.862
 22.470    603.676    602.383      1.293    597.445    599.709    600.119    597.445    597.445
 22.570    628.029    602.122     25.907    597.028    599.360    599.790    597.028    597.028
 22.670    613.000    601.873     11.127    596.611    599.019    599.465    596.611    596.611
 22.770    633.000    601.636     31.364    596.195    598.687    599.146    596.195    596.195
 22.870    583.000    601.416    -18.416    595.780    598.364    598.832    595.780    595.780
 22.970    598.000    601.212     -3.212    595.365    598.054    598.524    595.365    595.365
 23.070    613.000    601.029     11.971    594.951    597.758    598.223    594.951    594.951
 23.170    614.000    600.869     13.131    594.537    597.479    597.928    594.537    594.537
 23.270    556.432    600.736    -44.304    594.124    597.220    597.641    594.124    594.124
 23.370    600.000    600.635     -0.635    593.712    596.986    597.361    593.712    593.712
 23.470    583.000    600.573    -17.573    593.300    596.783    597.090    593.300    593.300
 23.570    596.000    600.559     -4.559    592.889    596.620    596.829    592.889    592.889
 23.670    603.000    600.605      2.395    592.478    596.508    596.576    592.478    592.478
 23.770    611.000    600.730     10.270    592.069    596.465    596.335    592.069    592.069
 23.870    583.000    600.954    -17.954    591.660    596.511    596.105    591.660    591.660
 23.970    611.058    601.316      9.742    591.252    596.682    595.888    591.252    591.252
 24.070    623.817    601.881     21.936    590.844    597.045    595.683    590.844    590.844
 24.170    596.975    602.788     -5.813    590.437    597.734    595.494    590.437    590.437
 24.270    600.000    604.357     -4.357    590.031    599.072    595.321    590.031    590.031
 24.370    622.000    607.299     14.701    589.626    601.768    595.164    589.626    589.626
 24.470    642.811    612.925     29.886    589.222    607.130    595.027    589.222    589.222
 24.570    658.000    623.022     34.978    588.819    616.947    594.912    588.819    588.819
 24.670    673.784    638.927     34.857    588.416    632.552    594.821    588.416    588.416
 24.770    704.828    659.621     45.207    588.014    652.927    594.753    588.014    588.014
 24.870    674.000    679.340     -5.340    587.613    672.299    594.714    587.613    587.613
 24.970    680.933    687.433     -6.500    587.214    680.006    594.706    587.214    587.214
 25.070    713.000    677.674     35.326    586.815    669.814    594.733    586.815    586.815
 25.170    670.000    657.425     12.575    586.416    649.087    594.798    586.416    586.416
 25.270    664.590    637.247     27.344    586.019    628.387    594.907    586.019    586.019
 25.370    606.866    622.275    -15.409    585.623    612.851    595.064    585.623    585.623
 25.470    589.280    613.099    -23.819    585.228    603.060    595.277    585.228    585.228
 25.570    626.000    608.235     17.765    584.834    597.523    595.553    584.834    584.834
 25.670    625.000    605.925     19.075    584.441    594.469    595.901    584.441    584.441
 25.770    593.000    604.941    -11.941    584.048    592.661    596.331    584.048    584.048
 25.870    693.000    604.648     88.352    583.657    591.454    596.853    583.657    583.657
 25.970    584.320    604.778    -20.459    583.267    590.563    597.484    583.267    583.267
 26.070    568.000    605.232    -37.232    582.878    589.871    598.240    582.878    582.878
 26.170    657.000    605.977     51.023    582.490    589.323    599.145    582.490    582.490
 26.270    656.000    607.008     48.992    582.103    588.889    600.223    582.103    582.103
 26.370    630.000    608.344     21.656    581.718    588.554    601.508    581.718    581.718
 26.470    650.000    610.016     39.984    581.333    588.308    603.040    581.333    581.333
 26.570    570.252    612.073    -41.822    580.949    588.150    604.871    580.949    580.949
 26.670    564.575    614.584    -50.009    580.567    588.083    607.067    580.567    580.567
 26.770    630.000    617.642     12.358    580.186    588.115    609.712    580.186    580.186
 26.870    659.530    621.372     38.158    579.806    588.259    612.918    579.806    579.806
 26.970    629.000    625.944      3.056    579.427    588.536    616.832    579.427    579.427
 27.070    688.000    631.587     56.413    579.049    588.976    621.657    579.049    579.049
 27.170    641.000    638.623      2.377    578.673    589.622    627.670    578.673    578.673
 27.270    694.000    647.508     46.492    578.298    590.536    635.265    578.298    578.298
 27.370    681.377    658.922     22.455    577.924    591.810    645.030    577.924    577.924
 27.470    713.000    673.987     39.013    577.551    593.597    657.933    577.551    577.551
 27.570    654.367    694.958    -40.591    577.179    596.203    675.924    577.179    577.179
 27.670    688.776    727.375    -38.598    576.809    600.378    703.791    576.809    576.809
 27.770    788.435    785.346      3.089    576.440    608.024    753.737    576.440    576.440
 27.870    856.710    900.118    -43.409    576.072    623.348    852.795    576.072    576.072
 27.970   1161.363   1124.414     36.948    575.706    653.451   1046.580    575.706    575.706
 28.070   1389.000   1514.532   -125.532    575.341    705.919   1383.799    575.341    575.341
 28.170   1902.000   2076.441   -174.441    574.977    781.595   1869.593    574.977    574.977
 28.270   2649.778   2688.912    -39.134    574.615    864.272   2398.983    574.615    574.615
 28.370   3036.000   3070.871    -34.871    574.254    916.372   2728.530    574.254    574.254
 28.470   2901.351   2983.896    -82.545    573.894    906.277   2651.418    573.894    573.894
 28.570   2584.000   2542.134     41.866    573.536    850.136   2265.543    573.536    573.536
 28.670   1985.000   2068.234    -83.234    573.179    792.500   1848.955    573.179    573.179
 28.770   1729.403   1792.771    -63.368    572.823    765.433   1600.191    572.823    572.823
 28.870   1723.375   1766.643    -43.268    572.469    775.597   1563.524    572.469    572.469
 28.970   1877.000   1894.091    -17.091    572.116    807.129   1659.087    572.116    572.116
 29.070   1917.000   1988.329    -71.329    571.765    828.414   1731.725    571.765    571.765
 29.170   1884.612   1894.809    -10.197    571.415    813.029   1653.289    571.415    571.415
 29.270   1630.000   1630.194     -0.194    571.066    765.163   1436.213    571.066    571.066
 29.370   1313.000   1319.449     -6.449    570.719    708.377   1181.893    570.719    570.719
 29.470   1056.000   1059.307     -3.307    570.373    660.735    969.018    570.373    570.373
 29.570    947.000    881.133     65.867    570.029    628.118    823.089    570.029    570.029
 29.670    810.000    774.497     35.503    569.687    608.648    735.560    569.687    569.687
 29.770    798.000    715.046     82.954    569.345    597.856    686.549    569.345    569.345
 29.870    738.000    681.533     56.467    569.006    591.843    658.703    569.006    569.006
 29.970    745.000    660.968     84.032    568.667    588.232    641.406    568.667    568.667
 30.070    747.000    646.984    100.016    568.331    585.876    629.441    568.331    568.331
 30.170    670.000    636.823     33.177    567.995    584.303    620.515    567.995    567.995
 30.270    713.000    629.340     83.660    567.662    583.379    613.622    567.662    567.662
 30.370    717.000    624.169     92.831    567.329    583.192    608.304    567.329    567.329
