neutron_powder_diffraction_0034
R_wp: 3.641
Temperature (K): 563.819
Counts: 83753.00
Wavelength (Ã…): 2.52098
COMMENTS
Test file for demonstrating the .xyy file format in Reel1.0
END OF HEADER
   tth       Y_obs     Y_calc      Y_res    Background    Phase_1_Nuc    Phase_1_Mag    Phase_2_Nuc    Phase_2_Mag
  9.970    738.429    710.987     27.442    709.464    710.471    709.979    709.464    709.464
 10.070    704.000    709.995     -5.995    708.385    709.474    708.906    708.385    708.385
 10.170    762.000    709.020     52.980    707.312    708.493    707.838    707.312    707.312
 10.270    696.000    708.063    -12.063    706.244    707.531    706.776    706.244    706.244
 10.370    728.000    707.129     20.871    705.181    706.590    705.719    705.181    705.181
 10.470    684.000    706.219    -22.219    704.124    705.675    704.667    704.124    704.124
 10.570    684.000    705.339    -21.339    703.072    704.788    703.621    703.072    703.072
 10.670    742.000    704.493     37.507    702.025    703.937    702.580    702.025    702.025
 10.770    741.000    703.691     37.309    700.984    703.128    701.545    700.984    700.984
 10.870    707.000    702.941      4.059    699.947    702.372    700.515    699.947    699.947
 10.970    744.000    702.258     41.742    698.916    701.683    699.490    698.916    698.916
 11.070    696.000    701.661     -5.661    697.891    701.079    698.471    697.891    697.891
 11.170    742.000    701.176     40.824    696.870    700.587    697.457    696.870    696.870
 11.270    752.825    700.843     51.982    695.855    700.247    696.448    695.855    695.855
 11.370    729.000    700.728     28.272    694.845    700.124    695.445    694.845    694.845
 11.470    720.000    700.951     19.049    693.840    700.340    694.447    693.840    693.840
 11.570    708.000    701.779      6.221    692.840    701.160    693.454    692.840    692.840
 11.670    673.151    703.816    -30.665    691.846    703.189    692.467    691.846    691.846
 11.770    658.591    708.299    -49.708    690.856    707.661    691.485    690.856    690.856
 11.870    667.752    717.267    -49.514    689.872    716.616    690.508    689.872    689.872
 11.970    749.790    733.077     16.713    688.893    732.408    689.536    688.893    688.893
 12.070    807.000    756.702     50.298    687.919    756.013    688.570    687.919    687.919
 12.170    845.000    784.687     60.313    686.950    783.973    687.609    686.950    686.950
 12.270    848.952    806.238     42.714    685.987    805.503    686.654    685.987    685.987
 12.370    837.764    807.750     30.015    685.028    807.005    685.703    685.028    685.028
 12.470    827.063    787.257     39.806    684.075    786.515    684.758    684.075    684.075
 12.570    719.000    757.390    -38.390    683.126    756.656    683.818    683.126    683.126
 12.670    710.834    730.543    -19.708    682.183    729.815    682.883    682.183    682.183
 12.770    713.000    711.404      1.596    681.245    710.678    681.954    681.245    681.245
 12.870    690.000    699.430     -9.430    680.312    698.701    681.030    680.312    680.312
 12.970    690.000    692.401     -2.401    679.384    691.667    680.111    679.384    679.384
 13.070    678.000    688.140    -10.140    678.460    687.399    679.197    678.460    678.460
 13.170    710.672    685.257     25.416    677.542    684.507    678.288    677.542    677.542
 13.270    596.000    683.053    -87.053    676.629    682.295    677.384    676.629    676.629
 13.370    671.000    681.221    -10.221    675.721    680.454    676.486    675.721    675.721
 13.470    674.486    679.622     -5.136    674.818    678.845    675.593    674.818    674.818
 13.570    649.000    678.185    -29.185    673.920    677.398    674.705    673.920    673.920
 13.670    639.000    676.866    -37.866    673.027    676.069    673.822    673.027    673.027
 13.770    704.795    675.637     29.158    672.139    674.830    672.945    672.139    672.139
 13.870    652.000    674.477    -22.477    671.256    673.660    672.072    671.256    671.256
 13.970    678.000    673.376      4.624    670.378    672.548    671.205    670.378    670.378
 14.070    646.876    672.318    -25.442    669.504    671.478    670.343    669.504    669.504
 14.170    713.128    671.293     41.835    668.636    670.443    669.486    668.636    668.636
 14.270    630.000    670.299    -40.299    667.772    669.437    668.634    667.772    667.772
 14.370    691.360    669.330     22.030    666.914    668.456    667.787    666.914    666.914
 14.470    674.000    668.384      5.616    666.060    667.497    666.946    666.060    666.060
 14.570    663.000    667.456     -4.456    665.211    666.557    666.109    665.211    665.211
 14.670    692.639    666.547     26.092    664.367    665.636    665.278    664.367    664.367
 14.770    687.284    665.655     21.629    663.528    664.731    664.452    663.528    663.528
 14.870    632.000    664.798    -32.798    662.694    663.860    663.631    662.694    662.694
 14.970    613.000    663.931    -50.931    661.864    662.979    662.815    661.864    661.864
 15.070    689.000    663.072     25.928    661.040    662.107    662.004    661.040    661.040
 15.170    679.000    662.223     16.777    660.220    661.244    661.199    660.220    660.220
 15.270    629.536    661.384    -31.848    659.405    660.391    660.398    659.405    659.405
 15.370    625.595    660.555    -34.959    658.595    659.546    659.603    658.595    658.595
 15.470    625.000    659.734    -34.734    657.789    658.710    658.812    657.789    657.789
 15.570    633.702    658.921    -25.219    656.989    657.882    658.027    656.989    656.989
 15.670    626.000    658.116    -32.116    656.193    657.062    657.247    656.193    656.193
 15.770    680.710    657.323     23.387    655.402    656.253    656.472    655.402    655.402
 15.870    612.000    656.534    -44.534    654.615    655.447    655.702    654.615    654.615
 15.970    673.000    655.751     17.249    653.833    654.648    654.937    653.833    653.833
 16.070    636.000    654.975    -18.975    653.056    653.854    654.177    653.056    653.056
 16.170    680.000    654.206     25.794    652.284    653.067    653.422    652.284    652.284
 16.270    688.987    653.443     35.544    651.516    652.286    652.673    651.516    651.516
 16.370    624.736    652.687    -27.951    650.753    651.512    651.928    650.753    650.753
 16.470    624.000    651.937    -27.937    649.995    650.743    651.189    649.995    649.995
 16.570    661.000    651.193      9.807    649.241    649.979    650.455    649.241    649.241
 16.670    631.000    650.455    -19.455    648.492    649.222    649.726    648.492    648.492
 16.770    623.000    649.724    -26.724    647.748    648.470    649.002    647.748    647.748
 16.870    614.000    648.998    -34.998    647.008    647.723    648.283    647.008    647.008
 16.970    662.000    648.279     13.721    646.273    646.982    647.569    646.273    646.273
 17.070    685.000    647.565     37.435    645.542    646.247    646.861    645.542    645.542
 17.170    660.589    646.858     13.731    644.816    645.517    646.157    644.816    644.816
 17.270    634.000    646.163    -12.163    644.095    644.798    645.459    644.095    644.095
 17.370    681.000    645.467     35.533    643.378    644.079    644.766    643.378    643.378
 17.470    634.000    644.777    -10.777    642.666    643.364    644.078    642.666    642.666
 17.570    665.000    644.093     20.907    641.958    642.654    643.396    641.958    641.958
 17.670    647.000    643.418      3.582    641.255    641.954    642.719    641.255    641.255
 17.770    661.908    642.793     19.116    640.556    641.301    642.048    640.556    640.556
 17.870    642.000    642.162     -0.162    639.862    640.642    641.381    639.862    639.862
 17.970    663.000    641.512     21.488    639.172    639.964    640.720    639.172    639.172
 18.070    621.000    640.857    -19.857    638.487    639.280    640.063    638.487    638.487
 18.170    653.854    640.207     13.647    637.806    638.601    639.412    637.806    637.806
 18.270    689.802    639.563     50.239    637.130    637.927    638.766    637.130    637.130
 18.370    669.000    638.925     30.075    636.458    637.257    638.125    636.458    636.458
 18.470    624.751    638.292    -13.541    635.790    636.592    637.490    635.790    635.790
 18.570    685.660    637.667     47.993    635.127    635.934    636.860    635.127    635.127
 18.670    628.000    637.066     -9.066    634.468    635.298    636.236    634.468    634.468
 18.770    620.000    636.462    -16.462    633.814    634.659    635.616    633.814    633.814
 18.870    647.000    635.854     11.146    633.164    634.015    635.003    633.164    633.164
 18.970    628.566    635.251     -6.685    632.519    633.375    634.395    632.519    632.519
 19.070    668.000    634.653     33.347    631.877    632.739    633.792    631.877    631.877
 19.170    604.000    634.062    -30.062    631.241    632.108    633.195    631.241    631.241
 19.270    664.557    633.478     31.079    630.608    631.482    632.603    630.608    630.608
 19.370    612.072    632.908    -20.835    629.980    630.870    632.018    629.980    629.980
 19.470    687.000    632.340     54.660    629.356    630.258    631.438    629.356    629.356
 19.570    620.000    631.787    -11.787    628.736    629.656    630.867    628.736    628.736
 19.670    575.000    631.286    -56.286    628.121    629.093    630.314    628.121    628.121
 19.770    652.675    630.738     21.937    627.510    628.495    629.753    627.510    627.510
 19.870    639.712    630.191      9.521    626.903    627.898    629.196    626.903    626.903
 19.970    638.189    629.650      8.539    626.301    627.306    628.645    626.301    626.301
 20.070    639.633    629.116     10.517    625.703    626.718    628.100    625.703    625.703
 20.170    589.000    628.591    -39.591    625.109    626.137    627.562    625.109    625.109
 20.270    623.000    628.087     -5.087    624.519    625.576    627.029    624.519    624.519
 20.370    609.000    627.583    -18.583    623.933    625.013    626.503    623.933    623.933
 20.470    606.160    627.081    -20.921    623.352    624.449    625.984    623.352    623.352
 20.570    593.000    626.606    -33.606    622.774    623.899    625.481    622.774    622.774
 20.670    625.343    626.146     -0.803    622.201    623.363    624.983    622.201    622.201
 20.770    627.000    625.678      1.322    621.632    622.826    624.484    621.632    621.632
 20.870    613.000    625.237    -12.237    621.067    622.313    623.991    621.067    621.067
 20.970    608.000    624.833    -16.833    620.507    621.834    623.505    620.507    620.507
 21.070    601.368    624.388    -23.020    619.950    621.312    623.026    619.950    619.950
 21.170    598.000    623.938    -25.938    619.398    620.782    622.554    619.398    619.398
 21.270    650.000    623.498     26.502    618.849    620.258    622.089    618.849    618.849
 21.370    617.000    623.091     -6.091    618.305    619.763    621.632    618.305    618.305
 21.470    603.000    622.688    -19.688    617.765    619.270    621.183    617.765    617.765
 21.570    647.004    622.276     24.728    617.228    618.764    620.741    617.228    617.228
 21.670    607.000    621.878    -14.878    616.696    618.267    620.307    616.696    616.696
 21.770    613.881    621.499     -7.618    616.168    617.783    619.885    616.168    616.168
 21.870    606.000    621.125    -15.125    615.644    617.299    619.470    615.644    615.644
 21.970    666.561    620.756     45.805    615.124    616.818    619.062    615.124    615.124
 22.070    562.000    620.398    -58.398    614.608    616.343    618.662    614.608    614.608
 22.170    624.000    620.052      3.948    614.095    615.875    618.272    614.095    614.095
 22.270    655.231    619.718     35.512    613.587    615.414    617.891    613.587    613.587
 22.370    667.000    619.399     47.601    613.083    614.961    617.521    613.083    613.083
 22.470    594.143    619.096    -24.952    612.583    614.517    617.161    612.583    612.583
 22.570    603.435    618.808    -15.373    612.086    614.082    616.812    612.086    612.086
 22.670    646.000    618.537     27.463    611.594    613.657    616.474    611.594    611.594
 22.770    652.000    618.285     33.715    611.105    613.243    616.147    611.105    611.105
 22.870    619.000    618.055      0.945    610.620    612.842    615.834    610.620    610.620
 22.970    591.000    617.853    -26.853    610.139    612.459    615.533    610.139    610.139
 23.070    597.790    617.676    -19.886    609.662    612.091    615.247    609.662    609.662
 23.170    611.000    617.523     -6.523    609.189    611.739    614.974    609.189    609.189
 23.270    594.010    617.403    -23.393    608.720    611.408    614.715    608.720    608.720
 23.370    633.078    617.321     15.757    608.254    611.104    614.472    608.254    608.254
 23.470    589.928    617.283    -27.355    607.793    610.830    614.246    607.793    607.793
 23.570    602.000    617.298    -15.298    607.335    610.596    614.038    607.335    607.335
 23.670    598.000    617.376    -19.376    606.881    610.410    613.848    606.881    606.881
 23.770    610.000    617.534     -7.534    606.430    610.286    613.679    606.430    606.430
 23.870    601.681    617.791    -16.110    605.984    610.244    613.531    605.984    605.984
 23.970    611.000    618.177     -7.177    605.541    610.313    613.406    605.541    605.541
 24.070    622.736    618.743      3.993    605.102    610.541    613.305    605.102    605.102
 24.170    624.000    619.585      4.415    604.667    611.024    613.230    604.667    604.667
 24.270    584.029    620.916    -36.887    604.235    611.970    613.184    604.235    604.235
 24.370    636.000    623.199     12.801    603.807    613.841    613.169    603.807    603.807
 24.470    673.658    627.335     46.323    603.383    617.538    613.187    603.383    603.383
 24.570    668.000    634.714     33.286    602.962    624.446    613.242    602.962    602.962
 24.670    657.870    646.785     11.085    602.545    636.014    613.337    602.545    602.545
 24.770    715.660    663.878     51.782    602.132    652.568    613.474    602.132    602.132
 24.870    718.000    683.244     34.756    601.722    671.353    613.660    601.722    601.722
 24.970    730.000    697.456     32.544    601.316    684.931    613.897    601.316    601.316
 25.070    696.030    698.123     -2.093    600.913    684.901    614.193    600.913    600.913
 25.170    659.707    685.011    -25.304    600.514    671.020    614.553    600.514    600.514
 25.270    682.000    666.395     15.605    600.119    651.563    614.985    600.119    600.119
 25.370    615.000    649.905    -34.905    599.727    634.156    615.497    599.727    599.727
 25.470    621.590    638.463    -16.872    599.339    621.715    616.099    599.339    599.339
 25.570    611.000    631.825    -20.825    598.954    613.984    616.803    598.954    598.954
 25.670    589.000    628.572    -39.572    598.573    609.529    617.621    598.573    598.573
 25.770    611.000    627.320    -16.320    598.196    606.947    618.571    598.196    598.196
 25.870    621.000    627.171     -6.171    597.821    605.324    619.670    597.821    597.821
 25.970    657.472    627.673     29.798    597.451    604.183    620.941    597.451    597.451
 26.070    608.764    628.643    -19.878    597.083    603.314    622.412    597.083    597.083
 26.170    642.000    630.016     11.984    596.720    602.620    624.115    596.720    596.720
 26.270    623.000    631.787     -8.787    596.359    602.055    626.090    596.359    596.359
 26.370    639.540    633.978      5.562    596.003    601.592    628.387    596.003    596.003
 26.470    657.090    636.638     20.452    595.649    601.218    631.067    595.649    595.649
 26.570    629.224    639.842    -10.618    595.299    600.928    634.211    595.299    595.299
 26.670    666.000    643.664     22.336    594.952    600.706    637.907    594.952    594.952
 26.770    650.000    648.239      1.761    594.609    600.559    642.285    594.609    594.609
 26.870    642.000    653.737    -11.737    594.269    600.492    647.509    594.269    594.269
 26.970    645.000    660.383    -15.383    593.933    600.516    653.794    593.933    593.933
 27.070    720.097    668.484     51.613    593.599    600.646    661.431    593.599    593.599
 27.170    649.282    678.461    -29.178    593.269    600.904    670.819    593.269    593.269
 27.270    670.224    690.904    -20.680    592.943    601.324    682.513    592.943    592.943
 27.370    684.000    706.668    -22.668    592.620    601.956    697.319    592.620    592.620
 27.470    696.673    727.047    -30.374    592.300    602.875    716.456    592.300    592.300
 27.570    740.680    754.294    -13.614    591.983    604.213    742.044    591.983    591.983
 27.670    797.928    793.571      4.357    591.669    606.270    778.942    591.669    591.669
 27.770    807.000    860.081    -53.081    591.359    609.926    841.468    591.359    591.359
 27.870   1005.000    999.230      5.770    591.052    617.803    972.388    591.052    591.052
 27.970   1269.000   1322.365    -53.365    590.748    636.326   1276.590    590.748    590.748
 28.070   1913.000   2023.561   -110.561    590.448    676.692   1936.924    590.448    590.448
 28.170   3354.154   3286.399     67.755    590.150    749.506   3126.393    590.150    590.150
 28.270   4980.000   5026.558    -46.558    589.856    849.954   4765.617    589.856    589.856
 28.370   6540.000   6634.917    -94.917    589.565    943.032   6280.661    589.565    589.565
 28.470   7021.743   7160.196   -138.453    589.277    974.162   6774.835    589.277    589.277
 28.570   6403.000   6237.884    165.116    588.992    922.946   5903.759    588.992    588.992
 28.670   4682.967   4666.365     16.602    588.711    836.667   4418.368    588.711    588.711
 28.770   3514.000   3453.654     60.346    588.432    775.286   3266.747    588.432    588.432
 28.870   3114.328   3053.322     61.006    588.157    766.335   2875.035    588.157    588.157
 28.970   3462.000   3346.281    115.719    587.884    801.676   3132.378    587.884    587.884
 29.070   3767.982   3855.790    -87.808    587.615    847.779   3595.621    587.615    587.615
 29.170   4014.000   4005.762      8.238    587.349    861.898   3731.371    587.349    587.349
 29.270   3476.000   3529.242    -53.242    587.086    824.276   3292.296    587.086    587.086
 29.370   2776.838   2700.626     76.212    586.826    757.770   2529.907    586.826    586.826
 29.470   1984.000   1912.831     71.169    586.569    694.383   1805.173    586.569    586.569
 29.570   1366.000   1356.119      9.881    586.314    649.588   1292.933    586.314    586.314
 29.670   1052.000   1035.172     16.828    586.063    623.808    997.470    586.063    586.063
 29.770    913.000    872.896     40.104    585.815    610.833    847.897    585.815    585.815
 29.870    861.000    792.817     68.183    585.570    604.497    773.899    585.570    585.570
 29.970    792.397    749.043     43.354    585.328    601.108    733.267    585.328    585.328
 30.070    782.000    721.043     60.957    585.088    599.024    707.110    585.088    585.088
 30.170    747.000    701.020     45.980    584.852    597.641    688.231    584.852    584.852
 30.270    681.000    685.999     -4.999    584.619    596.759    673.856    584.619    584.619
 30.370    634.532    674.707    -40.176    584.388    596.366    662.727    584.388    584.388
