neutron_powder_diffraction_0164
R_wp: 4.017
Temperature (K): 1074.000
Counts: 83504.00
Wavelength (Ã…): 2.52098
COMMENTS
Test file for demonstrating the .xyy file format in Reel1.0
END OF HEADER
   tth       Y_obs     Y_calc      Y_res    Background    Phase_1_Nuc    Phase_1_Mag    Phase_2_Nuc    Phase_2_Mag
  9.970    593.000    573.669     19.331    572.910    573.624    572.910    572.954    572.910
 10.070    598.000    573.741     24.259    572.921    573.696    572.921    572.965    572.921
 10.170    532.490    573.817    -41.327    572.926    573.772    572.926    572.971    572.926
 10.270    653.000    573.899     79.101    572.926    573.854    572.926    572.971    572.926
 10.370    650.000    573.990     76.010    572.922    573.944    572.922    572.967    572.922
 10.470    641.000    574.091     66.909    572.912    574.045    572.912    572.958    572.912
 10.570    529.794    574.208    -44.414    572.898    574.162    572.898    572.943    572.898
 10.670    602.000    574.346     27.654    572.879    574.299    572.879    572.925    572.879
 10.770    571.000    574.511     -3.511    572.855    574.464    572.855    572.901    572.855
 10.870    566.000    574.714     -8.714    572.826    574.667    572.826    572.873    572.826
 10.970    562.000    574.970    -12.970    572.793    574.920    572.793    572.842    572.793
 11.070    580.019    575.295      4.725    572.755    575.243    572.755    572.806    572.755
 11.170    605.000    575.715     29.285    572.713    575.663    572.713    572.764    572.713
 11.270    568.000    576.276     -8.276    572.666    576.223    572.666    572.717    572.666
 11.370    581.000    577.053      3.947    572.615    576.999    572.615    572.666    572.615
 11.470    602.000    578.211     23.789    572.559    578.156    572.559    572.610    572.559
 11.570    529.936    580.205    -50.270    572.498    580.149    572.498    572.550    572.498
 11.670    603.000    584.266     18.734    572.434    584.207    572.434    572.486    572.434
 11.770    626.057    593.104     32.953    572.365    593.040    572.365    572.417    572.365
 11.870    642.943    610.865     32.078    572.292    610.791    572.292    572.345    572.292
 11.970    656.000    640.512     15.488    572.215    640.421    572.215    572.268    572.215
 12.070    645.000    678.039    -33.039    572.133    677.927    572.133    572.186    572.133
 12.170    729.825    707.279     22.546    572.047    707.151    572.047    572.101    572.047
 12.270    684.000    708.143    -24.143    571.958    708.013    571.958    572.012    571.958
 12.370    668.000    679.783    -11.783    571.864    679.669    571.864    571.918    571.864
 12.470    635.000    641.935     -6.935    571.766    641.842    571.766    571.821    571.766
 12.570    613.000    611.471      1.529    571.665    611.395    571.665    571.719    571.665
 12.670    560.000    592.949    -32.949    571.559    592.883    571.559    571.614    571.559
 12.770    594.305    583.590     10.714    571.450    583.528    571.450    571.505    571.450
 12.870    558.000    579.199    -21.199    571.337    579.139    571.337    571.392    571.337
 12.970    603.611    576.968     26.643    571.220    576.909    571.220    571.275    571.220
 13.070    585.000    575.609      9.391    571.099    575.551    571.099    571.155    571.099
 13.170    533.000    574.646    -41.646    570.975    574.588    570.975    571.031    570.975
 13.270    535.582    573.904    -38.322    570.847    573.846    570.847    570.903    570.847
 13.370    549.832    573.307    -23.474    570.715    573.249    570.715    570.772    570.715
 13.470    537.000    572.809    -35.809    570.580    572.751    570.580    570.637    570.580
 13.570    610.076    572.384     37.692    570.442    572.326    570.442    570.499    570.442
 13.670    532.022    572.012    -39.990    570.300    571.953    570.300    570.358    570.300
 13.770    561.000    571.679    -10.679    570.154    571.619    570.154    570.213    570.154
 13.870    560.980    571.374    -10.395    570.005    571.314    570.005    570.065    570.005
 13.970    558.000    571.096    -13.096    569.853    571.035    569.853    569.913    569.853
 14.070    544.000    570.832    -26.832    569.697    570.772    569.697    569.758    569.697
 14.170    544.954    570.581    -25.627    569.539    570.520    569.539    569.599    569.539
 14.270    562.000    570.339     -8.339    569.376    570.278    569.376    569.437    569.376
 14.370    577.026    570.107      6.919    569.211    570.045    569.211    569.272    569.211
 14.470    614.696    569.881     44.815    569.043    569.819    569.043    569.104    569.043
 14.570    555.000    569.658    -14.658    568.871    569.596    568.871    568.933    568.871
 14.670    543.000    569.438    -26.438    568.697    569.376    568.697    568.759    568.697
 14.770    524.609    569.221    -44.612    568.519    569.158    568.519    568.582    568.519
 14.870    550.997    569.005    -18.008    568.339    568.942    568.339    568.402    568.339
 14.970    616.000    568.790     47.210    568.155    568.727    568.155    568.218    568.155
 15.070    542.000    568.576    -26.576    567.969    568.512    567.969    568.032    567.969
 15.170    552.241    568.362    -16.121    567.780    568.298    567.780    567.844    567.780
 15.270    578.022    568.148      9.874    567.588    568.084    567.588    567.652    567.588
 15.370    529.000    567.933    -38.933    567.393    567.869    567.393    567.457    567.393
 15.470    523.000    567.718    -44.718    567.195    567.653    567.195    567.260    567.195
 15.570    579.000    567.502     11.498    566.995    567.436    566.995    567.060    566.995
 15.670    559.000    567.284     -8.284    566.792    567.219    566.792    566.857    566.792
 15.770    555.261    567.066    -11.805    566.586    567.000    566.586    566.652    566.586
 15.870    554.000    566.846    -12.846    566.378    566.780    566.378    566.444    566.378
 15.970    566.000    566.625     -0.625    566.167    566.558    566.167    566.234    566.167
 16.070    604.292    566.403     37.889    565.953    566.335    565.953    566.021    565.953
 16.170    521.588    566.179    -44.590    565.737    566.111    565.737    565.805    565.737
 16.270    520.895    565.953    -45.057    565.519    565.885    565.519    565.587    565.519
 16.370    569.000    565.726      3.274    565.298    565.657    565.298    565.367    565.298
 16.470    577.000    565.501     11.499    565.075    565.427    565.075    565.148    565.075
 16.570    563.315    565.274     -1.959    564.850    565.199    564.850    564.925    564.850
 16.670    604.000    565.042     38.958    564.622    564.966    564.622    564.697    564.622
 16.770    545.714    564.808    -19.094    564.392    564.732    564.392    564.468    564.392
 16.870    574.468    564.572      9.896    564.159    564.496    564.159    564.236    564.159
 16.970    588.000    564.335     23.665    563.925    564.258    563.925    564.002    563.925
 17.070    505.000    564.096    -59.096    563.688    564.018    563.688    563.765    563.688
 17.170    607.000    563.855     43.145    563.449    563.777    563.449    563.527    563.449
 17.270    570.529    563.612      6.916    563.208    563.534    563.208    563.287    563.208
 17.370    544.219    563.368    -19.150    562.965    563.289    562.965    563.044    562.965
 17.470    522.823    563.122    -40.299    562.720    563.043    562.720    562.799    562.720
 17.570    560.000    562.875     -2.875    562.473    562.795    562.473    562.553    562.473
 17.670    550.125    562.626    -12.501    562.224    562.545    562.224    562.304    562.224
 17.770    557.000    562.375     -5.375    561.973    562.294    561.973    562.054    561.973
 17.870    538.384    562.123    -23.739    561.720    562.041    561.720    561.802    561.720
 17.970    546.307    561.869    -15.563    561.465    561.787    561.465    561.547    561.465
 18.070    515.270    561.615    -46.345    561.208    561.532    561.208    561.291    561.208
 18.170    567.000    561.358      5.642    560.950    561.275    560.950    561.033    560.950
 18.270    587.363    561.101     26.262    560.690    561.017    560.690    560.774    560.690
 18.370    586.276    560.842     25.434    560.428    560.758    560.428    560.512    560.428
 18.470    521.000    560.581    -39.581    560.164    560.496    560.164    560.249    560.164
 18.570    570.000    560.319      9.681    559.899    560.233    559.899    559.985    559.899
 18.670    537.000    560.055    -23.055    559.632    559.968    559.632    559.718    559.632
 18.770    611.000    559.790     51.210    559.363    559.703    559.363    559.450    559.363
 18.870    584.000    559.524     24.476    559.093    559.436    559.093    559.181    559.093
 18.970    512.000    559.256    -47.256    558.821    559.167    558.821    558.910    558.821
 19.070    531.000    558.988    -27.988    558.548    558.899    558.548    558.637    558.548
 19.170    564.835    558.733      6.102    558.273    558.643    558.273    558.363    558.273
 19.270    554.000    558.472     -4.472    557.997    558.381    557.997    558.088    557.997
 19.370    546.000    558.201    -12.201    557.720    558.110    557.720    557.811    557.720
 19.470    576.000    557.928     18.072    557.441    557.836    557.441    557.533    557.441
 19.570    571.000    557.654     13.346    557.160    557.561    557.160    557.253    557.160
 19.670    590.000    557.379     32.621    556.878    557.285    556.878    556.972    556.878
 19.770    516.090    557.103    -41.013    556.595    557.009    556.595    556.690    556.595
 19.870    545.000    556.826    -11.826    556.311    556.731    556.311    556.407    556.311
 19.970    523.810    556.549    -32.739    556.026    556.453    556.026    556.122    556.026
 20.070    550.000    556.271     -6.271    555.739    556.174    555.739    555.836    555.739
 20.170    607.140    555.992     51.149    555.451    555.894    555.451    555.549    555.451
 20.270    591.000    555.712     35.288    555.162    555.613    555.162    555.261    555.162
 20.370    514.000    555.432    -41.432    554.872    555.332    554.872    554.971    554.872
 20.470    557.000    555.151      1.849    554.580    555.051    554.580    554.681    554.580
 20.570    581.441    554.870     26.571    554.288    554.768    554.288    554.389    554.288
 20.670    597.957    554.589     43.368    553.994    554.486    553.994    554.097    553.994
 20.770    535.000    554.307    -19.307    553.700    554.203    553.700    553.803    553.700
 20.870    592.000    554.025     37.975    553.404    553.920    553.404    553.509    553.404
 20.970    575.000    553.745     21.255    553.108    553.637    553.108    553.216    553.108
 21.070    549.000    553.472     -4.472    552.810    553.362    552.810    552.920    552.810
 21.170    533.000    553.275    -20.275    552.512    553.164    552.512    552.623    552.512
 21.270    513.358    553.016    -39.658    552.213    552.904    552.213    552.325    552.213
 21.370    540.000    552.736    -12.736    551.913    552.623    551.913    552.026    551.913
 21.470    557.827    552.456      5.372    551.612    552.341    551.612    551.727    551.612
 21.570    517.498    552.178    -34.680    551.310    552.062    551.310    551.426    551.310
 21.670    554.000    551.903      2.097    551.008    551.786    551.008    551.125    551.008
 21.770    508.477    551.627    -43.150    550.705    551.509    550.705    550.823    550.705
 21.870    558.000    551.376      6.624    550.401    551.257    550.401    550.521    550.401
 21.970    587.433    551.176     36.257    550.096    551.055    550.096    550.218    550.096
 22.070    531.000    550.926    -19.926    549.791    550.803    549.791    549.914    549.791
 22.170    519.000    550.660    -31.660    549.485    550.536    549.485    549.609    549.485
 22.270    619.000    550.393     68.607    549.179    550.267    549.179    549.304    549.179
 22.370    537.000    550.129    -13.129    548.871    550.002    548.871    548.999    548.871
 22.470    557.000    549.869      7.131    548.564    549.740    548.564    548.693    548.564
 22.570    517.530    549.613    -32.083    548.256    549.483    548.256    548.387    548.256
 22.670    520.000    549.364    -29.364    547.947    549.231    547.947    548.080    547.947
 22.770    550.000    549.120      0.880    547.638    548.986    547.638    547.772    547.638
 22.870    563.000    548.886     14.114    547.328    548.749    547.328    547.464    547.328
 22.970    581.000    548.661     32.339    547.018    548.522    547.018    547.156    547.018
 23.070    522.953    548.448    -25.495    546.707    548.308    546.707    546.848    546.707
 23.170    520.681    548.251    -27.570    546.396    548.108    546.396    546.539    546.396
 23.270    551.961    548.073      3.888    546.085    547.928    546.085    546.230    546.085
 23.370    626.000    547.919     78.081    545.773    547.772    545.773    545.921    545.773
 23.470    572.678    547.798     24.880    545.461    547.648    545.461    545.611    545.461
 23.570    549.287    547.718      1.569    545.148    547.566    545.148    545.301    545.148
 23.670    538.000    547.694     -9.694    544.836    547.539    544.836    544.991    544.836
 23.770    568.000    547.747     20.253    544.523    547.590    544.523    544.681    544.523
 23.870    546.839    547.911     -1.073    544.210    547.752    544.210    544.371    544.210
 23.970    604.000    548.250     55.750    543.896    548.088    543.896    544.061    543.896
 24.070    578.389    548.909     29.480    543.583    548.744    543.583    543.750    543.583
 24.170    549.723    550.297     -0.574    543.269    550.130    543.269    543.440    543.269
 24.270    561.000    553.443      7.557    542.955    553.275    542.955    543.130    542.955
 24.370    584.607    560.342     24.265    542.641    560.176    542.641    542.819    542.641
 24.470    580.665    573.594      7.070    542.327    573.434    542.327    542.509    542.327
 24.570    614.000    594.285     19.715    542.013    594.135    542.013    542.199    542.013
 24.670    624.525    618.332      6.193    541.699    618.195    541.699    541.889    541.699
 24.770    617.000    634.116    -17.116    541.384    633.987    541.384    541.580    541.384
 24.870    601.000    630.256    -29.256    541.070    630.119    541.070    541.270    541.070
 24.970    622.000    609.835     12.165    540.756    609.679    540.756    540.961    540.756
 25.070    553.000    585.646    -32.646    540.442    585.467    540.442    540.652    540.442
 25.170    591.000    566.792     24.208    540.127    566.593    540.127    540.344    540.127
 25.270    569.000    555.304     13.696    539.813    555.091    539.813    540.036    539.813
 25.370    560.000    549.326     10.674    539.499    549.102    539.499    539.729    539.499
 25.470    532.000    546.362    -14.362    539.185    546.129    539.185    539.422    539.185
 25.570    579.000    544.753     34.247    538.871    544.511    538.871    539.115    538.871
 25.670    496.542    543.720    -47.178    538.558    543.470    538.558    538.810    538.558
 25.770    511.681    542.986    -31.305    538.244    542.727    538.244    538.505    538.244
 25.870    542.000    542.417     -0.417    537.931    542.148    537.931    538.201    537.931
 25.970    604.000    541.938     62.062    537.618    541.659    537.618    537.898    537.618
 26.070    533.000    541.528     -8.528    537.305    541.237    537.305    537.596    537.305
 26.170    555.000    541.184     13.816    536.992    540.882    536.992    537.295    536.992
 26.270    579.000    540.899     38.101    536.680    540.584    536.680    536.995    536.680
 26.370    540.982    540.670      0.312    536.367    540.341    536.367    536.697    536.367
 26.470    584.804    540.505     44.300    536.056    540.161    536.056    536.400    536.056
 26.570    575.000    540.407     34.593    535.744    540.046    535.744    536.105    535.744
 26.670    518.000    540.346    -22.346    535.433    539.968    535.433    535.812    535.433
 26.770    548.000    540.351      7.649    535.122    539.952    535.122    535.521    535.122
 26.870    565.000    540.436     24.564    534.811    540.015    534.811    535.232    534.811
 26.970    571.226    540.620     30.606    534.501    540.175    534.501    534.946    534.501
 27.070    530.000    540.929    -10.929    534.192    540.457    534.192    534.664    534.192
 27.170    495.000    541.402    -46.402    533.882    540.899    533.882    534.385    533.882
 27.270    547.000    542.096      4.904    533.574    541.559    533.574    534.110    533.574
 27.370    567.000    543.104     23.896    533.265    542.528    533.265    533.839    533.265
 27.470    517.664    544.580    -26.916    532.957    543.961    532.957    533.575    532.957
 27.570    558.223    546.960     11.263    532.650    546.291    532.650    533.316    532.650
 27.670    529.000    551.695    -22.695    532.343    550.969    532.343    533.066    532.343
 27.770    538.000    563.583    -25.583    532.037    562.787    532.037    532.824    532.037
 27.870    578.000    594.404    -16.404    531.731    593.523    531.731    532.594    531.731
 27.970    704.000    661.855     42.145    531.426    660.864    531.426    532.376    531.426
 28.070    785.000    773.045     11.955    531.121    771.918    531.121    532.175    531.121
 28.170    864.871    896.479    -31.608    530.817    895.200    530.817    531.995    530.817
 28.270   1015.821    957.343     58.479    530.514    955.918    530.514    531.840    530.514
 28.370    935.439    906.360     29.079    530.211    904.790    530.211    531.718    530.211
 28.470    782.495    796.226    -13.731    529.908    794.468    529.908    531.640    529.908
 28.570    718.693    710.787      7.907    529.607    708.756    529.607    531.625    529.607
 28.670    697.000    693.228      3.772    529.306    690.818    529.306    531.701    529.306
 28.770    708.000    738.673    -30.673    529.006    735.738    529.006    531.921    529.006
 28.870    789.000    807.142    -18.142    528.706    803.465    528.706    532.369    528.706
 28.970    893.136    839.340     53.796    528.408    834.570    528.408    533.178    528.408
 29.070    725.000    800.194    -75.194    528.109    793.793    528.109    534.521    528.109
 29.170    716.223    720.096     -3.873    527.812    711.325    527.812    536.595    527.812
 29.270    617.000    646.078    -29.078    527.516    634.049    527.516    539.552    527.516
 29.370    602.000    599.605      2.395    527.220    583.441    527.220    543.386    527.220
 29.470    599.000    578.371     20.629    526.925    557.581    526.925    547.714    526.925
 29.570    569.000    571.027     -2.027    526.631    546.178    526.631    551.478    526.631
 29.670    571.000    567.777      3.223    526.337    541.072    526.337    553.040    526.337
 29.770    612.000    563.699     48.301    526.045    538.332    526.045    551.410    526.045
 29.870    579.000    558.147     20.853    525.753    536.559    525.753    547.339    525.753
 29.970    587.000    552.305     34.695    525.462    535.318    525.462    542.446    525.462
 30.070    597.000    547.204     49.796    525.172    534.469    525.172    537.905    525.172
 30.170    572.485    543.307     29.178    524.883    533.986    524.883    534.202    524.883
 30.270    542.000    540.790      1.210    524.595    533.989    524.595    531.394    524.595
 30.370    520.000    539.980    -19.980    524.307    534.936    524.307    529.347    524.307
