neutron_powder_diffraction_0195
R_wp: 3.944
Temperature (K): 1074.000
Counts: 84442.00
Wavelength (Ã…): 2.52098
COMMENTS
Test file for demonstrating the .xyy file format in Reel1.0
END OF HEADER
   tth       Y_obs     Y_calc      Y_res    Background    Phase_1_Nuc    Phase_1_Mag    Phase_2_Nuc    Phase_2_Mag
  9.970    618.683    576.786     41.897    576.048    576.717    576.048    576.117    576.048
 10.070    603.467    576.925     26.542    576.111    576.855    576.111    576.180    576.111
 10.170    565.234    577.054    -11.820    576.167    576.984    576.167    576.237    576.167
 10.270    620.637    577.184     43.453    576.218    577.114    576.218    576.288    576.218
 10.370    554.918    577.322    -22.404    576.263    577.251    576.263    576.333    576.263
 10.470    585.000    577.469      7.531    576.302    577.398    576.302    576.373    576.302
 10.570    596.134    577.631     18.503    576.336    577.559    576.336    576.407    576.336
 10.670    572.000    577.811     -5.811    576.364    577.739    576.364    576.435    576.364
 10.770    589.000    578.018     10.982    576.387    577.946    576.387    576.458    576.387
 10.870    594.000    578.260     15.740    576.404    578.187    576.404    576.476    576.404
 10.970    597.000    578.550     18.450    576.416    578.477    576.416    576.488    576.416
 11.070    628.000    578.908     49.092    576.422    578.834    576.422    576.495    576.422
 11.170    585.000    579.359      5.641    576.423    579.285    576.423    576.496    576.423
 11.270    591.326    579.946     11.381    576.419    579.871    576.419    576.492    576.419
 11.370    631.000    580.742     50.258    576.410    580.666    576.410    576.483    576.410
 11.470    563.741    581.908    -18.166    576.395    581.831    576.395    576.469    576.395
 11.570    637.000    583.886     53.114    576.376    583.807    576.376    576.450    576.376
 11.670    617.000    587.870     29.130    576.351    587.789    576.351    576.425    576.351
 11.770    579.000    596.493    -17.493    576.321    596.407    576.321    576.396    576.321
 11.870    632.000    613.784     18.216    576.287    613.688    576.287    576.362    576.287
 11.970    648.000    642.625      5.375    576.247    642.512    576.247    576.323    576.247
 12.070    672.000    679.129     -7.129    576.203    678.995    576.203    576.279    576.203
 12.170    700.000    707.586     -7.586    576.154    707.435    576.154    576.230    576.154
 12.270    697.000    708.458    -11.458    576.100    708.307    576.100    576.177    576.100
 12.370    652.000    680.924    -28.924    576.042    680.788    576.042    576.118    576.042
 12.470    623.000    644.175    -21.175    575.978    644.059    575.978    576.056    575.978
 12.570    581.000    614.607    -33.607    575.911    614.507    575.911    575.988    575.911
 12.670    557.460    596.644    -39.184    575.838    596.554    575.838    575.916    575.838
 12.770    569.000    587.582    -18.582    575.761    587.497    575.761    575.840    575.761
 12.870    576.000    583.343     -7.343    575.680    583.260    575.680    575.759    575.680
 12.970    603.471    581.203     22.268    575.595    581.120    575.595    575.674    575.595
 13.070    582.000    579.914      2.086    575.505    579.827    575.505    575.589    575.505
 13.170    544.092    579.005    -34.913    575.410    578.916    575.410    575.497    575.410
 13.270    578.402    578.310      0.092    575.312    578.221    575.312    575.399    575.312
 13.370    569.000    577.753     -8.753    575.209    577.664    575.209    575.297    575.209
 13.470    599.000    577.294     21.706    575.102    577.205    575.102    575.190    575.102
 13.570    540.429    576.904    -36.475    574.991    576.815    574.991    575.080    574.991
 13.670    620.160    576.565     43.596    574.876    576.475    574.876    574.965    574.876
 13.770    566.380    576.262     -9.882    574.757    576.172    574.757    574.846    574.757
 13.870    554.000    575.988    -21.988    574.634    575.898    574.634    574.724    574.634
 13.970    560.749    575.735    -14.986    574.507    575.644    574.507    574.597    574.507
 14.070    584.629    575.498      9.131    574.376    575.406    574.376    574.467    574.376
 14.170    566.000    575.273     -9.273    574.241    575.181    574.241    574.332    574.241
 14.270    613.311    575.057     38.254    574.103    574.965    574.103    574.194    574.103
 14.370    543.854    574.848    -30.994    573.960    574.755    573.960    574.053    573.960
 14.470    611.506    574.644     36.861    573.815    574.551    573.815    573.907    573.815
 14.570    608.905    574.445     34.460    573.665    574.351    573.665    573.758    573.665
 14.670    542.000    574.250    -32.250    573.512    574.157    573.512    573.605    573.512
 14.770    555.795    574.057    -18.261    573.355    573.962    573.355    573.449    573.355
 14.870    559.000    573.862    -14.862    573.195    573.767    573.195    573.289    573.195
 14.970    598.315    573.668     24.647    573.031    573.573    573.031    573.126    573.031
 15.070    567.000    573.474     -6.474    572.864    573.378    572.864    572.960    572.864
 15.170    577.000    573.279      3.721    572.693    573.183    572.693    572.790    572.693
 15.270    593.000    573.084     19.916    572.519    572.987    572.519    572.616    572.519
 15.370    556.000    572.888    -16.888    572.342    572.790    572.342    572.439    572.342
 15.470    526.199    572.690    -46.491    572.162    572.592    572.162    572.260    572.162
 15.570    556.000    572.491    -16.491    571.978    572.393    571.978    572.076    571.978
 15.670    552.000    572.290    -20.290    571.791    572.191    571.791    571.890    571.791
 15.770    560.000    572.089    -12.089    571.601    571.989    571.601    571.701    571.601
 15.870    616.209    571.886     44.323    571.408    571.786    571.408    571.508    571.408
 15.970    566.000    571.680     -5.680    571.212    571.580    571.212    571.313    571.212
 16.070    550.710    571.472    -20.762    571.013    571.371    571.013    571.114    571.013
 16.170    572.000    571.262      0.738    570.811    571.160    570.811    570.913    570.811
 16.270    507.000    571.050    -64.050    570.606    570.948    570.606    570.708    570.606
 16.370    567.000    570.836     -3.836    570.398    570.733    570.398    570.501    570.398
 16.470    547.000    570.619    -23.619    570.187    570.516    570.187    570.291    570.187
 16.570    567.834    570.401     -2.567    569.974    570.296    569.974    570.078    569.974
 16.670    609.000    570.180     38.820    569.758    570.075    569.758    569.862    569.758
 16.770    540.000    569.957    -29.957    569.539    569.851    569.539    569.644    569.539
 16.870    606.000    569.732     36.268    569.317    569.626    569.317    569.423    569.317
 16.970    547.300    569.505    -22.205    569.093    569.398    569.093    569.199    569.093
 17.070    587.828    569.276     18.552    568.866    569.168    568.866    568.973    568.866
 17.170    599.000    569.045     29.955    568.636    568.936    568.636    568.744    568.636
 17.270    601.000    568.813     32.187    568.404    568.704    568.404    568.513    568.404
 17.370    570.763    568.578      2.185    568.170    568.468    568.170    568.279    568.170
 17.470    568.000    568.340     -0.340    567.933    568.230    567.933    568.043    567.933
 17.570    574.000    568.101      5.899    567.693    567.990    567.693    567.804    567.693
 17.670    563.000    567.859     -4.859    567.451    567.747    567.451    567.563    567.451
 17.770    499.000    567.615    -68.615    567.207    567.502    567.207    567.320    567.207
 17.870    582.143    567.369     14.774    566.961    567.256    566.961    567.074    566.961
 17.970    599.483    567.122     32.362    566.712    567.007    566.712    566.826    566.712
 18.070    538.000    566.872    -28.872    566.462    566.757    566.462    566.576    566.462
 18.170    570.190    566.620      3.569    566.209    566.505    566.209    566.324    566.209
 18.270    592.227    566.367     25.860    565.953    566.251    565.953    566.070    565.953
 18.370    562.000    566.114     -4.114    565.696    565.995    565.696    565.816    565.696
 18.470    566.000    565.858      0.142    565.437    565.737    565.437    565.558    565.437
 18.570    532.615    565.601    -32.986    565.175    565.478    565.175    565.298    565.175
 18.670    589.000    565.342     23.658    564.912    565.218    564.912    565.035    564.912
 18.770    566.000    565.080      0.920    564.647    564.956    564.647    564.771    564.647
 18.870    552.000    564.817    -12.817    564.379    564.691    564.379    564.504    564.379
 18.970    542.000    564.551    -22.551    564.110    564.425    564.110    564.236    564.110
 19.070    606.223    564.285     41.938    563.839    564.157    563.839    563.966    563.839
 19.170    541.000    564.016    -23.016    563.566    563.888    563.566    563.694    563.566
 19.270    548.000    563.746    -15.746    563.291    563.617    563.291    563.421    563.291
 19.370    608.000    563.475     44.525    563.015    563.345    563.015    563.145    563.015
 19.470    559.000    563.203     -4.203    562.737    563.071    562.737    562.868    562.737
 19.570    524.766    562.929    -38.163    562.457    562.796    562.457    562.589    562.457
 19.670    606.693    562.653     44.040    562.176    562.520    562.176    562.309    562.176
 19.770    575.000    562.378     12.622    561.892    562.244    561.892    562.027    561.892
 19.870    584.011    562.114     21.897    561.608    561.978    561.608    561.743    561.608
 19.970    519.640    561.845    -42.206    561.321    561.708    561.321    561.458    561.321
 20.070    555.000    561.566     -6.566    561.034    561.428    561.034    561.172    561.034
 20.170    575.758    561.286     14.472    560.744    561.146    560.744    560.884    560.744
 20.270    564.000    561.004      2.996    560.454    560.864    560.454    560.594    560.454
 20.370    576.000    560.721     15.279    560.162    560.580    560.162    560.303    560.162
 20.470    559.000    560.438     -1.438    559.868    560.295    559.868    560.011    559.868
 20.570    529.495    560.154    -30.659    559.573    560.009    559.573    559.718    559.573
 20.670    561.260    559.869      1.391    559.277    559.723    559.277    559.423    559.277
 20.770    570.967    559.584     11.384    558.979    559.436    558.979    559.127    558.979
 20.870    598.716    559.298     39.419    558.681    559.149    558.681    558.829    558.681
 20.970    546.000    559.011    -13.011    558.381    558.861    558.381    558.531    558.381
 21.070    527.000    558.725    -31.725    558.079    558.573    558.079    558.231    558.079
 21.170    526.576    558.438    -31.862    557.777    558.285    557.777    557.930    557.777
 21.270    533.000    558.151    -25.151    557.473    557.996    557.473    557.628    557.473
 21.370    543.000    557.864    -14.864    557.169    557.707    557.169    557.325    557.169
 21.470    561.000    557.577      3.423    556.863    557.419    556.863    557.021    556.863
 21.570    564.000    557.291      6.709    556.556    557.131    556.556    556.716    556.556
 21.670    544.000    557.005    -13.005    556.249    556.843    556.249    556.411    556.249
 21.770    560.000    556.728      3.272    555.940    556.564    555.940    556.104    555.940
 21.870    550.000    556.523     -6.523    555.630    556.357    555.630    555.796    555.630
 21.970    553.000    556.261     -3.261    555.319    556.093    555.319    555.487    555.319
 22.070    517.000    555.981    -38.981    555.008    555.812    555.008    555.178    555.008
 22.170    557.000    555.702      1.298    554.695    555.530    554.695    554.867    554.695
 22.270    609.000    555.426     53.574    554.382    555.252    554.382    554.556    554.382
 22.370    562.935    555.154      7.781    554.068    554.978    554.068    554.244    554.068
 22.470    553.459    554.888     -1.428    553.753    554.709    553.753    553.932    553.753
 22.570    514.836    554.624    -39.787    553.437    554.443    553.437    553.619    553.437
 22.670    592.000    554.386     37.614    553.121    554.203    553.121    553.305    553.121
 22.770    557.086    554.201      2.884    552.804    554.015    552.804    552.990    552.804
 22.870    585.350    553.975     31.375    552.486    553.786    552.486    552.675    552.486
 22.970    539.000    553.740    -14.740    552.168    553.548    552.168    552.360    552.168
 23.070    549.054    553.515     -4.461    551.849    553.320    551.849    552.044    551.849
 23.170    603.000    553.305     49.695    551.529    553.108    551.529    551.727    551.529
 23.270    535.854    553.116    -17.261    551.209    552.915    551.209    551.410    551.209
 23.370    573.192    552.947     20.245    550.888    552.744    550.888    551.093    550.888
 23.470    519.000    552.809    -33.809    550.567    552.602    550.567    550.775    550.567
 23.570    522.000    552.711    -30.711    550.245    552.501    550.245    550.457    550.245
 23.670    562.000    552.667      9.333    549.923    552.453    549.923    550.138    549.923
 23.770    550.000    552.698     -2.698    549.601    552.480    549.601    549.819    549.601
 23.870    563.000    552.835     10.165    549.278    552.614    549.278    549.500    549.278
 23.970    589.000    553.140     35.860    548.954    552.915    548.954    549.181    548.954
 24.070    595.364    553.754     41.610    548.630    553.525    548.630    548.862    548.630
 24.170    541.000    555.070    -14.070    548.306    554.837    548.306    548.543    548.306
 24.270    588.877    558.078     30.799    547.982    557.843    547.982    548.223    547.982
 24.370    581.000    564.744     16.256    547.657    564.508    547.657    547.904    547.657
 24.470    602.848    577.638     25.210    547.332    577.406    547.332    547.584    547.332
 24.570    576.000    597.860    -21.860    547.007    597.638    547.007    547.265    547.007
 24.670    612.027    621.418     -9.391    546.682    621.207    546.682    546.945    546.682
 24.770    608.000    636.892    -28.892    546.356    636.686    546.356    546.626    546.356
 24.870    613.000    633.060    -20.060    546.030    632.844    546.030    546.307    546.030
 24.970    616.000    612.972      3.028    545.705    612.735    545.705    545.988    545.705
 25.070    619.736    589.231     30.505    545.379    588.970    545.379    545.670    545.379
 25.170    582.000    570.781     11.219    545.052    570.499    545.052    545.352    545.052
 25.270    524.000    559.576    -35.576    544.726    559.278    544.726    545.034    544.726
 25.370    528.000    553.775    -25.775    544.400    553.464    544.400    544.717    544.400
 25.470    554.000    550.904      3.096    544.074    550.581    544.074    544.400    544.074
 25.570    534.000    549.326    -15.326    543.748    548.992    543.748    544.085    543.748
 25.670    562.244    548.296     13.948    543.421    547.949    543.421    543.770    543.421
 25.770    509.426    547.526    -38.100    543.095    547.168    543.095    543.455    543.095
 25.870    536.971    546.907     -9.936    542.769    546.535    542.769    543.142    542.769
 25.970    518.196    546.393    -28.197    542.443    546.007    542.443    542.830    542.443
 26.070    522.000    545.957    -23.957    542.117    545.556    542.117    542.519    542.117
 26.170    589.330    545.585     43.745    541.792    545.168    541.792    542.209    541.792
 26.270    579.998    545.267     34.731    541.466    544.833    541.466    541.901    541.466
 26.370    539.000    545.004     -6.004    541.141    544.550    541.141    541.594    541.141
 26.470    551.000    544.813      6.187    540.815    544.339    540.815    541.290    540.815
 26.570    571.000    544.668     26.332    540.490    544.171    540.490    540.988    540.490
 26.670    509.329    544.557    -35.228    540.166    544.035    540.166    540.688    540.166
 26.770    527.000    544.497    -17.497    539.841    543.947    539.841    540.390    539.841
 26.870    526.000    544.510    -18.510    539.517    543.931    539.517    540.096    539.517
 26.970    578.000    544.616     33.384    539.193    544.003    539.193    539.805    539.193
 27.070    578.827    544.815     34.012    538.869    544.165    538.869    539.519    538.869
 27.170    555.203    545.151     10.052    538.546    544.460    538.546    539.237    538.546
 27.270    566.524    545.683     20.841    538.223    544.945    538.223    538.960    538.223
 27.370    582.587    546.485     36.102    537.901    545.695    537.901    538.690    537.901
 27.470    567.039    547.654     19.384    537.579    546.805    537.579    538.427    537.579
 27.570    541.000    549.553     -8.553    537.257    548.636    537.257    538.172    537.257
 27.670    596.000    553.452     42.548    536.936    552.457    536.936    537.927    536.936
 27.770    607.000    563.910     43.090    536.615    562.823    536.615    537.695    536.615
 27.870    608.000    593.103     14.897    536.294    591.904    536.294    537.477    536.294
 27.970    669.000    660.935      8.065    535.975    659.595    535.975    537.276    535.975
 28.070    767.076    777.276    -10.200    535.655    775.763    535.655    537.097    535.655
 28.170    879.152    908.858    -29.706    535.336    907.150    535.336    536.946    535.336
 28.270    959.066    973.726    -14.659    535.018    971.819    535.018    536.828    535.018
 28.370    867.524    918.131    -50.607    534.700    916.018    534.700    536.755    534.700
 28.470    826.000    798.852     27.148    534.383    796.471    534.383    536.743    534.383
 28.570    704.997    707.353     -2.356    534.067    704.595    534.067    536.816    534.067
 28.670    676.000    690.189    -14.189    533.751    686.911    533.751    537.016    533.751
 28.770    709.992    741.039    -31.047    533.436    737.051    533.436    537.405    533.436
 28.870    858.000    816.222     41.778    533.121    811.253    533.121    538.079    533.121
 28.970    824.102    851.952    -27.851    532.807    845.594    532.807    539.170    532.807
 29.070    848.692    810.957     37.735    532.494    802.631    532.494    540.834    532.494
 29.170    702.000    726.317    -24.317    532.181    715.282    532.181    543.230    532.181
 29.270    657.000    649.125      7.875    531.870    634.544    531.870    546.459    531.870
 29.370    593.000    602.168     -9.168    531.559    583.271    531.559    550.458    531.559
 29.470    556.000    581.806    -25.806    531.248    558.259    531.248    554.795    531.248
 29.570    571.000    575.301     -4.301    530.939    547.810    530.939    558.428    530.939
 29.670    590.981    572.570     18.410    530.630    543.314    530.630    559.884    530.630
 29.770    613.126    568.908     44.218    530.322    540.918    530.322    558.310    530.322
 29.870    599.000    563.686     35.314    530.015    539.350    530.015    554.348    530.015
 29.970    512.045    557.976    -45.931    529.708    538.238    529.708    549.444    529.708
 30.070    582.000    552.796     29.204    529.403    537.463    529.403    544.734    529.403
 30.170    559.000    548.651     10.349    529.098    537.005    529.098    540.743    529.098
 30.270    562.000    545.763     16.237    528.795    536.968    528.795    537.587    528.795
 30.370    569.000    544.479     24.521    528.492    537.781    528.492    535.186    528.492
