neutron_powder_diffraction_0236
R_wp: 4.019
Temperature (K): 1020.333
Counts: 83923.00
Wavelength (Ã…): 2.52098
COMMENTS
Test file for demonstrating the .xyy file format in Reel1.0
END OF HEADER
   tth       Y_obs     Y_calc      Y_res    Background    Phase_1_Nuc    Phase_1_Mag    Phase_2_Nuc    Phase_2_Mag
  9.970    541.000    569.306    -28.306    568.675    569.287    568.675    568.693    568.675
 10.070    584.000    569.459     14.541    568.758    569.438    568.758    568.779    568.758
 10.170    555.000    569.605    -14.605    568.836    569.584    568.836    568.857    568.836
 10.270    585.000    569.749     15.251    568.908    569.728    568.908    568.929    568.908
 10.370    565.000    569.899     -4.899    568.975    569.878    568.975    568.996    568.975
 10.470    608.000    570.058     37.942    569.036    570.037    569.036    569.057    569.036
 10.570    536.741    570.229    -33.488    569.092    570.208    569.092    569.113    569.092
 10.670    523.175    570.417    -47.242    569.142    570.395    569.142    569.163    569.142
 10.770    529.379    570.628    -41.249    569.187    570.606    569.187    569.208    569.187
 10.870    580.000    570.870      9.130    569.227    570.848    569.227    569.248    569.227
 10.970    569.788    571.155     -1.367    569.261    571.133    569.261    569.282    569.261
 11.070    600.000    571.500     28.500    569.290    571.477    569.290    569.312    569.290
 11.170    588.000    571.929     16.071    569.314    571.905    569.314    569.336    569.314
 11.270    607.000    572.478     34.522    569.333    572.454    569.333    569.355    569.333
 11.370    531.000    573.211    -42.211    569.347    573.187    569.347    569.369    569.347
 11.470    598.000    574.264     23.736    569.356    574.239    569.356    569.379    569.356
 11.570    564.143    576.007    -11.864    569.360    575.981    569.360    569.383    569.360
 11.670    620.000    579.494     40.506    569.360    579.466    569.360    569.382    569.360
 11.770    634.118    587.215     46.904    569.354    587.182    569.354    569.377    569.354
 11.870    634.134    603.310     30.825    569.344    603.268    569.344    569.366    569.344
 11.970    620.966    631.314    -10.348    569.329    631.256    569.329    569.351    569.329
 12.070    708.000    668.349     39.651    569.309    668.271    569.309    569.332    569.309
 12.170    693.000    699.295     -6.295    569.284    699.199    569.284    569.307    569.284
 12.270    652.000    703.212    -51.212    569.255    703.114    569.255    569.279    569.255
 12.370    685.000    676.549      8.451    569.222    676.465    569.222    569.245    569.222
 12.470    658.239    638.771     19.467    569.184    638.709    569.184    569.207    569.184
 12.570    600.000    607.994     -7.994    569.141    607.949    569.141    569.165    569.141
 12.670    600.216    589.438     10.778    569.094    589.403    569.094    569.118    569.094
 12.770    593.000    580.292     12.708    569.043    580.261    569.043    569.067    569.043
 12.870    583.000    576.156      6.844    568.988    576.128    568.988    569.012    568.988
 12.970    543.000    574.133    -31.133    568.928    574.106    568.928    568.952    568.928
 13.070    578.000    572.932      5.068    568.864    572.905    568.864    568.888    568.864
 13.170    616.780    572.095     44.685    568.796    572.069    568.796    568.820    568.796
 13.270    547.000    571.462    -24.462    568.723    571.436    568.723    568.748    568.723
 13.370    527.000    570.962    -43.962    568.647    570.935    568.647    568.673    568.647
 13.470    574.000    570.555      3.445    568.567    570.525    568.567    568.596    568.567
 13.570    553.179    570.210    -17.031    568.482    570.180    568.482    568.512    568.482
 13.670    541.270    569.913    -28.643    568.394    569.882    568.394    568.424    568.394
 13.770    559.000    569.651    -10.651    568.302    569.619    568.302    568.333    568.302
 13.870    538.959    569.415    -30.456    568.206    569.382    568.206    568.238    568.206
 13.970    552.000    569.197    -17.197    568.106    569.165    568.106    568.138    568.106
 14.070    544.000    568.995    -24.995    568.002    568.962    568.002    568.035    568.002
 14.170    557.000    568.804    -11.804    567.895    568.771    567.895    567.927    567.895
 14.270    530.000    568.621    -38.621    567.784    568.588    567.784    567.817    567.784
 14.370    606.621    568.445     38.177    567.669    568.411    567.669    567.702    567.669
 14.470    594.000    568.273     25.727    567.551    568.239    567.551    567.584    567.551
 14.570    576.000    568.104      7.896    567.429    568.071    567.429    567.463    567.429
 14.670    535.101    567.938    -32.838    567.304    567.905    567.304    567.338    567.304
 14.770    558.399    567.776     -9.376    567.175    567.742    567.175    567.209    567.175
 14.870    574.572    567.614      6.958    567.043    567.580    567.043    567.077    567.043
 14.970    562.000    567.451     -5.451    566.908    567.416    566.908    566.942    566.908
 15.070    601.419    567.288     34.131    566.769    567.252    566.769    566.804    566.769
 15.170    567.000    567.132     -0.132    566.627    567.089    566.627    566.670    566.627
 15.270    529.000    566.974    -37.974    566.482    566.925    566.482    566.530    566.482
 15.370    545.000    566.808    -21.808    566.333    566.759    566.333    566.382    566.333
 15.470    542.717    566.640    -23.923    566.181    566.591    566.181    566.231    566.181
 15.570    583.000    566.471     16.529    566.027    566.421    566.027    566.076    566.027
 15.670    534.815    566.301    -31.485    565.869    566.250    565.869    565.919    565.869
 15.770    520.000    566.128    -46.128    565.708    566.078    565.708    565.758    565.708
 15.870    563.000    565.954     -2.954    565.544    565.903    565.544    565.595    565.544
 15.970    611.672    565.782     45.890    565.377    565.726    565.377    565.432    565.377
 16.070    549.000    565.606    -16.606    565.207    565.548    565.207    565.265    565.207
 16.170    611.998    565.426     46.572    565.034    565.367    565.034    565.093    565.034
 16.270    533.393    565.244    -31.851    564.859    565.185    564.859    564.918    564.859
 16.370    552.000    565.060    -13.060    564.680    565.000    564.680    564.740    564.680
 16.470    582.000    564.874     17.126    564.499    564.813    564.499    564.559    564.499
 16.570    502.000    564.686    -62.686    564.315    564.625    564.315    564.376    564.315
 16.670    562.223    564.495     -2.272    564.129    564.434    564.129    564.190    564.129
 16.770    541.552    564.302    -22.750    563.940    564.240    563.940    564.002    563.940
 16.870    570.000    564.108      5.892    563.748    564.045    563.748    563.810    563.748
 16.970    612.040    563.911     48.130    563.554    563.848    563.554    563.616    563.554
 17.070    577.641    563.711     13.930    563.357    563.648    563.357    563.420    563.357
 17.170    523.000    563.510    -40.510    563.157    563.447    563.157    563.221    563.157
 17.270    528.000    563.307    -35.307    562.955    563.243    562.955    563.019    562.955
 17.370    521.710    563.104    -41.393    562.751    563.039    562.751    562.816    562.751
 17.470    570.667    562.898      7.770    562.544    562.833    562.544    562.609    562.544
 17.570    535.761    562.688    -26.928    562.335    562.623    562.335    562.401    562.335
 17.670    588.000    562.477     25.523    562.124    562.411    562.124    562.190    562.124
 17.770    579.668    562.264     17.404    561.910    562.197    561.910    561.977    561.910
 17.870    527.705    562.049    -34.343    561.695    561.981    561.695    561.762    561.695
 17.970    579.000    561.831     17.169    561.477    561.764    561.477    561.544    561.477
 18.070    535.000    561.612    -26.612    561.256    561.544    561.256    561.324    561.256
 18.170    583.000    561.391     21.609    561.034    561.323    561.034    561.103    561.034
 18.270    569.000    561.169      7.831    560.810    561.100    560.810    560.879    560.810
 18.370    576.339    560.944     15.395    560.583    560.875    560.583    560.653    560.583
 18.470    561.614    560.718      0.896    560.355    560.648    560.355    560.425    560.355
 18.570    512.731    560.490    -47.760    560.124    560.419    560.124    560.195    560.124
 18.670    523.000    560.261    -37.261    559.892    560.189    559.892    559.963    559.892
 18.770    510.048    560.031    -49.983    559.657    559.959    559.657    559.729    559.657
 18.870    543.190    559.799    -16.608    559.421    559.726    559.421    559.493    559.421
 18.970    553.000    559.564     -6.564    559.183    559.491    559.183    559.256    559.183
 19.070    560.539    559.330      1.209    558.943    559.254    558.943    559.018    558.943
 19.170    552.000    559.094     -7.094    558.701    559.016    558.701    558.779    558.701
 19.270    542.000    558.856    -16.856    558.457    558.777    558.457    558.536    558.457
 19.370    526.000    558.616    -32.616    558.212    558.536    558.212    558.292    558.212
 19.470    579.000    558.375     20.625    557.965    558.294    557.965    558.046    557.965
 19.570    562.000    558.132      3.868    557.717    558.050    557.717    557.799    557.717
 19.670    535.000    557.888    -22.888    557.466    557.805    557.466    557.549    557.466
 19.770    562.000    557.643      4.357    557.215    557.559    557.215    557.299    557.215
 19.870    579.703    557.404     22.299    556.961    557.319    556.961    557.046    556.961
 19.970    563.000    557.172      5.828    556.706    557.086    556.706    556.792    556.706
 20.070    520.350    556.925    -36.575    556.450    556.838    556.450    556.536    556.450
 20.170    597.000    556.675     40.325    556.192    556.588    556.192    556.279    556.192
 20.270    568.000    556.424     11.576    555.933    556.336    555.933    556.021    555.933
 20.370    548.000    556.172     -8.172    555.672    556.084    555.672    555.761    555.672
 20.470    593.653    555.920     37.733    555.410    555.830    555.410    555.500    555.410
 20.570    578.000    555.667     22.333    555.147    555.576    555.147    555.237    555.147
 20.670    518.000    555.413    -37.413    554.882    555.321    554.882    554.973    554.882
 20.770    525.000    555.158    -30.158    554.616    555.066    554.616    554.708    554.616
 20.870    556.004    554.903      1.101    554.349    554.810    554.349    554.442    554.349
 20.970    556.000    554.647      1.353    554.080    554.553    554.080    554.175    554.080
 21.070    546.000    554.392     -8.392    553.811    554.296    553.811    553.907    553.811
 21.170    551.032    554.137     -3.105    553.540    554.039    553.540    553.638    553.540
 21.270    538.000    553.880    -15.880    553.268    553.781    553.268    553.367    553.268
 21.370    553.000    553.624     -0.624    552.995    553.524    552.995    553.095    552.995
 21.470    598.298    553.368     44.930    552.721    553.266    552.721    552.822    552.721
 21.570    561.281    553.112      8.169    552.446    553.009    552.446    552.548    552.446
 21.670    539.000    552.856    -13.856    552.169    552.752    552.169    552.273    552.169
 21.770    569.000    552.601     16.399    551.892    552.496    551.892    551.998    551.892
 21.870    565.296    552.347     12.949    551.614    552.240    551.614    551.721    551.614
 21.970    555.000    552.094      2.906    551.335    551.986    551.335    551.443    551.335
 22.070    522.383    551.844    -29.460    551.055    551.734    551.055    551.164    551.055
 22.170    523.000    551.616    -28.616    550.774    551.505    550.774    550.885    550.774
 22.270    562.000    551.457     10.543    550.493    551.342    550.493    550.607    550.493
 22.370    568.000    551.226     16.774    550.210    551.106    550.210    550.331    550.210
 22.470    531.000    550.997    -19.997    549.927    550.875    549.927    550.049    549.927
 22.570    574.000    550.794     23.206    549.643    550.671    549.643    549.767    549.643
 22.670    549.000    550.565     -1.565    549.358    550.439    549.358    549.484    549.358
 22.770    554.660    550.340      4.320    549.072    550.213    549.072    549.200    549.072
 22.870    502.736    550.150    -47.414    548.786    550.021    548.786    548.916    548.786
 22.970    532.979    549.971    -16.993    548.499    549.840    548.499    548.631    548.499
 23.070    546.000    549.775     -3.775    548.212    549.642    548.212    548.345    548.212
 23.170    554.000    549.587      4.413    547.924    549.452    547.924    548.060    547.924
 23.270    567.970    549.415     18.554    547.635    549.278    547.635    547.773    547.635
 23.370    521.738    549.265    -27.526    547.346    549.125    547.346    547.486    547.346
 23.470    491.000    549.141    -58.141    547.056    548.999    547.056    547.199    547.056
 23.570    523.912    549.053    -25.141    546.766    548.909    546.766    546.911    546.766
 23.670    520.420    549.013    -28.593    546.475    548.867    546.475    546.623    546.475
 23.770    578.000    549.039     28.961    546.184    548.890    546.184    546.334    546.184
 23.870    588.381    549.159     39.223    545.893    549.007    545.893    546.046    545.893
 23.970    560.611    549.422     11.189    545.600    549.268    545.600    545.756    545.600
 24.070    550.000    549.945      0.055    545.308    549.788    545.308    545.467    545.308
 24.170    549.000    551.046     -2.046    545.015    550.887    545.015    545.178    545.015
 24.270    549.000    553.574     -4.574    544.722    553.414    544.722    544.888    544.722
 24.370    570.000    559.316     10.684    544.429    559.156    544.429    544.598    544.429
 24.470    539.000    570.865    -31.865    544.135    570.710    544.135    544.308    544.135
 24.570    573.000    589.845    -16.845    543.841    589.700    543.841    544.018    543.841
 24.670    663.000    613.354     49.646    543.547    613.222    543.547    543.728    543.547
 24.770    596.000    631.128    -35.128    543.253    631.005    543.253    543.438    543.253
 24.870    643.000    631.037     11.963    542.958    630.909    542.958    543.148    542.958
 24.970    582.000    612.944    -30.944    542.663    612.799    542.663    542.859    542.663
 25.070    569.000    588.918    -19.918    542.368    588.750    542.368    542.569    542.368
 25.170    561.000    569.341     -8.341    542.073    569.153    542.073    542.279    542.073
 25.270    599.000    557.203     41.797    541.778    557.001    541.778    541.990    541.778
 25.370    576.000    550.924     25.076    541.483    550.711    541.483    541.701    541.483
 25.470    503.720    547.896    -44.176    541.188    547.674    541.188    541.414    541.188
 25.570    585.374    546.320     39.054    540.893    546.087    540.893    541.128    540.893
 25.670    538.041    545.342     -7.301    540.597    545.101    540.597    540.840    540.597
 25.770    584.737    544.612     40.125    540.302    544.362    540.302    540.553    540.302
 25.870    568.268    544.034     24.234    540.007    543.775    540.007    540.267    540.007
 25.970    553.489    543.562      9.927    539.711    543.293    539.711    539.981    539.711
 26.070    577.227    543.172     34.056    539.416    542.892    539.416    539.696    539.416
 26.170    561.000    542.843     18.157    539.121    542.552    539.121    539.413    539.121
 26.270    565.000    542.571     22.429    538.826    542.268    538.826    539.130    538.826
 26.370    544.000    542.345      1.655    538.531    542.029    538.531    538.848    538.531
 26.470    543.000    542.167      0.833    538.237    541.836    538.237    538.568    538.237
 26.570    586.000    542.039     43.961    537.942    541.692    537.942    538.289    537.942
 26.670    590.000    541.977     48.023    537.648    541.613    537.648    538.012    537.648
 26.770    505.068    542.011    -36.943    537.354    541.628    537.354    537.737    537.354
 26.870    574.296    542.082     32.214    537.060    541.677    537.060    537.464    537.060
 26.970    573.000    542.228     30.772    536.766    541.800    536.766    537.194    536.766
 27.070    537.676    542.490     -4.814    536.473    542.036    536.473    536.926    536.473
 27.170    587.992    542.895     45.098    536.180    542.412    536.180    536.662    536.180
 27.270    543.000    543.491     -0.491    535.887    542.975    535.887    536.402    535.887
 27.370    517.000    544.359    -27.359    535.595    543.806    535.595    536.146    535.595
 27.470    560.402    545.640     14.762    535.303    545.046    535.303    535.895    535.303
 27.570    589.000    547.706     41.294    535.011    547.064    535.011    535.650    535.011
 27.670    572.000    551.738     20.262    534.720    551.041    534.720    535.413    534.720
 27.770    581.000    562.020     18.980    534.429    561.257    534.429    535.184    534.429
 27.870    565.000    589.721    -24.721    534.138    588.877    534.138    534.966    534.138
 27.970    699.000    653.082     45.918    533.848    652.133    533.848    534.761    533.848
 28.070    727.083    762.130    -35.047    533.558    761.051    533.558    534.571    533.558
 28.170    919.000    889.130     29.870    533.269    887.905    533.269    534.401    533.269
 28.270    969.000    959.970      9.030    532.981    958.604    532.981    534.256    532.981
 28.370    929.000    919.010      9.990    532.692    917.503    532.692    534.143    532.692
 28.470    830.936    809.486     21.450    532.405    807.798    532.405    534.072    532.405
 28.570    735.000    716.452     18.548    532.118    714.506    532.118    534.058    532.118
 28.670    719.130    690.244     28.886    531.831    687.942    531.831    534.125    531.831
 28.770    783.000    731.300     51.700    531.545    728.508    531.545    534.320    531.545
 28.870    758.825    801.760    -42.935    531.260    798.266    531.260    534.732    531.260
 28.970    840.000    841.127     -1.127    530.975    836.550    530.975    535.539    530.975
 29.070    784.000    809.120    -25.120    530.691    802.766    530.691    537.049    530.691
 29.170    752.963    730.973     21.990    530.407    721.685    530.407    539.710    530.407
 29.270    721.000    655.450     65.550    530.125    641.569    530.125    544.020    530.125
 29.370    596.593    608.196    -11.603    529.842    587.785    529.842    550.261    529.842
 29.470    615.000    588.553     26.447    529.561    560.069    529.561    558.047    529.561
 29.570    659.000    584.327     74.673    529.280    547.966    529.280    565.641    529.280
 29.670    609.000    583.481     25.519    529.000    542.726    529.000    569.753    529.000
 29.770    581.000    579.123      1.877    528.721    540.029    528.721    567.813    528.721
 29.870    599.670    570.814     28.855    528.442    538.324    528.442    560.930    528.442
 29.970    596.000    561.391     34.609    528.164    537.136    528.164    552.418    528.164
 30.070    599.000    553.206     45.794    527.887    536.313    527.887    544.779    527.887
 30.170    552.000    547.191      4.809    527.611    535.821    527.611    538.979    527.611
 30.270    574.000    543.420     30.580    527.336    535.748    527.336    535.004    527.336
 30.370    563.000    541.846     21.154    527.061    536.477    527.061    532.426    527.061
