neutron_powder_diffraction_0182
R_wp: 3.923
Temperature (K): 1074.000
Counts: 83823.00
Wavelength (Ã…): 2.52098
COMMENTS
Test file for demonstrating the .xyy file format in Reel1.0
END OF HEADER
   tth       Y_obs     Y_calc      Y_res    Background    Phase_1_Nuc    Phase_1_Mag    Phase_2_Nuc    Phase_2_Mag
  9.970    601.000    573.133     27.867    572.428    573.066    572.428    572.495    572.428
 10.070    578.000    573.293      4.707    572.514    573.225    572.514    572.581    572.514
 10.170    536.238    573.441    -37.203    572.594    573.373    572.594    572.661    572.594
 10.270    544.641    573.590    -28.949    572.667    573.522    572.667    572.735    572.667
 10.370    567.000    573.746     -6.746    572.735    573.677    572.735    572.803    572.735
 10.470    547.204    573.910    -26.706    572.797    573.841    572.797    572.865    572.797
 10.570    532.393    574.087    -41.695    572.852    574.018    572.852    572.921    572.852
 10.670    556.000    574.282    -18.282    572.902    574.213    572.902    572.971    572.902
 10.770    558.216    574.501    -16.285    572.947    574.431    572.947    573.016    572.947
 10.870    548.000    574.754    -26.754    572.985    574.683    572.985    573.055    572.985
 10.970    615.114    575.051     40.063    573.018    574.980    573.018    573.088    573.018
 11.070    569.085    575.412     -6.327    573.045    575.341    573.045    573.115    573.045
 11.170    642.000    575.862     66.138    573.067    575.790    573.067    573.137    573.067
 11.270    551.000    576.440    -25.440    573.083    576.368    573.083    573.154    573.083
 11.370    582.127    577.217      4.910    573.094    577.144    573.094    573.165    573.094
 11.470    630.000    578.342     51.658    573.099    578.268    573.099    573.171    573.099
 11.570    580.000    580.234     -0.234    573.100    580.158    573.100    573.171    573.100
 11.670    647.000    584.068     62.932    573.094    583.990    573.094    573.166    573.094
 11.770    554.039    592.540    -38.501    573.084    592.457    573.084    573.156    573.084
 11.870    683.000    609.940     73.060    573.068    609.846    573.068    573.141    573.068
 11.970    636.000    639.526     -3.526    573.048    639.416    573.048    573.121    573.048
 12.070    703.210    677.439     25.771    573.022    677.307    573.022    573.095    573.022
 12.170    661.591    707.189    -45.598    572.991    707.040    572.991    573.065    572.991
 12.270    694.000    708.128    -14.128    572.955    707.974    572.955    573.034    572.955
 12.370    664.000    679.379    -15.379    572.915    679.239    572.915    572.995    572.915
 12.470    624.000    641.232    -17.232    572.869    641.113    572.869    572.950    572.869
 12.570    611.000    610.913      0.087    572.819    610.810    572.819    572.900    572.819
 12.670    566.000    592.854    -26.854    572.764    592.761    572.764    572.846    572.764
 12.770    572.000    583.975    -11.975    572.704    583.887    572.704    572.786    572.704
 12.870    614.000    579.926     34.074    572.639    579.839    572.639    572.722    572.639
 12.970    579.000    577.911      1.089    572.570    577.825    572.570    572.654    572.570
 13.070    553.000    576.696    -23.696    572.497    576.610    572.497    572.580    572.497
 13.170    560.000    575.843    -15.843    572.418    575.757    572.418    572.502    572.418
 13.270    585.000    575.192      9.808    572.336    575.106    572.336    572.420    572.336
 13.370    599.000    574.674     24.326    572.249    574.588    572.249    572.334    572.249
 13.470    564.000    574.247    -10.247    572.157    574.161    572.157    572.243    572.157
 13.570    561.000    573.887    -12.887    572.062    573.800    572.062    572.147    572.062
 13.670    574.000    573.573      0.427    571.962    573.486    571.962    572.048    571.962
 13.770    574.456    573.295      1.161    571.857    573.208    571.857    571.944    571.857
 13.870    558.000    573.043    -15.043    571.749    572.956    571.749    571.836    571.749
 13.970    521.000    572.811    -51.811    571.636    572.723    571.636    571.724    571.636
 14.070    613.355    572.593     40.762    571.520    572.505    571.520    571.608    571.520
 14.170    557.000    572.387    -15.387    571.399    572.298    571.399    571.487    571.399
 14.270    565.713    572.189     -6.476    571.275    572.100    571.275    571.363    571.275
 14.370    609.959    571.998     37.961    571.146    571.908    571.146    571.235    571.146
 14.470    565.472    571.810     -6.338    571.014    571.720    571.014    571.103    571.014
 14.570    590.000    571.627     18.373    570.877    571.536    570.877    570.967    570.877
 14.670    526.523    571.448    -44.925    570.737    571.357    570.737    570.828    570.737
 14.770    551.000    571.269    -20.269    570.593    571.177    570.593    570.684    570.593
 14.870    560.033    571.089    -11.056    570.446    570.997    570.446    570.537    570.446
 14.970    568.000    570.909     -2.909    570.294    570.817    570.294    570.386    570.294
 15.070    544.000    570.729    -26.729    570.140    570.636    570.140    570.232    570.140
 15.170    593.000    570.548     22.452    569.981    570.454    569.981    570.074    569.981
 15.270    549.000    570.365    -21.365    569.819    570.272    569.819    569.913    569.819
 15.370    560.000    570.182    -10.182    569.654    570.088    569.654    569.748    569.654
 15.470    570.000    569.997      0.003    569.485    569.902    569.485    569.579    569.485
 15.570    545.980    569.811    -23.831    569.313    569.716    569.313    569.408    569.313
 15.670    585.000    569.624     15.376    569.137    569.528    569.137    569.232    569.137
 15.770    545.633    569.434    -23.801    568.958    569.337    568.958    569.054    568.958
 15.870    585.501    569.241     16.260    568.776    569.144    568.776    568.872    568.776
 15.970    589.000    569.046     19.954    568.590    568.949    568.590    568.687    568.590
 16.070    540.679    568.849    -28.171    568.402    568.751    568.402    568.499    568.402
 16.170    613.769    568.650     45.119    568.210    568.551    568.210    568.308    568.210
 16.270    562.000    568.448     -6.448    568.015    568.349    568.015    568.114    568.015
 16.370    559.000    568.244     -9.244    567.817    568.145    567.817    567.916    567.817
 16.470    524.000    568.038    -44.038    567.616    567.938    567.616    567.716    567.616
 16.570    564.000    567.829     -3.829    567.412    567.729    567.412    567.513    567.412
 16.670    523.600    567.619    -44.019    567.205    567.517    567.205    567.306    567.205
 16.770    569.000    567.405      1.595    566.995    567.303    566.995    567.097    566.995
 16.870    569.645    567.190      2.455    566.783    567.087    566.783    566.885    566.783
 16.970    595.110    566.972     28.138    566.567    566.868    566.567    566.671    566.567
 17.070    578.000    566.752     11.248    566.349    566.648    566.349    566.453    566.349
 17.170    567.000    566.529      0.471    566.128    566.425    566.128    566.233    566.128
 17.270    567.000    566.305      0.695    565.904    566.199    565.904    566.010    565.904
 17.370    569.000    566.080      2.920    565.678    565.974    565.678    565.784    565.678
 17.470    586.006    565.851     20.155    565.449    565.744    565.449    565.556    565.449
 17.570    538.000    565.619    -27.619    565.218    565.512    565.218    565.325    565.218
 17.670    520.558    565.385    -44.827    564.984    565.277    564.984    565.092    564.984
 17.770    598.000    565.152     32.848    564.747    565.040    564.747    564.859    564.747
 17.870    603.000    564.914     38.086    564.508    564.802    564.508    564.621    564.508
 17.970    607.676    564.674     43.002    564.267    564.561    564.267    564.381    564.267
 18.070    555.077    564.432     -9.355    564.023    564.317    564.023    564.138    564.023
 18.170    570.121    564.187      5.934    563.777    564.072    563.777    563.892    563.777
 18.270    603.000    563.941     39.059    563.529    563.825    563.529    563.645    563.529
 18.370    598.890    563.693     35.197    563.278    563.576    563.278    563.395    563.278
 18.470    538.384    563.442    -25.058    563.025    563.325    563.025    563.143    563.025
 18.570    582.000    563.190     18.810    562.770    563.072    562.770    562.889    562.770
 18.670    580.000    562.937     17.063    562.513    562.818    562.513    562.633    562.513
 18.770    530.000    562.682    -32.682    562.254    562.562    562.254    562.374    562.254
 18.870    542.000    562.426    -20.426    561.993    562.305    561.993    562.114    561.993
 18.970    521.083    562.166    -41.084    561.729    562.044    561.729    561.851    561.729
 19.070    561.000    561.905     -0.905    561.464    561.782    561.464    561.587    561.464
 19.170    577.000    561.643     15.357    561.196    561.519    561.196    561.320    561.196
 19.270    555.000    561.378     -6.378    560.927    561.253    560.927    561.052    560.927
 19.370    528.772    561.112    -32.340    560.656    560.986    560.656    560.782    560.656
 19.470    596.167    560.845     35.322    560.383    560.718    560.383    560.509    560.383
 19.570    531.000    560.576    -29.576    560.108    560.448    560.108    560.236    560.108
 19.670    528.896    560.305    -31.409    559.831    560.176    559.831    559.960    559.831
 19.770    534.000    560.034    -26.034    559.552    559.903    559.552    559.682    559.552
 19.870    556.000    559.762     -3.762    559.272    559.631    559.272    559.403    559.272
 19.970    537.244    559.501    -22.257    558.990    559.369    558.990    559.123    558.990
 20.070    586.895    559.235     27.659    558.707    559.102    558.707    558.840    558.707
 20.170    591.000    558.960     32.040    558.421    558.825    558.421    558.556    558.421
 20.270    551.000    558.682     -7.682    558.135    558.546    558.135    558.271    558.135
 20.370    523.193    558.403    -35.211    557.846    558.266    557.846    557.984    557.846
 20.470    525.000    558.124    -33.124    557.557    557.985    557.557    557.695    557.557
 20.570    541.000    557.843    -16.843    557.265    557.703    557.265    557.405    557.265
 20.670    553.000    557.562     -4.562    556.972    557.421    556.972    557.113    556.972
 20.770    560.500    557.279      3.220    556.678    557.137    556.678    556.821    556.678
 20.870    553.539    556.997     -3.457    556.383    556.853    556.383    556.526    556.383
 20.970    530.000    556.713    -26.713    556.086    556.568    556.086    556.231    556.086
 21.070    595.822    556.430     39.393    555.787    556.283    555.787    555.934    555.787
 21.170    551.000    556.145     -5.145    555.488    555.997    555.488    555.636    555.488
 21.270    583.323    555.861     27.462    555.187    555.711    555.187    555.337    555.187
 21.370    570.000    555.576     14.424    554.885    555.425    554.885    555.036    554.885
 21.470    519.000    555.292    -36.292    554.582    555.139    554.582    554.735    554.582
 21.570    533.000    555.016    -22.016    554.277    554.861    554.277    554.432    554.277
 21.670    563.000    554.814      8.186    553.972    554.657    553.972    554.128    553.972
 21.770    547.000    554.552     -7.552    553.665    554.394    553.665    553.823    553.665
 21.870    550.000    554.271     -4.271    553.357    554.111    553.357    553.517    553.357
 21.970    598.584    553.990     44.594    553.048    553.828    553.048    553.210    553.048
 22.070    598.569    553.710     44.859    552.738    553.546    552.738    552.903    552.738
 22.170    521.000    553.432    -32.432    552.428    553.266    552.428    552.594    552.428
 22.270    567.000    553.158     13.842    552.116    552.990    552.116    552.284    552.116
 22.370    567.000    552.908     14.092    551.803    552.737    551.803    551.974    551.803
 22.470    562.000    552.668      9.332    551.490    552.496    551.490    551.662    551.490
 22.570    503.000    552.410    -49.410    551.175    552.235    551.175    551.350    551.175
 22.670    512.814    552.194    -39.380    550.860    552.017    550.860    551.037    550.860
 22.770    599.000    551.958     47.042    550.544    551.778    550.544    550.724    550.544
 22.870    531.306    551.712    -20.406    550.227    551.529    550.227    550.410    550.227
 22.970    562.000    551.474     10.526    549.909    551.288    549.909    550.095    549.909
 23.070    586.994    551.246     35.747    549.591    551.059    549.591    549.779    549.591
 23.170    569.000    551.034     17.966    549.272    550.843    549.272    549.463    549.272
 23.270    553.000    550.841      2.159    548.952    550.648    548.952    549.146    548.952
 23.370    562.000    550.668     11.332    548.632    550.472    548.632    548.829    548.632
 23.470    595.000    550.524     44.476    548.311    550.325    548.311    548.511    548.311
 23.570    595.323    550.419     44.904    547.989    550.216    547.989    548.193    547.989
 23.670    546.269    550.365     -4.096    547.667    550.159    547.667    547.875    547.667
 23.770    566.000    550.383     15.617    547.344    550.173    547.344    547.556    547.344
 23.870    550.000    550.504     -0.504    547.021    550.290    547.021    547.236    547.021
 23.970    549.000    550.784     -1.784    546.697    550.567    546.697    546.917    546.697
 24.070    560.000    551.359      8.641    546.373    551.138    546.373    546.597    546.373
 24.170    534.000    552.610    -18.610    546.049    552.385    546.049    546.277    546.049
 24.270    598.902    555.526     43.376    545.724    555.299    545.724    545.957    545.724
 24.370    552.000    562.132    -10.132    545.399    561.905    545.399    545.637    545.399
 24.470    583.000    575.154      7.846    545.073    574.932    545.073    545.316    545.073
 24.570    607.000    595.853     11.147    544.747    595.640    544.747    544.996    544.747
 24.670    634.000    620.145     13.855    544.421    619.944    544.421    544.675    544.421
 24.770    632.000    636.158     -4.158    544.094    635.963    544.094    544.355    544.094
 24.870    617.697    632.200    -14.503    543.767    631.995    543.767    544.034    543.767
 24.970    597.441    611.444    -14.004    543.440    611.218    543.440    543.714    543.440
 25.070    546.659    587.036    -40.377    543.113    586.786    543.113    543.394    543.113
 25.170    525.404    568.238    -42.834    542.786    567.966    542.786    543.075    542.786
 25.270    552.000    557.008     -5.008    542.458    556.720    542.458    542.755    542.458
 25.370    566.000    551.292     14.708    542.130    550.991    542.130    542.436    542.130
 25.470    531.000    548.501    -17.501    541.803    548.188    541.803    542.118    541.803
 25.570    537.000    546.980     -9.980    541.475    546.657    541.475    541.800    541.475
 25.670    610.000    545.982     64.018    541.147    545.648    541.147    541.483    541.147
 25.770    618.000    545.235     72.765    540.819    544.889    540.819    541.166    540.819
 25.870    579.461    544.636     34.825    540.491    544.277    540.491    540.851    540.491
 25.970    579.000    544.138     34.862    540.163    543.765    540.163    540.536    540.163
 26.070    621.000    543.719     77.281    539.835    543.332    539.835    540.223    539.835
 26.170    545.000    543.365      1.635    539.507    542.962    539.507    539.910    539.507
 26.270    549.000    543.062      5.938    539.179    542.642    539.179    539.599    539.179
 26.370    541.000    542.811     -1.811    538.852    542.373    538.852    539.290    538.852
 26.470    562.000    542.633     19.367    538.524    542.175    538.524    538.982    538.524
 26.570    524.000    542.502    -18.502    538.197    542.022    538.197    538.677    538.197
 26.670    563.000    542.404     20.596    537.869    541.900    537.869    538.373    537.869
 26.770    600.000    542.368     57.632    537.542    541.838    537.542    538.072    537.542
 26.870    522.000    542.415    -20.415    537.216    541.856    537.216    537.775    537.216
 26.970    528.205    542.554    -14.349    536.889    541.962    536.889    537.480    536.889
 27.070    553.000    542.793     10.207    536.563    542.165    536.563    537.189    536.563
 27.170    521.126    543.179    -22.053    536.236    542.512    536.236    536.903    536.236
 27.270    537.000    543.775     -6.775    535.911    543.063    535.911    536.622    535.911
 27.370    579.000    544.662     34.338    535.585    543.899    535.585    536.346    535.585
 27.470    569.000    545.950     23.050    535.260    545.130    535.260    536.078    535.260
 27.570    538.000    548.031    -10.031    534.935    547.146    534.935    535.818    534.935
 27.670    492.000    552.249    -60.249    534.611    551.289    534.611    535.567    534.611
 27.770    599.000    563.238     35.762    534.287    562.190    534.287    535.328    534.287
 27.870    623.000    592.930     30.070    533.963    591.773    533.963    535.103    533.963
 27.970    698.000    660.157     37.843    533.640    658.863    533.640    534.894    533.640
 28.070    785.170    773.530     11.640    533.317    772.067    533.317    534.707    533.317
 28.170    931.000    900.783     30.217    532.995    899.131    532.995    534.545    532.995
 28.270    945.908    963.514    -17.606    532.673    961.670    532.673    534.416    532.673
 28.370    869.000    910.143    -41.143    532.352    908.101    532.352    534.330    532.352
 28.470    839.000    795.401     43.599    532.031    793.103    532.031    534.303    532.031
 28.570    739.509    706.958     32.551    531.711    704.300    531.711    534.358    531.711
 28.670    685.590    689.811     -4.221    531.392    686.653    531.392    534.534    531.392
 28.770    745.000    738.501      6.499    531.073    734.662    531.073    534.890    531.073
 28.870    829.039    811.050     17.989    530.754    806.276    530.754    535.513    530.754
 28.970    787.000    845.429    -58.429    530.436    839.346    530.436    536.520    530.436
 29.070    770.683    805.128    -34.445    530.119    797.211    530.119    538.047    530.119
 29.170    706.589    722.234    -15.646    529.803    711.821    529.803    540.228    529.803
 29.270    626.000    646.289    -20.289    529.487    632.639    529.487    543.144    529.487
 29.370    604.000    599.469      4.531    529.172    581.917    529.172    546.726    529.172
 29.470    580.000    578.549      1.451    528.857    556.828    528.857    550.577    528.857
 29.570    593.885    571.387     22.498    528.544    546.158    528.544    553.770    528.544
 29.670    587.000    568.284     18.716    528.231    541.494    528.231    555.019    528.231
 29.770    591.000    564.662     26.338    527.918    538.990    527.918    553.588    527.918
 29.870    610.000    559.774     50.226    527.607    537.349    527.607    550.029    527.607
 29.970    552.000    554.494     -2.494    527.296    536.185    527.296    545.603    527.296
 30.070    515.214    549.704    -34.490    526.986    535.372    526.986    541.316    526.986
 30.170    533.111    545.862    -12.751    526.677    534.888    526.677    537.649    526.677
 30.270    554.000    543.187     10.813    526.369    534.838    526.369    534.716    526.369
 30.370    539.397    542.052     -2.654    526.062    535.653    526.062    532.457    526.062
