neutron_powder_diffraction_0122
R_wp: 4.010
Temperature (K): 997.111
Counts: 83689.00
Wavelength (Ã…): 2.52098
COMMENTS
Test file for demonstrating the .xyy file format in Reel1.0
END OF HEADER
   tth       Y_obs     Y_calc      Y_res    Background    Phase_1_Nuc    Phase_1_Mag    Phase_2_Nuc    Phase_2_Mag
  9.970    601.000    559.641     41.359    558.547    559.515    558.547    558.673    558.547
 10.070    535.734    559.990    -24.256    558.813    559.864    558.813    558.939    558.813
 10.170    623.000    560.343     62.657    559.070    560.216    559.070    559.196    559.070
 10.270    590.891    560.703     30.188    559.319    560.575    559.319    559.446    559.319
 10.370    596.824    561.072     35.752    559.560    560.944    559.560    559.688    559.560
 10.470    596.000    561.456     34.544    559.794    561.327    559.794    559.922    559.794
 10.570    572.782    561.858     10.924    560.019    561.728    560.019    560.148    560.019
 10.670    576.000    562.286     13.714    560.237    562.156    560.237    560.366    560.237
 10.770    639.000    562.749     76.251    560.448    562.619    560.448    560.577    560.448
 10.870    580.000    563.260     16.740    560.650    563.129    560.650    560.780    560.650
 10.970    591.000    563.836     27.164    560.845    563.704    560.845    560.976    560.845
 11.070    601.000    564.501     36.499    561.033    564.368    561.033    561.164    561.033
 11.170    613.000    565.290     47.710    561.214    565.156    561.214    561.345    561.214
 11.270    566.000    566.261     -0.261    561.387    566.126    561.387    561.519    561.387
 11.370    548.365    567.516    -19.152    561.552    567.380    561.552    561.685    561.552
 11.470    529.842    569.282    -39.441    561.711    569.145    561.711    561.844    561.711
 11.570    599.334    572.102     27.232    561.862    571.962    561.862    561.996    561.862
 11.670    604.000    577.186     26.814    562.007    577.043    562.007    562.141    562.007
 11.770    624.332    586.732     37.599    562.144    586.583    562.144    562.279    562.144
 11.870    635.000    603.570     31.430    562.275    603.411    562.275    562.410    562.275
 11.970    668.000    629.332     38.668    562.398    629.157    562.398    562.535    562.398
 12.070    658.000    660.877     -2.877    562.515    660.684    562.515    562.652    562.515
 12.170    683.000    686.698     -3.698    562.625    686.489    562.625    562.763    562.625
 12.270    629.000    691.072    -62.072    562.729    690.859    562.729    562.867    562.729
 12.370    661.262    670.477     -9.214    562.826    670.276    562.826    562.964    562.826
 12.470    676.000    638.980     37.020    562.916    638.796    562.916    563.055    562.916
 12.570    582.410    610.901    -28.491    563.000    610.733    563.000    563.140    563.000
 12.670    540.000    591.622    -51.622    563.077    591.465    563.077    563.218    563.077
 12.770    593.532    580.444     13.088    563.148    580.293    563.148    563.290    563.148
 12.870    556.000    574.567    -18.567    563.213    574.419    563.213    563.355    563.213
 12.970    549.448    571.487    -22.039    563.272    571.340    563.272    563.415    563.272
 13.070    554.000    569.717    -15.717    563.324    569.570    563.324    563.468    563.324
 13.170    543.000    568.564    -25.564    563.371    568.417    563.371    563.515    563.371
 13.270    534.000    567.741    -33.741    563.411    567.594    563.411    563.556    563.411
 13.370    517.000    567.122    -50.122    563.445    566.975    563.445    563.591    563.445
 13.470    530.000    566.643    -36.643    563.474    566.496    563.474    563.620    563.474
 13.570    567.060    566.264      0.796    563.496    566.116    563.496    563.643    563.496
 13.670    564.000    565.958     -1.958    563.513    565.809    563.513    563.661    563.513
 13.770    540.000    565.705    -25.705    563.524    565.556    563.524    563.672    563.524
 13.870    520.000    565.492    -45.492    563.530    565.342    563.530    563.679    563.530
 13.970    590.000    565.310     24.690    563.529    565.160    563.529    563.679    563.529
 14.070    528.975    565.153    -36.178    563.524    565.002    563.524    563.674    563.524
 14.170    585.349    565.013     20.336    563.512    564.861    563.512    563.664    563.512
 14.270    542.000    564.885    -22.885    563.496    564.733    563.496    563.648    563.496
 14.370    528.000    564.767    -36.767    563.474    564.614    563.474    563.626    563.474
 14.470    556.000    564.657     -8.657    563.446    564.503    563.446    563.600    563.446
 14.570    594.000    564.552     29.448    563.413    564.397    563.413    563.568    563.413
 14.670    537.000    564.451    -27.451    563.376    564.296    563.376    563.531    563.376
 14.770    579.681    564.352     15.329    563.333    564.196    563.333    563.488    563.333
 14.870    551.000    564.255    -13.255    563.284    564.098    563.284    563.441    563.284
 14.970    598.000    564.158     33.842    563.231    564.000    563.231    563.389    563.231
 15.070    542.865    564.061    -21.197    563.173    563.903    563.173    563.331    563.173
 15.170    551.000    563.965    -12.965    563.110    563.806    563.110    563.269    563.110
 15.270    600.845    563.867     36.978    563.042    563.707    563.042    563.202    563.042
 15.370    548.000    563.766    -15.766    562.969    563.605    562.969    563.130    562.969
 15.470    539.000    563.664    -24.664    562.892    563.502    562.892    563.053    562.892
 15.570    539.000    563.560    -24.560    562.809    563.397    562.809    562.972    562.809
 15.670    575.899    563.453     12.447    562.723    563.289    562.723    562.886    562.723
 15.770    552.000    563.343    -11.343    562.631    563.179    562.631    562.796    562.631
 15.870    571.835    563.231      8.604    562.535    563.065    562.535    562.700    562.535
 15.970    573.218    563.116     10.103    562.434    562.949    562.434    562.601    562.434
 16.070    518.786    562.998    -44.211    562.330    562.830    562.330    562.497    562.330
 16.170    517.860    562.877    -45.017    562.220    562.708    562.220    562.388    562.220
 16.270    536.000    562.753    -26.753    562.106    562.583    562.106    562.276    562.106
 16.370    538.000    562.625    -24.625    561.989    562.455    561.989    562.159    561.989
 16.470    529.560    562.495    -32.935    561.866    562.324    561.866    562.038    561.866
 16.570    541.000    562.366    -21.366    561.740    562.193    561.740    561.912    561.740
 16.670    532.260    562.251    -29.992    561.610    562.078    561.610    561.783    561.610
 16.770    555.511    562.113     -6.602    561.475    561.939    561.475    561.649    561.475
 16.870    534.000    561.970    -27.970    561.336    561.794    561.336    561.512    561.336
 16.970    576.000    561.823     14.177    561.194    561.647    561.194    561.370    561.194
 17.070    601.000    561.673     39.327    561.047    561.496    561.047    561.225    561.047
 17.170    521.202    561.520    -40.318    560.897    561.341    560.897    561.076    560.897
 17.270    544.177    561.364    -17.187    560.743    561.184    560.743    560.923    560.743
 17.370    510.000    561.204    -51.204    560.585    561.023    560.585    560.766    560.585
 17.470    535.000    561.041    -26.041    560.423    560.859    560.423    560.606    560.423
 17.570    545.000    560.875    -15.875    560.258    560.692    560.258    560.441    560.258
 17.670    536.000    560.706    -24.706    560.089    560.522    560.089    560.274    560.089
 17.770    596.233    560.534     35.699    559.917    560.348    559.917    560.102    559.917
 17.870    559.000    560.359     -1.359    559.741    560.172    559.741    559.928    559.741
 17.970    576.220    560.184     16.035    559.561    559.996    559.561    559.749    559.561
 18.070    528.586    560.004    -31.418    559.378    559.814    559.378    559.568    559.378
 18.170    525.724    559.820    -34.095    559.192    559.629    559.192    559.383    559.192
 18.270    591.000    559.633     31.367    559.002    559.440    559.002    559.194    559.002
 18.370    561.000    559.450      1.550    558.809    559.257    558.809    559.003    558.809
 18.470    580.000    559.338     20.662    558.613    559.143    558.613    558.808    558.613
 18.570    575.000    559.174     15.826    558.414    558.978    558.414    558.610    558.414
 18.670    518.000    558.979    -40.979    558.211    558.781    558.211    558.409    558.211
 18.770    528.000    558.778    -30.778    558.006    558.578    558.006    558.205    558.006
 18.870    557.000    558.575     -1.575    557.797    558.374    557.797    557.998    557.797
 18.970    567.801    558.373      9.428    557.585    558.171    557.585    557.788    557.585
 19.070    579.000    558.167     20.833    557.371    557.963    557.371    557.575    557.371
 19.170    533.205    557.956    -24.751    557.153    557.751    557.153    557.359    557.153
 19.270    544.000    557.742    -13.742    556.933    557.535    556.933    557.140    556.933
 19.370    517.000    557.527    -40.527    556.710    557.318    556.710    556.918    556.710
 19.470    513.939    557.308    -43.370    556.484    557.098    556.484    556.694    556.484
 19.570    527.335    557.088    -29.753    556.255    556.876    556.255    556.467    556.255
 19.670    531.000    556.865    -25.865    556.023    556.652    556.023    556.237    556.023
 19.770    575.000    556.641     18.359    555.789    556.425    555.789    556.005    555.789
 19.870    538.000    556.414    -18.414    555.552    556.196    555.552    555.770    555.552
 19.970    566.000    556.187      9.813    555.313    555.968    555.313    555.532    555.313
 20.070    567.995    555.982     12.013    555.071    555.761    555.071    555.292    555.071
 20.170    513.772    555.793    -42.020    554.827    555.570    554.827    555.050    554.827
 20.270    545.000    555.563    -10.563    554.580    555.338    554.580    554.805    554.580
 20.370    531.042    555.327    -24.285    554.331    555.100    554.331    554.558    554.331
 20.470    526.000    555.090    -29.090    554.080    554.861    554.080    554.309    554.080
 20.570    585.259    554.851     30.408    553.826    554.620    553.826    554.057    553.826
 20.670    561.882    554.612      7.270    553.570    554.378    553.570    553.803    553.570
 20.770    569.662    554.375     15.287    553.311    554.140    553.311    553.547    553.311
 20.870    553.000    554.134     -1.134    553.051    553.896    553.051    553.289    553.051
 20.970    563.000    553.891      9.109    552.788    553.651    552.788    553.029    552.788
 21.070    533.673    553.647    -19.973    552.523    553.404    552.523    552.766    552.523
 21.170    515.277    553.401    -38.124    552.257    553.156    552.257    552.502    552.257
 21.270    531.000    553.156    -22.156    551.988    552.908    551.988    552.236    551.988
 21.370    552.000    552.910     -0.910    551.717    552.659    551.717    551.968    551.717
 21.470    532.963    552.672    -19.708    551.444    552.418    551.444    551.697    551.444
 21.570    551.000    552.464     -1.464    551.169    552.208    551.169    551.425    551.169
 21.670    556.000    552.222      3.778    550.893    551.963    550.893    551.152    550.893
 21.770    547.000    551.981     -4.981    550.614    551.719    550.614    550.876    550.614
 21.870    551.000    551.744     -0.744    550.334    551.479    550.334    550.599    550.334
 21.970    525.947    551.502    -25.554    550.052    551.234    550.052    550.320    550.052
 22.070    504.203    551.265    -47.062    549.768    550.994    549.768    550.040    549.768
 22.170    553.000    551.050      1.950    549.483    550.776    549.483    549.758    549.483
 22.270    514.301    550.824    -36.523    549.196    550.546    549.196    549.474    549.196
 22.370    566.000    550.591     15.409    548.907    550.310    548.907    549.189    548.907
 22.470    524.243    550.363    -26.119    548.617    550.077    548.617    548.902    548.617
 22.570    595.000    550.139     44.861    548.325    549.851    548.325    548.614    548.325
 22.670    520.000    549.922    -29.922    548.032    549.630    548.032    548.325    548.032
 22.770    581.308    549.713     31.595    547.737    549.416    547.737    548.034    547.737
 22.870    556.000    549.514      6.486    547.441    549.213    547.441    547.743    547.441
 22.970    532.814    549.334    -16.520    547.143    549.028    547.143    547.449    547.143
 23.070    520.000    549.179    -29.179    546.844    548.869    546.844    547.155    546.844
 23.170    538.000    549.032    -11.032    546.544    548.718    546.544    546.860    546.544
 23.270    523.000    548.914    -25.914    546.243    548.594    546.243    546.563    546.243
 23.370    591.357    548.829     42.527    545.940    548.505    545.940    546.265    545.940
 23.470    518.082    548.776    -30.694    545.636    548.447    545.636    545.967    545.636
 23.570    583.001    548.819     34.182    545.331    548.485    545.331    545.667    545.331
 23.670    574.103    548.886     25.217    545.024    548.545    545.024    545.366    545.024
 23.770    593.398    549.042     44.356    544.717    548.696    544.717    545.065    544.717
 23.870    561.000    549.338     11.662    544.408    548.985    544.408    544.763    544.408
 23.970    599.157    549.861     49.296    544.099    549.503    544.099    544.460    544.099
 24.070    539.000    550.797    -11.797    543.788    550.433    543.788    544.156    543.788
 24.170    567.000    552.538     14.462    543.477    552.168    543.477    543.852    543.477
 24.270    576.000    555.973     20.027    543.164    555.598    543.164    543.547    543.164
 24.370    569.000    562.576      6.424    542.851    562.197    542.851    543.241    542.851
 24.470    583.000    574.070      8.930    542.536    573.691    542.536    542.935    542.536
 24.570    635.000    591.169     43.831    542.221    590.794    542.221    542.629    542.221
 24.670    566.323    611.351    -45.027    541.905    610.981    541.905    542.322    541.905
 24.770    589.000    626.902    -37.902    541.588    626.533    541.588    542.015    541.588
 24.870    619.000    628.274     -9.274    541.271    627.896    541.271    541.708    541.271
 24.970    572.856    614.178    -41.323    540.952    613.780    540.952    541.400    540.952
 25.070    597.000    593.502      3.498    540.633    593.078    540.633    541.093    540.633
 25.170    559.092    574.956    -15.864    540.314    574.507    540.314    540.785    540.314
 25.270    597.613    561.918     35.696    539.994    561.447    539.994    540.478    539.994
 25.370    576.000    554.062     21.938    539.673    553.571    539.673    540.171    539.673
 25.470    572.000    549.707     22.293    539.351    549.199    539.351    539.864    539.351
 25.570    544.000    547.274     -3.274    539.029    546.749    539.029    539.558    539.029
 25.670    567.451    545.774     21.677    538.707    545.232    538.707    539.252    538.707
 25.770    618.000    544.726     73.274    538.384    544.166    538.384    538.946    538.384
 25.870    520.000    543.926    -23.926    538.060    543.346    538.060    538.642    538.060
 25.970    538.000    543.286     -5.286    537.736    542.685    537.736    538.338    537.736
 26.070    498.900    542.760    -43.860    537.412    542.137    537.412    538.036    537.412
 26.170    524.000    542.325    -18.325    537.087    541.678    537.087    537.735    537.087
 26.270    511.454    541.964    -30.510    536.762    541.291    536.762    537.435    536.762
 26.370    544.000    541.669      2.331    536.437    540.968    536.437    537.138    536.437
 26.470    543.000    541.436      1.564    536.111    540.706    536.111    536.842    536.111
 26.570    573.000    541.263     31.737    535.785    540.501    535.785    536.548    535.785
 26.670    547.000    541.152      5.848    535.459    540.353    535.459    536.257    535.459
 26.770    581.950    541.109     40.841    535.133    540.272    535.133    535.970    535.133
 26.870    498.471    541.145    -42.675    534.806    540.266    534.806    535.685    534.806
 26.970    521.000    541.277    -20.277    534.479    540.352    534.479    535.405    534.479
 27.070    559.000    541.527     17.473    534.153    540.550    534.153    535.129    534.153
 27.170    534.982    541.929     -6.947    533.826    540.896    533.826    534.858    533.826
 27.270    501.172    542.533    -41.360    533.499    541.437    533.499    534.594    533.499
 27.370    587.000    543.416     43.584    533.172    542.251    533.172    534.336    533.172
 27.470    571.000    544.722     26.278    532.845    543.478    532.845    534.087    532.845
 27.570    557.000    546.824     10.176    532.518    545.492    532.518    533.848    532.518
 27.670    596.000    551.013     44.987    532.191    549.581    532.191    533.619    532.191
 27.770    584.000    561.508     22.492    531.864    559.960    531.864    533.404    531.864
 27.870    611.000    588.666     22.334    531.537    586.981    531.537    533.205    531.537
 27.970    669.000    648.436     20.564    531.210    646.585    531.210    533.024    531.210
 28.070    736.000    748.758    -12.758    530.883    746.710    530.883    532.865    530.883
 28.170    928.000    865.077     62.923    530.557    862.810    530.557    532.731    530.557
 28.270    908.000    933.479    -25.479    530.230    930.989    530.230    532.628    530.230
 28.370    895.000    903.966     -8.966    529.904    901.249    529.904    532.559    529.904
 28.470    795.000    809.409    -14.409    529.578    806.429    529.578    532.530    529.578
 28.570    738.151    724.135     14.016    529.253    720.828    529.253    532.548    529.253
 28.670    677.731    696.083    -18.352    528.927    692.381    528.927    532.617    528.927
 28.770    763.000    728.168     34.832    528.602    724.007    528.602    532.744    528.602
 28.870    810.243    788.033     22.209    528.277    783.356    528.277    532.932    528.277
 28.970    813.000    823.500    -10.500    527.953    818.257    527.953    533.180    527.953
 29.070    738.000    798.056    -60.056    527.629    792.200    527.629    533.485    527.629
 29.170    687.964    728.490    -40.526    527.305    721.976    527.305    533.831    527.305
 29.270    657.000    654.898      2.102    526.982    647.703    526.982    534.190    526.982
 29.370    614.894    601.637     13.258    526.659    593.786    526.659    534.518    526.659
 29.470    605.000    571.726     33.274    526.336    563.309    526.336    534.758    526.336
 29.570    571.185    557.567     13.618    526.014    548.739    526.014    534.844    526.014
 29.670    546.000    551.137     -5.137    525.693    542.108    525.693    534.722    525.693
 29.770    552.000    547.745      4.255    525.372    538.756    525.372    534.361    525.372
 29.870    563.000    545.443     17.557    525.051    536.727    525.051    533.767    525.051
 29.970    595.000    543.607     51.393    524.731    535.355    524.731    532.983    524.731
 30.070    553.000    542.075     10.925    524.412    534.419    524.412    532.067    524.412
 30.170    553.575    540.870     12.705    524.093    533.878    524.093    531.084    524.093
 30.270    493.356    540.160    -46.804    523.775    533.846    523.775    530.088    523.775
 30.370    590.000    540.403     49.597    523.458    534.742    523.458    529.116    523.458
