neutron_powder_diffraction_0111
R_wp: 3.834
Temperature (K): 941.996
Counts: 83586.00
Wavelength (Ã…): 2.52098
COMMENTS
Test file for demonstrating the .xyy file format in Reel1.0
END OF HEADER
   tth       Y_obs     Y_calc      Y_res    Background    Phase_1_Nuc    Phase_1_Mag    Phase_2_Nuc    Phase_2_Mag
  9.970    508.061    555.801    -47.740    554.673    555.680    554.673    554.794    554.673
 10.070    591.000    556.198     34.802    554.984    556.076    554.984    555.106    554.984
 10.170    577.548    556.599     20.948    555.287    556.477    555.287    555.409    555.287
 10.270    583.000    557.006     25.994    555.581    556.883    555.581    555.703    555.581
 10.370    572.000    557.423     14.577    555.866    557.299    555.866    555.989    555.866
 10.470    556.646    557.853     -1.207    556.143    557.729    556.143    556.267    556.143
 10.570    586.219    558.303     27.916    556.412    558.178    556.412    556.536    556.412
 10.670    616.000    558.778     57.222    556.673    558.653    556.673    556.797    556.673
 10.770    563.000    559.293      3.707    556.925    559.167    556.925    557.050    556.925
 10.870    564.000    559.852      4.148    557.169    559.724    557.169    557.295    557.169
 10.970    552.000    560.474     -8.474    557.406    560.346    557.406    557.532    557.406
 11.070    601.000    561.186     39.814    557.634    561.057    557.634    557.761    557.634
 11.170    575.677    562.021     13.655    557.855    561.892    557.855    557.982    557.855
 11.270    530.330    563.037    -32.707    558.067    562.907    558.067    558.195    558.067
 11.370    548.000    564.332    -16.332    558.272    564.201    558.272    558.401    558.272
 11.470    622.000    566.122     55.878    558.469    565.989    558.469    558.598    558.469
 11.570    593.000    568.914     24.086    558.659    568.779    558.659    558.789    558.659
 11.670    595.403    573.836     21.566    558.841    573.698    558.841    558.971    558.841
 11.770    602.000    582.967     19.033    559.016    582.824    559.016    559.146    559.016
 11.870    561.796    599.077    -37.281    559.183    598.924    559.183    559.314    559.183
 11.970    685.000    624.001     60.999    559.343    623.834    559.343    559.474    559.343
 12.070    636.004    655.336    -19.332    559.495    655.151    559.495    559.628    559.495
 12.170    686.000    682.704      3.296    559.640    682.504    559.640    559.774    559.640
 12.270    739.725    690.082     49.644    559.779    689.877    559.779    559.912    559.779
 12.370    710.476    671.549     38.926    559.910    671.354    559.910    560.044    559.910
 12.470    654.000    640.304     13.696    560.034    640.126    560.034    560.169    560.034
 12.570    589.687    611.435    -21.749    560.151    611.272    560.151    560.287    560.151
 12.670    629.708    591.113     38.595    560.261    590.960    560.261    560.397    560.261
 12.770    525.000    579.086    -54.086    560.365    578.939    560.365    560.502    560.365
 12.870    507.000    572.682    -65.682    560.462    572.539    560.462    560.599    560.462
 12.970    526.000    569.330    -43.330    560.552    569.187    560.552    560.690    560.552
 13.070    588.000    567.431     20.569    560.635    567.289    560.635    560.774    560.635
 13.170    593.000    566.219     26.781    560.712    566.077    560.712    560.851    560.712
 13.270    567.000    565.367      1.633    560.782    565.224    560.782    560.922    560.782
 13.370    573.000    564.735      8.265    560.846    564.593    560.846    560.987    560.846
 13.470    540.000    564.253    -24.253    560.904    564.110    560.904    561.045    560.904
 13.570    563.000    563.878     -0.878    560.955    563.734    560.955    561.097    560.955
 13.670    600.824    563.580     37.244    561.000    563.436    561.000    561.143    561.000
 13.770    592.158    563.339     28.820    561.039    563.194    561.039    561.182    561.039
 13.870    560.000    563.141     -3.141    561.072    562.996    561.072    561.216    561.072
 13.970    519.000    562.975    -43.975    561.098    562.830    561.098    561.243    561.098
 14.070    539.000    562.834    -23.834    561.119    562.688    561.119    561.264    561.119
 14.170    605.934    562.711     43.223    561.134    562.564    561.134    561.280    561.134
 14.270    553.385    562.603     -9.218    561.143    562.455    561.143    561.289    561.143
 14.370    547.123    562.505    -15.382    561.146    562.356    561.146    561.293    561.146
 14.470    555.000    562.415     -7.415    561.143    562.266    561.143    561.291    561.143
 14.570    564.000    562.332      1.668    561.134    562.182    561.134    561.284    561.134
 14.670    588.000    562.251     25.749    561.120    562.101    561.120    561.270    561.120
 14.770    533.000    562.173    -29.173    561.101    562.021    561.101    561.251    561.101
 14.870    568.000    562.096      5.904    561.076    561.944    561.076    561.227    561.076
 14.970    528.000    562.019    -34.019    561.045    561.866    561.045    561.197    561.045
 15.070    552.908    561.942     -9.035    561.009    561.789    561.009    561.162    561.009
 15.170    559.000    561.865     -2.865    560.967    561.710    560.967    561.121    560.967
 15.270    548.000    561.786    -13.786    560.921    561.631    560.921    561.076    560.921
 15.370    551.000    561.705    -10.705    560.869    561.549    560.869    561.025    560.869
 15.470    598.332    561.623     36.709    560.812    561.467    560.812    560.968    560.812
 15.570    581.253    561.555     19.698    560.750    561.398    560.750    560.907    560.750
 15.670    543.168    561.477    -18.309    560.682    561.319    560.682    560.841    560.682
 15.770    514.929    561.387    -46.458    560.610    561.228    560.610    560.769    560.610
 15.870    521.000    561.293    -40.293    560.533    561.133    560.533    560.693    560.533
 15.970    544.000    561.196    -17.196    560.451    561.035    560.451    560.612    560.451
 16.070    556.000    561.096     -5.096    560.364    560.934    560.364    560.526    560.364
 16.170    544.666    560.995    -16.329    560.272    560.832    560.272    560.435    560.272
 16.270    538.000    560.890    -22.890    560.176    560.726    560.176    560.339    560.176
 16.370    555.000    560.779     -5.779    560.075    560.615    560.075    560.239    560.075
 16.470    526.599    560.674    -34.074    559.969    560.508    559.969    560.134    559.969
 16.570    582.000    560.641     21.359    559.859    560.474    559.859    560.025    559.859
 16.670    538.351    560.557    -22.206    559.744    560.389    559.744    559.911    559.744
 16.770    541.000    560.435    -19.435    559.624    560.266    559.624    559.793    559.624
 16.870    529.000    560.307    -31.307    559.501    560.137    559.501    559.670    559.501
 16.970    523.000    560.175    -37.175    559.373    560.004    559.373    559.543    559.373
 17.070    564.000    560.039      3.961    559.240    559.868    559.240    559.412    559.240
 17.170    541.000    559.900    -18.900    559.104    559.727    559.104    559.277    559.104
 17.270    583.188    559.758     23.430    558.963    559.584    558.963    559.137    558.963
 17.370    550.290    559.611     -9.322    558.818    559.436    558.818    558.993    558.818
 17.470    584.827    559.462     25.365    558.669    559.285    558.669    558.845    558.669
 17.570    546.000    559.308    -13.308    558.516    559.131    558.516    558.693    558.516
 17.670    582.557    559.152     23.405    558.359    558.973    558.359    558.538    558.359
 17.770    546.000    558.992    -12.992    558.198    558.812    558.198    558.378    558.198
 17.870    525.827    558.830    -33.003    558.033    558.649    558.033    558.214    558.033
 17.970    529.000    558.668    -29.668    557.864    558.486    557.864    558.047    557.864
 18.070    590.982    558.498     32.483    557.692    558.315    557.692    557.875    557.692
 18.170    544.000    558.325    -14.325    557.516    558.140    557.516    557.700    557.516
 18.270    535.000    558.148    -23.148    557.336    557.962    557.336    557.522    557.336
 18.370    534.000    557.968    -23.968    557.152    557.781    557.152    557.340    557.152
 18.470    529.000    557.785    -28.785    556.965    557.596    556.965    557.154    556.965
 18.570    566.000    557.598      8.402    556.774    557.408    556.774    556.964    556.774
 18.670    540.000    557.409    -17.409    556.580    557.218    556.580    556.772    556.580
 18.770    553.000    557.217     -4.217    556.383    557.024    556.383    556.575    556.383
 18.870    529.211    557.021    -27.811    556.182    556.827    556.182    556.376    556.182
 18.970    515.846    556.830    -40.984    555.977    556.635    555.977    556.173    555.977
 19.070    552.463    556.697     -4.233    555.769    556.499    555.769    555.967    555.769
 19.170    534.000    556.502    -22.502    555.559    556.303    555.559    555.757    555.559
 19.270    538.000    556.296    -18.296    555.344    556.096    555.344    555.545    555.344
 19.370    535.000    556.087    -21.087    555.127    555.885    555.127    555.329    555.127
 19.470    559.000    555.876      3.124    554.907    555.672    554.907    555.110    554.907
 19.570    538.898    555.662    -16.764    554.683    555.456    554.683    554.888    554.683
 19.670    550.000    555.445     -5.445    554.457    555.238    554.457    554.663    554.457
 19.770    548.000    555.226     -7.226    554.227    555.018    554.227    554.436    554.227
 19.870    548.315    555.005     -6.690    553.995    554.795    553.995    554.205    553.995
 19.970    550.944    554.783     -3.839    553.759    554.571    553.759    553.972    553.759
 20.070    567.000    554.558     12.442    553.521    554.344    553.521    553.735    553.521
 20.170    543.000    554.330    -11.330    553.280    554.114    553.280    553.496    553.280
 20.270    560.000    554.100      5.900    553.036    553.883    553.036    553.254    553.036
 20.370    515.000    553.872    -38.872    552.790    553.653    552.790    553.010    552.790
 20.470    557.000    553.678      3.322    552.541    553.456    552.541    552.763    552.541
 20.570    512.000    553.466    -41.466    552.289    553.242    552.289    552.513    552.289
 20.670    548.079    553.260     -5.181    552.035    553.034    552.035    552.261    552.035
 20.770    537.275    553.034    -15.759    551.778    552.806    551.778    552.006    551.778
 20.870    552.000    552.797     -0.797    551.519    552.567    551.519    551.749    551.519
 20.970    551.000    552.556     -1.556    551.257    552.324    551.257    551.490    551.257
 21.070    588.943    552.315     36.629    550.993    552.080    550.993    551.228    550.993
 21.170    559.000    552.072      6.928    550.726    551.835    550.726    550.964    550.726
 21.270    507.290    551.829    -44.540    550.457    551.589    550.457    550.697    550.457
 21.370    543.000    551.585     -8.585    550.186    551.342    550.186    550.429    550.186
 21.470    564.427    551.340     13.087    549.912    551.095    549.912    550.158    549.912
 21.570    530.000    551.095    -21.095    549.637    550.848    549.637    549.885    549.637
 21.670    511.649    550.850    -39.202    549.359    550.600    549.359    549.610    549.359
 21.770    531.000    550.606    -19.606    549.079    550.353    549.079    549.333    549.079
 21.870    542.631    550.364     -7.733    548.797    550.108    548.797    549.054    548.797
 21.970    588.000    550.143     37.857    548.513    549.883    548.513    548.773    548.513
 22.070    551.475    549.910      1.565    548.227    549.647    548.227    548.490    548.227
 22.170    506.000    549.676    -43.676    547.939    549.411    547.939    548.205    547.939
 22.270    524.259    549.468    -25.208    547.649    549.199    547.649    547.918    547.649
 22.370    591.000    549.269     41.731    547.357    548.996    547.357    547.630    547.357
 22.470    502.450    549.068    -46.618    547.063    548.792    547.063    547.340    547.063
 22.570    601.000    548.847     52.153    546.768    548.567    546.768    547.048    546.768
 22.670    578.000    548.632     29.368    546.471    548.349    546.471    546.754    546.471
 22.770    540.000    548.444     -8.444    546.172    548.157    546.172    546.459    546.172
 22.870    538.019    548.269    -10.250    545.871    547.978    545.871    546.163    545.871
 22.970    541.000    548.119     -7.119    545.569    547.823    545.569    545.865    545.569
 23.070    585.511    547.949     37.562    545.265    547.649    545.265    545.565    545.265
 23.170    579.627    547.794     31.833    544.959    547.490    544.959    545.264    544.959
 23.270    507.000    547.663    -40.663    544.652    547.355    544.652    544.962    544.652
 23.370    549.208    547.567      1.641    544.343    547.253    544.343    544.658    544.343
 23.470    537.000    547.517    -10.517    544.033    547.198    544.033    544.353    544.033
 23.570    567.000    547.513     19.487    543.722    547.189    543.722    544.047    543.722
 23.670    530.000    547.571    -17.571    543.409    547.241    543.409    543.740    543.409
 23.770    558.137    547.720     10.416    543.095    547.385    543.095    543.431    543.095
 23.870    575.710    547.999     27.711    542.779    547.658    542.779    543.122    542.779
 23.970    547.000    548.483     -1.483    542.462    548.137    542.462    542.811    542.462
 24.070    564.000    549.324     14.676    542.144    548.972    542.144    542.500    542.144
 24.170    555.000    550.881      4.119    541.825    550.523    541.825    542.187    541.825
 24.270    547.446    553.913     -6.466    541.504    553.550    541.504    541.874    541.504
 24.370    612.000    559.760     52.240    541.182    559.395    541.182    541.560    541.182
 24.470    553.000    570.126    -17.126    540.860    569.760    540.860    541.245    540.860
 24.570    590.000    586.060      3.940    540.536    585.697    540.536    540.930    540.536
 24.670    569.000    606.006    -37.006    540.211    605.650    540.211    540.614    540.211
 24.770    630.000    623.606      6.394    539.885    623.253    539.885    540.297    539.885
 24.870    599.000    628.805    -29.805    539.558    628.446    539.558    539.980    539.558
 24.970    663.000    617.319     45.681    539.230    616.942    539.230    539.662    539.230
 25.070    612.000    596.979     15.021    538.901    596.576    538.901    539.344    538.901
 25.170    546.000    577.471    -31.471    538.571    577.043    538.571    539.026    538.571
 25.270    591.000    563.150     27.850    538.240    562.699    538.240    538.708    538.240
 25.370    573.000    554.237     18.763    537.909    553.766    537.909    538.390    537.909
 25.470    548.000    549.208     -1.208    537.577    548.719    537.577    538.071    537.577
 25.570    588.924    546.408     42.516    537.244    545.903    537.244    537.753    537.244
 25.670    540.000    544.722     -4.722    536.910    544.200    536.910    537.435    536.910
 25.770    564.629    543.576     21.053    536.576    543.036    536.576    537.118    536.576
 25.870    542.000    542.718     -0.718    536.241    542.160    536.241    536.801    536.241
 25.970    578.000    542.041     35.959    535.905    541.463    535.905    536.484    535.905
 26.070    580.000    541.493     38.507    535.569    540.894    535.569    536.169    535.569
 26.170    546.000    541.046      4.954    535.232    540.425    535.232    535.854    535.232
 26.270    567.000    540.682     26.318    534.894    540.036    534.894    535.541    534.894
 26.370    560.547    540.391     20.156    534.556    539.719    534.556    535.229    534.556
 26.470    583.529    540.169     43.360    534.218    539.469    534.218    534.918    534.218
 26.570    570.000    540.016     29.984    533.879    539.286    533.879    534.610    533.879
 26.670    555.000    539.934     15.066    533.540    539.170    533.540    534.303    533.540
 26.770    574.000    539.930     34.070    533.200    539.130    533.200    534.000    533.200
 26.870    563.282    540.017     23.265    532.860    539.178    532.860    533.699    532.860
 26.970    584.854    540.214     44.640    532.519    539.332    532.519    533.402    532.519
 27.070    580.000    540.548     39.452    532.178    539.617    532.178    533.108    532.178
 27.170    563.000    541.056     21.944    531.837    540.074    531.837    532.819    531.837
 27.270    564.000    541.799     22.201    531.496    540.758    531.496    532.536    531.496
 27.370    525.000    542.863    -17.863    531.155    541.758    531.155    532.258    531.155
 27.470    561.128    544.415     16.713    530.813    543.238    530.813    531.988    530.813
 27.570    553.000    546.876      6.124    530.471    545.618    530.471    531.726    530.471
 27.670    574.000    551.589     22.411    530.129    550.239    530.129    531.474    530.129
 27.770    567.000    562.596      4.404    529.787    561.142    529.787    531.233    529.787
 27.870    568.000    589.209    -21.209    529.444    587.631    529.444    531.005    529.444
 27.970    618.000    645.314    -27.314    529.102    643.588    529.102    530.792    529.102
 28.070    772.000    738.453     33.547    528.760    736.553    528.760    530.597    528.760
 28.170    845.448    849.789     -4.340    528.417    847.698    528.417    530.422    528.417
 28.270    914.478    925.163    -10.685    528.075    922.880    528.075    530.271    528.075
 28.370    926.000    914.081     11.919    527.732    911.606    527.732    530.146    527.732
 28.470    853.000    833.364     19.636    527.390    830.671    527.390    530.052    527.390
 28.570    797.978    748.457     49.521    527.048    745.499    527.048    529.991    527.048
 28.670    761.000    710.480     50.520    526.706    707.205    526.706    529.968    526.706
 28.770    726.000    729.939     -3.939    526.364    726.301    526.364    529.984    526.364
 28.870    755.000    781.932    -26.932    526.022    777.892    526.022    530.042    526.022
 28.970    819.954    819.791      0.164    525.680    815.320    525.680    530.139    525.680
 29.070    784.000    805.119    -21.119    525.339    800.190    525.339    530.271    525.339
 29.170    782.815    743.907     38.908    524.997    738.492    524.997    530.425    524.997
 29.270    666.000    671.128     -5.128    524.657    665.216    524.657    530.581    524.657
 29.370    572.000    613.470    -41.470    524.316    607.083    524.316    530.712    524.316
 29.470    575.000    577.995     -2.995    523.975    571.196    523.975    530.780    523.975
 29.570    603.000    559.685     43.315    523.635    552.577    523.635    530.746    523.635
 29.670    531.933    550.947    -19.013    523.296    543.668    523.296    530.576    523.296
 29.770    603.000    546.477     56.523    522.956    539.186    522.956    530.247    522.956
 29.870    530.396    543.713    -13.317    522.617    536.571    522.617    529.760    522.617
 29.970    579.000    541.691     37.309    522.279    534.837    522.279    529.132    522.279
 30.070    569.494    540.111     29.383    521.941    533.653    521.941    528.398    521.941
 30.170    586.467    538.929     47.538    521.603    532.934    521.603    527.597    521.603
 30.270    588.000    538.271     49.729    521.266    532.768    521.266    526.767    521.266
 30.370    548.000    538.537      9.463    520.929    533.526    520.929    525.937    520.929
