neutron_powder_diffraction_0112
R_wp: 3.978
Temperature (K): 948.074
Counts: 83748.00
Wavelength (Ã…): 2.52098
COMMENTS
Test file for demonstrating the .xyy file format in Reel1.0
END OF HEADER
   tth       Y_obs     Y_calc      Y_res    Background    Phase_1_Nuc    Phase_1_Mag    Phase_2_Nuc    Phase_2_Mag
  9.970    559.000    551.833      7.167    550.728    551.698    550.728    550.863    550.728
 10.070    594.425    552.306     42.119    551.117    552.170    551.117    551.253    551.117
 10.170    550.029    552.781     -2.752    551.496    552.644    551.496    551.633    551.496
 10.270    579.000    553.261     25.739    551.867    553.123    551.867    552.004    551.867
 10.370    587.000    553.748     33.252    552.228    553.610    552.228    552.365    552.228
 10.470    552.000    554.248     -2.248    552.580    554.110    552.580    552.717    552.580
 10.570    532.072    554.765    -22.694    552.922    554.626    552.922    553.061    552.922
 10.670    589.000    555.307     33.693    553.256    555.167    553.256    553.395    553.256
 10.770    535.504    555.881    -20.376    553.580    555.740    553.580    553.720    553.580
 10.870    580.000    556.500     23.500    553.896    556.358    553.896    554.036    553.896
 10.970    595.889    557.181     38.708    554.203    557.039    554.203    554.344    554.203
 11.070    559.000    557.951      1.049    554.501    557.808    554.501    554.643    554.501
 11.170    598.788    558.837     39.950    554.791    558.693    554.791    554.933    554.791
 11.270    605.783    559.896     45.886    555.072    559.751    555.072    555.215    555.072
 11.370    597.000    561.226     35.774    555.344    561.079    555.344    555.488    555.344
 11.470    604.273    563.033     41.240    555.608    562.885    555.608    555.752    555.608
 11.570    580.053    565.812     14.240    555.864    565.663    555.864    556.008    555.864
 11.670    580.670    570.678      9.992    556.111    570.525    556.111    556.256    556.111
 11.770    588.594    579.694      8.899    556.350    579.536    556.350    556.496    556.350
 11.870    592.532    595.637     -3.105    556.581    595.469    556.581    556.728    556.581
 11.970    573.529    620.358    -46.829    556.804    620.175    556.804    556.951    556.804
 12.070    663.000    651.440     11.560    557.019    651.239    557.019    557.167    557.019
 12.170    647.743    678.466    -30.724    557.226    678.249    557.226    557.375    557.226
 12.270    661.000    685.516    -24.516    557.425    685.294    557.425    557.574    557.425
 12.370    617.000    666.955    -49.955    557.617    666.743    557.617    557.766    557.617
 12.470    599.000    636.040    -37.040    557.800    635.845    557.800    557.951    557.800
 12.570    600.998    607.688     -6.690    557.976    607.509    557.976    558.127    557.976
 12.670    541.000    587.897    -46.897    558.144    587.728    558.144    558.296    558.144
 12.770    607.226    576.306     30.920    558.305    576.144    558.305    558.458    558.305
 12.870    571.739    570.210      1.528    558.459    570.051    558.459    558.612    558.459
 12.970    609.427    567.061     42.366    558.605    566.902    558.605    558.759    558.605
 13.070    584.451    565.300     19.150    558.744    565.142    558.744    558.898    558.744
 13.170    578.000    564.192     13.808    558.875    564.034    558.875    559.030    558.875
 13.270    530.000    563.429    -33.429    558.999    563.270    558.999    559.155    558.999
 13.370    532.057    562.877    -30.821    559.117    562.719    559.117    559.273    559.117
 13.470    590.904    562.469     28.436    559.227    562.310    559.227    559.384    559.227
 13.570    574.000    562.162     11.838    559.330    562.002    559.330    559.488    559.330
 13.670    527.000    561.931    -34.931    559.427    561.770    559.427    559.586    559.427
 13.770    526.000    561.751    -35.751    559.516    561.590    559.516    559.676    559.516
 13.870    545.087    561.612    -16.525    559.599    561.450    559.599    559.759    559.599
 13.970    558.000    561.503     -3.503    559.675    561.341    559.675    559.836    559.675
 14.070    539.000    561.417    -22.417    559.744    561.254    559.744    559.907    559.744
 14.170    563.335    561.347      1.988    559.807    561.184    559.807    559.970    559.807
 14.270    592.000    561.291     30.709    559.864    561.126    559.864    560.028    559.864
 14.370    577.263    561.243     16.020    559.914    561.078    559.914    560.078    559.914
 14.470    529.839    561.203    -31.364    559.957    561.037    559.957    560.123    559.957
 14.570    583.000    561.166     21.834    559.995    561.000    559.995    560.161    559.995
 14.670    510.000    561.133    -51.133    560.026    560.966    560.026    560.193    560.026
 14.770    555.000    561.102     -6.102    560.051    560.933    560.051    560.219    560.051
 14.870    570.000    561.071      8.929    560.069    560.901    560.069    560.238    560.069
 14.970    548.000    561.039    -13.039    560.082    560.869    560.082    560.252    560.082
 15.070    558.000    561.007     -3.007    560.089    560.836    560.089    560.260    560.089
 15.170    537.857    560.973    -23.115    560.090    560.801    560.090    560.261    560.090
 15.270    518.499    560.937    -42.438    560.085    560.764    560.085    560.257    560.085
 15.370    597.697    560.898     36.799    560.074    560.724    560.074    560.247    560.074
 15.470    512.000    560.856    -48.856    560.057    560.682    560.057    560.232    560.057
 15.570    605.632    560.813     44.819    560.035    560.637    560.035    560.210    560.035
 15.670    486.000    560.766    -74.766    560.007    560.590    560.007    560.183    560.007
 15.770    548.000    560.715    -12.715    559.974    560.537    559.974    560.151    559.974
 15.870    520.946    560.660    -39.714    559.935    560.481    559.935    560.113    559.935
 15.970    534.000    560.601    -26.601    559.890    560.421    559.890    560.070    559.890
 16.070    573.587    560.540     13.048    559.840    560.359    559.840    560.021    559.840
 16.170    551.000    560.491     -9.491    559.785    560.310    559.785    559.967    559.785
 16.270    560.616    560.430      0.186    559.725    560.247    559.725    559.908    559.725
 16.370    519.000    560.356    -41.356    559.660    560.172    559.660    559.843    559.660
 16.470    512.000    560.277    -48.277    559.589    560.092    559.589    559.773    559.589
 16.570    585.000    560.194     24.806    559.513    560.008    559.513    559.699    559.513
 16.670    521.000    560.107    -39.107    559.432    559.920    559.432    559.619    559.432
 16.770    581.000    560.016     20.984    559.347    559.828    559.347    559.535    559.347
 16.870    569.736    559.921      9.815    559.256    559.732    559.256    559.445    559.256
 16.970    556.000    559.821     -3.821    559.161    559.631    559.161    559.351    559.161
 17.070    516.000    559.718    -43.718    559.060    559.526    559.060    559.252    559.060
 17.170    554.000    559.610     -5.610    558.955    559.418    558.955    559.148    558.955
 17.270    603.396    559.508     43.887    558.845    559.314    558.845    559.039    558.845
 17.370    522.000    559.492    -37.492    558.731    559.297    558.731    558.926    558.731
 17.470    589.887    559.398     30.488    558.612    559.202    558.612    558.809    558.612
 17.570    604.318    559.276     45.041    558.489    559.079    558.489    558.686    558.489
 17.670    552.198    559.149     -6.951    558.361    558.950    558.361    558.560    558.361
 17.770    560.000    559.017      0.983    558.229    558.817    558.229    558.429    558.229
 17.870    567.264    558.882      8.382    558.092    558.681    558.092    558.294    558.092
 17.970    591.956    558.743     33.213    557.951    558.540    557.951    558.154    557.951
 18.070    584.330    558.600     25.730    557.806    558.396    557.806    558.010    557.806
 18.170    511.000    558.453    -47.453    557.656    558.247    557.656    557.862    557.656
 18.270    516.673    558.303    -41.630    557.503    558.096    557.503    557.710    557.503
 18.370    527.000    558.149    -31.149    557.345    557.940    557.345    557.554    557.345
 18.470    536.335    557.991    -21.656    557.184    557.781    557.184    557.394    557.184
 18.570    575.159    557.830     17.330    557.018    557.618    557.018    557.230    557.018
 18.670    550.768    557.667     -6.899    556.849    557.454    556.849    557.062    556.849
 18.770    528.004    557.504    -29.500    556.675    557.289    556.675    556.890    556.675
 18.870    575.000    557.333     17.667    556.498    557.116    556.498    556.714    556.498
 18.970    528.016    557.158    -29.142    556.317    556.940    556.317    556.535    556.317
 19.070    556.000    556.979     -0.979    556.132    556.760    556.132    556.352    556.132
 19.170    557.000    556.798      0.202    555.944    556.577    555.944    556.165    555.944
 19.270    567.000    556.621     10.379    555.752    556.398    555.752    555.975    555.752
 19.370    566.000    556.497      9.503    555.556    556.272    555.556    555.781    555.556
 19.470    540.306    556.313    -16.007    555.357    556.086    555.357    555.584    555.357
 19.570    534.000    556.121    -22.121    555.155    555.892    555.155    555.383    555.155
 19.670    566.000    555.928     10.072    554.949    555.698    554.949    555.179    554.949
 19.770    571.000    555.729     15.271    554.739    555.497    554.739    554.972    554.739
 19.870    532.000    555.527    -23.527    554.527    555.293    554.527    554.761    554.527
 19.970    528.388    555.323    -26.935    554.311    555.087    554.311    554.547    554.311
 20.070    536.000    555.116    -19.116    554.091    554.878    554.091    554.330    554.091
 20.170    546.000    554.906     -8.906    553.869    554.666    553.869    554.109    553.869
 20.270    522.000    554.694    -32.694    553.644    554.452    553.644    553.886    553.644
 20.370    559.000    554.480      4.520    553.415    554.235    553.415    553.660    553.415
 20.470    559.000    554.264      4.736    553.183    554.017    553.183    553.430    553.183
 20.570    542.000    554.045    -12.045    552.949    553.796    552.949    553.198    552.949
 20.670    564.000    553.828     10.172    552.711    553.576    552.711    552.963    552.711
 20.770    585.282    553.644     31.638    552.471    553.390    552.471    552.725    552.471
 20.870    533.000    553.431    -20.431    552.228    553.175    552.228    552.484    552.228
 20.970    558.000    553.207      4.793    551.982    552.948    551.982    552.241    551.982
 21.070    533.000    552.990    -19.990    551.733    552.729    551.733    551.994    551.733
 21.170    539.000    552.770    -13.770    551.481    552.505    551.481    551.746    551.481
 21.270    538.000    552.546    -14.546    551.227    552.279    551.227    551.494    551.227
 21.370    575.674    552.318     23.356    550.970    552.048    550.970    551.240    550.970
 21.470    592.000    552.094     39.906    550.711    551.821    550.711    550.984    550.711
 21.570    576.000    551.880     24.120    550.449    551.605    550.449    550.725    550.449
 21.670    539.000    551.649    -12.649    550.184    551.371    550.184    550.463    550.184
 21.770    535.000    551.417    -16.417    549.918    551.135    549.918    550.200    549.918
 21.870    526.000    551.184    -25.184    549.648    550.899    549.648    549.934    549.648
 21.970    541.000    550.952     -9.952    549.377    550.664    549.377    549.665    549.377
 22.070    544.000    550.721     -6.721    549.103    550.429    549.103    549.395    549.103
 22.170    536.000    550.494    -14.494    548.826    550.199    548.826    549.122    548.826
 22.270    566.221    550.289     15.932    548.548    549.990    548.548    548.848    548.548
 22.370    545.000    550.072     -5.072    548.267    549.769    548.267    548.571    548.267
 22.470    516.236    549.858    -33.622    547.985    549.551    547.985    548.292    547.985
 22.570    581.000    549.665     31.335    547.700    549.354    547.700    548.011    547.700
 22.670    532.000    549.460    -17.460    547.413    549.144    547.413    547.729    547.413
 22.770    572.944    549.290     23.654    547.124    548.971    547.124    547.444    547.124
 22.870    562.312    549.121     13.191    546.833    548.797    546.833    547.158    546.833
 22.970    544.000    548.940     -4.940    546.540    548.611    546.540    546.869    546.540
 23.070    527.376    548.771    -21.396    546.245    548.438    546.245    546.579    546.245
 23.170    552.000    548.631      3.369    545.949    548.292    545.949    546.288    545.949
 23.270    555.980    548.535      7.445    545.650    548.191    545.650    545.995    545.650
 23.370    507.459    548.468    -41.009    545.350    548.119    545.350    545.700    545.350
 23.470    541.290    548.410     -7.120    545.048    548.055    545.048    545.404    545.048
 23.570    562.000    548.395     13.605    544.744    548.035    544.744    545.106    544.744
 23.670    544.000    548.444     -4.444    544.439    548.078    544.439    544.807    544.439
 23.770    618.000    548.585     69.415    544.132    548.213    544.132    544.506    544.132
 23.870    555.000    548.849      6.151    543.823    548.470    543.823    544.204    543.823
 23.970    536.000    549.306    -13.306    543.513    548.921    543.513    543.901    543.513
 24.070    549.123    550.117     -0.994    543.202    549.725    543.202    543.597    543.202
 24.170    546.196    551.614     -5.418    542.888    551.215    542.888    543.291    542.888
 24.270    591.052    554.553     36.499    542.574    554.149    542.574    542.985    542.574
 24.370    561.000    560.295      0.705    542.258    559.886    542.258    542.678    542.258
 24.470    614.000    570.594     43.406    541.941    570.185    541.941    542.369    541.941
 24.570    596.000    586.557      9.443    541.622    586.149    541.622    542.060    541.622
 24.670    636.000    606.592     29.408    541.302    606.189    541.302    541.750    541.302
 24.770    695.000    624.125     70.875    540.981    623.724    540.981    541.439    540.981
 24.870    613.000    628.959    -15.959    540.659    628.551    540.659    541.127    540.659
 24.970    595.000    617.037    -22.037    540.335    616.610    540.335    540.815    540.335
 25.070    611.136    596.510     14.626    540.010    596.056    540.010    540.503    540.010
 25.170    575.000    577.124     -2.124    539.685    576.643    539.685    540.190    539.685
 25.270    604.947    563.110     41.837    539.358    562.606    539.358    539.877    539.358
 25.370    547.389    554.532     -7.143    539.030    554.008    539.030    539.563    539.030
 25.470    552.328    549.766      2.562    538.701    549.223    538.701    539.250    538.701
 25.570    531.000    547.133    -16.133    538.371    546.572    538.371    538.936    538.371
 25.670    542.000    545.540     -3.540    538.040    544.961    538.040    538.623    538.040
 25.770    541.470    544.448     -2.979    537.708    543.850    537.708    538.309    537.708
 25.870    565.734    543.625     22.109    537.376    543.006    537.376    537.997    537.376
 25.970    572.925    542.972     29.954    537.042    542.331    537.042    537.685    537.042
 26.070    549.875    542.440      7.435    536.708    541.776    536.708    537.373    536.708
 26.170    533.000    542.004     -9.004    536.373    541.315    536.373    537.063    536.373
 26.270    539.000    541.647     -2.647    536.037    540.932    536.037    536.753    536.037
 26.370    567.000    541.359     25.641    535.701    540.615    535.701    536.445    535.701
 26.470    531.000    541.137    -10.137    535.364    540.362    535.364    536.139    535.364
 26.570    546.000    540.979      5.021    535.026    540.170    535.026    535.835    535.026
 26.670    514.992    540.889    -25.897    534.687    540.044    534.687    535.533    534.687
 26.770    501.933    540.875    -38.942    534.348    539.990    534.348    535.233    534.348
 26.870    543.702    540.947      2.755    534.009    540.019    534.009    534.937    534.009
 26.970    584.214    541.125     43.089    533.669    540.149    533.669    534.644    533.669
 27.070    523.711    541.432    -17.720    533.328    540.404    533.328    534.356    533.328
 27.170    564.701    541.906     22.795    532.987    540.820    532.987    534.072    532.987
 27.270    516.128    542.602    -26.474    532.646    541.453    532.646    533.794    532.646
 27.370    539.000    543.605     -4.605    532.304    542.386    532.304    533.523    532.304
 27.470    534.000    545.073    -11.073    531.962    543.775    531.962    533.259    531.962
 27.570    545.000    547.402     -2.402    531.619    546.016    531.619    533.004    531.619
 27.670    545.000    551.881     -6.881    531.277    550.396    531.277    532.759    531.277
 27.770    532.000    562.473    -30.473    530.933    560.874    530.933    532.526    530.933
 27.870    582.422    588.484     -6.063    530.590    586.751    530.590    532.306    530.590
 27.970    690.000    644.035     45.965    530.246    642.143    530.246    532.103    530.246
 28.070    710.014    736.935    -26.921    529.903    734.857    529.903    531.918    529.903
 28.170    803.000    848.017    -45.017    529.559    845.735    529.559    531.754    529.559
 28.270    885.595    922.165    -36.570    529.215    919.677    529.215    531.614    529.215
 28.370    880.839    908.872    -28.034    528.871    906.179    528.871    531.502    528.871
 28.470    863.000    826.682     36.318    528.526    823.756    528.526    531.421    528.526
 28.570    755.000    741.906     13.094    528.182    738.700    528.182    531.373    528.182
 28.670    733.000    705.074     27.926    527.838    701.536    527.838    531.363    527.838
 28.770    752.000    725.655     26.345    527.493    721.738    527.493    531.392    527.493
 28.870    822.000    778.008     43.992    527.149    773.676    527.149    531.461    527.149
 28.970    813.000    815.273     -2.273    526.805    810.498    526.805    531.567    526.805
 29.070    766.000    799.665    -33.665    526.460    794.423    526.460    531.704    526.460
 29.170    729.000    738.391     -9.391    526.116    732.659    526.116    531.860    526.116
 29.270    686.000    666.678     19.322    525.772    660.451    525.772    532.013    525.772
 29.370    580.000    610.623    -30.623    525.429    603.926    525.429    532.136    525.429
 29.470    606.000    576.633     29.367    525.085    569.531    525.085    532.192    525.085
 29.570    592.000    559.343     32.657    524.741    551.942    524.741    532.146    524.741
 29.670    546.000    551.175     -5.175    524.398    543.611    524.398    531.964    524.398
 29.770    580.000    546.995     33.005    524.055    539.424    524.055    531.628    524.055
 29.870    503.422    544.386    -40.964    523.713    536.964    523.713    531.136    523.713
 29.970    599.000    542.461     56.539    523.370    535.324    523.370    530.508    523.370
 30.070    546.000    540.947      5.053    523.028    534.201    523.028    529.774    523.028
 30.170    571.651    539.808     31.843    522.687    533.522    522.687    528.972    522.687
 30.270    503.087    539.171    -36.084    522.345    533.377    522.345    528.138    522.345
 30.370    540.000    539.439      0.561    522.004    534.141    522.004    527.300    522.004
