neutron_powder_diffraction_0225
R_wp: 3.947
Temperature (K): 1074.100
Counts: 83748.00
Wavelength (Ã…): 2.52098
COMMENTS
Test file for demonstrating the .xyy file format in Reel1.0
END OF HEADER
   tth       Y_obs     Y_calc      Y_res    Background    Phase_1_Nuc    Phase_1_Mag    Phase_2_Nuc    Phase_2_Mag
  9.970    609.000    572.123     36.877    571.568    572.096    571.568    571.595    571.568
 10.070    568.170    572.260     -4.091    571.658    572.233    571.658    571.685    571.658
 10.170    605.000    572.401     32.599    571.743    572.373    571.743    571.771    571.743
 10.270    591.000    572.558     18.442    571.823    572.530    571.823    571.850    571.823
 10.370    573.000    572.707      0.293    571.897    572.679    571.897    571.924    571.897
 10.470    579.000    572.860      6.140    571.965    572.832    571.965    571.993    571.965
 10.570    593.000    573.022     19.978    572.028    572.994    572.028    572.056    572.028
 10.670    609.000    573.199     35.801    572.085    573.170    572.085    572.113    572.085
 10.770    560.000    573.395    -13.395    572.137    573.366    572.137    572.166    572.137
 10.870    529.000    573.617    -44.617    572.184    573.588    572.184    572.212    572.184
 10.970    575.000    573.877      1.123    572.226    573.848    572.226    572.254    572.226
 11.070    601.000    574.189     26.811    572.262    574.158    572.262    572.292    572.262
 11.170    570.000    574.574     -4.574    572.293    574.542    572.293    572.324    572.293
 11.270    525.802    575.064    -49.262    572.319    575.032    572.319    572.350    572.319
 11.370    572.000    575.715     -3.715    572.341    575.683    572.341    572.372    572.341
 11.470    559.000    576.645    -17.645    572.357    576.612    572.357    572.388    572.357
 11.570    626.838    578.190     48.647    572.368    578.156    572.368    572.399    572.368
 11.670    653.000    581.404     71.596    572.374    581.367    572.374    572.406    572.374
 11.770    594.527    589.011      5.516    572.375    588.970    572.375    572.407    572.375
 11.870    656.000    605.908     50.092    572.372    605.857    572.372    572.404    572.372
 11.970    622.949    636.504    -13.554    572.363    636.435    572.363    572.397    572.363
 12.070    648.895    677.331    -28.437    572.350    677.229    572.350    572.395    572.350
 12.170    684.890    710.031    -25.140    572.333    709.907    572.333    572.379    572.333
 12.270    642.000    711.080    -69.080    572.310    710.956    572.310    572.357    572.310
 12.370    658.038    679.488    -21.450    572.283    679.381    572.283    572.331    572.283
 12.470    645.000    638.383      6.617    572.252    638.299    572.252    572.299    572.252
 12.570    583.000    606.973    -23.973    572.216    606.906    572.216    572.264    572.216
 12.670    570.000    589.400    -19.400    572.176    589.343    572.176    572.224    572.176
 12.770    558.032    581.421    -23.389    572.131    581.368    572.131    572.179    572.131
 12.870    574.000    578.039     -4.039    572.082    577.986    572.082    572.131    572.082
 12.970    589.261    576.413     12.848    572.028    576.356    572.028    572.083    572.028
 13.070    542.000    575.425    -33.425    571.970    575.368    571.970    572.026    571.970
 13.170    587.000    574.725     12.275    571.909    574.668    571.909    571.964    571.909
 13.270    543.000    574.191    -31.191    571.842    574.134    571.842    571.899    571.842
 13.370    589.792    573.766     16.026    571.772    573.708    571.772    571.829    571.772
 13.470    573.000    573.416     -0.416    571.698    573.358    571.698    571.755    571.698
 13.570    553.000    573.119    -20.119    571.619    573.061    571.619    571.676    571.619
 13.670    585.473    572.862     12.611    571.537    572.804    571.537    571.594    571.537
 13.770    541.294    572.633    -31.338    571.451    572.574    571.451    571.508    571.451
 13.870    592.000    572.425     19.575    571.360    572.366    571.360    571.418    571.360
 13.970    588.000    572.232     15.768    571.266    572.174    571.266    571.325    571.266
 14.070    589.000    572.052     16.948    571.168    571.993    571.168    571.227    571.168
 14.170    545.000    571.880    -26.880    571.067    571.821    571.067    571.126    571.067
 14.270    526.000    571.715    -45.715    570.961    571.655    570.961    571.020    570.961
 14.370    562.000    571.554     -9.554    570.852    571.494    570.852    570.912    570.852
 14.470    595.000    571.397     23.603    570.739    571.336    570.739    570.799    570.739
 14.570    582.527    571.241     11.285    570.623    571.181    570.623    570.683    570.623
 14.670    597.000    571.087     25.913    570.503    571.026    570.503    570.563    570.503
 14.770    604.000    570.934     33.066    570.379    570.873    570.379    570.440    570.379
 14.870    538.029    570.780    -32.752    570.252    570.719    570.252    570.313    570.252
 14.970    564.000    570.627     -6.627    570.122    570.565    570.122    570.183    570.122
 15.070    547.000    570.472    -23.472    569.988    570.410    569.988    570.050    569.988
 15.170    542.476    570.317    -27.841    569.850    570.254    569.850    569.913    569.850
 15.270    563.266    570.163     -6.897    569.710    570.097    569.710    569.776    569.710
 15.370    563.669    570.005     -6.336    569.566    569.938    569.566    569.633    569.566
 15.470    579.227    569.849      9.379    569.419    569.780    569.419    569.487    569.419
 15.570    554.215    569.688    -15.473    569.268    569.619    569.268    569.337    569.268
 15.670    590.649    569.524     21.124    569.115    569.455    569.115    569.184    569.115
 15.770    544.000    569.359    -25.359    568.958    569.289    568.958    569.028    568.958
 15.870    571.955    569.191      2.764    568.798    569.120    568.798    568.869    568.798
 15.970    606.749    569.021     37.728    568.636    568.950    568.636    568.706    568.636
 16.070    604.954    568.848     36.106    568.470    568.777    568.470    568.541    568.470
 16.170    607.000    568.674     38.326    568.301    568.602    568.301    568.373    568.301
 16.270    581.723    568.497     13.226    568.129    568.425    568.129    568.201    568.129
 16.370    542.553    568.318    -25.765    567.955    568.245    567.955    568.027    567.955
 16.470    562.332    568.136     -5.804    567.777    568.063    567.777    567.850    567.777
 16.570    558.355    567.952     -9.598    567.597    567.879    567.597    567.670    567.597
 16.670    583.202    567.766     15.435    567.414    567.692    567.414    567.488    567.414
 16.770    514.000    567.578    -53.578    567.228    567.503    567.228    567.302    567.228
 16.870    613.725    567.387     46.338    567.039    567.312    567.039    567.114    567.039
 16.970    560.000    567.194     -7.194    566.848    567.119    566.848    566.924    566.848
 17.070    544.000    566.999    -22.999    566.654    566.923    566.654    566.730    566.654
 17.170    527.105    566.802    -39.697    566.458    566.725    566.458    566.534    566.458
 17.270    538.000    566.602    -28.602    566.259    566.525    566.259    566.336    566.259
 17.370    610.542    566.400     44.141    566.057    566.323    566.057    566.135    566.057
 17.470    522.000    566.197    -44.197    565.853    566.118    565.853    565.932    565.853
 17.570    568.000    565.992      2.008    565.647    565.911    565.647    565.727    565.647
 17.670    563.020    565.783     -2.764    565.438    565.702    565.438    565.519    565.438
 17.770    536.000    565.573    -29.573    565.226    565.491    565.226    565.308    565.226
 17.870    571.000    565.360      5.640    565.013    565.278    565.013    565.095    565.013
 17.970    623.000    565.146     57.854    564.797    565.063    564.797    564.879    564.797
 18.070    597.138    564.929     32.208    564.579    564.846    564.579    564.662    564.579
 18.170    557.000    564.712     -7.712    564.358    564.628    564.358    564.442    564.358
 18.270    565.054    564.495      0.559    564.135    564.411    564.135    564.220    564.135
 18.370    523.173    564.274    -41.100    563.911    564.188    563.911    563.996    563.911
 18.470    569.000    564.049      4.951    563.684    563.963    563.684    563.769    563.684
 18.570    558.663    563.823     -5.160    563.454    563.737    563.454    563.541    563.454
 18.670    581.000    563.595     17.405    563.223    563.508    563.223    563.310    563.223
 18.770    610.657    563.365     47.292    562.990    563.277    562.990    563.078    562.990
 18.870    558.000    563.134     -5.134    562.755    563.045    562.755    562.843    562.755
 18.970    525.695    562.900    -37.206    562.518    562.811    562.518    562.607    562.518
 19.070    542.589    562.666    -20.077    562.278    562.576    562.278    562.368    562.278
 19.170    556.000    562.430     -6.430    562.037    562.339    562.037    562.128    562.037
 19.270    552.000    562.192    -10.192    561.795    562.100    561.795    561.886    561.795
 19.370    575.733    561.952     13.781    561.550    561.860    561.550    561.642    561.550
 19.470    546.000    561.716    -15.716    561.303    561.618    561.303    561.401    561.303
 19.570    506.000    561.475    -55.475    561.055    561.374    561.055    561.155    561.055
 19.670    579.000    561.231     17.769    560.805    561.129    560.805    560.906    560.805
 19.770    566.000    560.985      5.015    560.553    560.883    560.553    560.655    560.553
 19.870    590.370    560.739     29.631    560.300    560.635    560.300    560.403    560.300
 19.970    602.014    560.491     41.524    560.044    560.386    560.044    560.149    560.044
 20.070    544.386    560.241    -15.856    559.788    560.136    559.788    559.893    559.788
 20.170    582.000    559.991     22.009    559.529    559.885    559.529    559.635    559.529
 20.270    554.211    559.740     -5.529    559.270    559.632    559.270    559.377    559.270
 20.370    601.029    559.487     41.542    559.008    559.379    559.008    559.116    559.008
 20.470    531.000    559.233    -28.233    558.745    559.124    558.745    558.854    558.745
 20.570    582.000    558.979     23.021    558.481    558.868    558.481    558.591    558.481
 20.670    539.946    558.723    -18.778    558.215    558.612    558.215    558.326    558.215
 20.770    523.000    558.467    -35.467    557.948    558.355    557.948    558.060    557.948
 20.870    541.000    558.211    -17.211    557.679    558.097    557.679    557.793    557.679
 20.970    556.000    557.955     -1.955    557.409    557.841    557.409    557.524    557.409
 21.070    556.336    557.710     -1.374    557.138    557.594    557.138    557.254    557.138
 21.170    527.000    557.461    -30.461    556.866    557.344    556.866    556.983    556.866
 21.270    566.777    557.203      9.574    556.592    557.084    556.592    556.710    556.592
 21.370    559.659    556.944      2.716    556.317    556.824    556.317    556.436    556.317
 21.470    599.518    556.684     42.834    556.041    556.563    556.041    556.161    556.041
 21.570    543.000    556.425    -13.425    555.763    556.303    555.763    555.885    555.763
 21.670    548.000    556.166     -8.166    555.485    556.042    555.485    555.608    555.485
 21.770    532.224    555.916    -23.691    555.205    555.790    555.205    555.330    555.205
 21.870    509.339    555.744    -46.405    554.924    555.618    554.924    555.051    554.924
 21.970    528.150    555.531    -27.381    554.643    555.403    554.643    554.771    554.643
 22.070    528.154    555.305    -27.150    554.360    555.175    554.360    554.490    554.360
 22.170    548.000    555.053     -7.053    554.076    554.921    554.076    554.207    554.076
 22.270    559.000    554.800      4.200    553.791    554.667    553.791    553.924    553.791
 22.370    534.000    554.549    -20.549    553.505    554.414    553.505    553.640    553.505
 22.470    583.000    554.301     28.699    553.219    554.164    553.219    553.355    553.219
 22.570    536.196    554.056    -17.860    552.931    553.917    552.931    553.070    552.931
 22.670    579.000    553.815     25.185    552.643    553.674    552.643    552.783    552.643
 22.770    526.000    553.578    -27.578    552.354    553.436    552.354    552.496    552.354
 22.870    595.000    553.352     41.648    552.063    553.208    552.063    552.208    552.063
 22.970    576.000    553.173     22.827    551.773    553.026    551.773    551.919    551.773
 23.070    549.000    552.977     -3.977    551.481    552.828    551.481    551.630    551.481
 23.170    553.000    552.775      0.225    551.189    552.624    551.189    551.340    551.189
 23.270    567.000    552.587     14.413    550.896    552.434    550.896    551.050    550.896
 23.370    570.624    552.420     18.205    550.602    552.261    550.602    550.760    550.602
 23.470    558.647    552.275      6.372    550.307    552.113    550.307    550.470    550.307
 23.570    606.000    552.160     53.840    550.012    551.996    550.012    550.177    550.012
 23.670    593.662    552.089     41.573    549.717    551.922    549.717    549.885    549.717
 23.770    538.000    552.078    -14.078    549.420    551.908    549.420    549.591    549.420
 23.870    598.000    552.152     45.848    549.123    551.979    549.123    549.298    549.123
 23.970    547.000    552.351     -5.351    548.826    552.175    548.826    549.004    548.826
 24.070    553.000    552.781      0.219    548.528    552.602    548.528    548.709    548.528
 24.170    567.000    553.748     13.252    548.230    553.567    548.230    548.415    548.230
 24.270    580.904    556.165     24.739    547.931    555.981    547.931    548.120    547.931
 24.370    584.000    562.166     21.834    547.632    561.983    547.632    547.824    547.632
 24.470    602.000    575.063     26.937    547.332    574.885    547.332    547.529    547.332
 24.570    593.533    596.927     -3.393    547.032    596.760    547.032    547.233    547.032
 24.670    604.000    623.619    -19.619    546.732    623.468    546.732    546.938    546.732
 24.770    650.697    641.576      9.121    546.431    641.432    546.431    546.642    546.431
 24.870    605.000    637.170    -32.170    546.130    637.019    546.130    546.346    546.130
 24.970    634.015    614.129     19.886    545.828    613.955    545.828    546.050    545.828
 25.070    591.000    587.705      3.295    545.527    587.506    545.527    545.754    545.527
 25.170    595.000    568.312     26.688    545.225    568.093    545.225    545.459    545.225
 25.270    590.788    557.493     33.295    544.922    557.260    544.922    545.163    544.922
 25.370    565.000    552.417     12.583    544.620    552.173    544.620    544.868    544.620
 25.470    525.000    550.110    -25.110    544.317    549.857    544.317    544.573    544.317
 25.570    554.063    548.888      5.176    544.015    548.626    544.015    544.278    544.015
 25.670    543.000    548.071     -5.071    543.712    547.801    543.712    543.984    543.712
 25.770    566.000    547.454     18.546    543.409    547.173    543.409    543.690    543.409
 25.870    549.586    546.959      2.627    543.106    546.669    543.106    543.397    543.106
 25.970    517.000    546.552    -29.552    542.802    546.250    542.802    543.105    542.802
 26.070    585.000    546.211     38.789    542.499    545.897    542.499    542.813    542.499
 26.170    551.114    545.926      5.188    542.196    545.600    542.196    542.522    542.196
 26.270    564.974    545.689     19.285    541.892    545.349    541.892    542.233    541.892
 26.370    544.000    545.499     -1.499    541.589    545.144    541.589    541.944    541.589
 26.470    583.965    545.356     38.609    541.286    544.984    541.286    541.657    541.286
 26.570    545.000    545.263     -0.263    540.982    544.874    540.982    541.372    540.982
 26.670    554.000    545.227      8.773    540.679    544.818    540.679    541.088    540.679
 26.770    543.000    545.258     -2.258    540.376    544.828    540.376    540.806    540.376
 26.870    556.964    545.393     11.571    540.073    544.939    540.073    540.527    540.073
 26.970    618.000    545.623     72.377    539.770    545.143    539.770    540.250    539.770
 27.070    568.742    545.956     22.786    539.467    545.446    539.467    539.977    539.467
 27.170    566.000    546.451     19.549    539.165    545.908    539.165    539.707    539.165
 27.270    583.000    547.168     35.832    538.862    546.588    538.862    539.441    538.862
 27.370    546.000    548.197     -2.197    538.560    547.576    538.560    539.180    538.560
 27.470    583.855    549.703     34.151    538.258    549.035    538.258    538.924    538.258
 27.570    557.000    552.111      4.889    537.956    551.388    537.956    538.676    537.956
 27.670    567.000    556.875     10.125    537.655    556.090    537.655    538.435    537.655
 27.770    618.000    568.741     49.259    537.354    567.882    537.354    538.204    537.354
 27.870    642.000    599.290     42.710    537.053    598.339    537.053    537.985    537.053
 27.970    655.000    665.896    -10.896    536.752    664.829    536.752    537.780    536.752
 28.070    801.092    775.531     25.561    536.452    774.319    536.452    537.593    536.452
 28.170    857.118    897.328    -40.210    536.152    895.954    536.152    537.428    536.152
 28.270   1007.000    957.402     49.598    535.852    955.868    535.852    537.290    535.852
 28.370    884.933    906.765    -21.833    535.553    905.069    535.553    537.189    535.553
 28.470    747.091    797.672    -50.580    535.254    795.765    535.254    537.135    535.254
 28.570    662.805    713.020    -50.214    534.955    710.815    534.955    537.148    534.955
 28.670    703.000    695.722      7.278    534.657    693.107    534.657    537.257    534.657
 28.770    777.000    741.567     35.433    534.360    738.387    534.360    537.520    534.360
 28.870    811.000    810.890      0.110    534.063    806.897    534.063    538.042    534.063
 28.970    814.000    843.682    -29.682    533.766    838.448    533.766    539.002    533.766
 29.070    767.912    804.288    -36.376    533.470    797.099    533.470    540.672    533.470
 29.170    746.000    724.060     21.940    533.175    713.856    533.175    543.390    533.175
 29.270    635.000    651.100    -16.100    532.880    636.519    532.880    547.468    532.880
 29.370    640.000    606.953     33.047    532.585    586.549    532.585    552.990    532.585
 29.470    586.000    588.625     -2.625    532.291    561.452    532.291    559.462    532.291
 29.570    561.089    583.868    -22.779    531.998    550.557    531.998    565.305    531.998
 29.670    548.987    581.878    -32.891    531.705    545.701    531.705    567.878    531.705
 29.770    594.956    577.167     17.788    531.413    543.068    531.413    565.508    531.413
 29.870    591.000    569.700     21.300    531.121    541.342    531.121    559.476    531.121
 29.970    589.997    561.702     28.294    530.830    540.120    530.830    552.410    530.830
 30.070    598.362    554.821     43.541    530.540    539.268    530.540    546.090    530.540
 30.170    561.751    549.679     12.071    530.251    538.758    530.251    541.170    530.251
 30.270    578.000    546.370     31.630    529.962    538.686    529.962    537.643    529.962
 30.370    518.273    545.033    -26.760    529.674    539.478    529.674    535.225    529.674
