neutron_powder_diffraction_0200
R_wp: 3.824
Temperature (K): 1074.000
Counts: 84229.00
Wavelength (Ã…): 2.52098
COMMENTS
Test file for demonstrating the .xyy file format in Reel1.0
END OF HEADER
   tth       Y_obs     Y_calc      Y_res    Background    Phase_1_Nuc    Phase_1_Mag    Phase_2_Nuc    Phase_2_Mag
  9.970    524.516    571.148    -46.632    570.482    571.101    570.482    570.529    570.482
 10.070    594.000    571.256     22.744    570.533    571.208    570.533    570.580    570.533
 10.170    522.993    571.363    -48.370    570.579    571.315    570.579    570.626    570.579
 10.270    604.838    571.474     33.364    570.619    571.426    570.619    570.667    570.619
 10.370    563.000    571.592     -8.592    570.654    571.543    570.654    570.702    570.654
 10.470    539.279    571.719    -32.440    570.685    571.670    570.685    570.733    570.685
 10.570    602.000    571.863     30.137    570.710    571.808    570.710    570.764    570.710
 10.670    606.735    572.020     34.715    570.730    571.964    570.730    570.785    570.730
 10.770    601.519    572.199     29.319    570.745    572.143    570.745    570.800    570.745
 10.870    573.000    572.410      0.590    570.755    572.354    570.755    570.811    570.755
 10.970    610.000    572.665     37.335    570.761    572.608    570.761    570.817    570.761
 11.070    601.314    572.978     28.336    570.761    572.921    570.761    570.818    570.761
 11.170    593.000    573.377     19.623    570.757    573.319    570.757    570.814    570.757
 11.270    594.572    573.896     20.676    570.748    573.838    570.748    570.805    570.748
 11.370    625.000    574.601     50.399    570.735    574.542    570.735    570.792    570.735
 11.470    618.507    575.631     42.876    570.717    575.571    570.717    570.774    570.717
 11.570    623.094    577.377     45.717    570.694    577.316    570.694    570.751    570.694
 11.670    615.000    580.975     34.025    570.667    580.912    570.667    570.724    570.667
 11.770    568.000    589.137    -21.137    570.635    589.068    570.635    570.693    570.635
 11.870    643.000    606.346     36.654    570.599    606.267    570.599    570.657    570.599
 11.970    669.000    636.212     32.788    570.558    636.116    570.558    570.618    570.558
 12.070    692.000    674.983     17.017    570.513    674.862    570.513    570.576    570.513
 12.170    673.000    705.601    -32.601    570.464    705.461    570.464    570.528    570.464
 12.270    671.000    706.551    -35.551    570.411    706.410    570.411    570.475    570.411
 12.370    691.886    676.925     14.961    570.353    676.800    570.353    570.418    570.353
 12.470    634.000    637.864     -3.864    570.291    637.760    570.291    570.357    570.291
 12.570    632.000    607.194     24.806    570.225    607.108    570.225    570.291    570.225
 12.670    552.000    589.275    -37.275    570.155    589.198    570.155    570.221    570.155
 12.770    554.217    580.673    -26.455    570.081    580.600    570.081    570.148    570.081
 12.870    579.000    576.830      2.170    570.003    576.759    570.003    570.070    570.003
 12.970    593.000    574.928     18.072    569.921    574.858    569.921    569.988    569.921
 13.070    580.000    573.774      6.226    569.835    573.705    569.835    569.903    569.835
 13.170    601.000    572.956     28.044    569.745    572.887    569.745    569.813    569.745
 13.270    533.957    572.329    -38.372    569.652    572.259    569.652    569.720    569.652
 13.370    497.000    571.827    -74.827    569.554    571.757    569.554    569.623    569.554
 13.470    614.110    571.411     42.699    569.453    571.341    569.453    569.522    569.453
 13.570    588.623    571.057     17.566    569.348    570.987    569.348    569.418    569.348
 13.670    599.857    570.749     29.108    569.240    570.678    569.240    569.310    569.240
 13.770    545.000    570.474    -25.474    569.128    570.403    569.128    569.198    569.128
 13.870    557.000    570.223    -13.223    569.012    570.152    569.012    569.083    569.012
 13.970    544.979    569.992    -25.013    568.893    569.921    568.893    568.964    568.893
 14.070    613.181    569.775     43.406    568.771    569.703    568.771    568.842    568.771
 14.170    564.121    569.568     -5.447    568.644    569.497    568.644    568.716    568.644
 14.270    549.000    569.370    -20.370    568.515    569.298    568.515    568.587    568.515
 14.370    598.303    569.178     29.124    568.382    569.106    568.382    568.455    568.382
 14.470    600.000    568.991     31.009    568.246    568.918    568.246    568.319    568.246
 14.570    548.000    568.807    -20.807    568.107    568.734    568.107    568.180    568.107
 14.670    554.000    568.627    -14.627    567.964    568.552    567.964    568.039    567.964
 14.770    560.000    568.450     -8.450    567.818    568.374    567.818    567.894    567.818
 14.870    576.000    568.273      7.727    567.669    568.196    567.669    567.745    567.669
 14.970    510.000    568.094    -58.094    567.517    568.017    567.517    567.594    567.517
 15.070    533.271    567.915    -34.644    567.362    567.838    567.362    567.439    567.362
 15.170    563.242    567.736     -4.494    567.204    567.658    567.204    567.281    567.204
 15.270    554.000    567.555    -13.555    567.043    567.477    567.043    567.120    567.043
 15.370    585.000    567.374     17.626    566.878    567.296    566.878    566.957    566.878
 15.470    518.000    567.192    -49.192    566.711    567.113    566.711    566.790    566.711
 15.570    597.000    567.009     29.991    566.541    566.930    566.541    566.620    566.541
 15.670    574.105    566.824      7.281    566.369    566.744    566.369    566.448    566.369
 15.770    540.163    566.637    -26.474    566.193    566.557    566.193    566.273    566.193
 15.870    544.000    566.449    -22.449    566.014    566.369    566.014    566.095    566.014
 15.970    550.000    566.260    -16.260    565.833    566.179    565.833    565.914    565.833
 16.070    590.000    566.071     23.929    565.649    565.989    565.649    565.731    565.649
 16.170    570.050    565.877      4.173    565.463    565.795    565.463    565.545    565.463
 16.270    591.502    565.682     25.820    565.274    565.600    565.274    565.356    565.274
 16.370    556.358    565.485     -9.127    565.082    565.402    565.082    565.165    565.082
 16.470    586.000    565.286     20.714    564.888    565.202    564.888    564.971    564.888
 16.570    559.000    565.085     -6.085    564.691    565.001    564.691    564.775    564.691
 16.670    583.928    564.882     19.046    564.492    564.797    564.492    564.576    564.492
 16.770    573.000    564.677      8.323    564.290    564.592    564.290    564.375    564.290
 16.870    534.418    564.470    -30.052    564.086    564.385    564.086    564.172    564.086
 16.970    567.234    564.262      2.972    563.880    564.175    563.880    563.966    563.880
 17.070    564.000    564.051     -0.051    563.671    563.964    563.671    563.758    563.671
 17.170    556.592    563.839     -7.247    563.460    563.751    563.460    563.547    563.460
 17.270    555.000    563.629     -8.629    563.246    563.536    563.246    563.339    563.246
 17.370    527.000    563.415    -36.415    563.031    563.320    563.031    563.126    563.031
 17.470    543.000    563.200    -20.200    562.813    563.103    562.813    562.909    562.813
 17.570    597.831    562.980     34.851    562.593    562.883    562.593    562.690    562.593
 17.670    566.000    562.759      3.241    562.371    562.661    562.371    562.468    562.371
 17.770    528.434    562.535    -34.101    562.147    562.437    562.147    562.245    562.147
 17.870    542.328    562.310    -19.982    561.920    562.211    561.920    562.019    561.920
 17.970    543.000    562.083    -19.083    561.692    561.983    561.692    561.792    561.692
 18.070    533.000    561.854    -28.854    561.462    561.754    561.462    561.562    561.462
 18.170    572.000    561.624     10.376    561.230    561.523    561.230    561.331    561.230
 18.270    557.000    561.392     -4.392    560.995    561.290    560.995    561.097    560.995
 18.370    546.000    561.158    -15.158    560.759    561.056    560.759    560.862    560.759
 18.470    539.000    560.923    -21.923    560.522    560.820    560.522    560.625    560.522
 18.570    568.000    560.686      7.314    560.282    560.582    560.282    560.386    560.282
 18.670    539.000    560.448    -21.448    560.040    560.343    560.040    560.145    560.040
 18.770    591.000    560.208     30.792    559.797    560.103    559.797    559.902    559.797
 18.870    564.483    559.967      4.516    559.552    559.861    559.552    559.658    559.552
 18.970    545.000    559.724    -14.724    559.305    559.617    559.305    559.412    559.305
 19.070    550.000    559.481     -9.481    559.057    559.373    559.057    559.165    559.057
 19.170    552.000    559.236     -7.236    558.807    559.127    558.807    558.916    558.807
 19.270    599.951    558.990     40.961    558.555    558.881    558.555    558.665    558.555
 19.370    561.000    558.743      2.257    558.302    558.633    558.302    558.413    558.302
 19.470    539.000    558.494    -19.494    558.047    558.383    558.047    558.159    558.047
 19.570    576.000    558.244     17.756    557.791    558.132    557.791    557.903    557.791
 19.670    562.000    557.993      4.007    557.533    557.879    557.533    557.647    557.533
 19.770    520.883    557.740    -36.857    557.274    557.626    557.274    557.388    557.274
 19.870    592.566    557.487     35.080    557.013    557.371    557.013    557.129    557.013
 19.970    548.000    557.233     -9.233    556.751    557.117    556.751    556.868    556.751
 20.070    575.000    556.991     18.009    556.488    556.874    556.488    556.605    556.488
 20.170    544.000    556.745    -12.745    556.223    556.626    556.223    556.342    556.223
 20.270    544.834    556.489    -11.655    555.957    556.369    555.957    556.077    555.957
 20.370    574.315    556.231     18.085    555.690    556.110    555.690    555.811    555.690
 20.470    579.848    555.972     23.876    555.422    555.851    555.422    555.543    555.422
 20.570    537.000    555.713    -18.713    555.152    555.590    555.152    555.275    555.152
 20.670    564.000    555.453      8.547    554.881    555.329    554.881    555.005    554.881
 20.770    513.000    555.193    -42.193    554.609    555.068    554.609    554.734    554.609
 20.870    569.739    554.933     14.807    554.335    554.806    554.335    554.462    554.335
 20.970    536.000    554.672    -18.672    554.061    554.544    554.061    554.189    554.061
 21.070    565.294    554.410     10.883    553.786    554.281    553.786    553.915    553.786
 21.170    581.090    554.149     26.941    553.509    554.019    553.509    553.640    553.509
 21.270    564.000    553.888     10.112    553.232    553.756    553.232    553.364    553.232
 21.370    595.000    553.626     41.374    552.953    553.493    552.953    553.087    552.953
 21.470    628.000    553.366     74.634    552.674    553.231    552.674    552.809    552.674
 21.570    551.000    553.107     -2.107    552.393    552.968    552.393    552.532    552.393
 21.670    555.000    552.848      2.152    552.112    552.707    552.112    552.253    552.112
 21.770    521.000    552.589    -31.589    551.830    552.446    551.830    551.973    551.830
 21.870    523.313    552.338    -29.025    551.547    552.194    551.547    551.692    551.547
 21.970    531.000    552.165    -21.165    551.263    552.018    551.263    551.409    551.263
 22.070    563.000    551.932     11.068    550.978    551.784    550.978    551.126    550.978
 22.170    527.000    551.701    -24.701    550.693    551.552    550.693    550.843    550.693
 22.270    545.824    551.478     -5.654    550.407    551.326    550.407    550.559    550.407
 22.370    517.000    551.232    -34.232    550.120    551.079    550.120    550.274    550.120
 22.470    564.000    550.987     13.013    549.832    550.832    549.832    549.988    549.832
 22.570    562.000    550.752     11.248    549.544    550.595    549.544    549.702    549.544
 22.670    564.053    550.565     13.488    549.255    550.405    549.255    549.415    549.255
 22.770    566.000    550.353     15.647    548.965    550.190    548.965    549.128    548.965
 22.870    570.000    550.131     19.869    548.675    549.966    548.675    548.840    548.675
 22.970    566.724    549.916     16.808    548.384    549.749    548.384    548.551    548.384
 23.070    546.000    549.712     -3.712    548.093    549.543    548.093    548.263    548.093
 23.170    522.383    549.521    -27.138    547.801    549.349    547.801    547.973    547.801
 23.270    562.000    549.347     12.653    547.509    549.173    547.509    547.684    547.509
 23.370    547.000    549.195     -2.195    547.216    549.017    547.216    547.394    547.216
 23.470    546.000    549.071     -3.071    546.922    548.890    546.922    547.103    546.922
 23.570    556.000    548.985      7.015    546.629    548.802    546.629    546.813    546.629
 23.670    565.000    548.946     16.054    546.334    548.760    546.334    546.522    546.334
 23.770    586.000    548.974     37.026    546.040    548.785    546.040    546.231    546.040
 23.870    557.000    549.099      7.901    545.745    548.906    545.745    545.939    545.745
 23.970    515.060    549.374    -34.314    545.450    549.178    545.450    545.648    545.450
 24.070    585.000    549.923     35.077    545.154    549.723    545.154    545.356    545.154
 24.170    583.000    551.104     31.896    544.858    550.902    544.858    545.064    544.858
 24.270    510.804    553.889    -43.085    544.562    553.684    544.562    544.772    544.562
 24.370    588.000    560.339     27.661    544.266    560.135    544.266    544.480    544.266
 24.470    617.830    573.350     44.480    543.969    573.151    543.969    544.189    543.969
 24.570    553.000    594.400    -41.400    543.672    594.210    543.672    543.897    543.672
 24.670    649.000    619.376     29.624    543.375    619.200    543.375    543.605    543.375
 24.770    602.408    635.945    -33.537    543.078    635.775    543.078    543.313    543.078
 24.870    645.000    631.891     13.109    542.781    631.713    542.781    543.022    542.781
 24.970    587.664    610.536    -22.872    542.483    610.336    542.483    542.731    542.483
 25.070    563.000    585.597    -22.597    542.186    585.373    542.186    542.440    542.186
 25.170    557.000    566.665     -9.665    541.888    566.420    541.888    542.149    541.888
 25.270    563.000    555.569      7.431    541.590    555.309    541.590    541.859    541.590
 25.370    541.106    550.072     -8.966    541.293    549.801    541.293    541.569    541.293
 25.470    585.000    547.451     37.549    540.995    547.169    540.995    541.280    540.995
 25.570    521.000    546.045    -25.045    540.697    545.753    540.697    540.991    540.697
 25.670    523.907    545.130    -21.223    540.400    544.828    540.400    540.703    540.400
 25.770    550.000    544.450      5.550    540.102    544.138    540.102    540.416    540.102
 25.870    547.000    543.913      3.087    539.804    543.589    539.804    540.129    539.804
 25.970    555.000    543.473     11.527    539.507    543.136    539.507    539.844    539.507
 26.070    528.238    543.105    -14.867    539.209    542.755    539.209    539.559    539.209
 26.170    546.000    542.798      3.202    538.912    542.435    538.912    539.276    538.912
 26.270    519.000    542.545    -23.545    538.615    542.166    538.615    538.994    538.615
 26.370    580.000    542.342     37.658    538.318    541.947    538.318    538.714    538.318
 26.470    504.734    542.191    -37.457    538.021    541.777    538.021    538.435    538.021
 26.570    538.000    542.116     -4.116    537.725    541.682    537.725    538.158    537.725
 26.670    517.000    542.095    -25.095    537.428    541.639    537.428    537.884    537.428
 26.770    566.000    542.117     23.883    537.132    541.637    537.132    537.611    537.132
 26.870    581.000    542.215     38.785    536.836    541.709    536.836    537.342    536.836
 26.970    585.773    542.409     43.364    536.540    541.874    536.540    537.075    536.540
 27.070    541.000    542.729     -1.729    536.245    542.161    536.245    536.812    536.245
 27.170    576.722    543.216     33.506    535.950    542.612    535.950    536.554    535.950
 27.270    519.000    543.923    -24.923    535.655    543.278    535.655    536.299    535.655
 27.370    584.000    544.929     39.071    535.361    544.238    535.361    536.051    535.361
 27.470    543.219    546.405     -3.186    535.067    545.662    535.067    535.809    535.067
 27.570    611.000    548.725     62.275    534.773    547.922    534.773    535.574    534.773
 27.670    557.403    553.321      4.082    534.480    552.449    534.480    535.349    534.480
 27.770    579.450    564.907     14.543    534.187    563.953    534.187    535.134    534.187
 27.870    621.866    595.227     26.639    533.895    594.171    533.895    534.932    533.895
 27.970    687.000    662.258     24.742    533.603    661.075    533.603    534.746    533.603
 28.070    739.000    773.653    -34.653    533.312    772.312    533.312    534.579    533.312
 28.170    864.000    897.951    -33.951    533.021    896.433    533.021    534.437    533.021
 28.270    966.000    959.322      6.678    532.730    957.627    532.730    534.325    532.730
 28.370    885.000    907.574    -22.574    532.440    905.697    532.440    534.253    532.440
 28.470    822.000    796.150     25.850    532.151    794.040    532.151    534.234    532.151
 28.570    679.210    710.046    -30.836    531.862    707.606    531.862    534.288    531.862
 28.670    707.000    693.025     13.975    531.574    690.130    531.574    534.453    531.574
 28.770    736.900    740.280     -3.381    531.286    736.755    531.286    534.790    531.286
 28.870    815.000    811.158      3.842    530.999    806.735    530.999    535.405    530.999
 28.970    819.000    844.765    -25.765    530.712    839.009    530.712    536.467    530.712
 29.070    743.000    805.010    -62.010    530.426    797.240    530.426    538.207    530.426
 29.170    719.167    723.620     -4.453    530.141    712.884    530.141    540.888    530.141
 29.270    631.000    649.353    -18.353    529.856    634.487    529.856    544.728    529.856
 29.370    578.000    604.045    -26.045    529.572    583.882    529.572    549.737    529.572
 29.470    599.000    584.673     14.327    529.289    558.525    529.289    555.435    529.289
 29.570    611.000    579.009     31.991    529.006    547.567    529.006    560.445    529.006
 29.670    629.000    576.590     52.410    528.725    542.715    528.725    562.596    528.725
 29.770    551.000    572.220    -21.220    528.443    540.101    528.443    560.559    528.443
 29.870    528.394    565.581    -37.187    528.163    538.396    528.163    555.345    528.163
 29.970    525.737    558.417    -32.680    527.883    537.195    527.883    549.102    527.883
 30.070    520.000    552.128    -32.128    527.604    536.364    527.604    543.366    527.604
 30.170    620.000    547.302     72.698    527.326    535.876    527.326    538.750    527.326
 30.270    543.000    544.098     -1.098    527.049    535.833    527.049    535.311    527.049
 30.370    561.000    542.752     18.248    526.772    536.662    526.772    532.858    526.772
