neutron_powder_diffraction_0056
R_wp: 3.958
Temperature (K): 677.764
Counts: 83335.00
Wavelength (Ã…): 2.52098
COMMENTS
Test file for demonstrating the .xyy file format in Reel1.0
END OF HEADER
   tth       Y_obs     Y_calc      Y_res    Background    Phase_1_Nuc    Phase_1_Mag    Phase_2_Nuc    Phase_2_Mag
  9.970    670.000    655.148     14.852    653.929    654.831    654.246    653.929    653.929
 10.070    703.000    654.775     48.225    653.478    654.455    653.798    653.478    653.478
 10.170    688.000    654.410     33.590    653.025    654.086    653.349    653.025    653.025
 10.270    655.495    654.054      1.441    652.572    653.727    652.898    652.572    652.572
 10.370    646.000    653.712     -7.712    652.117    653.381    652.447    652.117    652.117
 10.470    651.061    653.386     -2.325    651.660    653.051    651.995    651.660    651.660
 10.570    698.000    653.080     44.920    651.203    652.742    651.541    651.203    651.203
 10.670    681.000    652.801     28.199    650.745    652.459    651.086    650.745    650.745
 10.770    635.000    652.555    -17.555    650.286    652.209    650.631    650.286    650.286
 10.870    667.000    652.352     14.648    649.825    652.001    650.174    649.825    649.825
 10.970    660.251    652.204      8.047    649.364    651.849    649.717    649.364    649.364
 11.070    684.000    652.129     31.871    648.902    651.771    649.259    648.902    648.902
 11.170    693.637    652.154     41.483    648.438    651.791    648.799    648.438    648.438
 11.270    660.000    652.316      7.684    647.974    651.948    648.339    647.974    647.974
 11.370    648.826    652.676     -3.851    647.509    652.304    647.879    647.509    647.509
 11.470    657.147    653.357      3.790    647.043    652.979    647.417    647.043    647.043
 11.570    671.000    654.627     16.373    646.577    654.245    646.955    646.577    646.577
 11.670    720.000    657.183     62.817    646.109    656.795    646.492    646.109    646.109
 11.770    737.000    662.588     74.412    645.641    662.191    646.028    645.641    645.641
 11.870    706.000    673.590     32.410    645.172    673.182    645.564    645.172    645.172
 11.970    638.407    693.386    -54.979    644.702    692.963    645.099    644.702    644.702
 12.070    827.000    722.918    104.082    644.232    722.473    644.633    644.232    644.232
 12.170    780.000    756.415     23.585    643.761    755.946    644.167    643.761    643.761
 12.270    835.471    778.313     57.157    643.289    777.827    643.700    643.289    643.289
 12.370    772.000    773.187     -1.187    642.817    772.698    643.232    642.817    642.817
 12.470    765.000    745.002     19.998    642.344    744.523    642.765    642.344    642.344
 12.570    726.000    710.866     15.134    641.870    710.401    642.296    641.870    641.870
 12.670    642.007    683.260    -41.253    641.396    682.806    641.827    641.396    641.396
 12.770    661.765    665.473     -3.708    640.922    665.022    641.358    640.922    640.922
 12.870    633.000    655.532    -22.532    640.447    655.081    640.889    640.447    640.447
 12.970    641.782    650.243     -8.461    639.971    649.789    640.419    639.971    639.971
 13.070    689.046    647.230     41.816    639.495    646.772    639.948    639.495    639.495
 13.170    607.000    645.243    -38.243    639.019    644.780    639.478    639.019    639.019
 13.270    620.000    643.746    -23.746    638.542    643.278    639.007    638.542    638.542
 13.370    639.000    642.528     -3.528    638.065    642.054    638.536    638.065    638.065
 13.470    619.000    641.507    -22.507    637.587    641.028    638.065    637.587    637.587
 13.570    603.786    640.591    -36.804    637.109    640.105    637.594    637.109    637.109
 13.670    673.892    639.763     34.129    636.631    639.271    637.122    636.631    636.631
 13.770    664.000    639.004     24.996    636.153    638.505    636.650    636.153    636.153
 13.870    620.000    638.297    -18.297    635.674    637.792    636.178    635.674    635.674
 13.970    623.000    637.631    -14.631    635.195    637.119    635.706    635.195    635.195
 14.070    597.000    636.996    -39.996    634.716    636.477    635.234    634.716    634.716
 14.170    658.000    636.386     21.614    634.237    635.861    634.762    634.237    634.237
 14.270    562.000    635.797    -73.797    633.758    635.265    634.290    633.758    633.758
 14.370    589.152    635.225    -46.072    633.278    634.685    633.817    633.278    633.278
 14.470    618.000    634.666    -16.666    632.799    634.119    633.345    632.799    632.799
 14.570    594.000    634.119    -40.119    632.319    633.564    632.873    632.319    632.319
 14.670    672.000    633.582     38.418    631.839    633.019    632.401    631.839    631.839
 14.770    612.000    633.053    -21.053    631.359    632.482    631.930    631.359    631.359
 14.870    591.000    632.531    -41.531    630.879    631.952    631.458    630.879    630.879
 14.970    615.000    632.015    -17.015    630.399    631.427    630.986    630.399    630.399
 15.070    582.458    631.504    -49.046    629.920    630.908    630.515    629.920    629.920
 15.170    594.000    631.000    -37.000    629.440    630.396    630.044    629.440    629.440
 15.270    625.000    630.503     -5.503    628.960    629.890    629.573    628.960    628.960
 15.370    612.000    630.005    -18.005    628.480    629.383    629.103    628.480    628.480
 15.470    616.726    629.510    -12.784    628.001    628.878    628.633    628.001    628.001
 15.570    576.000    629.018    -53.018    627.521    628.377    628.163    627.521    627.521
 15.670    649.270    628.529     20.741    627.042    627.878    627.693    627.042    627.042
 15.770    608.000    628.042    -20.042    626.563    627.381    627.224    626.563    626.563
 15.870    582.000    627.564    -45.564    626.084    626.892    626.755    626.084    626.084
 15.970    581.191    627.105    -45.914    625.605    626.422    626.287    625.605    625.605
 16.070    627.000    626.626      0.374    625.127    625.933    625.819    625.127    625.127
 16.170    635.000    626.148      8.852    624.648    625.444    625.352    624.648    624.648
 16.270    621.000    625.671     -4.671    624.170    624.956    624.885    624.170    624.170
 16.370    566.000    625.198    -59.198    623.693    624.471    624.419    623.693    623.693
 16.470    654.983    624.727     30.256    623.215    623.989    623.954    623.215    623.215
 16.570    618.000    624.256     -6.256    622.738    623.505    623.489    622.738    622.738
 16.670    608.000    623.786    -15.786    622.261    623.023    623.024    622.261    622.261
 16.770    609.000    623.319    -14.319    621.785    622.543    622.561    621.785    621.785
 16.870    667.413    622.851     44.562    621.309    622.062    622.098    621.309    621.309
 16.970    599.000    622.386    -23.386    620.833    621.583    621.636    620.833    620.833
 17.070    652.000    621.921     30.079    620.358    621.105    621.174    620.358    620.358
 17.170    630.000    621.458      8.542    619.883    620.628    620.714    619.883    619.883
 17.270    575.282    620.996    -45.715    619.409    620.151    620.254    619.409    619.409
 17.370    597.089    620.536    -23.447    618.935    619.676    619.795    618.935    618.935
 17.470    574.160    620.082    -45.922    618.462    619.206    619.337    618.462    618.462
 17.570    585.000    619.671    -34.671    617.989    618.780    618.880    617.989    617.989
 17.670    620.005    619.245      0.760    617.517    618.338    618.424    617.517    617.517
 17.770    565.000    618.794    -53.794    617.045    617.870    617.969    617.045    617.045
 17.870    624.215    618.342      5.873    616.574    617.401    617.515    616.574    616.574
 17.970    616.000    617.902     -1.902    616.103    616.943    617.062    616.103    616.103
 18.070    595.000    617.462    -22.462    615.633    616.484    616.611    615.633    615.633
 18.170    629.000    617.075     11.925    615.164    616.070    616.169    615.164    615.164
 18.270    627.000    616.639     10.361    614.695    615.612    615.721    614.695    614.695
 18.370    617.066    616.195      0.871    614.227    615.149    615.273    614.227    614.227
 18.470    563.000    615.752    -52.752    613.760    614.686    614.826    613.760    613.760
 18.570    622.000    615.311      6.689    613.293    614.224    614.380    613.293    613.293
 18.670    618.000    614.871      3.129    612.827    613.763    613.935    612.827    612.827
 18.770    586.809    614.434    -27.625    612.361    613.303    613.492    612.361    612.361
 18.870    600.000    613.998    -13.998    611.897    612.845    613.050    611.897    611.897
 18.970    590.000    613.564    -23.564    611.433    612.388    612.610    611.433    611.433
 19.070    596.000    613.136    -17.136    610.970    611.935    612.171    610.970    610.970
 19.170    626.000    612.719     13.281    610.508    611.493    611.734    610.508    610.508
 19.270    648.776    612.293     36.483    610.046    611.041    611.298    610.046    610.046
 19.370    615.000    611.867      3.133    609.585    610.589    610.864    609.585    609.585
 19.470    578.000    611.444    -33.444    609.125    610.138    610.431    609.125    609.125
 19.570    600.000    611.022    -11.022    608.666    609.688    610.001    608.666    608.666
 19.670    559.000    610.603    -51.603    608.208    609.239    609.572    608.208    608.208
 19.770    658.217    610.187     48.031    607.751    608.792    609.145    607.751    607.751
 19.870    604.000    609.772     -5.772    607.294    608.347    608.720    607.294    607.294
 19.970    623.000    609.361     13.639    606.839    607.903    608.297    606.839    606.839
 20.070    604.000    608.952     -4.952    606.384    607.461    607.876    606.384    606.384
 20.170    606.796    608.561     -1.765    605.930    607.033    607.458    605.930    605.930
 20.270    573.221    608.197    -34.976    605.478    606.632    607.043    605.478    605.478
 20.370    603.000    607.811     -4.811    605.026    606.208    606.629    605.026    605.026
 20.470    612.000    607.425      4.575    604.575    605.779    606.221    604.575    604.575
 20.570    630.000    607.054     22.946    604.125    605.367    605.812    604.125    604.125
 20.670    593.000    606.677    -13.677    603.676    604.948    605.405    603.676    603.676
 20.770    538.000    606.304    -68.304    603.229    604.531    605.001    603.229    603.229
 20.870    598.636    605.962     -7.326    602.782    604.144    604.599    602.782    602.782
 20.970    614.000    605.624      8.376    602.336    603.759    604.200    602.336    602.336
 21.070    602.000    605.257     -3.257    601.891    603.343    603.804    601.891    601.891
 21.170    609.597    604.890      4.707    601.448    602.926    603.411    601.448    601.448
 21.270    594.000    604.564    -10.564    601.005    602.547    603.022    601.005    601.005
 21.370    644.541    604.210     40.330    600.563    602.139    602.635    600.563    600.563
 21.470    551.000    603.858    -52.858    600.123    601.729    602.252    600.123    600.123
 21.570    635.887    603.518     32.368    599.684    601.327    601.875    599.684    599.684
 21.670    561.000    603.179    -42.179    599.246    600.924    601.500    599.246    599.246
 21.770    646.072    602.840     43.232    598.809    600.520    601.128    598.809    598.809
 21.870    592.000    602.507    -10.507    598.373    600.119    600.760    598.373    598.373
 21.970    567.624    602.180    -34.557    597.938    599.723    600.396    597.938    597.938
 22.070    641.042    601.863     39.179    597.505    599.331    600.036    597.505    597.505
 22.170    587.000    601.554    -14.554    597.072    598.945    599.681    597.072    597.072
 22.270    590.000    601.252    -11.252    596.641    598.562    599.331    596.641    596.641
 22.370    569.458    600.959    -31.501    596.211    598.184    598.986    596.211    596.211
 22.470    592.000    600.677     -8.677    595.783    597.814    598.646    595.783    595.783
 22.570    612.000    600.406     11.594    595.355    597.449    598.312    595.355    595.355
 22.670    576.000    600.146    -24.146    594.929    597.091    597.984    594.929    594.929
 22.770    612.797    599.900     12.896    594.504    596.742    597.662    594.504    594.504
 22.870    559.000    599.670    -40.670    594.081    596.404    597.347    594.081    594.081
 22.970    614.000    599.457     14.543    593.658    596.077    597.039    593.658    593.658
 23.070    623.043    599.265     23.778    593.237    595.763    596.739    593.237    593.237
 23.170    609.000    599.097      9.903    592.818    595.468    596.446    592.818    592.818
 23.270    633.000    598.954     34.046    592.399    595.191    596.162    592.399    592.399
 23.370    617.000    598.843     18.157    591.982    594.938    595.887    591.982    591.982
 23.470    613.000    598.769     14.231    591.566    594.714    595.622    591.566    591.566
 23.570    554.000    598.742    -44.742    591.152    594.528    595.366    591.152    591.152
 23.670    604.864    598.773      6.092    590.739    594.390    595.123    590.739    590.739
 23.770    646.000    598.876     47.124    590.327    594.314    594.891    590.327    590.327
 23.870    596.000    599.075     -3.075    589.917    594.321    594.672    589.917    589.917
 23.970    564.210    599.402    -35.192    589.508    594.445    594.466    589.508    589.508
 24.070    592.000    599.919     -7.919    589.100    594.745    594.276    589.100    589.100
 24.170    605.000    600.755      4.245    588.694    595.350    594.101    588.694    588.694
 24.270    636.000    602.220     33.780    588.289    596.569    593.945    588.289    588.289
 24.370    633.000    605.002     27.998    587.886    599.087    593.807    587.886    587.886
 24.470    574.851    610.372    -35.521    587.484    604.176    593.690    587.484    587.484
 24.570    690.000    620.070     69.930    587.083    613.573    593.597    587.083    587.083
 24.670    678.000    635.415     42.585    586.684    628.600    593.528    586.684    586.684
 24.770    713.000    655.547     57.453    586.287    648.390    593.486    586.287    586.287
 24.870    735.000    675.197     59.803    585.891    667.668    593.475    585.891    585.891
 24.970    707.531    684.263     23.267    585.496    676.324    593.498    585.496    585.496
 25.070    625.497    676.153    -50.656    585.103    667.753    593.559    585.103    585.103
 25.170    667.000    657.035      9.965    584.711    648.128    593.661    584.711    584.711
 25.270    655.000    637.049     17.951    584.321    627.589    593.810    584.321    584.321
 25.370    649.000    621.715     27.285    583.933    611.654    594.011    583.933    583.933
 25.470    640.942    612.079     28.863    583.545    601.364    594.271    583.545    583.545
 25.570    609.000    606.906      2.094    583.160    595.473    594.599    583.160    583.160
 25.670    633.000    604.461     28.539    582.776    592.236    595.004    582.776    582.776
 25.770    617.000    603.457     13.543    582.393    590.357    595.496    582.393    582.393
 25.870    618.000    603.198     14.802    582.012    589.126    596.086    582.012    582.012
 25.970    651.000    603.384     47.616    581.633    588.226    596.792    581.633    581.633
 26.070    628.000    603.900     24.100    581.255    587.523    597.632    581.255    581.255
 26.170    561.532    604.709    -43.176    580.879    586.958    598.630    580.879    580.879
 26.270    596.283    605.809     -9.527    580.504    586.501    599.812    580.504    580.504
 26.370    600.000    607.218     -7.218    580.131    586.135    601.214    580.131    580.131
 26.470    619.566    608.970     10.596    579.759    585.851    602.878    579.759    579.759
 26.570    635.559    611.118     24.442    579.389    585.645    604.861    579.389    579.389
 26.670    617.650    613.732      3.918    579.021    585.520    607.232    579.021    579.021
 26.770    589.958    616.903    -26.944    578.654    585.479    610.076    578.654    578.654
 26.870    615.000    620.761     -5.761    578.289    585.534    613.514    578.289    578.289
 26.970    666.000    625.482     40.518    577.926    585.701    617.703    577.926    577.926
 27.070    613.000    631.301    -18.301    577.564    586.006    622.855    577.564    577.564
 27.170    658.536    638.548     19.988    577.204    586.482    629.265    577.204    577.204
 27.270    696.175    647.691     48.484    576.845    587.181    637.349    576.845    576.845
 27.370    712.000    659.419     52.581    576.488    588.178    647.722    576.488    576.488
 27.470    711.000    674.840     36.160    576.133    589.593    661.370    576.133    576.133
 27.570    754.000    696.129     57.871    575.779    591.666    680.230    575.779    575.779
 27.670    767.000    728.784     38.216    575.427    594.992    709.202    575.427    575.427
 27.770    781.000    788.157     -7.157    575.077    601.236    761.969    575.077    575.077
 27.870    937.102    912.383     24.718    574.728    614.522    872.534    574.728    574.728
 27.970   1115.258   1173.978    -58.720    574.382    642.692   1105.553    574.382    574.382
 28.070   1622.088   1662.068    -39.980    574.036    695.390   1540.506    574.036    574.036
 28.170   2350.541   2404.985    -54.444    573.693    775.706   2202.650    573.693    573.693
 28.270   3270.000   3250.836     19.164    573.351    867.307   2956.488    573.351    573.351
 28.370   3872.000   3813.725     58.275    573.011    928.683   3457.720    573.011    573.011
 28.470   3893.000   3736.595    156.405    572.672    921.667   3387.446    572.672    572.672
 28.570   3166.000   3132.582     33.418    572.336    859.312   2845.600    572.336    572.336
 28.670   2312.000   2452.016   -140.016    572.001    791.655   2232.404    572.001    572.001
 28.770   2009.000   2048.171    -39.171    571.667    758.341   1861.519    571.667    571.667
 28.870   1926.000   2011.034    -85.034    571.336    769.278   1813.079    571.336    571.336
 28.970   2110.715   2208.981    -98.266    571.006    807.158   1972.814    571.006    571.006
 29.070   2423.000   2377.323     45.677    570.678    836.058   2111.977    570.678    570.678
 29.170   2323.000   2286.614     36.386    570.351    824.231   2032.842    570.351    570.351
 29.270   1848.878   1941.332    -92.454    570.027    773.558   1737.944    570.027    570.027
 29.370   1512.000   1517.690     -5.690    569.704    710.824   1376.696    569.704    569.704
 29.470   1204.000   1163.514     40.486    569.383    658.281   1074.702    569.383    569.383
 29.570    936.649    927.983      8.667    569.063    623.351    873.746    569.063    569.063
 29.670    860.000    794.105     65.895    568.746    603.538    759.339    568.746    568.746
 29.770    754.000    724.067     29.933    568.430    593.225    699.284    568.430    568.430
 29.870    695.100    686.738      8.362    568.116    587.785    667.075    568.116    568.116
 29.970    721.000    664.512     56.488    567.803    584.610    647.708    567.803    567.803
 30.070    726.000    649.498     76.502    567.493    582.546    634.446    567.493    567.493
 30.170    602.689    638.547    -35.858    567.184    581.157    624.575    567.184    567.184
 30.270    641.550    630.394     11.156    566.877    580.315    616.955    566.877    566.877
 30.370    675.000    624.587     50.413    566.572    580.091    611.066    566.572    566.572
