neutron_powder_diffraction_0009
R_wp: 3.593
Temperature (K): 447.773
Counts: 83951.00
Wavelength (Ã…): 2.52098
COMMENTS
Test file for demonstrating the .xyy file format in Reel1.0
END OF HEADER
   tth       Y_obs     Y_calc      Y_res    Background    Phase_1_Nuc    Phase_1_Mag    Phase_2_Nuc    Phase_2_Mag
  9.970    779.000    748.829     30.171    747.146    748.148    747.827    747.146    747.146
 10.070    781.000    747.603     33.397    745.833    746.915    746.521    745.833    745.833
 10.170    760.000    746.397     13.603    744.528    745.701    745.223    744.528    744.528
 10.270    708.004    745.212    -37.208    743.232    744.509    743.934    743.232    743.232
 10.370    701.688    744.051    -42.362    741.943    743.340    742.652    741.943    741.943
 10.470    787.000    742.917     44.083    740.661    742.198    741.379    740.661    740.661
 10.570    709.390    741.814    -32.424    739.388    741.088    740.114    739.388    739.388
 10.670    748.069    740.748      7.321    738.123    740.014    738.856    738.123    738.123
 10.770    736.000    739.727     -3.727    736.866    738.984    737.607    736.866    736.866
 10.870    732.021    738.759     -6.738    735.616    738.008    736.366    735.616    735.616
 10.970    772.251    737.858     34.393    734.375    737.098    735.132    734.375    734.375
 11.070    723.000    737.041    -14.041    733.141    736.273    733.907    733.141    733.141
 11.170    741.000    736.334      4.666    731.915    735.557    732.690    731.915    731.915
 11.270    745.000    735.774      9.226    730.696    734.988    731.480    730.696    730.696
 11.370    741.508    735.420      6.087    729.486    734.625    730.278    729.486    729.486
 11.470    731.943    735.380     -3.437    728.283    734.575    729.084    728.283    728.283
 11.570    786.000    735.883     50.117    727.087    735.067    727.898    727.087    727.087
 11.670    754.288    737.439     16.850    725.900    736.612    726.720    725.900    725.900
 11.770    786.000    741.107     44.893    724.720    740.269    725.549    724.720    724.720
 11.870    741.611    748.695     -7.084    723.547    747.842    724.387    723.547    723.547
 11.970    842.000    762.447     79.553    722.382    761.575    723.232    722.382    722.382
 12.070    781.000    783.708     -2.708    721.225    782.813    722.085    721.225    721.225
 12.170    896.000    810.379     85.621    720.075    809.457    720.946    720.075    720.075
 12.270    886.894    833.478     53.416    718.933    832.533    719.814    718.933    718.933
 12.370    806.382    839.345    -32.963    717.798    838.385    718.690    717.798    717.798
 12.470    854.000    822.477     31.523    716.671    821.515    717.573    716.671    716.671
 12.570    736.000    793.813    -57.813    715.551    792.855    716.465    715.551    715.551
 12.670    768.000    766.477      1.523    714.439    765.523    715.363    714.439    714.439
 12.770    686.000    746.178    -60.178    713.334    745.224    714.270    713.334    713.334
 12.870    714.021    733.128    -19.107    712.236    732.169    713.184    712.236    712.236
 12.970    662.000    725.305    -63.305    711.146    724.338    712.105    711.146    711.146
 13.070    766.160    720.526     45.634    710.063    719.549    711.034    710.063    710.063
 13.170    717.000    717.300     -0.300    708.987    716.312    709.970    708.987    708.987
 13.270    667.000    714.846    -47.846    707.918    713.846    708.915    707.918    707.918
 13.370    653.000    712.806    -59.806    706.857    711.794    707.866    706.857    706.857
 13.470    756.390    711.018     45.372    705.803    709.994    706.825    705.803    705.803
 13.570    715.000    709.406      5.594    704.756    708.368    705.791    704.756    704.756
 13.670    714.000    707.921      6.079    703.716    706.870    704.765    703.716    703.716
 13.770    659.723    706.533    -46.810    702.684    705.469    703.746    702.684    702.684
 13.870    672.000    705.220    -33.220    701.658    704.142    702.735    701.658    701.658
 13.970    739.912    703.968     35.944    700.640    702.875    701.731    700.640    700.640
 14.070    672.385    702.764    -30.379    699.628    701.657    700.734    699.628    699.628
 14.170    733.000    701.602     31.398    698.624    700.480    699.745    698.624    698.624
 14.270    734.568    700.472     34.096    697.627    699.335    698.763    697.627    697.627
 14.370    680.000    699.371    -19.371    696.637    698.218    697.788    696.637    696.637
 14.470    728.000    698.302     29.698    695.653    697.133    696.821    695.653    695.653
 14.570    651.059    697.269    -46.209    694.677    696.083    695.862    694.677    694.677
 14.670    731.171    696.235     34.936    693.707    695.033    694.909    693.707    693.707
 14.770    704.721    695.217      9.504    692.745    693.999    693.963    692.745    692.745
 14.870    649.563    694.215    -44.652    691.789    692.979    693.025    691.789    691.789
 14.970    719.452    693.228     26.224    690.840    691.974    692.094    690.840    690.840
 15.070    679.000    692.254    -13.254    689.898    690.983    691.170    689.898    689.898
 15.170    657.000    691.297    -34.297    688.963    690.007    690.253    688.963    688.963
 15.270    646.000    690.350    -44.350    688.035    689.040    689.344    688.035    688.035
 15.370    674.000    689.412    -15.412    687.113    688.084    688.441    687.113    687.113
 15.470    660.000    688.485    -28.485    686.198    687.137    687.546    686.198    686.198
 15.570    673.313    687.569    -14.255    685.290    686.200    686.658    685.290    685.290
 15.670    728.260    686.662     41.598    684.388    685.273    685.777    684.388    684.388
 15.770    650.000    685.765    -35.765    683.494    684.355    684.903    683.494    683.494
 15.870    749.000    684.878     64.122    682.605    683.446    684.037    682.605    682.605
 15.970    708.000    683.999     24.001    681.724    682.546    683.177    681.724    681.724
 16.070    692.000    683.130      8.870    680.849    681.654    682.325    680.849    680.849
 16.170    646.379    682.269    -35.890    679.980    680.770    681.480    679.980    679.980
 16.270    670.000    681.417    -11.417    679.118    679.894    680.641    679.118    679.118
 16.370    667.000    680.574    -13.574    678.263    679.026    679.810    678.263    678.263
 16.470    698.000    679.739     18.261    677.414    678.166    678.986    677.414    677.414
 16.570    632.075    678.912    -46.836    676.571    677.314    678.169    676.571    676.571
 16.670    650.000    678.093    -28.093    675.735    676.469    677.359    675.735    675.735
 16.770    652.000    677.282    -25.282    674.906    675.631    676.557    674.906    674.906
 16.870    667.000    676.480     -9.480    674.082    674.802    675.761    674.082    674.082
 16.970    669.592    675.692     -6.099    673.266    673.985    674.972    673.266    673.266
 17.070    699.000    674.905     24.095    672.455    673.170    674.191    672.455    672.455
 17.170    615.000    674.126    -59.126    671.651    672.361    673.416    671.651    671.651
 17.270    668.000    673.355     -5.355    670.853    671.559    672.649    670.853    670.853
 17.370    645.465    672.598    -27.132    670.061    670.771    671.888    670.061    670.061
 17.470    623.000    671.856    -48.856    669.276    669.996    671.135    669.276    669.276
 17.570    684.738    671.166     13.572    668.497    669.271    670.392    668.497    668.497
 17.670    672.000    670.446      1.554    667.724    668.516    669.654    667.724    667.724
 17.770    650.000    669.714    -19.714    666.957    667.750    668.922    666.957    666.957
 17.870    629.000    668.989    -39.989    666.197    666.989    668.197    666.197    666.197
 17.970    661.000    668.272     -7.272    665.442    666.235    667.479    665.442    665.442
 18.070    652.000    667.564    -15.564    664.694    665.489    666.769    664.694    664.694
 18.170    631.411    666.881    -35.470    663.952    664.768    666.065    663.952    663.952
 18.270    694.669    666.198     28.471    663.216    664.045    665.369    663.216    663.216
 18.370    709.229    665.512     43.717    662.485    663.318    664.680    662.485    662.485
 18.470    678.000    664.833     13.167    661.761    662.596    663.998    661.761    661.761
 18.570    691.095    664.161     26.934    661.043    661.881    663.323    661.043    661.043
 18.670    681.000    663.497     17.503    660.331    661.173    662.656    660.331    660.331
 18.770    704.000    662.841     41.159    659.625    660.470    661.995    659.625    659.625
 18.870    712.000    662.192     49.808    658.925    659.774    661.343    658.925    658.925
 18.970    614.375    661.551    -47.176    658.230    659.085    660.697    658.230    658.230
 19.070    629.148    660.919    -31.771    657.542    658.402    660.059    657.542    657.542
 19.170    652.000    660.303     -8.303    656.859    657.734    659.428    656.859    656.859
 19.270    669.965    659.690     10.275    656.182    657.067    658.805    656.182    656.182
 19.370    643.000    659.081    -16.081    655.511    656.402    658.190    655.511    655.511
 19.470    652.000    658.480     -6.480    654.846    655.744    657.581    654.846    654.846
 19.570    623.000    657.889    -34.889    654.186    655.094    656.982    654.186    654.186
 19.670    703.413    657.338     46.075    653.533    654.470    656.400    653.533    653.533
 19.770    626.899    656.807    -29.908    652.885    653.862    655.829    652.885    652.885
 19.870    598.000    656.265    -58.265    652.242    653.253    655.254    652.242    652.242
 19.970    631.000    655.713    -24.713    651.606    652.634    654.685    651.606    651.606
 20.070    686.305    655.163     31.142    650.975    652.014    654.124    650.975    650.975
 20.170    686.000    654.621     31.379    650.349    651.400    653.570    650.349    650.349
 20.270    684.000    654.089     29.911    649.729    650.793    653.025    649.729    649.729
 20.370    649.000    653.582     -4.582    649.115    650.206    652.490    649.115    649.115
 20.470    619.475    653.106    -33.631    648.506    649.633    651.979    648.506    648.506
 20.570    660.000    652.638      7.362    647.903    649.068    651.473    647.903    647.903
 20.670    666.000    652.166     13.834    647.306    648.508    650.964    647.306    647.306
 20.770    647.000    651.726     -4.726    646.713    647.977    650.462    646.713    646.713
 20.870    618.262    651.274    -33.013    646.127    647.432    649.969    646.127    646.127
 20.970    617.000    650.819    -33.819    645.545    646.880    649.485    645.545    645.545
 21.070    618.000    650.384    -32.384    644.970    646.343    649.010    644.970    644.970
 21.170    605.000    649.966    -44.966    644.399    645.820    648.545    644.399    644.399
 21.270    634.000    649.534    -15.534    643.834    645.280    648.089    643.834    643.834
 21.370    631.741    649.111    -17.370    643.274    644.744    647.642    643.274    643.274
 21.470    646.000    648.708     -2.708    642.720    644.220    647.208    642.720    642.720
 21.570    643.000    648.322     -5.322    642.171    643.706    646.787    642.171    642.171
 21.670    605.000    647.945    -42.945    641.627    643.200    646.372    641.627    641.627
 21.770    642.000    647.579     -5.579    641.088    642.700    645.967    641.088    641.088
 21.870    607.312    647.218    -39.906    640.555    642.200    645.573    640.555    640.555
 21.970    657.000    646.870     10.130    640.026    641.706    645.190    640.026    640.026
 22.070    618.847    646.537    -27.690    639.503    641.222    644.818    639.503    639.503
 22.170    649.000    646.220      2.780    638.986    640.747    644.459    638.986    638.986
 22.270    636.000    645.918     -9.918    638.473    640.279    644.112    638.473    638.473
 22.370    613.000    645.633    -32.633    637.965    639.820    643.779    637.965    637.965
 22.470    673.590    645.366     28.224    637.463    639.371    643.458    637.463    637.463
 22.570    691.849    645.119     46.730    636.965    638.933    643.151    636.965    636.965
 22.670    618.000    644.892    -26.892    636.473    638.506    642.859    636.473    636.473
 22.770    633.000    644.687    -11.687    635.986    638.090    642.582    635.986    635.986
 22.870    608.593    644.505    -35.912    635.503    637.687    642.321    635.503    635.503
 22.970    597.907    644.350    -46.443    635.026    637.299    642.077    635.026    635.026
 23.070    670.000    644.228     25.772    634.553    636.931    641.851    634.553    634.553
 23.170    667.314    644.137     23.177    634.086    636.581    641.642    634.086    634.086
 23.270    643.000    644.079     -1.079    633.623    636.250    641.452    633.623    633.623
 23.370    643.000    644.061     -1.061    633.165    635.944    641.283    633.165    633.165
 23.470    656.000    644.091     11.909    632.713    635.669    641.135    632.713    632.713
 23.570    666.000    644.175     21.825    632.265    635.431    641.010    632.265    632.265
 23.670    623.000    644.324    -21.324    631.821    635.238    640.908    631.821    631.821
 23.770    679.892    644.551     35.341    631.383    635.103    640.832    631.383    631.383
 23.870    630.769    644.875    -14.106    630.949    635.043    640.783    630.949    630.949
 23.970    602.262    645.323    -43.060    630.521    635.082    640.763    630.521    630.521
 24.070    666.793    645.935     20.858    630.096    635.259    640.774    630.096    630.096
 24.170    604.266    646.786    -42.520    629.677    635.646    640.820    629.677    629.677
 24.270    670.000    648.027     21.973    629.262    636.391    640.901    629.262    629.262
 24.370    598.000    649.994    -51.994    628.852    637.829    641.022    628.852    628.852
 24.470    655.000    653.372      1.628    628.447    640.641    641.185    628.447    628.447
 24.570    714.000    659.327     54.673    628.046    645.989    641.394    628.046    628.046
 24.670    693.000    669.328     23.672    627.650    655.341    641.654    627.650    627.650
 24.770    691.000    684.328      6.672    627.258    669.646    641.968    627.258    627.258
 24.870    726.231    703.202     23.029    626.871    687.771    642.342    626.871    626.871
 24.970    704.000    720.728    -16.728    626.488    704.486    642.783    626.488    626.488
 25.070    727.000    727.742     -0.742    626.110    710.613    643.297    626.110    626.110
 25.170    756.482    719.322     37.160    625.737    701.217    643.893    625.737    625.737
 25.270    696.000    701.987     -5.987    625.368    682.814    644.578    625.368    625.368
 25.370    691.000    684.775      6.225    625.003    664.439    645.365    625.003    625.003
 25.470    652.312    672.044    -19.732    624.643    650.438    646.264    624.643    624.643
 25.570    637.000    664.346    -27.346    624.287    641.352    647.291    624.287    624.287
 25.670    686.000    660.527     25.473    623.936    636.007    648.461    623.936    623.936
 25.770    643.000    659.144    -16.144    623.588    632.941    649.795    623.588    623.588
 25.870    651.000    659.147     -8.147    623.246    631.079    651.315    623.246    623.246
 25.970    665.000    659.964      5.036    622.907    629.823    653.050    622.907    622.907
 26.070    678.000    661.350     16.650    622.573    628.892    655.032    622.573    622.573
 26.170    634.270    663.221    -28.951    622.243    628.163    657.301    622.243    622.243
 26.270    701.000    665.568     35.432    621.917    627.579    659.907    621.917    621.917
 26.370    706.000    668.428     37.572    621.596    627.109    662.914    621.596    621.596
 26.470    669.000    671.832     -2.832    621.279    626.725    666.384    621.279    621.279
 26.570    703.000    675.871     27.129    620.965    626.420    670.415    620.965    620.965
 26.670    645.000    680.658    -35.658    620.657    626.189    675.124    620.657    620.657
 26.770    652.000    686.341    -34.341    620.352    626.030    680.660    620.352    620.352
 26.870    689.000    693.115     -4.115    620.051    625.948    687.215    620.051    620.051
 26.970    671.709    701.240    -29.531    619.754    625.948    695.042    619.754    619.754
 27.070    736.000    711.066     24.934    619.462    626.042    704.481    619.462    619.462
 27.170    683.000    723.072    -40.072    619.173    626.250    715.990    619.173    619.173
 27.270    770.061    737.923     32.138    618.889    626.597    730.208    618.889    618.889
 27.370    755.605    756.565     -0.960    618.609    627.122    748.042    618.609    618.609
 27.470    771.000    780.395     -9.395    618.332    627.886    770.829    618.332    618.332
 27.570    816.000    811.649      4.351    618.060    628.982    800.711    618.060    618.060
 27.670    791.000    854.763    -63.763    617.791    630.597    841.935    617.791    617.791
 27.770    888.000    921.908    -33.908    617.526    633.244    906.159    617.526    617.526
 27.870   1083.000   1051.757     31.243    617.266    638.543   1030.424    617.266    617.266
 27.970   1410.676   1352.854     57.822    617.009    651.036   1318.705    617.009    617.009
 28.070   1938.000   2051.721   -113.721    616.756    680.200   1988.002    616.756    616.756
 28.170   3451.769   3441.029     10.740    616.507    738.280   3318.704    616.507    616.507
 28.270   5541.306   5599.537    -58.231    616.261    828.597   5386.303    616.261    616.261
 28.370   7805.000   7980.149   -175.149    616.020    928.356   7666.703    616.020    616.020
 28.470   9166.000   9333.093   -167.093    615.782    985.491   8962.459    615.782    615.782
 28.570   8881.000   8715.702    165.298    615.548    961.023   8369.847    615.548    615.548
 28.670   6830.211   6764.838     65.373    615.317    882.496   6497.732    615.317    615.317
 28.770   4980.000   4874.739    105.261    615.091    809.768   4680.275    615.091    615.091
 28.870   4055.559   3941.108    114.451    614.868    781.927   3774.197    614.868    614.868
 28.970   4109.000   4053.770     55.230    614.648    802.726   3865.750    614.648    614.648
 29.070   4702.000   4718.020    -16.020    614.433    847.597   4484.924    614.433    614.433
 29.170   5173.000   5161.802     11.198    614.221    875.920   4900.315    614.221    614.221
 29.270   4853.702   4826.627     27.075    614.012    857.617   4583.419    614.012    614.012
 29.370   3897.144   3854.038     43.105    613.807    801.814   3666.490    613.807    613.807
 29.470   2595.000   2755.349   -160.349    613.606    738.475   2630.862    613.606    613.606
 29.570   1847.000   1890.468    -43.468    613.408    688.585   1815.546    613.408    613.408
 29.670   1326.000   1349.728    -23.728    613.214    657.435   1305.651    613.214    613.214
 29.770   1115.000   1061.677     53.323    613.023    640.911   1033.862    613.023    613.023
 29.870    963.625    919.276     44.349    612.836    632.825    899.323    612.836    612.836
 29.970    938.000    845.672     92.328    612.652    628.737    829.608    612.652    612.652
 30.070    831.000    801.875     29.125    612.472    626.404    787.956    612.472    612.472
 30.170    756.716    771.938    -15.222    612.295    624.924    759.317    612.295    612.295
 30.270    779.000    749.835     29.165    612.121    623.981    737.980    612.121    612.121
 30.370    775.229    733.108     42.121    611.951    623.503    721.559    611.951    611.951
