neutron_powder_diffraction_0198
R_wp: 4.008
Temperature (K): 1074.000
Counts: 83678.00
Wavelength (Ã…): 2.52098
COMMENTS
Test file for demonstrating the .xyy file format in Reel1.0
END OF HEADER
   tth       Y_obs     Y_calc      Y_res    Background    Phase_1_Nuc    Phase_1_Mag    Phase_2_Nuc    Phase_2_Mag
  9.970    602.000    571.348     30.652    570.707    571.328    570.707    570.727    570.707
 10.070    597.000    571.504     25.496    570.810    571.484    570.810    570.830    570.810
 10.170    555.009    571.662    -16.652    570.906    571.642    570.906    570.926    570.906
 10.270    596.386    571.823     24.563    570.996    571.802    570.996    571.016    570.996
 10.370    609.000    571.989     37.011    571.081    571.968    571.081    571.101    571.081
 10.470    537.690    572.163    -34.473    571.159    572.142    571.159    571.179    571.159
 10.570    608.634    572.349     36.286    571.231    572.328    571.231    571.251    571.231
 10.670    595.000    572.551     22.449    571.297    572.529    571.297    571.318    571.297
 10.770    588.000    572.775     15.225    571.358    572.753    571.358    571.378    571.358
 10.870    585.000    573.029     11.971    571.412    573.008    571.412    571.433    571.412
 10.970    560.000    573.326    -13.326    571.461    573.304    571.461    571.482    571.461
 11.070    603.000    573.683     29.317    571.504    573.660    571.504    571.526    571.504
 11.170    561.000    574.124    -13.124    571.542    574.098    571.542    571.566    571.542
 11.270    552.000    574.684    -22.684    571.574    574.657    571.574    571.599    571.574
 11.370    596.000    575.427     20.573    571.600    575.400    571.600    571.625    571.600
 11.470    584.000    576.493      7.507    571.621    576.465    571.621    571.646    571.621
 11.570    557.000    578.271    -21.271    571.636    578.242    571.636    571.662    571.636
 11.670    544.688    581.896    -37.208    571.647    581.865    571.647    571.672    571.647
 11.770    714.000    590.102    123.898    571.651    590.066    571.651    571.677    571.651
 11.870    670.000    607.437     62.563    571.651    607.391    571.651    571.677    571.651
 11.970    654.000    637.606     16.394    571.645    637.543    571.645    571.671    571.645
 12.070    624.595    676.855    -52.260    571.634    676.769    571.634    571.661    571.634
 12.170    718.000    707.902     10.098    571.619    707.797    571.619    571.646    571.619
 12.270    673.000    708.899    -35.899    571.598    708.792    571.598    571.626    571.598
 12.370    728.428    678.921     49.507    571.572    678.831    571.572    571.600    571.572
 12.470    658.000    639.437     18.563    571.541    639.370    571.541    571.569    571.541
 12.570    570.711    608.517    -37.806    571.505    608.468    571.505    571.534    571.505
 12.670    624.301    590.529     33.772    571.464    590.490    571.464    571.493    571.464
 12.770    608.124    581.946     26.178    571.419    581.911    571.419    571.448    571.419
 12.870    594.000    578.140     15.860    571.369    578.108    571.369    571.398    571.369
 12.970    556.000    576.273    -20.273    571.314    576.241    571.314    571.343    571.314
 13.070    543.227    575.148    -31.922    571.255    575.117    571.255    571.284    571.255
 13.170    551.000    574.358    -23.358    571.190    574.326    571.190    571.220    571.190
 13.270    565.000    573.757     -8.757    571.122    573.725    571.122    571.153    571.122
 13.370    591.000    573.290     17.710    571.049    573.247    571.049    571.090    571.049
 13.470    555.000    572.899    -17.899    570.971    572.856    570.971    571.014    570.971
 13.570    586.270    572.569     13.701    570.889    572.525    570.889    570.932    570.889
 13.670    530.000    572.283    -42.283    570.803    572.239    570.803    570.846    570.803
 13.770    571.000    572.029     -1.029    570.712    571.986    570.712    570.756    570.712
 13.870    557.923    571.800    -13.877    570.618    571.756    570.618    570.661    570.618
 13.970    560.000    571.590    -11.590    570.519    571.545    570.519    570.563    570.519
 14.070    554.903    571.392    -16.489    570.415    571.347    570.415    570.460    570.415
 14.170    612.732    571.205     41.527    570.308    571.159    570.308    570.354    570.308
 14.270    545.000    571.030    -26.030    570.197    570.979    570.197    570.248    570.197
 14.370    535.000    570.857    -35.857    570.082    570.805    570.082    570.133    570.082
 14.470    557.000    570.686    -13.686    569.962    570.634    569.962    570.014    569.962
 14.570    595.000    570.518     24.482    569.839    570.466    569.839    569.891    569.839
 14.670    561.000    570.352     -9.352    569.712    570.300    569.712    569.765    569.712
 14.770    562.000    570.190     -8.190    569.581    570.137    569.581    569.634    569.581
 14.870    600.000    570.027     29.973    569.447    569.973    569.447    569.500    569.447
 14.970    550.000    569.862    -19.862    569.308    569.808    569.308    569.362    569.308
 15.070    555.000    569.696    -14.696    569.166    569.642    569.166    569.220    569.166
 15.170    579.000    569.529      9.471    569.021    569.475    569.021    569.075    569.021
 15.270    615.505    569.361     46.144    568.871    569.306    568.871    568.926    568.871
 15.370    594.034    569.191     24.843    568.718    569.136    568.718    568.773    568.718
 15.470    556.000    569.020    -13.020    568.562    568.965    568.562    568.617    568.562
 15.570    596.073    568.846     27.226    568.402    568.791    568.402    568.458    568.402
 15.670    548.000    568.671    -20.671    568.239    568.615    568.239    568.295    568.239
 15.770    520.000    568.494    -48.494    568.073    568.437    568.073    568.129    568.073
 15.870    588.539    568.314     20.225    567.903    568.257    567.903    567.959    567.903
 15.970    566.000    568.132     -2.132    567.730    568.075    567.730    567.786    567.730
 16.070    616.012    567.948     48.064    567.553    567.891    567.553    567.610    567.553
 16.170    601.000    567.761     33.239    567.374    567.704    567.374    567.431    567.374
 16.270    519.000    567.572    -48.572    567.191    567.514    567.191    567.249    567.191
 16.370    584.000    567.381     16.619    567.005    567.323    567.005    567.063    567.005
 16.470    543.000    567.187    -24.187    566.816    567.128    566.816    566.875    566.816
 16.570    522.000    566.991    -44.991    566.624    566.932    566.624    566.683    566.624
 16.670    533.000    566.793    -33.793    566.429    566.734    566.429    566.489    566.429
 16.770    527.212    566.595    -39.383    566.231    566.534    566.231    566.292    566.231
 16.870    601.000    566.394     34.606    566.031    566.330    566.031    566.094    566.031
 16.970    579.000    566.188     12.812    565.827    566.124    565.827    565.891    565.827
 17.070    589.000    565.980     23.020    565.621    565.915    565.621    565.685    565.621
 17.170    577.000    565.770     11.230    565.411    565.704    565.411    565.477    565.411
 17.270    612.674    565.557     47.117    565.199    565.490    565.199    565.266    565.199
 17.370    523.000    565.342    -42.342    564.985    565.275    564.985    565.052    564.985
 17.470    540.000    565.124    -25.124    564.768    565.057    564.768    564.835    564.768
 17.570    534.375    564.907    -30.532    564.548    564.839    564.548    564.616    564.548
 17.670    575.000    564.685     10.315    564.325    564.617    564.325    564.394    564.325
 17.770    570.000    564.461      5.539    564.100    564.392    564.100    564.169    564.100
 17.870    521.191    564.234    -43.043    563.873    564.164    563.873    563.942    563.873
 17.970    536.804    564.005    -27.202    563.643    563.935    563.643    563.713    563.643
 18.070    578.000    563.774     14.226    563.410    563.704    563.410    563.481    563.410
 18.170    599.000    563.541     35.459    563.176    563.470    563.176    563.247    563.176
 18.270    567.000    563.306      3.694    562.938    563.234    562.938    563.010    562.938
 18.370    594.394    563.069     31.324    562.699    562.997    562.699    562.771    562.699
 18.470    544.000    562.830    -18.830    562.457    562.757    562.457    562.530    562.457
 18.570    577.000    562.589     14.411    562.214    562.515    562.214    562.287    562.214
 18.670    602.642    562.346     40.296    561.967    562.272    561.967    562.041    561.967
 18.770    609.000    562.101     46.899    561.719    562.026    561.719    561.794    561.719
 18.870    569.003    561.854      7.149    561.469    561.779    561.469    561.544    561.469
 18.970    524.086    561.606    -37.520    561.216    561.530    561.216    561.293    561.216
 19.070    545.000    561.357    -16.357    560.962    561.279    560.962    561.040    560.962
 19.170    564.000    561.106      2.894    560.706    561.027    560.706    560.784    560.706
 19.270    533.488    560.852    -27.364    560.447    560.773    560.447    560.526    560.447
 19.370    576.000    560.597     15.403    560.187    560.517    560.187    560.267    560.187
 19.470    573.000    560.340     12.660    559.925    560.260    559.925    560.005    559.925
 19.570    542.000    560.082    -18.082    559.660    560.001    559.660    559.742    559.660
 19.670    513.000    559.822    -46.822    559.394    559.740    559.394    559.477    559.394
 19.770    598.643    559.562     39.081    559.127    559.479    559.127    559.210    559.127
 19.870    561.000    559.300      1.700    558.857    559.217    558.857    558.941    558.857
 19.970    556.000    559.036     -3.036    558.586    558.952    558.586    558.670    558.586
 20.070    543.000    558.771    -15.771    558.313    558.686    558.313    558.398    558.313
 20.170    568.881    558.506     10.375    558.039    558.420    558.039    558.125    558.039
 20.270    575.000    558.252     16.748    557.763    558.165    557.763    557.849    557.763
 20.370    524.145    557.993    -33.848    557.485    557.906    557.485    557.572    557.485
 20.470    527.842    557.725    -29.882    557.206    557.636    557.206    557.294    557.206
 20.570    551.438    557.455     -6.017    556.925    557.365    556.925    557.014    556.925
 20.670    548.000    557.187     -9.187    556.642    557.093    556.642    556.737    556.642
 20.770    585.728    556.917     28.811    556.359    556.820    556.359    556.456    556.359
 20.870    540.000    556.644    -16.644    556.074    556.546    556.074    556.172    556.074
 20.970    558.000    556.371      1.629    555.787    556.271    555.787    555.887    555.787
 21.070    552.000    556.097     -4.097    555.499    555.997    555.499    555.600    555.499
 21.170    556.000    555.823      0.177    555.210    555.721    555.210    555.312    555.210
 21.270    607.000    555.548     51.452    554.920    555.445    554.920    555.022    554.920
 21.370    567.734    555.273     12.461    554.628    555.169    554.628    554.732    554.628
 21.470    549.000    554.998     -5.998    554.335    554.893    554.335    554.440    554.335
 21.570    562.863    554.723      8.140    554.041    554.617    554.041    554.147    554.041
 21.670    542.000    554.449    -12.449    553.746    554.342    553.746    553.853    553.746
 21.770    582.000    554.175     27.825    553.449    554.066    553.449    553.558    553.449
 21.870    507.693    553.910    -46.217    553.152    553.800    553.152    553.262    553.152
 21.970    579.000    553.723     25.277    552.853    553.612    552.853    552.964    552.853
 22.070    564.000    553.496     10.504    552.554    553.383    552.554    552.666    552.554
 22.170    539.000    553.256    -14.256    552.253    553.142    552.253    552.367    552.253
 22.270    580.000    552.992     27.008    551.951    552.876    551.951    552.067    551.951
 22.370    521.000    552.727    -31.727    551.649    552.610    551.649    551.766    551.649
 22.470    512.387    552.470    -40.083    551.345    552.352    551.345    551.464    551.345
 22.570    564.000    552.257     11.743    551.041    552.137    551.041    551.161    551.041
 22.670    542.710    552.022     -9.313    550.736    551.901    550.736    550.858    550.736
 22.770    588.000    551.776     36.224    550.430    551.653    550.430    550.554    550.430
 22.870    513.040    551.537    -38.497    550.123    551.412    550.123    550.249    550.123
 22.970    527.243    551.309    -24.066    549.815    551.182    549.815    549.943    549.815
 23.070    564.000    551.087     12.913    549.507    550.958    549.507    549.637    549.507
 23.170    529.834    550.878    -21.043    549.198    550.747    549.198    549.330    549.198
 23.270    547.000    550.685     -3.685    548.888    550.552    548.888    549.022    548.888
 23.370    573.663    550.513     23.151    548.578    550.377    548.578    548.714    548.578
 23.470    515.528    550.368    -34.840    548.267    550.230    548.267    548.405    548.267
 23.570    567.000    550.259     16.741    547.956    550.119    547.956    548.096    547.956
 23.670    566.000    550.198     15.802    547.643    550.056    547.643    547.786    547.643
 23.770    594.591    550.204     44.387    547.331    550.059    547.331    547.476    547.331
 23.870    545.773    550.305     -4.532    547.017    550.158    547.017    547.166    547.017
 23.970    484.000    550.554    -66.554    546.704    550.404    546.704    546.855    546.704
 24.070    579.583    551.073     28.510    546.390    550.921    546.390    546.544    546.390
 24.170    524.509    552.209    -27.701    546.075    552.055    546.075    546.233    546.075
 24.270    571.070    554.931     16.140    545.760    554.773    545.760    545.923    545.760
 24.370    583.000    561.323     21.677    545.445    561.166    545.445    545.612    545.445
 24.470    597.000    574.374     22.626    545.129    574.223    545.129    545.300    545.129
 24.570    592.000    595.680     -3.680    544.813    595.540    544.813    544.987    544.813
 24.670    597.348    621.111    -23.764    544.496    620.986    544.496    544.675    544.496
 24.770    625.000    638.030    -13.030    544.180    637.912    544.180    544.363    544.180
 24.870    614.716    633.866    -19.149    543.863    633.741    543.863    544.050    543.863
 24.970    599.000    612.045    -13.045    543.545    611.901    543.545    543.738    543.545
 25.070    603.000    586.680     16.320    543.228    586.512    543.228    543.426    543.228
 25.170    549.791    567.520    -17.729    542.910    567.333    542.910    543.114    542.910
 25.270    540.000    556.396    -16.396    542.593    556.196    542.593    542.802    542.593
 25.370    560.000    550.917      9.083    542.275    550.707    542.275    542.490    542.275
 25.470    590.000    548.307     41.693    541.957    548.088    541.957    542.179    541.957
 25.570    568.000    546.901     21.099    541.639    546.674    541.639    541.868    541.639
 25.670    541.000    545.977     -4.977    541.321    545.742    541.321    541.557    541.321
 25.770    586.000    545.284     40.716    541.002    545.041    541.002    541.247    541.002
 25.870    547.000    544.731      2.269    540.684    544.478    540.684    540.938    540.684
 25.970    552.000    544.273      7.727    540.366    544.011    540.366    540.629    540.366
 26.070    568.695    543.887     24.808    540.048    543.615    540.048    540.321    540.048
 26.170    530.000    543.562    -13.562    539.730    543.279    539.730    540.014    539.730
 26.270    541.367    543.290     -1.923    539.412    542.995    539.412    539.708    539.412
 26.370    567.301    543.071     24.230    539.094    542.762    539.094    539.403    539.094
 26.470    567.000    542.925     24.075    538.776    542.602    538.776    539.099    538.776
 26.570    531.000    542.828    -11.828    538.459    542.490    538.459    538.797    538.459
 26.670    546.000    542.766      3.234    538.141    542.411    538.141    538.496    538.141
 26.770    538.000    542.768     -4.768    537.824    542.394    537.824    538.198    537.824
 26.870    501.261    542.848    -41.587    537.507    542.453    537.507    537.901    537.507
 26.970    596.000    543.026     52.974    537.190    542.608    537.190    537.607    537.190
 27.070    565.000    543.330     21.670    536.873    542.886    536.873    537.316    536.873
 27.170    571.000    543.799     27.201    536.557    543.327    536.557    537.028    536.557
 27.270    562.000    544.483     17.517    536.241    543.978    536.241    536.744    536.241
 27.370    537.636    545.484     -7.848    535.925    544.944    535.925    536.464    535.925
 27.470    588.000    546.972     41.028    535.610    546.390    535.610    536.189    535.610
 27.570    532.494    549.329    -16.835    535.294    548.700    535.294    535.921    535.294
 27.670    547.000    553.986     -6.986    534.980    553.303    534.980    535.659    534.980
 27.770    534.000    565.678    -31.678    534.666    564.929    534.666    535.406    534.666
 27.870    602.703    596.043      6.660    534.352    595.212    534.352    535.164    534.352
 27.970    675.000    662.716     12.284    534.038    661.780    534.038    534.934    534.038
 28.070    742.000    773.007    -31.007    533.725    771.939    533.725    534.719    533.725
 28.170    891.000    895.820     -4.820    533.413    894.605    533.413    534.525    533.413
 28.270    956.509    956.438      0.070    533.101    955.082    533.101    534.355    533.101
 28.370    893.000    905.338    -12.338    532.789    903.845    532.789    534.216    532.789
 28.470    810.000    795.283     14.717    532.478    793.613    532.478    534.120    532.478
 28.570    709.000    709.985     -0.985    532.168    708.057    532.168    534.081    532.168
 28.670    703.000    692.503     10.497    531.858    690.218    531.858    534.126    531.858
 28.770    709.983    738.175    -28.192    531.549    735.397    531.549    534.304    531.549
 28.870    832.855    807.138     25.716    531.240    803.652    531.240    534.709    531.240
 28.970    753.000    839.676    -86.676    530.932    835.095    530.932    535.510    530.932
 29.070    827.934    800.359     27.575    530.624    794.016    530.624    536.976    530.624
 29.170    727.000    720.314      6.686    530.318    711.180    530.318    539.461    530.318
 29.270    636.000    647.368    -11.368    530.011    634.075    530.011    543.310    530.011
 29.370    573.642    603.037    -29.395    529.706    584.097    529.706    548.647    529.706
 29.470    626.565    584.501     42.065    529.401    558.885    529.401    555.015    529.401
 29.570    577.000    579.642     -2.642    529.097    547.892    529.097    560.843    529.097
 29.670    588.000    577.620     10.380    528.794    542.980    528.794    563.430    528.794
 29.770    611.000    572.863     38.137    528.492    540.320    528.492    561.030    528.492
 29.870    576.000    565.376     10.624    528.190    538.580    528.190    554.983    528.190
 29.970    537.810    557.450    -19.640    527.889    537.352    527.889    547.984    527.889
 30.070    562.000    550.729     11.271    527.589    536.500    527.589    541.815    527.589
 30.170    572.000    545.807     26.193    527.290    535.997    527.290    537.097    527.290
 30.270    540.000    542.746     -2.746    526.991    535.951    526.991    533.784    526.991
 30.370    537.000    541.665     -4.665    526.694    536.799    526.694    531.555    526.694
