neutron_powder_diffraction_0120
R_wp: 3.769
Temperature (K): 987.190
Counts: 83556.00
Wavelength (Ã…): 2.52098
COMMENTS
Test file for demonstrating the .xyy file format in Reel1.0
END OF HEADER
   tth       Y_obs     Y_calc      Y_res    Background    Phase_1_Nuc    Phase_1_Mag    Phase_2_Nuc    Phase_2_Mag
  9.970    553.000    563.315    -10.315    562.312    563.203    562.312    562.425    562.312
 10.070    615.000    563.570     51.430    562.491    563.457    562.491    562.604    562.491
 10.170    578.361    563.830     14.532    562.662    563.716    562.662    562.775    562.662
 10.270    535.000    564.095    -29.095    562.827    563.981    562.827    562.940    562.827
 10.370    570.000    564.370      5.630    562.984    564.255    562.984    563.099    562.984
 10.470    590.000    564.657     25.343    563.135    564.542    563.135    563.250    563.135
 10.570    563.000    564.963     -1.963    563.279    564.847    563.279    563.394    563.279
 10.670    570.000    565.292      4.708    563.417    565.176    563.417    563.532    563.417
 10.770    590.813    565.654     25.159    563.547    565.537    563.547    563.663    563.547
 10.870    594.000    566.060     27.940    563.672    565.943    563.672    563.788    563.672
 10.970    572.000    566.526      5.474    563.789    566.408    563.789    563.906    563.789
 11.070    602.000    567.075     34.925    563.900    566.956    563.900    564.018    563.900
 11.170    607.000    567.740     39.260    564.005    567.620    564.005    564.123    564.005
 11.270    590.370    568.568     21.802    564.104    568.447    564.104    564.222    564.104
 11.370    581.000    569.652     11.348    564.196    569.530    564.196    564.315    564.196
 11.470    543.541    571.188    -27.647    564.282    571.064    564.282    564.401    564.282
 11.570    581.000    573.669      7.331    564.361    573.544    564.361    564.481    564.361
 11.670    570.000    578.279     -8.279    564.435    578.151    564.435    564.556    564.435
 11.770    638.000    587.350     50.650    564.503    587.216    564.503    564.624    564.503
 11.870    585.530    604.170    -18.640    564.564    604.026    564.564    564.686    564.564
 11.970    658.000    631.001     26.999    564.620    630.841    564.620    564.742    564.620
 12.070    625.000    664.902    -39.902    564.670    664.722    564.670    564.793    564.670
 12.170    691.964    693.395     -1.432    564.714    693.199    564.714    564.837    564.714
 12.270    731.133    698.721     32.412    564.752    698.520    564.752    564.876    564.752
 12.370    702.053    676.393     25.660    564.785    676.205    564.785    564.909    564.785
 12.470    627.000    642.161    -15.161    564.812    641.992    564.812    564.936    564.812
 12.570    615.206    612.129      3.077    564.833    611.977    564.833    564.958    564.833
 12.670    578.000    592.107    -14.107    564.849    591.966    564.849    564.975    564.849
 12.770    568.000    580.951    -12.951    564.859    580.815    564.859    564.985    564.859
 12.870    547.002    575.314    -28.313    564.864    575.181    564.864    564.991    564.864
 12.970    583.000    572.423     10.577    564.863    572.291    564.863    564.991    564.863
 13.070    554.000    570.750    -16.750    564.857    570.619    564.857    564.986    564.857
 13.170    567.000    569.637     -2.637    564.846    569.505    564.846    564.975    564.846
 13.270    534.000    568.824    -34.824    564.830    568.692    564.830    564.960    564.830
 13.370    583.573    568.200     15.374    564.808    568.068    564.808    564.939    564.808
 13.470    591.244    567.705     23.539    564.782    567.573    564.782    564.913    564.782
 13.570    585.787    567.304     18.484    564.750    567.171    564.750    564.882    564.750
 13.670    581.000    566.970     14.030    564.714    566.837    564.714    564.846    564.714
 13.770    524.927    566.686    -41.759    564.672    566.552    564.672    564.805    564.672
 13.870    527.391    566.439    -39.049    564.626    566.305    564.626    564.759    564.626
 13.970    530.540    566.221    -35.681    564.574    566.086    564.574    564.708    564.574
 14.070    541.555    566.024    -24.469    564.518    565.889    564.518    564.653    564.518
 14.170    547.000    565.844    -18.844    564.457    565.708    564.457    564.593    564.457
 14.270    575.000    565.677      9.323    564.392    565.540    564.392    564.528    564.392
 14.370    568.525    565.519      3.006    564.321    565.381    564.321    564.458    564.321
 14.470    511.000    565.368    -54.368    564.247    565.230    564.247    564.384    564.247
 14.570    549.000    565.224    -16.224    564.167    565.085    564.167    564.306    564.167
 14.670    557.000    565.084     -8.084    564.084    564.944    564.084    564.223    564.084
 14.770    554.000    564.945    -10.945    563.995    564.805    563.995    564.135    563.995
 14.870    533.964    564.807    -30.843    563.903    564.666    563.903    564.043    563.903
 14.970    603.000    564.670     38.330    563.806    564.529    563.806    563.947    563.806
 15.070    582.000    564.534     17.466    563.705    564.392    563.705    563.846    563.705
 15.170    558.000    564.397     -6.397    563.599    564.254    563.599    563.742    563.599
 15.270    570.000    564.259      5.741    563.489    564.116    563.489    563.633    563.489
 15.370    546.000    564.120    -18.120    563.376    563.976    563.376    563.520    563.376
 15.470    572.000    563.980      8.020    563.258    563.835    563.258    563.403    563.258
 15.570    569.052    563.838      5.215    563.136    563.692    563.136    563.282    563.136
 15.670    546.017    563.694    -17.677    563.010    563.547    563.010    563.157    563.010
 15.770    560.000    563.548     -3.548    562.880    563.400    562.880    563.027    562.880
 15.870    534.000    563.399    -29.399    562.746    563.251    562.746    562.895    562.746
 15.970    601.793    563.249     38.544    562.609    563.100    562.609    562.758    562.609
 16.070    539.267    563.096    -23.829    562.467    562.946    562.467    562.617    562.467
 16.170    568.000    562.940      5.060    562.322    562.789    562.322    562.473    562.322
 16.270    575.772    562.782     12.990    562.173    562.630    562.173    562.325    562.173
 16.370    554.000    562.621     -8.621    562.020    562.468    562.020    562.173    562.020
 16.470    530.000    562.457    -32.457    561.864    562.304    561.864    562.018    561.864
 16.570    573.091    562.291     10.800    561.705    562.137    561.705    561.859    561.705
 16.670    598.480    562.122     36.358    561.541    561.967    561.541    561.697    561.541
 16.770    549.000    561.950    -12.950    561.374    561.794    561.374    561.531    561.374
 16.870    600.465    561.776     38.689    561.204    561.619    561.204    561.361    561.204
 16.970    550.118    561.599    -11.481    561.031    561.441    561.031    561.189    561.031
 17.070    541.000    561.421    -20.421    560.854    561.261    560.854    561.013    560.854
 17.170    546.000    561.245    -15.245    560.673    561.085    560.673    560.833    560.673
 17.270    591.000    561.132     29.868    560.490    560.970    560.490    560.651    560.490
 17.370    533.000    561.018    -28.018    560.303    560.856    560.303    560.465    560.303
 17.470    520.000    560.834    -40.834    560.113    560.671    560.113    560.276    560.113
 17.570    521.315    560.641    -39.326    559.920    560.477    559.920    560.084    559.920
 17.670    529.000    560.446    -31.446    559.724    560.280    559.724    559.889    559.724
 17.770    536.680    560.247    -23.568    559.524    560.081    559.524    559.691    559.524
 17.870    513.000    560.047    -47.047    559.322    559.879    559.322    559.490    559.322
 17.970    550.820    559.843     -9.024    559.117    559.674    559.117    559.286    559.117
 18.070    556.996    559.637     -2.641    558.909    559.467    558.909    559.079    558.909
 18.170    504.000    559.429    -55.429    558.698    559.258    558.698    558.869    558.698
 18.270    555.000    559.218     -4.218    558.484    559.046    558.484    558.656    558.484
 18.370    562.000    559.005      2.995    558.267    558.831    558.267    558.441    558.267
 18.470    544.000    558.789    -14.789    558.048    558.614    558.048    558.223    558.048
 18.570    560.000    558.571      1.429    557.826    558.395    557.826    558.002    557.826
 18.670    568.000    558.351      9.649    557.601    558.174    557.601    557.779    557.601
 18.770    565.734    558.129      7.606    557.374    557.950    557.374    557.553    557.374
 18.870    592.610    557.904     34.706    557.144    557.724    557.144    557.324    557.144
 18.970    530.000    557.677    -27.677    556.911    557.496    556.911    557.093    556.911
 19.070    557.000    557.451     -0.451    556.676    557.268    556.676    556.859    556.676
 19.170    555.000    557.222     -2.222    556.439    557.038    556.439    556.623    556.439
 19.270    524.000    556.989    -32.989    556.199    556.803    556.199    556.384    556.199
 19.370    537.000    556.754    -19.754    555.956    556.567    555.956    556.144    555.956
 19.470    551.000    556.517     -5.517    555.712    556.329    555.712    555.900    555.712
 19.570    521.000    556.279    -35.279    555.465    556.088    555.465    555.655    555.465
 19.670    567.276    556.038     11.237    555.215    555.846    555.215    555.407    555.215
 19.770    542.000    555.798    -13.798    554.964    555.605    554.964    555.157    554.964
 19.870    578.124    555.581     22.543    554.710    555.386    554.710    554.905    554.710
 19.970    548.000    555.386     -7.386    554.454    555.189    554.454    554.651    554.454
 20.070    560.000    555.144      4.856    554.196    554.946    554.196    554.395    554.196
 20.170    532.000    554.896    -22.896    553.936    554.696    553.936    554.136    553.936
 20.270    574.773    554.647     20.126    553.674    554.445    553.674    553.876    553.674
 20.370    583.738    554.400     29.338    553.410    554.196    553.410    553.614    553.410
 20.470    540.000    554.149    -14.149    553.144    553.943    553.144    553.349    553.144
 20.570    533.000    553.896    -20.896    552.875    553.688    552.875    553.083    552.875
 20.670    512.000    553.649    -41.649    552.605    553.439    552.605    552.815    552.605
 20.770    551.349    553.438     -2.089    552.334    553.226    552.334    552.545    552.334
 20.870    583.198    553.187     30.011    552.060    552.973    552.060    552.274    552.060
 20.970    554.000    552.930      1.070    551.784    552.714    551.784    552.000    551.784
 21.070    525.000    552.673    -27.673    551.507    552.455    551.507    551.725    551.507
 21.170    549.856    552.415     -2.560    551.228    552.195    551.228    551.449    551.228
 21.270    544.000    552.158     -8.158    550.947    551.935    550.947    551.170    550.947
 21.370    582.468    551.900     30.568    550.665    551.674    550.665    550.890    550.665
 21.470    561.000    551.641      9.359    550.381    551.414    550.381    550.609    550.381
 21.570    553.000    551.384      1.616    550.096    551.154    550.096    550.326    550.096
 21.670    540.147    551.126    -10.979    549.809    550.893    549.809    550.041    549.809
 21.770    532.092    550.870    -18.778    549.520    550.634    549.520    549.755    549.520
 21.870    548.000    550.617     -2.617    549.230    550.379    549.230    549.468    549.230
 21.970    539.000    550.371    -11.371    548.938    550.130    548.938    549.179    548.938
 22.070    565.000    550.122     14.878    548.645    549.878    548.645    548.889    548.645
 22.170    557.115    549.881      7.234    548.351    549.634    548.351    548.598    548.351
 22.270    591.000    549.634     41.366    548.055    549.384    548.055    548.305    548.055
 22.370    527.000    549.389    -22.389    547.758    549.136    547.758    548.012    547.758
 22.470    536.000    549.149    -13.149    547.460    548.893    547.460    547.717    547.460
 22.570    517.399    548.921    -31.522    547.160    548.661    547.160    547.420    547.160
 22.670    545.000    548.721     -3.721    546.859    548.458    546.859    547.123    546.859
 22.770    533.000    548.519    -15.519    546.557    548.252    546.557    546.825    546.557
 22.870    577.275    548.313     28.962    546.254    548.043    546.254    546.526    546.254
 22.970    527.249    548.135    -20.885    545.950    547.860    545.950    546.225    545.950
 23.070    556.136    547.951      8.186    545.645    547.672    545.645    545.924    545.645
 23.170    549.000    547.781      1.219    545.338    547.498    545.338    545.622    545.338
 23.270    545.146    547.648     -2.502    545.031    547.361    545.031    545.319    545.031
 23.370    541.000    547.577     -6.577    544.722    547.285    544.722    545.015    544.722
 23.470    597.000    547.500     49.500    544.413    547.203    544.413    544.710    544.413
 23.570    530.000    547.462    -17.462    544.102    547.160    544.102    544.405    544.102
 23.670    579.000    547.485     31.515    543.791    547.179    543.791    544.099    543.791
 23.770    532.659    547.595    -14.937    543.479    547.283    543.479    543.792    543.479
 23.870    601.000    547.830     53.170    543.166    547.512    543.166    543.485    543.166
 23.970    562.000    548.277     13.723    542.852    547.954    542.852    543.177    542.852
 24.070    529.281    549.067    -19.786    542.537    548.739    542.537    542.869    542.537
 24.170    543.000    550.558     -7.558    542.222    550.224    542.222    542.560    542.222
 24.270    551.745    553.619     -1.874    541.905    553.281    541.905    542.250    541.905
 24.370    555.000    559.856     -4.856    541.589    559.515    541.589    541.941    541.589
 24.470    546.000    571.376    -25.376    541.271    571.037    541.271    541.631    541.271
 24.570    584.000    589.377     -5.377    540.953    589.042    540.953    541.320    540.953
 24.670    652.000    611.479     40.521    540.634    611.151    540.634    541.010    540.634
 24.770    646.000    629.262     16.738    540.314    628.938    540.314    540.699    540.314
 24.870    673.000    631.594     41.406    539.994    631.263    539.994    540.388    539.994
 24.970    643.000    616.344     26.656    539.674    615.993    539.674    540.078    539.674
 25.070    574.000    593.623    -19.623    539.353    593.246    539.353    539.767    539.353
 25.170    550.000    573.552    -23.552    539.031    573.149    539.031    539.456    539.031
 25.270    579.000    559.893     19.107    538.709    559.469    538.709    539.146    538.709
 25.370    586.000    552.034     33.966    538.386    551.592    538.386    538.836    538.386
 25.470    513.000    547.884    -34.884    538.064    547.426    538.064    538.526    538.064
 25.570    528.649    545.641    -16.992    537.740    545.167    537.740    538.217    537.740
 25.670    575.355    544.270     31.084    537.417    543.781    537.417    537.909    537.417
 25.770    574.000    543.310     30.690    537.093    542.804    537.093    537.601    537.093
 25.870    494.000    542.576    -48.576    536.768    542.052    536.768    537.294    536.768
 25.970    499.426    541.989    -42.564    536.444    541.447    536.444    536.988    536.444
 26.070    586.000    541.513     44.487    536.119    540.951    536.119    536.683    536.119
 26.170    506.028    541.124    -35.096    535.794    540.540    535.794    536.379    535.794
 26.270    544.000    540.807      3.193    535.469    540.199    535.469    536.077    535.469
 26.370    582.829    540.555     42.274    535.143    539.922    535.143    535.776    535.143
 26.470    523.000    540.366    -17.366    534.817    539.706    534.817    535.478    534.817
 26.570    556.000    540.240     15.760    534.492    539.550    534.492    535.182    534.492
 26.670    556.000    540.181     15.819    534.166    539.460    534.166    534.888    534.166
 26.770    504.583    540.199    -35.616    533.840    539.442    533.840    534.597    533.840
 26.870    500.417    540.305    -39.888    533.514    539.510    533.514    534.309    533.514
 26.970    530.498    540.519    -10.021    533.188    539.682    533.188    534.025    533.188
 27.070    567.000    540.869     26.131    532.862    539.985    532.862    533.745    532.862
 27.170    540.000    541.393     -1.393    532.536    540.458    532.536    533.471    532.536
 27.270    568.259    542.151     26.107    532.210    541.159    532.210    533.201    532.210
 27.370    525.000    543.234    -18.234    531.884    542.178    531.884    532.939    531.884
 27.470    595.000    544.812     50.188    531.558    543.685    531.558    532.684    531.558
 27.570    539.449    547.333     -7.884    531.232    546.125    531.232    532.438    531.232
 27.670    527.000    552.258    -25.258    530.907    550.959    530.907    532.202    530.907
 27.770    566.000    564.042      1.958    530.581    562.636    530.581    531.978    530.581
 27.870    623.000    592.919     30.081    530.256    591.387    530.256    531.769    530.256
 27.970    631.000    653.729    -22.729    529.931    652.044    529.931    531.578    529.931
 28.070    742.000    753.031    -11.031    529.606    751.164    529.606    531.406    529.606
 28.170    875.272    867.223      8.049    529.281    865.154    529.281    531.258    529.281
 28.270    897.000    935.903    -38.903    528.956    933.629    528.956    531.138    528.956
 28.370    877.000    910.500    -33.500    528.632    908.018    528.632    531.051    528.632
 28.470    822.391    820.451      1.940    528.308    817.727    528.308    531.002    528.308
 28.570    752.000    736.581     15.419    527.985    733.555    527.985    530.997    527.985
 28.670    693.000    706.500    -13.500    527.662    703.108    527.662    531.041    527.662
 28.770    790.000    735.136     54.864    527.339    731.314    527.339    531.141    527.339
 28.870    766.000    792.377    -26.377    527.016    788.072    527.016    531.299    527.016
 28.970    810.725    827.449    -16.723    526.694    822.611    526.694    531.518    526.694
 29.070    785.000    803.501    -18.501    526.372    798.082    526.372    531.792    526.372
 29.170    782.463    735.110     47.353    526.051    729.063    526.051    532.110    526.051
 29.270    667.000    661.095      5.905    525.730    654.394    525.730    532.444    525.730
 29.370    574.234    606.136    -31.903    525.410    598.801    525.410    532.755    525.410
 29.470    578.238    574.269      3.969    525.090    566.380    525.090    532.984    525.090
 29.570    537.000    558.645    -21.645    524.771    550.349    524.771    533.069    524.771
 29.670    591.000    551.357     39.643    524.452    542.856    524.452    532.953    524.452
 29.770    558.000    547.511     10.489    524.133    539.040    524.133    532.604    524.133
 29.870    609.000    544.958     64.042    523.816    536.745    523.816    532.029    523.816
 29.970    575.000    542.963     32.037    523.499    535.196    523.499    531.265    523.499
 30.070    582.000    541.332     40.668    523.182    534.139    523.182    530.375    523.182
 30.170    562.000    540.071     21.929    522.866    533.516    522.866    529.420    522.866
 30.270    523.171    539.340    -16.169    522.551    533.436    522.551    528.453    522.551
 30.370    578.000    539.595     38.405    522.236    534.315    522.236    527.512    522.236
