neutron_powder_diffraction_0151
R_wp: 3.868
Temperature (K): 1074.000
Counts: 83281.00
Wavelength (Ã…): 2.52098
COMMENTS
Test file for demonstrating the .xyy file format in Reel1.0
END OF HEADER
   tth       Y_obs     Y_calc      Y_res    Background    Phase_1_Nuc    Phase_1_Mag    Phase_2_Nuc    Phase_2_Mag
  9.970    604.485    579.573     24.913    578.899    579.516    578.899    578.955    578.899
 10.070    616.000    579.471     36.529    578.741    579.414    578.741    578.798    578.741
 10.170    590.000    579.372     10.628    578.580    579.314    578.580    578.637    578.580
 10.270    611.000    579.278     31.722    578.415    579.220    578.415    578.473    578.415
 10.370    602.487    579.193     23.294    578.248    579.135    578.248    578.306    578.248
 10.470    556.945    579.119    -22.174    578.078    579.061    578.078    578.136    578.078
 10.570    638.000    579.060     58.940    577.905    579.001    577.905    577.963    577.905
 10.670    600.357    579.020     21.337    577.729    578.961    577.729    577.788    577.729
 10.770    554.000    579.005    -25.005    577.550    578.945    577.550    577.609    577.550
 10.870    593.000    579.023     13.977    577.369    578.964    577.369    577.428    577.369
 10.970    582.000    579.087      2.913    577.184    579.027    577.184    577.244    577.184
 11.070    549.000    579.213    -30.213    576.997    579.153    576.997    577.057    576.997
 11.170    643.000    579.425     63.575    576.808    579.364    576.808    576.867    576.808
 11.270    539.975    579.761    -39.787    576.615    579.700    576.615    576.675    576.615
 11.370    594.000    580.284     13.716    576.420    580.222    576.420    576.480    576.420
 11.470    605.000    581.132     23.868    576.222    581.069    576.222    576.283    576.222
 11.570    624.158    582.696     41.463    576.022    582.631    576.022    576.082    576.022
 11.670    569.932    586.110    -16.178    575.819    586.043    575.819    575.880    575.819
 11.770    615.152    594.092     21.060    575.614    594.021    575.614    575.675    575.614
 11.870    643.000    611.158     31.842    575.406    611.073    575.406    575.471    575.406
 11.970    654.000    640.954     13.046    575.195    640.851    575.195    575.263    575.195
 12.070    654.098    679.732    -25.634    574.983    679.608    574.983    575.050    574.983
 12.170    688.000    710.347    -22.347    574.768    710.205    574.768    574.835    574.768
 12.270    681.000    711.138    -30.138    574.550    710.995    574.550    574.618    574.550
 12.370    650.000    681.190    -31.190    574.330    681.063    574.330    574.399    574.330
 12.470    668.000    641.787     26.213    574.108    641.681    574.108    574.177    574.108
 12.570    567.000    610.856    -43.856    573.884    610.766    573.884    573.953    573.884
 12.670    548.000    592.752    -44.752    573.658    592.672    573.658    573.727    573.658
 12.770    575.000    584.000     -9.000    573.429    583.925    573.429    573.499    573.429
 12.870    589.000    580.013      8.987    573.198    579.939    573.198    573.268    573.198
 12.970    571.000    577.966     -6.966    572.965    577.893    572.965    573.036    572.965
 13.070    592.000    576.665     15.335    572.730    576.592    572.730    572.801    572.730
 13.170    582.688    575.701      6.987    572.493    575.628    572.493    572.565    572.493
 13.270    569.000    574.929     -5.929    572.254    574.856    572.254    572.326    572.254
 13.370    544.000    574.284    -30.284    572.013    574.211    572.013    572.085    572.013
 13.470    558.484    573.727    -15.243    571.770    573.654    571.770    571.842    571.770
 13.570    542.101    573.233    -31.132    571.525    573.160    571.525    571.598    571.525
 13.670    595.725    572.787     22.939    571.279    572.713    571.279    571.351    571.279
 13.770    603.187    572.375     30.812    571.030    572.301    571.030    571.103    571.030
 13.870    561.000    571.990    -10.990    570.779    571.916    570.779    570.853    570.779
 13.970    553.531    571.626    -18.095    570.527    571.551    570.527    570.601    570.527
 14.070    573.000    571.277      1.723    570.273    571.203    570.273    570.347    570.273
 14.170    547.000    570.941    -23.941    570.017    570.866    570.017    570.092    570.017
 14.270    566.000    570.615     -4.615    569.759    570.540    569.759    569.835    569.759
 14.370    549.000    570.297    -21.297    569.500    570.221    569.500    569.576    569.500
 14.470    600.405    569.985     30.421    569.239    569.909    569.239    569.315    569.239
 14.570    611.748    569.678     42.070    568.977    569.601    568.977    569.053    568.977
 14.670    549.251    569.375    -20.123    568.713    569.298    568.713    568.789    568.713
 14.770    611.000    569.075     41.925    568.447    568.998    568.447    568.524    568.447
 14.870    535.942    568.780    -32.838    568.180    568.703    568.180    568.257    568.180
 14.970    591.434    568.486     22.948    567.911    568.408    567.911    567.989    567.911
 15.070    531.000    568.192    -37.192    567.641    568.114    567.641    567.719    567.641
 15.170    525.209    567.900    -42.690    567.369    567.821    567.369    567.448    567.369
 15.270    607.000    567.608     39.392    567.096    567.528    567.096    567.175    567.096
 15.370    553.000    567.316    -14.316    566.821    567.237    566.821    566.901    566.821
 15.470    533.890    567.025    -33.135    566.545    566.945    566.545    566.625    566.545
 15.570    536.526    566.735    -30.209    566.268    566.654    566.268    566.349    566.268
 15.670    581.560    566.444     15.116    565.990    566.363    565.990    566.071    565.990
 15.770    584.000    566.153     17.847    565.710    566.072    565.710    565.791    565.710
 15.870    554.000    565.862    -11.862    565.429    565.780    565.429    565.510    565.429
 15.970    562.000    565.571     -3.571    565.146    565.489    565.146    565.229    565.146
 16.070    545.463    565.280    -19.817    564.863    565.197    564.863    564.945    564.863
 16.170    605.725    564.988     40.737    564.578    564.905    564.578    564.661    564.578
 16.270    592.636    564.696     27.939    564.292    564.612    564.292    564.376    564.292
 16.370    574.665    564.405     10.260    564.005    564.320    564.005    564.089    564.005
 16.470    579.000    564.113     14.887    563.717    564.029    563.717    563.802    563.717
 16.570    577.918    563.820     14.097    563.428    563.735    563.428    563.513    563.428
 16.670    538.000    563.526    -25.526    563.137    563.440    563.137    563.223    563.137
 16.770    540.000    563.232    -23.232    562.846    563.145    562.846    562.932    562.846
 16.870    578.000    562.937     15.063    562.554    562.850    562.554    562.641    562.554
 16.970    532.066    562.642    -30.576    562.261    562.554    562.261    562.348    562.261
 17.070    581.000    562.346     18.654    561.966    562.258    561.966    562.054    561.966
 17.170    550.000    562.049    -12.049    561.671    561.960    561.671    561.760    561.671
 17.270    607.000    561.752     45.248    561.375    561.663    561.375    561.464    561.375
 17.370    589.551    561.454     28.097    561.078    561.365    561.078    561.168    561.078
 17.470    552.000    561.158     -9.158    560.780    561.066    560.780    560.873    560.780
 17.570    528.000    560.860    -32.860    560.482    560.767    560.482    560.575    560.482
 17.670    588.829    560.564     28.265    560.182    560.469    560.182    560.277    560.182
 17.770    593.081    560.264     32.816    559.882    560.170    559.882    559.977    559.882
 17.870    563.000    559.964      3.036    559.581    559.869    559.581    559.677    559.581
 17.970    535.592    559.664    -24.072    559.280    559.568    559.280    559.376    559.280
 18.070    577.000    559.364     17.636    558.977    559.267    558.977    559.074    558.977
 18.170    553.040    559.063     -6.023    558.674    558.965    558.674    558.772    558.674
 18.270    572.717    558.761     13.956    558.371    558.663    558.371    558.469    558.371
 18.370    586.587    558.459     28.128    558.066    558.360    558.066    558.165    558.066
 18.470    552.341    558.157     -5.815    557.761    558.057    557.761    557.861    557.761
 18.570    545.954    557.854    -11.900    557.456    557.754    557.456    557.556    557.456
 18.670    565.000    557.551      7.449    557.150    557.450    557.150    557.251    557.150
 18.770    573.000    557.248     15.752    556.843    557.146    556.843    556.945    556.843
 18.870    622.000    556.945     65.055    556.536    556.842    556.536    556.638    556.536
 18.970    591.259    556.641     34.618    556.228    556.538    556.228    556.331    556.228
 19.070    544.000    556.337    -12.337    555.920    556.233    555.920    556.024    555.920
 19.170    523.013    556.033    -33.020    555.611    555.928    555.611    555.716    555.611
 19.270    532.589    555.729    -23.139    555.302    555.623    555.302    555.408    555.302
 19.370    527.000    555.424    -28.424    554.993    555.318    554.993    555.099    554.993
 19.470    562.000    555.120      6.880    554.683    555.013    554.683    554.791    554.683
 19.570    526.000    554.817    -28.817    554.373    554.708    554.373    554.481    554.373
 19.670    508.000    554.513    -46.513    554.062    554.404    554.062    554.172    554.062
 19.770    574.556    554.209     20.347    553.752    554.099    553.752    553.862    553.752
 19.870    555.042    553.905      1.137    553.440    553.794    553.440    553.551    553.440
 19.970    513.000    553.601    -40.601    553.129    553.489    553.129    553.241    553.129
 20.070    557.000    553.297      3.703    552.817    553.184    552.817    552.930    552.817
 20.170    533.000    552.994    -19.994    552.505    552.880    552.505    552.619    552.505
 20.270    513.774    552.704    -38.930    552.193    552.589    552.193    552.308    552.193
 20.370    572.000    552.411     19.589    551.881    552.295    551.881    551.997    551.881
 20.470    552.000    552.109     -0.109    551.568    551.992    551.568    551.685    551.568
 20.570    558.000    551.807      6.193    551.255    551.688    551.255    551.374    551.255
 20.670    528.662    551.505    -22.843    550.943    551.385    550.943    551.062    550.943
 20.770    590.309    551.203     39.106    550.630    551.083    550.630    550.750    550.630
 20.870    537.000    550.911    -13.911    550.316    550.789    550.316    550.438    550.316
 20.970    517.360    550.697    -33.337    550.003    550.574    550.003    550.126    550.003
 21.070    577.621    550.420     27.201    549.690    550.295    549.690    549.814    549.690
 21.170    580.000    550.123     29.877    549.377    549.997    549.377    549.502    549.377
 21.270    521.000    549.826    -28.826    549.064    549.699    549.064    549.190    549.064
 21.370    547.498    549.529     -2.031    548.750    549.401    548.750    548.878    548.750
 21.470    538.988    549.235    -10.246    548.437    549.105    548.437    548.567    548.437
 21.570    550.566    548.941      1.625    548.124    548.810    548.124    548.255    548.124
 21.670    554.000    548.649      5.351    547.811    548.516    547.811    547.943    547.811
 21.770    528.676    548.359    -19.682    547.497    548.225    547.497    547.632    547.497
 21.870    532.000    548.072    -16.072    547.184    547.936    547.184    547.320    547.184
 21.970    533.000    547.807    -14.807    546.872    547.670    546.872    547.009    546.872
 22.070    562.000    547.550     14.450    546.559    547.412    546.559    546.698    546.559
 22.170    552.785    547.272      5.513    546.246    547.132    546.246    546.387    546.246
 22.270    511.000    546.994    -35.994    545.934    546.852    545.934    546.076    545.934
 22.370    585.670    546.720     38.950    545.621    546.576    545.621    545.766    545.621
 22.470    588.773    546.454     42.318    545.309    546.308    545.309    545.455    545.309
 22.570    508.562    546.234    -37.672    544.997    546.086    544.997    545.145    544.997
 22.670    560.939    545.992     14.947    544.686    545.842    544.686    544.836    544.686
 22.770    532.000    545.741    -13.741    544.374    545.589    544.374    544.527    544.374
 22.870    565.056    545.498     19.558    544.063    545.344    544.063    544.218    544.063
 22.970    550.000    545.266      4.734    543.752    545.110    543.752    543.909    543.752
 23.070    564.000    545.042     18.958    543.442    544.883    543.442    543.601    543.442
 23.170    554.000    544.832      9.168    543.131    544.671    543.131    543.293    543.131
 23.270    561.924    544.639     17.285    542.821    544.475    542.821    542.986    542.821
 23.370    547.141    544.468      2.672    542.512    544.302    542.512    542.679    542.512
 23.470    545.000    544.326      0.674    542.203    544.157    542.203    542.372    542.203
 23.570    523.520    544.220    -20.700    541.894    544.048    541.894    542.066    541.894
 23.670    553.000    544.164      8.836    541.585    543.990    541.585    541.761    541.585
 23.770    590.000    544.177     45.823    541.277    543.999    541.277    541.456    541.277
 23.870    516.579    544.288    -27.709    540.970    544.107    540.970    541.152    540.970
 23.970    542.000    544.545     -2.545    540.662    544.362    540.662    540.848    540.662
 24.070    537.000    545.074     -8.074    540.356    544.887    540.356    540.545    540.356
 24.170    562.139    546.227     15.912    540.050    546.038    540.050    540.243    540.050
 24.270    543.000    548.971     -5.971    539.744    548.779    539.744    539.941    539.744
 24.370    593.908    555.380     38.528    539.439    555.189    539.439    539.640    539.439
 24.470    564.000    568.403     -4.403    539.134    568.218    539.134    539.340    539.134
 24.570    595.000    589.587      5.413    538.830    589.413    538.830    539.040    538.830
 24.670    649.885    614.817     35.067    538.526    614.657    538.526    538.741    538.526
 24.770    602.000    631.588    -29.588    538.223    631.435    538.223    538.443    538.223
 24.870    628.000    627.500      0.500    537.920    627.338    537.920    538.146    537.920
 24.970    650.505    605.905     44.600    537.618    605.722    537.618    537.850    537.618
 25.070    601.041    580.745     20.297    537.317    580.538    537.317    537.555    537.317
 25.170    557.000    561.703     -4.703    537.016    561.476    537.016    537.261    537.016
 25.270    584.000    550.595     33.405    536.716    550.352    536.716    536.968    536.716
 25.370    584.000    545.106     38.894    536.417    544.852    536.417    536.676    536.417
 25.470    547.000    542.499      4.501    536.118    542.235    536.118    536.385    536.118
 25.570    561.000    541.104     19.896    535.820    540.831    535.820    536.095    535.820
 25.670    534.000    540.198     -6.198    535.523    539.916    535.523    535.807    535.523
 25.770    523.146    539.523    -16.376    535.226    539.230    535.226    535.520    535.226
 25.870    545.000    538.983      6.017    534.930    538.680    534.930    535.234    534.930
 25.970    552.741    538.541     14.200    534.635    538.226    534.635    534.950    534.635
 26.070    565.225    538.173     27.052    534.340    537.846    534.340    534.668    534.340
 26.170    544.000    537.868      6.132    534.047    537.527    534.047    534.387    534.047
 26.270    532.000    537.618     -5.618    533.754    537.264    533.754    534.109    533.754
 26.370    512.000    537.443    -25.443    533.461    537.073    533.461    533.832    533.461
 26.470    536.000    537.314     -1.314    533.170    536.927    533.170    533.557    533.170
 26.570    541.695    537.214      4.480    532.879    536.809    532.879    533.285    532.879
 26.670    548.000    537.172     10.828    532.589    536.746    532.589    533.015    532.589
 26.770    583.000    537.197     45.803    532.300    536.749    532.300    532.749    532.300
 26.870    538.000    537.293      0.707    532.012    536.820    532.012    532.485    532.012
 26.970    518.078    537.483    -19.405    531.725    536.982    531.725    532.225    531.725
 27.070    566.000    537.793     28.207    531.439    537.262    531.439    531.968    531.439
 27.170    522.126    538.271    -16.144    531.153    537.706    531.153    531.716    531.153
 27.270    500.960    538.977    -38.017    530.868    538.375    530.868    531.469    530.868
 27.370    559.000    539.966     19.034    530.585    539.322    530.585    531.228    530.585
 27.470    552.561    541.391     11.170    530.302    540.698    530.302    530.993    530.302
 27.570    500.083    543.672    -43.589    530.020    542.924    530.020    530.765    530.020
 27.670    562.000    548.230     13.770    529.739    547.418    529.739    530.547    529.739
 27.770    599.001    559.774     39.227    529.459    558.887    529.459    530.338    529.459
 27.870    640.000    589.929     50.071    529.179    588.949    529.179    530.142    529.179
 27.970    703.000    656.283     46.717    528.901    655.185    528.901    529.961    528.901
 28.070    790.000    766.010     23.990    528.624    764.768    528.624    529.797    528.624
 28.170    902.000    887.929     14.071    528.348    886.526    528.348    529.656    528.348
 28.270    950.000    947.966      2.034    528.072    946.403    528.072    529.544    528.072
 28.370    864.554    897.428    -32.874    527.798    895.700    527.798    529.468    527.798
 28.470    814.171    788.258     25.913    527.525    786.317    527.525    529.443    527.525
 28.570    691.327    703.548    -12.221    527.253    701.304    527.253    529.487    527.253
 28.670    723.437    686.442     36.996    526.982    683.776    526.982    529.634    526.982
 28.770    705.000    732.347    -27.347    526.711    729.108    526.711    529.933    526.711
 28.870    759.000    801.315    -42.315    526.442    797.293    526.442    530.454    526.442
 28.970    880.518    833.796     46.722    526.174    828.682    526.174    531.293    526.174
 29.070    717.000    794.588    -77.588    525.907    787.950    525.907    532.559    525.907
 29.170    682.000    714.207    -32.207    525.642    705.502    525.642    534.359    525.642
 29.270    643.818    639.968      3.849    525.377    628.598    525.377    536.755    525.377
 29.370    602.000    593.327      8.673    525.113    578.757    525.113    539.686    525.113
 29.470    574.000    571.669      2.331    524.850    553.694    524.850    542.824    524.850
 29.570    600.653    563.683     36.971    524.589    542.855    524.589    545.415    524.589
 29.670    604.000    560.175     43.825    524.329    538.079    524.329    546.421    524.329
 29.770    560.749    556.721      4.028    524.069    535.532    524.069    545.255    524.069
 29.870    552.320    552.434     -0.114    523.811    533.885    523.811    542.357    523.811
 29.970    529.000    547.924    -18.924    523.554    532.733    523.554    538.742    523.554
 30.070    571.000    543.879     27.121    523.299    531.946    523.299    535.229    523.299
 30.170    522.000    540.669    -18.669    523.044    531.498    523.044    532.212    523.044
 30.270    557.000    538.500     18.500    522.791    531.498    522.791    529.790    522.791
 30.370    584.000    537.760     46.240    522.538    532.378    522.538    527.917    522.538
