neutron_powder_diffraction_0069
R_wp: 4.761
Temperature (K): 734.222
Counts: 83530.00
Wavelength (Ã…): 2.52098
COMMENTS
Test file for demonstrating the .xyy file format in Reel1.0
END OF HEADER
   tth       Y_obs     Y_calc      Y_res    Background    Phase_1_Nuc    Phase_1_Mag    Phase_2_Nuc    Phase_2_Mag
  9.970    685.000    616.861     68.139    615.932    616.790    616.003    615.932    615.932
 10.070    667.000    617.623     49.377    616.628    617.550    616.700    616.628    616.628
 10.170    573.756    618.392    -44.636    617.309    618.318    617.382    617.309    617.309
 10.270    689.000    619.268     69.732    617.977    619.194    618.051    617.977    617.977
 10.370    684.000    620.075     63.925    618.631    620.000    618.706    618.631    618.631
 10.470    683.000    620.835     62.165    619.271    620.760    619.347    619.271    619.271
 10.570    676.000    621.598     54.402    619.898    621.521    619.974    619.898    619.898
 10.670    649.503    622.371     27.131    620.511    622.294    620.588    620.511    620.511
 10.770    662.000    623.163     38.837    621.111    623.084    621.189    621.111    621.111
 10.870    591.547    623.982    -32.435    621.697    623.902    621.776    621.697    621.697
 10.970    662.000    624.840     37.160    622.270    624.759    622.350    622.270    622.270
 11.070    625.000    625.756     -0.756    622.831    625.674    622.911    622.831    622.831
 11.170    684.000    626.749     57.251    623.378    626.666    623.459    623.378    623.378
 11.270    678.000    627.859     50.141    623.912    627.774    623.995    623.912    623.912
 11.370    640.625    629.141     11.484    624.434    629.055    624.517    624.434    624.434
 11.470    649.000    630.698     18.302    624.942    630.611    625.027    624.942    624.942
 11.570    659.000    632.773     26.227    625.439    632.684    625.524    625.439    625.439
 11.670    713.000    636.040     76.960    625.923    635.948    626.009    625.923    625.923
 11.770    653.093    642.277     10.816    626.394    642.181    626.481    626.394    626.394
 11.870    719.000    655.124     63.876    626.853    655.020    626.942    626.853    626.853
 11.970    652.940    679.441    -26.501    627.300    679.324    627.390    627.300    627.300
 12.070    693.222    717.209    -23.988    627.735    717.070    627.826    627.735    627.735
 12.170    757.000    760.321     -3.321    628.158    760.158    628.250    628.158    628.158
 12.270    752.000    786.286    -34.286    628.569    786.108    628.662    628.569    628.569
 12.370    755.000    775.244    -20.244    628.968    775.071    629.062    628.968    628.968
 12.470    697.000    737.335    -40.335    629.356    737.182    629.451    629.356    629.356
 12.570    634.000    696.698    -62.698    629.732    696.565    629.828    629.732    629.732
 12.670    703.169    667.387     35.782    630.097    667.270    630.194    630.097    630.097
 12.770    626.000    650.913    -24.913    630.450    650.803    630.549    630.450    630.450
 12.870    650.774    643.075      7.699    630.792    642.969    630.892    630.792    630.792
 12.970    621.391    639.566    -18.176    631.122    639.461    631.224    631.122    631.122
 13.070    659.000    637.880     21.120    631.442    637.774    631.545    631.442    631.442
 13.170    623.000    636.948    -13.948    631.751    636.841    631.855    631.751    631.751
 13.270    636.000    636.379     -0.379    632.048    636.272    632.154    632.048    632.048
 13.370    654.645    636.024     18.620    632.335    635.916    632.442    632.335    632.335
 13.470    620.000    635.810    -15.810    632.611    635.700    632.719    632.611    632.611
 13.570    631.000    635.692     -4.692    632.877    635.581    632.986    632.877    632.877
 13.670    619.245    635.642    -16.397    633.132    635.530    633.243    633.132    633.132
 13.770    600.133    635.644    -35.510    633.376    635.530    633.489    633.376    633.376
 13.870    614.195    635.707    -21.512    633.611    635.591    633.725    633.611    633.611
 13.970    626.305    635.811     -9.506    633.835    635.693    633.952    633.835    633.835
 14.070    639.000    635.894      3.106    634.048    635.778    634.168    634.048    634.048
 14.170    675.577    636.005     39.572    634.252    635.883    634.373    634.252    634.252
 14.270    627.000    636.113     -9.113    634.446    635.990    634.569    634.446    634.446
 14.370    659.179    636.234     22.945    634.629    636.108    634.754    634.629    634.629
 14.470    608.083    636.403    -28.320    634.803    636.276    634.930    634.803    634.803
 14.570    680.993    636.516     44.478    634.968    636.387    635.096    634.968    634.968
 14.670    624.315    636.620    -12.305    635.122    636.489    635.252    635.122    635.122
 14.770    625.314    636.719    -11.405    635.267    636.587    635.399    635.267    635.267
 14.870    588.084    636.815    -48.732    635.403    636.681    635.537    635.403    635.403
 14.970    628.000    636.907     -8.907    635.529    636.771    635.665    635.529    635.529
 15.070    576.858    636.994    -60.137    635.646    636.856    635.784    635.646    635.646
 15.170    633.000    637.076     -4.076    635.754    636.936    635.894    635.754    635.754
 15.270    655.737    637.152     18.584    635.853    637.010    635.994    635.853    635.853
 15.370    616.000    637.222    -21.222    635.943    637.078    636.086    635.943    635.943
 15.470    619.000    637.286    -18.286    636.023    637.140    636.169    636.023    636.023
 15.570    692.375    637.343     55.031    636.095    637.195    636.243    636.095    636.095
 15.670    615.000    637.394    -22.394    636.158    637.244    636.309    636.158    636.158
 15.770    612.000    637.438    -25.438    636.213    637.285    636.365    636.213    636.213
 15.870    594.000    637.475    -43.475    636.259    637.320    636.414    636.259    636.259
 15.970    627.000    637.505    -10.505    636.296    637.347    636.453    636.296    636.296
 16.070    633.524    637.528     -4.004    636.325    637.368    636.485    636.325    636.325
 16.170    652.000    637.544     14.456    636.345    637.381    636.508    636.345    636.345
 16.270    622.301    637.552    -15.251    636.358    637.387    636.523    636.358    636.358
 16.370    588.800    637.554    -48.754    636.362    637.387    636.529    636.362    636.362
 16.470    691.450    637.549     53.901    636.358    637.379    636.528    636.358    636.358
 16.570    619.000    637.537    -18.537    636.346    637.364    636.519    636.346    636.346
 16.670    654.000    637.527     16.473    636.326    637.351    636.502    636.326    636.326
 16.770    595.000    637.532    -42.532    636.298    637.353    636.477    636.298    636.298
 16.870    681.036    637.544     43.492    636.263    637.362    636.445    636.263    636.263
 16.970    617.967    637.526    -19.559    636.219    637.341    636.405    636.219    636.219
 17.070    614.000    637.496    -23.496    636.169    637.308    636.357    636.169    636.169
 17.170    633.000    637.449     -4.449    636.110    637.257    636.302    636.110    636.110
 17.270    584.000    637.390    -53.390    636.044    637.194    636.239    636.044    636.044
 17.370    658.883    637.326     21.558    635.971    637.127    636.170    635.971    635.971
 17.470    626.007    637.255    -11.248    635.890    637.053    636.093    635.890    635.890
 17.570    620.919    637.175    -16.256    635.803    636.969    636.009    635.803    635.803
 17.670    663.425    637.089     26.336    635.708    636.879    635.918    635.708    635.708
 17.770    617.000    637.003    -20.003    635.606    636.788    635.820    635.606    635.606
 17.870    606.000    636.905    -30.905    635.497    636.686    635.715    635.497    635.497
 17.970    579.000    636.798    -57.798    635.381    636.576    635.603    635.381    635.381
 18.070    621.000    636.688    -15.688    635.258    636.461    635.485    635.258    635.258
 18.170    681.115    636.593     44.522    635.129    636.362    635.359    635.129    635.129
 18.270    588.205    636.532    -48.328    634.992    636.297    635.227    634.992    634.992
 18.370    642.000    636.422      5.578    634.849    636.182    635.089    634.849    634.849
 18.470    658.751    636.287     22.464    634.700    636.043    634.944    634.700    634.700
 18.570    627.000    636.145     -9.145    634.544    635.896    634.793    634.544    634.544
 18.670    592.718    635.997    -43.279    634.382    635.743    634.636    634.382    634.382
 18.770    615.000    635.847    -20.847    634.213    635.588    634.472    634.213    634.213
 18.870    597.326    635.730    -38.403    634.039    635.465    634.303    634.039    634.039
 18.970    636.000    635.577      0.423    633.858    635.307    634.127    633.858    633.858
 19.070    571.000    635.439    -64.439    633.670    635.164    633.946    633.670    633.670
 19.170    570.000    635.282    -65.282    633.477    635.001    633.758    633.477    633.477
 19.270    611.000    635.103    -24.103    633.278    634.816    633.565    633.278    633.278
 19.370    610.088    634.917    -24.829    633.073    634.624    633.366    633.073    633.073
 19.470    570.000    634.726    -64.726    632.862    634.427    633.162    632.862    632.862
 19.570    617.000    634.530    -17.530    632.646    634.224    632.952    632.646    632.646
 19.670    615.940    634.329    -18.388    632.424    634.016    632.736    632.424    632.424
 19.770    627.000    634.123     -7.123    632.196    633.804    632.515    632.196    632.196
 19.870    595.000    633.914    -38.914    631.962    633.587    632.289    631.962    631.962
 19.970    673.684    633.707     39.977    631.723    633.373    632.058    631.723    631.723
 20.070    616.262    633.492    -17.230    631.479    633.150    631.821    631.479    631.479
 20.170    582.000    633.271    -51.271    631.229    632.921    631.579    631.229    631.229
 20.270    574.000    633.045    -59.045    630.974    632.687    631.333    630.974    630.974
 20.370    632.000    632.815     -0.815    630.714    632.449    631.081    630.714    630.714
 20.470    583.000    632.579    -49.579    630.449    632.204    630.825    630.449    630.449
 20.570    614.000    632.340    -18.340    630.179    631.955    630.564    630.179    630.179
 20.670    613.000    632.100    -19.100    629.903    631.705    630.298    629.903    629.903
 20.770    632.675    631.855      0.819    629.623    631.451    630.027    629.623    629.623
 20.870    589.000    631.608    -42.608    629.338    631.194    629.753    629.338    629.338
 20.970    607.000    631.355    -24.355    629.048    630.929    629.473    629.048    629.048
 21.070    630.690    631.098     -0.408    628.753    630.661    629.190    628.753    628.753
 21.170    597.782    630.838    -33.056    628.454    630.390    628.902    628.454    628.454
 21.270    625.000    630.575     -5.575    628.150    630.115    628.610    628.150    628.150
 21.370    603.000    630.310    -27.310    627.842    629.837    628.314    627.842    627.842
 21.470    600.000    630.042    -30.042    627.528    629.557    628.014    627.528    627.528
 21.570    615.000    629.773    -14.773    627.211    629.274    627.710    627.211    627.211
 21.670    596.871    629.503    -32.632    626.889    628.990    627.403    626.889    626.889
 21.770    612.000    629.230    -17.230    626.563    628.702    627.091    626.563    626.563
 21.870    671.284    628.956     42.327    626.233    628.413    626.776    626.233    626.233
 21.970    623.000    628.682     -5.682    625.898    628.122    626.458    625.898    625.898
 22.070    618.000    628.407    -10.407    625.560    627.830    626.136    625.560    625.560
 22.170    629.000    628.132      0.868    625.217    627.538    625.811    625.217    625.217
 22.270    601.000    627.858    -26.858    624.870    627.245    625.483    624.870    624.870
 22.370    637.888    627.584     10.304    624.520    626.952    625.152    624.520    624.520
 22.470    602.712    627.312    -24.600    624.165    626.659    624.818    624.165    624.165
 22.570    565.000    627.043    -62.043    623.807    626.369    624.481    623.807    623.807
 22.670    590.000    626.777    -36.777    623.445    626.081    624.142    623.445    623.445
 22.770    631.000    626.518      4.482    623.079    625.798    623.800    623.079    623.079
 22.870    581.855    626.265    -44.411    622.710    625.520    623.455    622.710    622.710
 22.970    630.000    626.025      3.975    622.337    625.254    623.109    622.337    622.337
 23.070    573.197    625.790    -52.593    621.960    624.991    622.760    621.960    621.960
 23.170    639.026    625.565     13.461    621.580    624.736    622.409    621.580    621.580
 23.270    614.065    625.355    -11.290    621.197    624.496    622.057    621.197    621.197
 23.370    659.684    625.166     34.518    620.810    624.273    621.703    620.810    620.810
 23.470    627.000    625.001      1.999    620.420    624.075    621.348    620.420    620.420
 23.570    598.000    624.872    -26.872    620.027    623.908    620.992    620.027    620.027
 23.670    613.000    624.783    -11.783    619.631    623.781    620.634    619.631    619.631
 23.770    671.000    624.752     46.248    619.231    623.708    620.276    619.231    619.231
 23.870    683.000    624.799     58.201    618.829    623.711    619.917    618.829    618.829
 23.970    658.000    624.955     33.045    618.423    623.821    619.559    618.423    618.423
 24.070    626.885    625.274      1.611    618.014    624.091    619.200    618.014    618.014
 24.170    625.000    625.874     -0.874    617.603    624.637    618.842    617.603    617.603
 24.270    656.598    627.056     29.542    617.189    625.763    618.485    617.189    617.189
 24.370    642.000    629.614     12.386    616.771    628.262    618.129    616.771    616.771
 24.470    649.307    635.293     14.013    616.352    633.880    617.775    616.352    616.352
 24.570    672.000    646.869     25.131    615.929    645.393    617.423    615.929    615.929
 24.670    678.000    666.728     11.272    615.504    665.191    617.074    615.504    615.504
 24.770    726.000    693.352     32.648    615.076    691.752    616.729    615.076    615.076
 24.870    749.141    717.410     31.731    614.646    715.740    616.388    614.646    614.646
 24.970    722.000    723.923     -1.923    614.213    722.161    616.052    614.213    614.213
 25.070    696.000    707.132    -11.132    613.778    705.253    615.721    613.778    613.778
 25.170    676.935    679.384     -2.449    613.340    677.370    615.398    613.340    613.340
 25.270    616.989    654.703    -37.714    612.900    652.546    615.083    612.900    612.900
 25.370    629.000    638.458     -9.458    612.458    636.153    614.778    612.458    612.458
 25.470    666.000    629.712     36.288    612.014    627.249    614.484    612.014    612.014
 25.570    613.000    625.499    -12.499    611.567    622.868    614.203    611.567    611.567
 25.670    666.000    623.439     42.561    611.118    620.624    613.937    611.118    611.118
 25.770    601.577    622.299    -20.723    610.668    619.280    613.689    610.668    610.668
 25.870    607.920    621.589    -13.669    610.215    618.343    613.463    610.215    610.215
 25.970    679.348    621.135     58.214    609.760    617.635    613.261    609.760    609.760
 26.070    668.000    620.870     47.130    609.303    617.086    613.088    609.303    609.303
 26.170    677.348    620.766     56.582    608.845    616.662    612.950    608.845    608.845
 26.270    725.000    620.812    104.188    608.384    616.343    612.853    608.384    608.384
 26.370    681.000    621.006     59.994    607.922    616.122    612.806    607.922    607.922
 26.470    659.000    621.357     37.643    607.458    615.996    612.818    607.458    607.458
 26.570    567.393    621.882    -54.489    606.992    615.971    612.903    606.992    606.992
 26.670    697.000    622.608     74.392    606.525    616.055    613.077    606.525    606.525
 26.770    591.417    623.571    -32.154    606.056    616.264    613.362    606.056    606.056
 26.870    677.000    624.823     52.177    605.585    616.623    613.785    605.585    605.585
 26.970    698.000    626.434     71.566    605.113    617.163    614.383    605.113    605.113
 27.070    725.000    628.499     96.501    604.640    617.931    615.206    604.640    604.640
 27.170    624.814    631.153     -6.339    604.165    618.991    616.325    604.165    604.165
 27.270    741.000    634.589    106.411    603.689    620.436    617.839    603.689    603.689
 27.370    715.000    639.108     75.892    603.211    622.413    619.903    603.211    603.211
 27.470    747.000    645.241    101.759    602.732    625.176    622.792    602.732    602.732
 27.570    770.000    654.086    115.914    602.252    629.256    627.076    602.252    602.252
 27.670    768.000    668.071     99.929    601.771    635.818    634.016    601.771    601.771
 27.770    836.000    692.231    143.769    601.288    647.277    646.228    601.288    601.288
 27.870    783.000    735.331     47.669    600.804    667.841    668.273    600.804    600.804
 27.970    813.000    808.868      4.132    600.320    703.024    706.127    600.320    600.320
 28.070   1005.000    921.545     83.455    599.834    757.014    764.308    599.834    599.834
 28.170    999.245   1068.420    -69.175    599.347    827.480    840.209    599.347    599.347
 28.270   1161.146   1215.879    -54.733    598.859    898.396    916.251    598.859    598.859
 28.370   1353.385   1296.966     56.419    598.371    937.847    957.408    598.371    598.371
 28.470   1299.348   1265.407     33.941    597.881    923.951    939.288    597.881    597.881
 28.570   1183.000   1161.344     21.656    597.391    876.365    882.349    597.391    597.391
 28.670   1014.000   1060.407    -46.407    596.900    831.838    825.461    596.900    596.900
 28.770    986.000   1008.796    -22.796    596.408    812.840    792.358    596.408    596.408
 28.870   1001.488   1013.411    -11.922    595.916    822.327    786.991    595.916    595.916
 28.970   1108.000   1048.037     59.963    595.422    845.991    797.461    595.422    595.422
 29.070   1144.000   1063.140     80.860    594.929    856.743    801.328    594.929    594.929
 29.170   1132.000   1021.822    110.178    594.434    834.495    781.778    594.434    594.434
 29.270    942.442    936.577      5.865    593.939    786.833    743.708    593.939    593.939
 29.370    901.000    843.227     57.773    593.444    734.315    702.378    593.444    593.444
 29.470    905.000    765.417    139.583    592.948    690.467    667.915    592.948    592.948
 29.570    774.000    710.149     63.851    592.451    659.314    643.297    592.451    592.451
 29.670    795.000    674.819    120.181    591.955    639.413    627.367    591.955    591.955
 29.770    640.809    653.465    -12.656    591.458    627.406    617.520    591.458    591.458
 29.870    756.000    640.529    115.471    590.960    620.158    611.331    590.960    590.960
 29.970    633.971    632.265      1.706    590.462    615.563    607.163    590.462    590.462
 30.070    729.000    626.626    102.374    589.964    612.479    604.109    589.964    589.964
 30.170    613.208    622.650     -9.442    589.466    610.390    601.724    589.466    589.466
 30.270    695.000    619.979     75.021    588.968    609.142    599.801    588.968    588.968
 30.370    728.000    618.640    109.360    588.469    608.852    598.253    588.469    588.469
