neutron_powder_diffraction_0163
R_wp: 3.815
Temperature (K): 1074.000
Counts: 83763.00
Wavelength (Ã…): 2.52098
COMMENTS
Test file for demonstrating the .xyy file format in Reel1.0
END OF HEADER
   tth       Y_obs     Y_calc      Y_res    Background    Phase_1_Nuc    Phase_1_Mag    Phase_2_Nuc    Phase_2_Mag
  9.970    615.489    578.320     37.169    577.591    578.270    577.591    577.641    577.591
 10.070    612.000    578.309     33.691    577.521    578.259    577.521    577.571    577.521
 10.170    586.478    578.302      8.176    577.447    578.252    577.447    577.497    577.447
 10.270    543.013    578.302    -35.289    577.370    578.252    577.370    577.420    577.370
 10.370    563.065    578.311    -15.246    577.288    578.260    577.288    577.339    577.288
 10.470    605.000    578.332     26.668    577.203    578.280    577.203    577.254    577.203
 10.570    586.970    578.368      8.603    577.114    578.316    577.114    577.165    577.114
 10.670    578.550    578.424      0.126    577.021    578.372    577.021    577.073    577.021
 10.770    606.000    578.508     27.492    576.925    578.455    576.925    576.977    576.925
 10.870    552.189    578.628    -26.439    576.826    578.575    576.826    576.877    576.826
 10.970    609.435    578.797     30.638    576.722    578.744    576.722    576.774    576.722
 11.070    615.000    579.035     35.965    576.616    578.982    576.616    576.668    576.616
 11.170    571.753    579.366     -7.613    576.505    579.312    576.505    576.558    576.505
 11.270    588.000    579.831      8.169    576.392    579.776    576.392    576.444    576.392
 11.370    609.000    580.501     28.499    576.275    580.446    576.275    576.328    576.275
 11.470    619.000    581.534     37.466    576.155    581.478    576.155    576.208    576.155
 11.570    672.000    583.362     88.638    576.031    583.305    576.031    576.084    576.031
 11.670    596.000    587.181      8.819    575.904    587.121    575.904    575.958    575.904
 11.770    610.000    595.685     14.315    575.774    595.621    575.774    575.828    575.774
 11.870    644.000    613.093     30.907    575.641    613.018    575.641    575.695    575.641
 11.970    656.000    642.521     13.479    575.504    642.429    575.504    575.559    575.504
 12.070    713.170    680.052     33.118    575.365    679.939    575.365    575.419    575.365
 12.170    662.000    709.389    -47.389    575.222    709.259    575.222    575.277    575.222
 12.270    689.000    710.202    -21.202    575.076    710.072    575.076    575.131    575.076
 12.370    633.588    681.637    -48.048    574.928    681.522    574.928    574.983    574.928
 12.470    685.652    643.662     41.991    574.776    643.568    574.776    574.832    574.776
 12.570    636.870    613.293     23.578    574.621    613.215    574.621    574.678    574.621
 12.670    600.000    595.011      4.989    574.464    594.942    574.464    574.521    574.464
 12.770    621.604    585.877     35.726    574.304    585.813    574.304    574.361    574.304
 12.870    552.000    581.620    -29.620    574.140    581.558    574.140    574.199    574.140
 12.970    534.195    579.447    -45.251    573.974    579.385    573.974    574.033    573.974
 13.070    552.000    578.102    -26.102    573.806    578.041    573.806    573.864    573.806
 13.170    587.000    577.132      9.868    573.634    577.072    573.634    573.693    573.634
 13.270    586.608    576.374     10.234    573.460    576.313    573.460    573.519    573.460
 13.370    563.000    575.754    -12.754    573.283    575.693    573.283    573.343    573.283
 13.470    601.000    575.230     25.770    573.104    575.169    573.104    573.164    573.104
 13.570    617.980    574.775     43.205    572.922    574.714    572.922    572.982    572.922
 13.670    542.094    574.371    -32.277    572.737    574.309    572.737    572.798    572.737
 13.770    552.000    574.004    -22.004    572.550    573.943    572.550    572.611    572.550
 13.870    552.031    573.667    -21.636    572.361    573.605    572.361    572.422    572.361
 13.970    611.429    573.352     38.078    572.169    573.290    572.169    572.230    572.169
 14.070    605.375    573.053     32.321    571.974    572.991    571.974    572.036    571.974
 14.170    540.827    572.768    -31.941    571.777    572.706    571.777    571.839    571.777
 14.270    560.000    572.497    -12.497    571.578    572.434    571.578    571.641    571.578
 14.370    575.668    572.233      3.435    571.377    572.170    571.377    571.439    571.377
 14.470    614.162    571.975     42.188    571.173    571.911    571.173    571.236    571.173
 14.570    553.000    571.720    -18.720    570.967    571.656    570.967    571.030    570.967
 14.670    547.909    571.468    -23.559    570.759    571.404    570.759    570.822    570.759
 14.770    579.927    571.220      8.707    570.548    571.156    570.548    570.612    570.548
 14.870    580.000    570.974      9.026    570.336    570.909    570.336    570.400    570.336
 14.970    599.095    570.730     28.366    570.121    570.665    570.121    570.186    570.121
 15.070    569.000    570.486     -1.486    569.904    570.421    569.904    569.969    569.904
 15.170    608.931    570.244     38.687    569.685    570.178    569.685    569.751    569.685
 15.270    518.000    570.002    -52.002    569.464    569.936    569.464    569.530    569.464
 15.370    540.000    569.761    -29.761    569.241    569.694    569.241    569.307    569.241
 15.470    605.000    569.519     35.481    569.016    569.452    569.016    569.083    569.016
 15.570    577.000    569.277      7.723    568.789    569.210    568.789    568.857    568.789
 15.670    577.000    569.039      7.961    568.561    568.967    568.561    568.632    568.561
 15.770    512.000    568.797    -56.797    568.330    568.724    568.330    568.403    568.330
 15.870    554.000    568.554    -14.554    568.098    568.480    568.098    568.171    568.098
 15.970    543.172    568.310    -25.138    567.863    568.236    567.863    567.937    567.863
 16.070    575.635    568.065      7.569    567.627    567.990    567.627    567.702    567.627
 16.170    592.000    567.820     24.180    567.389    567.744    567.389    567.464    567.389
 16.270    544.000    567.573    -23.573    567.150    567.498    567.150    567.225    567.150
 16.370    575.000    567.326      7.674    566.908    567.250    566.908    566.984    566.908
 16.470    543.994    567.077    -23.083    566.665    567.001    566.665    566.742    566.665
 16.570    531.000    566.828    -35.828    566.421    566.751    566.421    566.498    566.421
 16.670    550.008    566.577    -16.570    566.174    566.500    566.174    566.252    566.174
 16.770    566.000    566.326     -0.326    565.927    566.248    565.927    566.005    565.927
 16.870    580.000    566.076     13.924    565.677    565.997    565.677    565.756    565.677
 16.970    560.000    565.823     -5.823    565.426    565.744    565.426    565.505    565.426
 17.070    581.000    565.568     15.432    565.174    565.488    565.174    565.253    565.174
 17.170    554.000    565.312    -11.312    564.920    565.232    564.920    565.000    564.920
 17.270    539.000    565.055    -26.055    564.665    564.975    564.665    564.745    564.665
 17.370    565.000    564.798      0.202    564.408    564.717    564.408    564.489    564.408
 17.470    539.000    564.539    -25.539    564.150    564.457    564.150    564.231    564.150
 17.570    527.000    564.279    -37.279    563.890    564.197    563.890    563.972    563.890
 17.670    571.000    564.018      6.982    563.629    563.936    563.629    563.712    563.629
 17.770    575.000    563.757     11.243    563.367    563.673    563.367    563.450    563.367
 17.870    556.000    563.495     -7.495    563.104    563.411    563.104    563.187    563.104
 17.970    570.000    563.231      6.769    562.839    563.147    562.839    562.923    562.839
 18.070    597.000    562.967     34.033    562.573    562.882    562.573    562.658    562.573
 18.170    563.682    562.701      0.980    562.306    562.616    562.306    562.391    562.306
 18.270    573.000    562.436     10.564    562.038    562.350    562.038    562.124    562.038
 18.370    569.343    562.170      7.174    561.768    562.083    561.768    561.855    561.768
 18.470    593.413    561.902     31.512    561.498    561.814    561.498    561.585    561.498
 18.570    543.022    561.633    -18.611    561.226    561.545    561.226    561.314    561.226
 18.670    532.000    561.363    -29.363    560.953    561.274    560.953    561.042    560.953
 18.770    554.000    561.093     -7.093    560.679    561.003    560.679    560.769    560.679
 18.870    561.336    560.821      0.515    560.405    560.732    560.405    560.495    560.405
 18.970    580.578    560.550     20.029    560.129    560.459    560.129    560.219    560.129
 19.070    584.584    560.277     24.307    559.852    560.186    559.852    559.943    559.852
 19.170    578.158    560.004     18.154    559.574    559.912    559.574    559.666    559.574
 19.270    535.000    559.732    -24.732    559.296    559.639    559.296    559.388    559.296
 19.370    582.352    559.471     22.881    559.016    559.378    559.016    559.110    559.016
 19.470    564.000    559.207      4.793    558.736    559.112    558.736    558.830    558.736
 19.570    540.000    558.932    -18.932    558.454    558.837    558.454    558.549    558.454
 19.670    542.662    558.657    -15.995    558.172    558.561    558.172    558.268    558.172
 19.770    521.000    558.381    -37.381    557.889    558.284    557.889    557.986    557.889
 19.870    573.000    558.104     14.896    557.606    558.007    557.606    557.703    557.606
 19.970    621.000    557.828     63.172    557.321    557.729    557.321    557.420    557.321
 20.070    532.000    557.551    -25.551    557.036    557.451    557.036    557.135    557.036
 20.170    585.000    557.274     27.726    556.750    557.173    556.750    556.850    556.750
 20.270    517.870    556.996    -39.126    556.464    556.895    556.464    556.565    556.464
 20.370    596.421    556.721     39.700    556.177    556.617    556.177    556.280    556.177
 20.470    539.523    556.444    -16.921    555.889    556.338    555.889    555.994    555.889
 20.570    558.000    556.166      1.834    555.600    556.060    555.600    555.707    555.600
 20.670    520.000    555.889    -35.889    555.311    555.781    555.311    555.419    555.311
 20.770    578.000    555.611     22.389    555.022    555.503    555.022    555.130    555.022
 20.870    586.000    555.343     30.657    554.731    555.233    554.731    554.841    554.731
 20.970    578.210    555.151     23.059    554.441    555.040    554.441    554.552    554.441
 21.070    580.355    554.897     25.458    554.149    554.785    554.149    554.262    554.149
 21.170    545.817    554.623     -8.805    553.858    554.509    553.858    553.971    553.858
 21.270    520.724    554.348    -33.623    553.566    554.233    553.566    553.680    553.566
 21.370    587.000    554.073     32.927    553.273    553.958    553.273    553.389    553.273
 21.470    533.828    553.800    -19.971    552.980    553.683    552.980    553.097    552.980
 21.570    553.000    553.527     -0.527    552.687    553.409    552.687    552.805    552.687
 21.670    557.000    553.256      3.744    552.393    553.136    552.393    552.513    552.393
 21.770    544.000    552.988     -8.988    552.099    552.867    552.099    552.220    552.099
 21.870    530.866    552.726    -21.860    551.804    552.603    551.804    551.927    551.804
 21.970    547.000    552.481     -5.481    551.510    552.357    551.510    551.634    551.510
 22.070    545.000    552.244     -7.244    551.215    552.119    551.215    551.340    551.215
 22.170    570.000    551.991     18.009    550.919    551.864    550.919    551.046    550.919
 22.270    534.000    551.781    -17.781    550.624    551.653    550.624    550.752    550.624
 22.370    518.000    551.545    -33.545    550.328    551.415    550.328    550.458    550.328
 22.470    590.237    551.296     38.941    550.032    551.165    550.032    550.164    550.032
 22.570    533.745    551.051    -17.306    549.736    550.917    549.736    549.869    549.736
 22.670    581.000    550.811     30.189    549.439    550.676    549.439    549.575    549.439
 22.770    520.000    550.578    -30.578    549.143    550.441    549.143    549.280    549.143
 22.870    569.000    550.353     18.647    548.846    550.214    548.846    548.986    548.846
 22.970    578.000    550.138     27.862    548.549    549.997    548.549    548.691    548.549
 23.070    593.000    549.936     43.064    548.253    549.792    548.253    548.396    548.253
 23.170    572.000    549.748     22.252    547.956    549.602    547.956    548.102    547.956
 23.270    544.806    549.579     -4.773    547.659    549.431    547.659    547.807    547.659
 23.370    531.102    549.434    -18.332    547.362    549.284    547.362    547.512    547.362
 23.470    519.274    549.319    -30.046    547.065    549.167    547.065    547.218    547.065
 23.570    547.000    549.245     -2.245    546.768    549.090    546.768    546.923    546.768
 23.670    573.901    549.225     24.675    546.470    549.068    546.470    546.629    546.470
 23.770    507.682    549.280    -41.598    546.174    549.120    546.174    546.335    546.174
 23.870    559.000    549.442      9.558    545.877    549.280    545.877    546.041    545.877
 23.970    535.000    549.770    -14.770    545.580    549.604    545.580    545.747    545.580
 24.070    532.490    550.406    -17.916    545.283    550.238    545.283    545.454    545.283
 24.170    564.000    551.746     12.254    544.986    551.576    544.986    545.161    544.986
 24.270    517.059    554.796    -37.736    544.690    554.624    544.690    544.868    544.690
 24.370    568.000    561.555      6.445    544.393    561.384    544.393    544.575    544.393
 24.470    560.000    574.648    -14.648    544.097    574.483    544.097    544.283    544.097
 24.570    616.071    595.204     20.866    543.801    595.050    543.801    543.991    543.801
 24.670    620.000    619.128      0.872    543.505    618.987    543.505    543.700    543.505
 24.770    609.102    634.859    -25.757    543.210    634.725    543.210    543.409    543.210
 24.870    578.000    631.039    -53.039    542.914    630.897    542.914    543.118    542.914
 24.970    642.000    610.729     31.271    542.619    610.567    542.619    542.829    542.619
 25.070    571.735    586.697    -14.961    542.324    586.513    542.324    542.539    542.324
 25.170    536.000    568.028    -32.028    542.030    567.824    542.030    542.251    542.030
 25.270    581.000    556.729     24.271    541.735    556.511    541.735    541.963    541.735
 25.370    510.000    550.907    -40.907    541.441    550.678    541.441    541.675    541.441
 25.470    559.000    548.051     10.949    541.148    547.813    541.148    541.389    541.148
 25.570    570.000    546.511     23.489    540.854    546.264    540.854    541.103    540.854
 25.670    546.000    545.524      0.476    540.561    545.269    540.561    540.818    540.561
 25.770    548.830    544.799      4.031    540.269    544.535    540.269    540.534    540.269
 25.870    542.938    544.225     -1.287    539.976    543.951    539.976    540.252    539.976
 25.970    542.000    543.767     -1.767    539.685    543.482    539.685    539.970    539.685
 26.070    562.000    543.427     18.573    539.393    543.131    539.393    539.690    539.393
 26.170    536.000    543.139     -7.139    539.102    542.831    539.102    539.410    539.102
 26.270    562.000    542.877     19.123    538.812    542.557    538.812    539.133    538.812
 26.370    534.000    542.666     -8.666    538.522    542.331    538.522    538.857    538.522
 26.470    495.000    542.504    -47.504    538.232    542.154    538.232    538.583    538.232
 26.570    523.060    542.396    -19.336    537.943    542.029    537.943    538.310    537.943
 26.670    523.000    542.345    -19.345    537.654    541.960    537.654    538.040    537.654
 26.770    534.000    542.371     -8.371    537.366    541.965    537.366    537.772    537.366
 26.870    564.000    542.487     21.513    537.079    542.059    537.079    537.507    537.079
 26.970    573.196    542.676     30.520    536.792    542.223    536.792    537.244    536.792
 27.070    552.000    542.983      9.017    536.505    542.502    536.505    536.985    536.505
 27.170    524.660    543.446    -18.786    536.220    542.934    536.220    536.730    536.220
 27.270    544.000    544.120     -0.120    535.934    543.575    535.934    536.479    535.934
 27.370    539.993    545.091     -5.098    535.650    544.507    535.650    536.233    535.650
 27.470    512.146    546.514    -34.368    535.366    545.885    535.366    535.993    535.366
 27.570    576.000    548.798     27.202    535.082    548.119    535.082    535.759    535.082
 27.670    526.136    553.365    -27.228    534.800    552.627    534.800    535.534    534.800
 27.770    520.368    564.983    -44.614    534.517    564.176    534.517    535.317    534.517
 27.870    593.000    595.446     -2.446    534.236    594.552    534.236    535.112    534.236
 27.970    652.000    662.699    -10.699    533.955    661.696    533.955    534.920    533.955
 28.070    853.000    774.170     78.830    533.675    773.031    533.675    534.745    533.675
 28.170    843.000    898.146    -55.146    533.396    896.857    533.396    534.591    533.396
 28.270    982.000    959.199     22.801    533.117    957.762    533.117    534.462    533.117
 28.370    868.000    907.788    -39.788    532.839    906.203    532.839    534.367    532.839
 28.470    793.000    796.779     -3.779    532.562    795.001    532.562    534.317    532.562
 28.570    729.860    710.690     19.170    532.286    708.635    532.286    534.331    532.286
 28.670    669.000    693.216    -24.216    532.010    690.775    532.010    534.438    532.010
 28.770    723.000    739.433    -16.433    531.735    736.462    531.735    534.690    531.735
 28.870    800.000    808.861     -8.861    531.461    805.142    531.461    535.170    531.461
 28.970    825.191    841.556    -16.365    531.188    836.749    531.188    536.000    531.188
 29.070    856.445    802.180     54.266    530.916    795.767    530.916    537.343    530.916
 29.170    717.339    721.452     -4.114    530.644    712.740    530.644    539.370    530.644
 29.270    629.000    646.996    -17.996    530.373    635.165    530.373    542.213    530.373
 29.370    549.000    600.488    -51.488    530.103    584.742    530.103    545.852    530.103
 29.470    571.829    579.370     -7.541    529.834    559.288    529.834    549.916    529.834
 29.570    554.000    572.088    -18.088    529.566    548.235    529.566    553.417    529.566
 29.670    575.000    568.924      6.076    529.299    543.356    529.299    554.865    529.299
 29.770    548.668    565.091    -16.423    529.032    540.757    529.032    553.364    529.032
 29.870    564.000    559.907      4.093    528.767    539.080    528.767    549.591    528.767
 29.970    533.619    554.430    -20.811    528.502    537.909    528.502    545.020    528.502
 30.070    535.976    549.618    -13.641    528.239    537.113    528.239    540.741    528.239
 30.170    595.000    545.909     49.091    527.976    536.664    527.976    537.218    527.976
 30.270    522.000    543.485    -21.485    527.714    536.678    527.714    534.519    527.714
 30.370    540.000    542.685     -2.685    527.453    537.602    527.453    532.532    527.453
