neutron_powder_diffraction_0158
R_wp: 3.969
Temperature (K): 1074.000
Counts: 83684.00
Wavelength (Ã…): 2.52098
COMMENTS
Test file for demonstrating the .xyy file format in Reel1.0
END OF HEADER
   tth       Y_obs     Y_calc      Y_res    Background    Phase_1_Nuc    Phase_1_Mag    Phase_2_Nuc    Phase_2_Mag
  9.970    605.000    571.082     33.918    570.389    571.030    570.389    570.440    570.389
 10.070    530.689    571.176    -40.487    570.427    571.124    570.427    570.478    570.427
 10.170    594.000    571.272     22.728    570.460    571.220    570.460    570.512    570.460
 10.270    534.791    571.373    -36.582    570.488    571.321    570.488    570.540    570.488
 10.370    607.000    571.481     35.519    570.511    571.428    570.511    570.562    570.511
 10.470    572.000    571.598      0.402    570.528    571.545    570.528    570.580    570.528
 10.570    562.000    571.728     -9.728    570.540    571.675    570.540    570.593    570.540
 10.670    623.000    571.875     51.125    570.547    571.822    570.547    570.600    570.547
 10.770    528.997    572.047    -43.050    570.550    571.993    570.550    570.602    570.550
 10.870    599.000    572.251     26.749    570.547    572.197    570.547    570.600    570.547
 10.970    570.000    572.500     -2.500    570.539    572.446    570.539    570.592    570.539
 11.070    585.000    572.811     12.189    570.526    572.756    570.526    570.580    570.526
 11.170    605.000    573.208     31.792    570.509    573.153    570.509    570.562    570.509
 11.270    612.000    573.731     38.269    570.486    573.676    570.486    570.540    570.486
 11.370    582.771    574.448      8.322    570.459    574.392    570.459    570.513    570.459
 11.470    562.185    575.502    -13.317    570.427    575.443    570.427    570.483    570.427
 11.570    597.000    577.296     19.704    570.391    577.236    570.391    570.447    570.391
 11.670    596.000    580.982     15.018    570.350    580.920    570.350    570.406    570.350
 11.770    589.535    589.243      0.293    570.304    589.176    570.304    570.361    570.304
 11.870    573.059    606.411    -33.352    570.254    606.335    570.254    570.311    570.254
 11.970    669.000    635.863     33.137    570.199    635.770    570.199    570.256    570.199
 12.070    674.000    673.811      0.189    570.140    673.696    570.140    570.198    570.140
 12.170    678.000    703.664    -25.664    570.077    703.533    570.077    570.134    570.077
 12.270    666.000    704.573    -38.573    570.009    704.441    570.009    570.067    570.009
 12.370    665.000    675.657    -10.657    569.937    675.541    569.937    569.995    569.937
 12.470    627.000    637.402    -10.402    569.861    637.307    569.861    569.919    569.861
 12.570    568.210    607.144    -38.934    569.780    607.065    569.780    569.839    569.780
 12.670    542.000    589.250    -47.250    569.696    589.180    569.696    569.755    569.696
 12.770    522.000    580.521    -58.521    569.607    580.456    569.607    569.667    569.607
 12.870    570.000    576.559     -6.559    569.515    576.496    569.515    569.574    569.515
 12.970    613.054    574.580     38.474    569.418    574.517    569.418    569.478    569.418
 13.070    606.598    573.375     33.223    569.317    573.312    569.317    569.378    569.317
 13.170    576.917    572.518      4.399    569.213    572.456    569.213    569.273    569.213
 13.270    567.000    571.859     -4.859    569.104    571.796    569.104    569.165    569.104
 13.370    584.000    571.328     12.672    568.992    571.266    568.992    569.053    568.992
 13.470    591.000    570.887     20.113    568.876    570.825    568.876    568.938    568.876
 13.570    529.908    570.510    -40.603    568.757    570.448    568.757    568.818    568.757
 13.670    535.000    570.180    -35.180    568.633    570.117    568.633    568.695    568.633
 13.770    563.000    569.884     -6.884    568.506    569.821    568.506    568.568    568.506
 13.870    545.060    569.615    -24.554    568.375    569.551    568.375    568.438    568.375
 13.970    561.510    569.364     -7.854    568.241    569.301    568.241    568.304    568.241
 14.070    590.000    569.129     20.871    568.104    569.065    568.104    568.167    568.104
 14.170    617.000    568.905     48.095    567.962    568.841    567.962    568.026    567.962
 14.270    560.217    568.689     -8.472    567.818    568.625    567.818    567.882    567.818
 14.370    583.000    568.480     14.520    567.670    568.415    567.670    567.734    567.670
 14.470    590.973    568.275     22.698    567.518    568.211    567.518    567.583    567.518
 14.570    598.465    568.078     30.388    567.364    568.012    567.364    567.429    567.364
 14.670    548.000    567.885    -19.885    567.206    567.815    567.206    567.275    567.206
 14.770    531.798    567.690    -35.891    567.045    567.618    567.045    567.116    567.045
 14.870    517.000    567.494    -50.494    566.880    567.422    566.880    566.952    566.880
 14.970    552.426    567.299    -14.873    566.713    567.227    566.713    566.785    566.713
 15.070    587.724    567.104     20.620    566.542    567.031    566.542    566.615    566.542
 15.170    560.000    566.908     -6.908    566.369    566.835    566.369    566.441    566.369
 15.270    560.000    566.712     -6.712    566.192    566.639    566.192    566.265    566.192
 15.370    560.000    566.515     -6.515    566.013    566.441    566.013    566.086    566.013
 15.470    601.277    566.317     34.961    565.830    566.242    565.830    565.904    565.830
 15.570    551.465    566.117    -14.652    565.645    566.043    565.645    565.719    565.645
 15.670    555.000    565.916    -10.916    565.456    565.841    565.456    565.531    565.456
 15.770    519.897    565.714    -45.817    565.265    565.639    565.265    565.340    565.265
 15.870    548.000    565.511    -17.511    565.071    565.435    565.071    565.147    565.071
 15.970    571.000    565.307      5.693    564.875    565.231    564.875    564.951    564.875
 16.070    570.000    565.100      4.900    564.675    565.023    564.675    564.752    564.675
 16.170    594.000    564.890     29.110    564.473    564.813    564.473    564.550    564.473
 16.270    539.000    564.679    -25.679    564.269    564.602    564.269    564.346    564.269
 16.370    562.000    564.466     -2.466    564.062    564.388    564.062    564.139    564.062
 16.470    563.000    564.252     -1.252    563.852    564.173    563.852    563.930    563.852
 16.570    559.000    564.035     -5.035    563.640    563.956    563.640    563.718    563.640
 16.670    507.000    563.817    -56.817    563.425    563.737    563.425    563.504    563.425
 16.770    570.143    563.596      6.547    563.208    563.516    563.208    563.287    563.208
 16.870    538.578    563.374    -24.796    562.988    563.293    562.988    563.068    562.988
 16.970    552.027    563.149    -11.123    562.766    563.068    562.766    562.847    562.766
 17.070    604.000    562.923     41.077    562.542    562.842    562.542    562.623    562.542
 17.170    556.676    562.695     -6.019    562.315    562.613    562.315    562.397    562.315
 17.270    584.000    562.465     21.535    562.087    562.383    562.087    562.169    562.087
 17.370    595.010    562.236     32.774    561.856    562.153    561.856    561.939    561.856
 17.470    595.529    562.002     33.527    561.622    561.919    561.622    561.706    561.622
 17.570    583.099    561.767     21.332    561.387    561.683    561.387    561.471    561.387
 17.670    553.000    561.530     -8.530    561.150    561.445    561.150    561.234    561.150
 17.770    539.000    561.291    -22.291    560.910    561.206    560.910    560.995    560.910
 17.870    559.000    561.050     -2.050    560.669    560.964    560.669    560.754    560.669
 17.970    536.000    560.808    -24.808    560.425    560.721    560.425    560.511    560.425
 18.070    516.542    560.564    -44.021    560.180    560.477    560.180    560.266    560.180
 18.170    551.728    560.318     -8.590    559.932    560.231    559.932    560.020    559.932
 18.270    557.000    560.071     -3.071    559.683    559.983    559.683    559.771    559.683
 18.370    602.007    559.822     42.184    559.432    559.734    559.432    559.520    559.432
 18.470    597.000    559.572     37.428    559.178    559.483    559.178    559.268    559.178
 18.570    586.348    559.320     27.028    558.924    559.230    558.924    559.014    558.924
 18.670    527.000    559.067    -32.067    558.667    558.976    558.667    558.758    558.667
 18.770    545.551    558.812    -13.261    558.409    558.720    558.409    558.500    558.409
 18.870    577.000    558.555     18.445    558.149    558.463    558.149    558.241    558.149
 18.970    536.000    558.298    -22.298    557.887    558.205    557.887    557.980    557.887
 19.070    544.000    558.038    -14.038    557.624    557.945    557.624    557.717    557.624
 19.170    568.382    557.778     10.604    557.359    557.684    557.359    557.453    557.359
 19.270    564.000    557.517      6.483    557.092    557.422    557.092    557.187    557.092
 19.370    544.000    557.256    -13.256    556.824    557.160    556.824    556.920    556.824
 19.470    547.741    556.992     -9.250    556.554    556.895    556.554    556.651    556.554
 19.570    593.842    556.727     37.116    556.283    556.629    556.283    556.381    556.283
 19.670    572.000    556.462     15.538    556.011    556.362    556.011    556.111    556.011
 19.770    561.000    556.196      4.804    555.737    556.094    555.737    555.839    555.737
 19.870    569.000    555.929     13.071    555.462    555.826    555.462    555.565    555.462
 19.970    508.000    555.673    -47.673    555.185    555.569    555.185    555.289    555.185
 20.070    554.475    555.413     -0.938    554.907    555.309    554.907    555.012    554.907
 20.170    538.005    555.143    -17.138    554.628    555.038    554.628    554.734    554.628
 20.270    592.243    554.872     37.371    554.348    554.765    554.348    554.454    554.348
 20.370    571.000    554.599     16.401    554.066    554.492    554.066    554.173    554.066
 20.470    516.000    554.326    -38.326    553.783    554.218    553.783    553.891    553.783
 20.570    545.000    554.053     -9.053    553.499    553.944    553.499    553.608    553.499
 20.670    549.000    553.779     -4.779    553.214    553.669    553.214    553.324    553.214
 20.770    538.000    553.505    -15.505    552.928    553.393    552.928    553.039    552.928
 20.870    547.000    553.230     -6.230    552.640    553.117    552.640    552.753    552.640
 20.970    586.523    552.955     33.568    552.352    552.841    552.352    552.465    552.352
 21.070    556.000    552.688      3.312    552.062    552.573    552.062    552.177    552.062
 21.170    514.000    552.497    -38.497    551.772    552.381    551.772    551.888    551.772
 21.270    550.000    552.244     -2.244    551.481    552.127    551.481    551.598    551.481
 21.370    524.326    551.971    -27.645    551.188    551.852    551.188    551.307    551.188
 21.470    514.972    551.696    -36.724    550.895    551.576    550.895    551.015    550.895
 21.570    560.235    551.422      8.813    550.601    551.301    550.601    550.722    550.601
 21.670    522.658    551.149    -28.491    550.306    551.026    550.306    550.429    550.306
 21.770    577.000    550.876     26.124    550.010    550.753    550.010    550.134    550.010
 21.870    514.000    550.607    -36.607    549.714    550.481    549.714    549.839    549.714
 21.970    580.000    550.358     29.642    549.416    550.231    549.416    549.543    549.416
 22.070    506.000    550.118    -44.118    549.118    549.989    549.118    549.247    549.118
 22.170    548.000    549.854     -1.854    548.820    549.724    548.820    548.950    548.820
 22.270    518.000    549.594    -31.594    548.520    549.463    548.520    548.652    548.520
 22.370    529.461    549.379    -19.918    548.220    549.245    548.220    548.353    548.220
 22.470    536.000    549.142    -13.142    547.919    549.007    547.919    548.054    547.919
 22.570    579.169    548.894     30.275    547.618    548.757    547.618    547.755    547.618
 22.670    572.000    548.646     23.354    547.316    548.507    547.316    547.455    547.316
 22.770    515.000    548.403    -33.403    547.013    548.263    547.013    547.154    547.013
 22.870    602.000    548.168     53.832    546.710    548.026    546.710    546.853    546.710
 22.970    585.351    547.942     37.409    546.407    547.797    546.407    546.552    546.407
 23.070    583.000    547.727     35.273    546.103    547.580    546.103    546.250    546.103
 23.170    541.000    547.525     -6.525    545.798    547.376    545.798    545.948    545.798
 23.270    539.000    547.341     -8.341    545.494    547.190    545.494    545.646    545.494
 23.370    532.791    547.179    -14.389    545.188    547.026    545.188    545.343    545.188
 23.470    511.684    547.048    -35.364    544.883    546.892    544.883    545.040    544.883
 23.570    575.000    546.952     28.048    544.577    546.793    544.577    544.736    544.577
 23.670    530.000    546.905    -16.905    544.270    546.744    544.270    544.433    544.270
 23.770    554.000    546.928      7.072    543.964    546.764    543.964    544.129    543.964
 23.870    570.293    547.050     23.243    543.657    546.883    543.657    543.825    543.657
 23.970    504.291    547.325    -43.035    543.350    547.156    543.350    543.521    543.350
 24.070    553.000    547.882      5.118    543.042    547.710    543.042    543.217    543.042
 24.170    587.000    549.085     37.915    542.734    548.910    542.734    542.913    542.734
 24.270    574.074    551.903     22.171    542.427    551.727    542.427    542.609    542.427
 24.370    623.000    558.366     64.634    542.119    558.191    542.119    542.305    542.119
 24.470    617.459    571.279     46.179    541.811    571.109    541.811    542.001    541.811
 24.570    629.164    592.025     37.140    541.502    591.865    541.502    541.697    541.502
 24.670    644.129    616.548     27.582    541.194    616.402    541.194    541.393    541.194
 24.770    615.000    632.793    -17.793    540.886    632.654    540.886    541.090    540.886
 24.870    607.562    628.827    -21.265    540.577    628.681    540.577    540.786    540.577
 24.970    628.000    607.880     20.120    540.269    607.713    540.269    540.483    540.269
 25.070    584.599    583.342      1.256    539.960    583.152    539.960    540.180    539.960
 25.170    568.000    564.603      3.397    539.652    564.394    539.652    539.878    539.652
 25.270    525.000    553.523    -28.523    539.343    553.299    539.343    539.576    539.343
 25.370    578.915    547.955     30.960    539.035    547.721    539.035    539.275    539.035
 25.470    562.000    545.272     16.728    538.727    545.029    538.727    538.974    538.727
 25.570    523.000    543.825    -20.825    538.418    543.572    538.418    538.673    538.418
 25.670    569.000    542.883     26.117    538.110    542.621    538.110    538.374    538.110
 25.770    549.000    542.181      6.819    537.802    541.910    537.802    538.075    537.802
 25.870    541.000    541.619     -0.619    537.495    541.338    537.495    537.777    537.495
 25.970    530.549    541.157    -10.608    537.187    540.866    537.187    537.479    537.187
 26.070    583.000    540.774     42.226    536.880    540.471    536.880    537.183    536.880
 26.170    514.195    540.479    -26.284    536.572    540.164    536.572    536.888    536.572
 26.270    552.000    540.235     11.765    536.266    539.906    536.266    536.595    536.266
 26.370    510.000    540.019    -30.019    535.959    539.676    535.959    536.302    535.959
 26.470    570.472    539.855     30.618    535.653    539.496    535.653    536.012    535.653
 26.570    562.000    539.745     22.255    535.346    539.369    535.346    535.723    535.346
 26.670    587.000    539.686     47.314    535.041    539.291    535.041    535.436    535.041
 26.770    587.039    539.691     47.347    534.735    539.276    534.735    535.151    534.735
 26.870    540.000    539.781      0.219    534.430    539.343    534.430    534.869    534.430
 26.970    563.000    539.985     23.015    534.126    539.521    534.126    534.589    534.126
 27.070    528.000    540.310    -12.310    533.821    539.818    533.821    534.313    533.821
 27.170    510.105    540.771    -30.665    533.517    540.247    533.517    534.040    533.517
 27.270    549.000    541.443      7.557    533.214    540.884    533.214    533.772    533.214
 27.370    576.000    542.416     33.584    532.911    541.818    532.911    533.509    532.911
 27.470    558.000    543.847     14.153    532.609    543.203    532.609    533.251    532.609
 27.570    586.722    546.147     40.575    532.307    545.451    532.307    533.000    532.307
 27.670    546.000    550.746     -4.746    532.005    549.991    532.005    532.756    532.005
 27.770    555.000    562.381     -7.381    531.704    561.555    531.704    532.523    531.704
 27.870    602.000    592.738      9.262    531.404    591.824    531.404    532.300    531.404
 27.970    698.000    659.482     38.518    531.104    658.455    531.104    532.091    531.104
 28.070    782.000    769.851     12.149    530.805    768.686    530.805    531.899    530.805
 28.170    888.000    892.534     -4.534    530.506    891.215    530.506    531.727    530.506
 28.270    973.857    952.978     20.879    530.208    951.508    530.208    531.582    530.208
 28.370    902.000    902.092     -0.092    529.910    900.471    529.910    531.471    529.910
 28.470    774.000    792.248    -18.248    529.613    790.430    529.613    531.406    529.613
 28.570    709.000    706.979      2.021    529.317    704.878    529.317    531.406    529.317
 28.670    713.000    689.434     23.566    529.022    686.939    529.022    531.502    529.022
 28.770    785.725    734.879     50.846    528.727    731.843    528.727    531.745    528.727
 28.870    773.000    803.412    -30.412    528.433    799.617    528.433    532.215    528.433
 28.970    734.000    835.688   -101.688    528.139    830.801    528.139    533.029    528.139
 29.070    747.000    796.611    -49.611    527.847    790.139    527.847    534.332    527.847
 29.170    692.000    716.626    -24.626    527.555    707.915    527.555    536.278    527.555
 29.270    601.000    642.855    -41.855    527.264    631.149    527.264    538.978    527.264
 29.370    601.000    596.669      4.331    526.973    581.246    526.973    542.399    526.973
 29.470    550.507    575.518    -25.011    526.684    556.021    526.684    546.181    526.684
 29.570    564.415    568.038     -3.624    526.395    545.031    526.395    549.402    526.395
 29.670    616.000    564.742     51.258    526.107    540.148    526.107    550.701    526.107
 29.770    560.000    560.981     -0.981    525.820    537.527    525.820    549.273    525.820
 29.870    547.438    556.017     -8.579    525.534    535.824    525.534    545.726    525.534
 29.970    568.000    550.780     17.220    525.249    534.626    525.249    541.401    525.249
 30.070    567.915    546.150     21.765    524.964    533.801    524.964    537.312    524.964
 30.170    579.000    542.548     36.452    524.681    533.324    524.681    533.903    524.681
 30.270    584.000    540.163     43.837    524.398    533.305    524.398    531.253    524.398
 30.370    563.806    539.342     24.464    524.117    534.184    524.117    529.271    524.117
