neutron_powder_diffraction_0066
R_wp: 4.269
Temperature (K): 725.477
Counts: 83625.00
Wavelength (Ã…): 2.52098
COMMENTS
Test file for demonstrating the .xyy file format in Reel1.0
END OF HEADER
   tth       Y_obs     Y_calc      Y_res    Background    Phase_1_Nuc    Phase_1_Mag    Phase_2_Nuc    Phase_2_Mag
  9.970    685.000    630.534     54.466    629.483    630.361    629.656    629.483    629.483
 10.070    692.000    630.951     61.049    629.831    630.776    630.006    629.831    629.831
 10.170    685.000    631.367     53.633    630.168    631.190    630.345    630.168    630.168
 10.270    705.000    631.784     73.216    630.495    631.605    630.674    630.495    630.495
 10.370    674.000    632.205     41.795    630.812    632.024    630.992    630.812    630.812
 10.470    599.620    632.633    -33.013    631.119    632.450    631.301    631.119    631.119
 10.570    643.000    633.072      9.928    631.416    632.887    631.600    631.416    631.416
 10.670    659.000    633.526     25.474    631.703    633.339    631.889    631.703    631.703
 10.770    648.000    634.003     13.997    631.980    633.813    632.169    631.980    631.980
 10.870    624.000    634.511    -10.511    632.248    634.319    632.439    632.248    632.248
 10.970    627.000    635.064     -8.064    632.506    634.870    632.699    632.506    632.506
 11.070    673.000    635.679     37.321    632.755    635.483    632.950    632.755    632.755
 11.170    662.840    636.383     26.457    632.994    636.184    633.191    632.994    632.994
 11.270    680.000    637.208     42.792    633.223    637.006    633.423    633.223    633.223
 11.370    670.000    638.223     31.777    633.444    638.018    633.646    633.444    633.444
 11.470    589.690    639.606    -49.916    633.655    639.398    633.859    633.655    633.655
 11.570    676.000    641.526     34.474    633.857    641.315    634.064    633.857    633.857
 11.670    692.759    644.602     48.157    634.050    644.387    634.260    634.050    634.050
 11.770    701.000    650.684     50.316    634.235    650.464    634.446    634.235    634.235
 11.870    628.443    663.357    -34.914    634.410    663.128    634.624    634.410    634.410
 11.970    687.100    687.310     -0.210    634.576    687.064    634.793    634.576    634.576
 12.070    735.424    724.394     11.031    634.734    724.125    634.953    634.734    634.734
 12.170    780.187    766.744     13.443    634.883    766.449    635.105    634.883    634.883
 12.270    772.000    792.561    -20.561    635.024    792.249    635.248    635.024    635.024
 12.370    770.000    782.249    -12.249    635.156    781.941    635.383    635.156    635.156
 12.470    728.000    744.996    -16.996    635.279    744.706    635.510    635.279    635.279
 12.570    660.092    704.319    -44.227    635.395    704.048    635.628    635.395    635.395
 12.670    688.000    674.416     13.584    635.502    674.159    635.738    635.502    635.502
 12.770    653.000    657.188     -4.188    635.601    656.937    635.839    635.601    635.601
 12.870    651.000    648.709      2.291    635.691    648.461    635.933    635.691    635.691
 12.970    669.000    644.729     24.271    635.774    644.479    636.019    635.774    635.774
 13.070    642.000    642.683     -0.683    635.849    642.432    636.097    635.849    635.849
 13.170    586.000    641.447    -55.447    635.915    641.193    636.167    635.915    635.915
 13.270    679.255    640.601     38.653    635.974    640.345    636.229    635.974    635.974
 13.370    622.000    639.984    -17.984    636.026    639.724    636.283    636.026    636.026
 13.470    562.000    639.521    -77.521    636.069    639.259    636.330    636.069    636.069
 13.570    617.185    639.159    -21.974    636.105    638.893    636.370    636.105    636.105
 13.670    639.000    638.871      0.129    636.134    638.602    636.402    636.134    636.134
 13.770    644.000    638.638      5.362    636.155    638.365    636.426    636.155    636.155
 13.870    637.000    638.444     -1.444    636.168    638.167    636.444    636.168    636.168
 13.970    637.000    638.281     -1.281    636.175    638.000    636.454    636.175    636.175
 14.070    591.000    638.154    -47.154    636.174    637.870    636.457    636.174    636.174
 14.170    611.000    638.040    -27.040    636.166    637.752    636.453    636.166    636.166
 14.270    614.000    637.925    -23.925    636.151    637.633    636.442    636.151    636.151
 14.370    605.593    637.818    -32.224    636.128    637.522    636.424    636.128    636.128
 14.470    622.000    637.715    -15.715    636.099    637.415    636.399    636.099    636.099
 14.570    619.000    637.617    -18.617    636.063    637.313    636.367    636.063    636.063
 14.670    618.000    637.520    -19.520    636.020    637.212    636.328    636.020    636.020
 14.770    608.000    637.426    -29.426    635.971    637.113    636.283    635.971    635.971
 14.870    608.000    637.356    -29.356    635.914    637.036    636.233    635.914    635.914
 14.970    586.000    637.309    -51.309    635.851    636.981    636.178    635.851    635.851
 15.070    610.000    637.228    -27.228    635.782    636.896    636.114    635.782    635.782
 15.170    612.670    637.198    -24.528    635.706    636.860    636.043    635.706    635.706
 15.270    629.000    637.101     -8.101    635.624    636.759    635.966    635.624    635.624
 15.370    588.236    636.995    -48.759    635.535    636.647    635.882    635.535    635.535
 15.470    579.000    636.887    -57.887    635.440    636.534    635.792    635.440    635.440
 15.570    636.000    636.776     -0.776    635.339    636.418    635.696    635.339    635.339
 15.670    609.771    636.659    -26.887    635.232    636.295    635.594    635.232    635.232
 15.770    652.922    636.537     16.385    635.118    636.168    635.487    635.118    635.118
 15.870    617.321    636.411    -19.090    634.999    636.036    635.373    634.999    634.999
 15.970    664.532    636.281     28.252    634.873    635.900    635.253    634.873    634.873
 16.070    642.710    636.146      6.564    634.742    635.760    635.128    634.742    634.742
 16.170    617.041    636.007    -18.966    634.605    635.615    634.997    634.605    634.605
 16.270    647.000    635.863     11.137    634.462    635.465    634.861    634.462    634.462
 16.370    639.000    635.716      3.284    634.314    635.311    634.718    634.314    634.314
 16.470    629.000    635.563     -6.563    634.160    635.152    634.571    634.160    634.160
 16.570    608.000    635.406    -27.406    634.000    634.988    634.418    634.000    634.000
 16.670    622.000    635.245    -13.245    633.835    634.820    634.260    633.835    633.835
 16.770    622.000    635.085    -13.085    633.664    634.653    634.096    633.664    633.664
 16.870    673.849    634.917     38.933    633.488    634.477    633.927    633.488    633.488
 16.970    627.807    634.742     -6.935    633.307    634.295    633.753    633.307    633.307
 17.070    632.248    634.563     -2.315    633.120    634.109    633.574    633.120    633.120
 17.170    599.000    634.379    -35.379    632.928    633.917    633.390    632.928    632.928
 17.270    630.951    634.192     -3.241    632.731    633.722    633.201    632.731    632.731
 17.370    581.438    634.012    -52.574    632.529    633.534    633.008    632.529    632.529
 17.470    603.000    633.820    -30.820    632.322    633.333    632.809    632.322    632.322
 17.570    670.754    633.633     37.121    632.111    633.138    632.606    632.111    632.111
 17.670    630.000    633.466     -3.466    631.894    632.962    632.398    631.894    631.894
 17.770    630.000    633.289     -3.289    631.672    632.775    632.186    631.672    631.672
 17.870    596.000    633.106    -37.106    631.446    632.583    631.969    631.446    631.446
 17.970    627.738    632.916     -5.178    631.214    632.382    631.748    631.214    631.214
 18.070    621.061    632.698    -11.638    630.979    632.155    631.522    630.979    630.979
 18.170    651.220    632.477     18.743    630.738    631.923    631.293    630.738    630.738
 18.270    620.000    632.254    -12.254    630.493    631.688    631.059    630.493    630.493
 18.370    617.000    632.023    -15.023    630.244    631.446    630.821    630.244    630.244
 18.470    603.000    631.788    -28.788    629.990    631.200    630.578    629.990    629.990
 18.570    594.544    631.549    -37.006    629.732    630.950    630.332    629.732    629.732
 18.670    620.000    631.314    -11.314    629.469    630.701    630.082    629.469    629.469
 18.770    568.000    631.072    -63.072    629.203    630.446    629.828    629.203    629.203
 18.870    599.000    630.839    -31.839    628.932    630.201    629.570    628.932    628.932
 18.970    605.000    630.643    -25.643    628.657    629.992    629.308    628.657    628.657
 19.070    593.952    630.394    -36.441    628.377    629.729    629.042    628.377    628.377
 19.170    640.957    630.135     10.822    628.094    629.457    628.772    628.094    628.094
 19.270    603.447    629.874    -26.426    627.807    629.181    628.499    627.807    627.807
 19.370    640.319    629.609     10.710    627.516    628.902    628.223    627.516    627.516
 19.470    596.310    629.344    -33.033    627.221    628.621    627.943    627.221    627.221
 19.570    623.000    629.096     -6.096    626.922    628.358    627.660    626.922    626.922
 19.670    621.000    628.860     -7.860    626.619    628.105    627.374    626.619    626.619
 19.770    669.332    628.623     40.709    626.313    627.851    627.085    626.313    626.313
 19.870    638.000    628.354      9.646    626.003    627.565    626.792    626.003    626.003
 19.970    592.000    628.075    -36.075    625.690    627.268    626.497    625.690    625.690
 20.070    643.176    627.795     15.381    625.373    626.970    626.198    625.373    625.373
 20.170    678.455    627.515     50.940    625.052    626.670    625.897    625.052    625.052
 20.270    627.000    627.230     -0.230    624.728    626.365    625.593    624.728    624.728
 20.370    583.128    626.947    -43.819    624.401    626.061    625.287    624.401    624.401
 20.470    609.000    626.659    -17.659    624.070    625.752    624.978    624.070    624.070
 20.570    572.754    626.368    -53.613    623.736    625.438    624.666    623.736    623.736
 20.670    627.000    626.075      0.925    623.399    625.122    624.352    623.399    623.399
 20.770    637.383    625.782     11.601    623.058    624.805    624.035    623.058    623.058
 20.870    595.000    625.494    -30.494    622.715    624.492    623.716    622.715    622.715
 20.970    612.000    625.201    -13.201    622.368    624.174    623.396    622.368    622.368
 21.070    588.000    624.906    -36.906    622.018    623.852    623.073    622.018    622.018
 21.170    656.289    624.609     31.680    621.666    623.527    622.748    621.666    621.666
 21.270    614.000    624.311    -10.311    621.310    623.200    622.421    621.310    621.310
 21.370    614.000    624.013    -10.013    620.952    622.871    622.093    620.952    620.952
 21.470    580.000    623.715    -43.715    620.590    622.542    621.763    620.590    620.590
 21.570    630.000    623.419      6.581    620.226    622.213    621.432    620.226    620.226
 21.670    623.000    623.123     -0.123    619.859    621.882    621.100    619.859    619.859
 21.770    616.000    622.827     -6.827    619.490    621.550    620.766    619.490    619.490
 21.870    591.000    622.532    -31.532    619.117    621.218    620.431    619.117    619.117
 21.970    624.000    622.239      1.761    618.742    620.886    620.095    618.742    618.742
 22.070    583.841    621.948    -38.107    618.365    620.554    619.759    618.365    618.365
 22.170    607.000    621.660    -14.660    617.985    620.223    619.422    617.985    617.985
 22.270    620.000    621.376     -1.376    617.603    619.894    619.085    617.603    617.603
 22.370    568.674    621.095    -52.421    617.218    619.566    618.747    617.218    617.218
 22.470    598.000    620.819    -22.819    616.831    619.241    618.409    616.831    616.831
 22.570    606.000    620.551    -14.551    616.441    618.920    618.072    616.441    616.441
 22.670    588.789    620.287    -31.498    616.050    618.602    617.734    616.050    616.050
 22.770    601.233    620.032    -18.799    615.656    618.290    617.398    615.656    615.656
 22.870    654.067    619.785     34.282    615.259    617.983    617.062    615.259    615.259
 22.970    608.000    619.551    -11.551    614.861    617.685    616.727    614.861    614.861
 23.070    663.564    619.330     44.233    614.461    617.398    616.394    614.461    614.461
 23.170    588.900    619.125    -30.225    614.058    617.122    616.062    614.058    614.058
 23.270    650.000    618.940     31.060    613.654    616.862    615.732    613.654    613.654
 23.370    578.491    618.779    -40.287    613.247    616.622    615.405    613.247    613.247
 23.470    643.000    618.648     24.352    612.839    616.408    615.080    612.839    612.839
 23.570    613.550    618.558     -5.007    612.428    616.229    614.758    612.428    612.428
 23.670    625.000    618.516      6.484    612.016    616.093    614.441    612.016    612.016
 23.770    626.000    618.539      7.461    611.602    616.015    614.128    611.602    611.602
 23.870    597.214    618.646    -21.432    611.187    616.016    613.818    611.187    611.187
 23.970    623.000    618.876      4.124    610.769    616.133    613.515    610.769    610.769
 24.070    661.000    619.279     41.721    610.350    616.415    613.217    610.350    610.350
 24.170    610.389    619.974     -9.584    609.929    616.981    612.925    609.929    609.929
 24.270    639.176    621.271     17.905    609.507    618.141    612.641    609.507    609.507
 24.370    641.000    623.962     17.038    609.083    620.686    612.366    609.083    609.083
 24.470    680.559    629.744     50.816    608.658    626.311    612.101    608.658    608.658
 24.570    695.000    641.265     53.735    608.231    637.669    611.846    608.231    608.231
 24.670    606.457    660.806    -54.348    607.803    657.039    611.602    607.803    607.803
 24.770    715.000    687.001     27.999    607.373    683.055    611.372    607.373    607.373
 24.870    654.502    711.124    -56.622    606.942    706.979    611.157    606.942    606.942
 24.970    767.000    718.599     48.401    606.510    714.227    610.958    606.510    606.510
 25.070    735.000    703.054     31.946    606.076    698.416    610.779    606.076    606.076
 25.170    657.006    676.077    -19.072    605.641    671.143    610.620    605.641    605.641
 25.270    648.290    651.541     -3.250    605.205    646.286    610.487    605.205    605.205
 25.370    611.939    635.070    -23.132    604.768    629.473    610.381    604.768    604.768
 25.470    650.000    626.075     23.925    604.330    620.107    610.306    604.330    604.330
 25.570    653.000    621.773     31.227    603.890    615.401    610.267    603.890    603.890
 25.670    586.471    619.792    -33.321    603.450    612.976    610.270    603.450    603.450
 25.770    692.000    618.842     73.158    603.008    611.533    610.320    603.008    603.008
 25.870    584.204    618.390    -34.187    602.566    610.534    610.424    602.566    602.566
 25.970    613.452    618.249     -4.797    602.122    609.780    610.593    602.122    602.122
 26.070    593.782    618.349    -24.567    601.678    609.192    610.836    601.678    601.678
 26.170    647.597    618.666     28.932    601.233    608.733    611.166    601.233    601.233
 26.270    673.000    619.194     53.806    600.787    608.381    611.601    600.787    600.787
 26.370    573.322    619.943    -46.622    600.340    608.126    612.158    600.340    600.340
 26.470    722.000    620.935    101.065    599.893    607.964    612.863    599.893    599.893
 26.570    563.300    622.203    -58.903    599.444    607.899    613.748    599.444    599.444
 26.670    621.116    623.795     -2.679    598.995    607.938    614.852    598.995    598.995
 26.770    716.000    625.776     90.224    598.546    608.095    616.226    598.546    598.546
 26.870    684.330    628.235     56.095    598.096    608.391    617.939    598.096    598.096
 26.970    685.986    631.290     54.696    597.645    608.855    620.079    597.645    597.645
 27.070    710.000    635.106     74.894    597.194    609.529    622.769    597.194    597.194
 27.170    705.000    639.910     65.090    596.742    610.471    626.177    596.742    596.742
 27.270    700.000    646.026     53.974    596.289    611.767    630.546    596.289    596.289
 27.370    693.000    653.955     39.045    595.836    613.545    636.243    595.836    595.836
 27.470    667.445    664.563      2.882    595.383    616.031    643.911    595.383    595.383
 27.570    653.795    679.644    -25.849    594.930    619.687    654.880    594.930    594.930
 27.670    757.244    703.289     53.955    594.476    625.568    672.187    594.476    594.476
 27.770    797.000    744.453     52.547    594.021    635.976    702.482    594.021    594.021
 27.870    896.000    819.696     76.304    593.567    655.164    758.069    593.567    593.567
 27.970    882.000    952.153    -70.153    593.112    689.079    856.136    593.112    593.112
 28.070   1122.000   1161.102    -39.102    592.657    742.684   1010.994    592.657    592.657
 28.170   1512.546   1439.804     72.742    592.202    814.302   1217.593    592.202    592.202
 28.270   1736.741   1724.973     11.769    591.746    887.809   1428.783    591.746    591.746
 28.370   1926.000   1885.812     40.188    591.291    929.896   1547.105    591.291    591.291
 28.470   1817.000   1826.763     -9.763    590.835    916.483   1501.072    590.835    590.835
 28.570   1556.456   1620.469    -64.013    590.379    866.872   1343.981    590.379    590.379
 28.670   1458.557   1414.447     44.110    589.923    819.744   1184.648    589.923    589.923
 28.770   1203.000   1301.883    -98.883    589.468    799.611   1091.756    589.468    589.468
 28.870   1338.992   1298.813     40.179    589.012    810.144   1077.690    589.012    589.012
 28.970   1363.000   1357.731      5.269    588.556    836.495   1109.804    588.556    588.556
 29.070   1416.000   1387.920     28.080    588.100    850.111   1125.938    588.100    588.100
 29.170   1292.289   1319.731    -27.442    587.645    829.145   1078.282    587.645    587.645
 29.270   1172.223   1172.148      0.075    587.189    780.800    978.598    587.189    587.189
 29.370   1014.000   1008.805      5.195    586.734    726.782    868.811    586.734    586.734
 29.470    928.000    873.065     54.935    586.279    681.785    777.599    586.279    586.279
 29.570    837.000    777.842     59.158    585.824    650.218    713.473    585.824    585.824
 29.670    799.000    718.110     80.890    585.369    630.449    673.045    585.369    585.369
 29.770    759.000    682.750     76.250    584.915    618.790    648.883    584.915    584.915
 29.870    748.000    661.670     86.330    584.461    611.891    634.244    584.461    584.461
 29.970    781.000    648.280    132.720    584.007    607.569    624.720    584.007    584.007
 30.070    763.000    639.081    123.919    583.554    604.683    617.952    583.554    583.554
 30.170    699.000    632.450     66.550    583.101    602.730    612.819    583.101    583.101
 30.270    663.000    627.719     35.281    582.648    601.564    608.802    582.648    582.648
 30.370    720.000    624.770     95.230    582.196    601.293    605.670    582.196    582.196
