neutron_powder_diffraction_0223
R_wp: 3.888
Temperature (K): 1074.000
Counts: 83968.00
Wavelength (Ã…): 2.52098
COMMENTS
Test file for demonstrating the .xyy file format in Reel1.0
END OF HEADER
   tth       Y_obs     Y_calc      Y_res    Background    Phase_1_Nuc    Phase_1_Mag    Phase_2_Nuc    Phase_2_Mag
  9.970    615.385    574.728     40.657    574.087    574.714    574.087    574.102    574.087
 10.070    532.584    574.726    -42.142    574.031    574.711    574.031    574.045    574.031
 10.170    563.197    574.726    -11.529    573.970    574.711    573.970    573.985    573.970
 10.270    621.000    574.732     46.268    573.906    574.717    573.906    573.920    573.906
 10.370    612.000    574.746     37.254    573.837    574.731    573.837    573.851    573.837
 10.470    564.100    574.769    -10.669    573.764    574.754    573.764    573.778    573.764
 10.570    636.000    574.806     61.194    573.687    574.791    573.687    573.702    573.687
 10.670    580.000    574.861      5.139    573.606    574.845    573.606    573.621    573.606
 10.770    555.553    574.940    -19.387    573.521    574.924    573.521    573.536    573.521
 10.870    582.000    575.052      6.948    573.432    575.036    573.432    573.447    573.432
 10.970    604.000    575.208     28.792    573.339    575.192    573.339    573.354    573.339
 11.070    623.000    575.425     47.575    573.242    575.408    573.242    573.258    573.242
 11.170    575.647    575.729     -0.082    573.142    575.710    573.142    573.160    573.142
 11.270    617.000    576.156     40.844    573.038    576.135    573.038    573.057    573.038
 11.370    586.000    576.768      9.232    572.930    576.746    572.930    572.949    572.930
 11.470    588.000    577.705     10.295    572.818    577.683    572.818    572.837    572.818
 11.570    551.657    579.358    -27.701    572.703    579.335    572.703    572.722    572.703
 11.670    619.000    582.872     36.128    572.584    582.847    572.584    572.604    572.584
 11.770    549.551    590.996    -41.445    572.462    590.966    572.462    572.481    572.462
 11.870    613.213    608.318      4.896    572.336    608.277    572.336    572.356    572.336
 11.970    647.000    638.571      8.429    572.206    638.513    572.206    572.226    572.206
 12.070    675.000    677.976     -2.976    572.074    677.896    572.074    572.094    572.074
 12.170    653.000    709.122    -56.122    571.937    709.024    571.937    571.958    571.937
 12.270    663.000    710.007    -47.007    571.798    709.908    571.798    571.818    571.798
 12.370    631.000    679.698    -48.698    571.655    679.616    571.655    571.676    571.655
 12.470    636.000    639.819     -3.819    571.509    639.759    571.509    571.530    571.509
 12.570    637.000    608.572     28.428    571.360    608.531    571.360    571.380    571.360
 12.670    577.000    590.358    -13.358    571.207    590.326    571.207    571.228    571.207
 12.770    552.000    581.617    -29.617    571.052    581.590    571.052    571.073    571.052
 12.870    617.000    577.685     39.315    570.893    577.660    570.893    570.914    570.893
 12.970    532.000    575.703    -43.703    570.731    575.679    570.731    570.752    570.731
 13.070    560.000    574.469    -14.469    570.566    574.446    570.566    570.587    570.566
 13.170    553.000    573.572    -20.572    570.398    573.549    570.398    570.420    570.398
 13.270    571.491    572.867     -1.376    570.227    572.843    570.227    570.249    570.227
 13.370    591.743    572.287     19.456    570.053    572.264    570.053    570.075    570.053
 13.470    615.040    571.795     43.245    569.877    571.772    569.877    569.899    569.877
 13.570    555.000    571.366    -16.366    569.697    571.343    569.697    569.719    569.697
 13.670    560.000    570.983    -10.983    569.515    570.960    569.515    569.537    569.515
 13.770    543.000    570.635    -27.635    569.330    570.612    569.330    569.352    569.330
 13.870    524.792    570.312    -45.520    569.142    570.289    569.142    569.164    569.142
 13.970    520.000    570.009    -50.009    568.951    569.985    568.951    568.974    568.951
 14.070    538.515    569.721    -31.205    568.758    569.697    568.758    568.781    568.758
 14.170    568.303    569.444     -1.141    568.562    569.421    568.562    568.585    568.562
 14.270    568.000    569.177     -1.177    568.363    569.153    568.363    568.387    568.363
 14.370    573.864    568.916      4.948    568.162    568.893    568.162    568.186    568.162
 14.470    519.000    568.662    -49.662    567.959    568.638    567.959    567.982    567.959
 14.570    549.000    568.415    -19.415    567.753    568.390    567.753    567.778    567.753
 14.670    537.000    568.169    -31.169    567.544    568.143    567.544    567.570    567.544
 14.770    526.000    567.924    -41.924    567.333    567.898    567.333    567.359    567.333
 14.870    522.601    567.682    -45.081    567.120    567.654    567.120    567.147    567.120
 14.970    520.772    567.441    -46.669    566.904    567.411    566.904    566.934    566.904
 15.070    540.000    567.200    -27.200    566.686    567.169    566.686    566.717    566.686
 15.170    570.000    566.958      3.042    566.466    566.927    566.466    566.497    566.466
 15.270    596.739    566.717     30.022    566.243    566.686    566.243    566.274    566.243
 15.370    575.000    566.475      8.525    566.019    566.444    566.019    566.050    566.019
 15.470    567.513    566.233      1.281    565.792    566.201    565.792    565.823    565.792
 15.570    558.087    565.990     -7.903    565.563    565.958    565.563    565.594    565.563
 15.670    534.000    565.747    -31.747    565.331    565.715    565.331    565.363    565.331
 15.770    562.000    565.502     -3.502    565.098    565.470    565.098    565.130    565.098
 15.870    567.308    565.258      2.050    564.863    565.226    564.863    564.895    564.863
 15.970    497.000    565.014    -68.014    564.625    564.981    564.625    564.658    564.625
 16.070    560.000    564.767     -4.767    564.386    564.734    564.386    564.419    564.386
 16.170    556.000    564.519     -8.519    564.145    564.485    564.145    564.179    564.145
 16.270    566.951    564.280      2.671    563.901    564.236    563.901    563.946    563.901
 16.370    575.000    564.031     10.969    563.656    563.985    563.656    563.703    563.656
 16.470    594.631    563.779     30.852    563.409    563.733    563.409    563.456    563.409
 16.570    551.000    563.526    -12.526    563.161    563.479    563.161    563.207    563.161
 16.670    608.422    563.272     45.150    562.910    563.224    562.910    562.957    562.910
 16.770    556.000    563.016     -7.016    562.658    562.969    562.658    562.705    562.658
 16.870    559.093    562.759     -3.667    562.404    562.711    562.404    562.451    562.404
 16.970    532.767    562.502    -29.735    562.148    562.453    562.148    562.197    562.148
 17.070    515.000    562.248    -47.248    561.890    562.193    561.890    561.945    561.890
 17.170    522.000    561.988    -39.988    561.631    561.933    561.631    561.686    561.631
 17.270    646.000    561.728     84.272    561.371    561.673    561.371    561.426    561.371
 17.370    574.000    561.466     12.534    561.108    561.410    561.108    561.164    561.108
 17.470    605.719    561.202     44.517    560.844    561.145    560.844    560.901    560.844
 17.570    582.936    560.937     21.999    560.579    560.880    560.579    560.636    560.579
 17.670    521.829    560.670    -38.842    560.312    560.613    560.312    560.370    560.312
 17.770    527.000    560.403    -33.403    560.044    560.345    560.044    560.102    560.044
 17.870    584.000    560.134     23.866    559.774    560.076    559.774    559.832    559.774
 17.970    536.000    559.864    -23.864    559.503    559.805    559.503    559.562    559.503
 18.070    576.000    559.593     16.407    559.231    559.534    559.231    559.290    559.231
 18.170    586.000    559.322     26.678    558.957    559.261    558.957    559.017    558.957
 18.270    574.000    559.049     14.951    558.682    558.988    558.682    558.742    558.682
 18.370    542.000    558.775    -16.775    558.405    558.713    558.405    558.467    558.405
 18.470    541.000    558.500    -17.500    558.127    558.438    558.127    558.189    558.127
 18.570    557.000    558.224     -1.224    557.849    558.161    557.849    557.911    557.849
 18.670    561.000    557.947      3.053    557.568    557.884    557.568    557.631    557.568
 18.770    556.985    557.669     -0.684    557.287    557.605    557.287    557.350    557.287
 18.870    559.000    557.390      1.610    557.005    557.326    557.005    557.069    557.005
 18.970    537.000    557.111    -20.111    556.721    557.046    556.721    556.786    556.721
 19.070    596.000    556.830     39.170    556.436    556.765    556.436    556.501    556.436
 19.170    535.000    556.549    -21.549    556.151    556.484    556.151    556.216    556.151
 19.270    517.000    556.268    -39.268    555.864    556.201    555.864    555.930    555.864
 19.370    563.000    555.986      7.014    555.576    555.919    555.576    555.643    555.576
 19.470    558.592    555.703      2.889    555.287    555.635    555.287    555.355    555.287
 19.570    571.000    555.420     15.580    554.998    555.352    554.998    555.066    554.998
 19.670    548.000    555.137     -7.137    554.707    555.068    554.707    554.776    554.707
 19.770    528.000    554.852    -26.852    554.416    554.783    554.416    554.485    554.416
 19.870    570.000    554.568     15.432    554.123    554.498    554.123    554.193    554.123
 19.970    570.000    554.296     15.704    553.830    554.225    553.830    553.901    553.830
 20.070    577.000    554.019     22.981    553.536    553.948    553.536    553.607    553.536
 20.170    541.000    553.734    -12.734    553.241    553.662    553.241    553.313    553.241
 20.270    503.000    553.447    -50.447    552.945    553.375    552.945    553.018    552.945
 20.370    535.353    553.160    -17.807    552.649    553.087    552.649    552.722    552.649
 20.470    565.000    552.874     12.126    552.352    552.799    552.352    552.427    552.352
 20.570    554.629    552.589      2.040    552.054    552.511    552.054    552.132    552.054
 20.670    555.000    552.302      2.698    551.755    552.223    551.755    551.834    551.755
 20.770    539.000    552.015    -13.015    551.456    551.935    551.456    551.536    551.456
 20.870    587.000    551.729     35.271    551.156    551.647    551.156    551.238    551.156
 20.970    573.000    551.442     21.558    550.856    551.359    550.856    550.939    550.856
 21.070    506.719    551.155    -44.436    550.555    551.071    550.555    550.639    550.555
 21.170    562.000    550.869     11.131    550.253    550.784    550.253    550.339    550.253
 21.270    550.000    550.583     -0.583    549.951    550.497    549.951    550.037    549.951
 21.370    545.570    550.298     -4.728    549.649    550.211    549.649    549.736    549.649
 21.470    580.462    550.013     30.448    549.346    549.925    549.346    549.434    549.346
 21.570    551.000    549.730      1.270    549.042    549.641    549.042    549.131    549.042
 21.670    532.000    549.447    -17.447    548.738    549.357    548.738    548.829    548.738
 21.770    539.000    549.168    -10.168    548.434    549.076    548.434    548.525    548.434
 21.870    574.239    548.910     25.329    548.129    548.817    548.129    548.222    548.129
 21.970    529.000    548.661    -19.661    547.824    548.567    547.824    547.918    547.824
 22.070    574.000    548.387     25.613    547.519    548.293    547.519    547.614    547.519
 22.170    572.000    548.122     23.878    547.213    548.026    547.213    547.309    547.213
 22.270    569.795    547.936     21.859    546.907    547.838    546.907    547.004    546.907
 22.370    518.174    547.695    -29.521    546.600    547.596    546.600    546.700    546.600
 22.470    511.240    547.482    -36.242    546.294    547.380    546.294    546.395    546.294
 22.570    575.636    547.245     28.391    545.987    547.142    545.987    546.090    545.987
 22.670    543.000    546.993     -3.993    545.680    546.888    545.680    545.785    545.680
 22.770    562.000    546.745     15.255    545.372    546.639    545.372    545.479    545.372
 22.870    560.355    546.505     13.850    545.065    546.397    545.065    545.173    545.065
 22.970    529.000    546.274    -17.274    544.757    546.164    544.757    544.867    544.757
 23.070    552.000    546.054      5.946    544.450    545.942    544.450    544.561    544.450
 23.170    518.000    545.848    -27.848    544.142    545.734    544.142    544.256    544.142
 23.270    567.006    545.663     21.344    543.834    545.543    543.834    543.954    543.834
 23.370    527.000    545.498    -18.498    543.526    545.375    543.526    543.649    543.526
 23.470    543.381    545.361     -1.980    543.218    545.236    543.218    543.344    543.218
 23.570    563.000    545.259     17.741    542.910    545.132    542.910    543.038    542.910
 23.670    561.000    545.206     15.794    542.602    545.077    542.602    542.732    542.602
 23.770    589.004    545.221     43.783    542.294    545.089    542.294    542.426    542.294
 23.870    559.767    545.333     14.434    541.986    545.199    541.986    542.121    541.986
 23.970    548.528    545.594      2.934    541.678    545.458    541.678    541.815    541.678
 24.070    541.000    546.128     -5.128    541.370    545.990    541.370    541.510    541.370
 24.170    538.939    547.293     -8.353    541.062    547.153    541.062    541.205    541.062
 24.270    595.000    550.063     44.937    540.754    549.922    540.754    540.901    540.754
 24.370    615.000    556.536     58.464    540.447    556.397    540.447    540.596    540.447
 24.470    566.000    569.693     -3.693    540.139    569.560    540.139    540.292    540.139
 24.570    598.776    591.095      7.681    539.832    590.973    539.832    539.989    539.832
 24.670    581.000    616.577    -35.577    539.525    616.470    539.525    539.685    539.525
 24.770    627.000    633.510     -6.510    539.218    633.412    539.218    539.382    539.218
 24.870    598.000    629.371    -31.371    538.911    629.266    538.911    539.080    538.911
 24.970    578.018    607.573    -29.555    538.605    607.448    538.605    538.778    538.605
 25.070    599.381    582.152     17.229    538.299    582.004    538.299    538.476    538.299
 25.170    519.226    562.926    -43.700    537.993    562.760    537.993    538.175    537.993
 25.270    510.000    551.716    -41.716    537.687    551.537    537.687    537.875    537.687
 25.370    547.000    546.179      0.821    537.382    545.991    537.382    537.575    537.382
 25.470    504.376    543.551    -39.175    537.077    543.355    537.077    537.277    537.077
 25.570    545.000    542.145      2.855    536.773    541.941    536.773    536.978    536.773
 25.670    581.945    541.238     40.707    536.468    541.027    536.468    536.681    536.468
 25.770    560.000    540.562     19.438    536.165    540.344    536.165    536.385    536.165
 25.870    524.000    540.022    -16.022    535.861    539.795    535.861    536.089    535.861
 25.970    506.655    539.581    -32.926    535.558    539.345    535.558    535.795    535.558
 26.070    579.000    539.216     39.784    535.256    538.970    535.256    535.501    535.256
 26.170    509.808    538.914    -29.106    534.953    538.658    534.953    535.209    534.953
 26.270    529.000    538.672     -9.672    534.652    538.404    534.652    534.920    534.652
 26.370    583.469    538.507     44.963    534.351    538.225    534.351    534.632    534.351
 26.470    548.764    538.389     10.375    534.050    538.094    534.050    534.344    534.050
 26.570    540.000    538.303      1.697    533.750    537.995    533.750    534.058    533.750
 26.670    518.608    538.276    -19.668    533.450    537.952    533.450    533.774    533.450
 26.770    566.000    538.319     27.681    533.151    537.977    533.151    533.492    533.151
 26.870    513.000    538.445    -25.445    532.852    538.085    532.852    533.212    532.852
 26.970    540.567    538.675      1.892    532.554    538.294    532.554    532.935    532.554
 27.070    561.000    539.047     21.953    532.257    538.642    532.257    532.661    532.257
 27.170    549.000    539.603      9.397    531.960    539.173    531.960    532.390    531.960
 27.270    514.000    540.386    -26.386    531.664    539.926    531.664    532.123    531.664
 27.370    560.027    541.509     18.518    531.368    541.016    531.368    531.860    531.368
 27.470    511.374    543.112    -31.738    531.073    542.581    531.073    531.602    531.073
 27.570    503.362    545.657    -42.296    530.779    545.083    530.779    531.351    530.779
 27.670    618.000    550.643     67.357    530.486    550.019    530.486    531.106    530.486
 27.770    596.000    562.858     33.142    530.193    562.173    530.193    530.869    530.193
 27.870    627.000    593.794     33.206    529.901    593.033    529.901    530.643    529.901
 27.970    672.000    660.419     11.581    529.609    659.560    529.609    530.428    529.609
 28.070    776.000    769.317      6.683    529.318    768.336    529.318    530.228    529.318
 28.170    902.373    890.003     12.370    529.028    888.886    529.028    530.047    529.028
 28.270    946.296    949.661     -3.365    528.739    948.415    528.739    529.888    528.739
 28.370    891.000    899.863     -8.863    528.451    898.492    528.451    529.760    528.451
 28.470    763.241    792.417    -29.176    528.163    790.883    528.163    529.671    528.163
 28.570    740.032    709.041     30.991    527.876    707.270    527.876    529.635    527.876
 28.670    662.361    691.802    -29.441    527.590    689.702    527.590    529.674    527.590
 28.770    735.000    736.431     -1.431    527.305    733.884    527.305    529.832    527.305
 28.870    827.000    804.038     22.962    527.021    800.848    527.021    530.197    527.021
 28.970    804.000    835.829    -31.829    526.737    831.623    526.737    530.944    526.737
 29.070    782.000    796.753    -14.753    526.455    790.821    526.455    532.397    526.455
 29.170    685.000    717.592    -32.592    526.173    708.737    526.173    535.040    526.173
 29.270    657.371    645.596     11.774    525.892    632.082    525.892    539.413    525.892
 29.370    596.000    602.154     -6.154    525.612    581.954    525.612    545.813    525.612
 29.470    546.208    584.746    -38.538    525.333    556.308    525.333    553.769    525.333
 29.570    589.098    581.188      7.909    525.055    544.939    525.055    561.301    525.055
 29.670    586.000    579.803      6.197    524.778    539.798    524.778    564.779    524.778
 29.770    530.721    574.280    -43.560    524.501    537.011    524.501    561.767    524.501
 29.870    586.000    565.120     20.880    524.226    535.199    524.226    554.143    524.226
 29.970    522.989    555.534    -32.545    523.952    533.930    523.952    545.554    523.952
 30.070    551.000    547.658      3.342    523.679    533.059    523.679    538.276    523.679
 30.170    513.625    542.149    -28.524    523.406    532.554    523.406    532.999    523.406
 30.270    549.000    538.922     10.078    523.135    532.526    523.135    529.528    523.135
 30.370    569.000    537.897     31.103    522.865    533.415    522.865    527.343    522.865
