neutron_powder_diffraction_0147
R_wp: 3.870
Temperature (K): 1074.000
Counts: 83553.00
Wavelength (Ã…): 2.52098
COMMENTS
Test file for demonstrating the .xyy file format in Reel1.0
END OF HEADER
   tth       Y_obs     Y_calc      Y_res    Background    Phase_1_Nuc    Phase_1_Mag    Phase_2_Nuc    Phase_2_Mag
  9.970    666.000    576.253     89.747    575.488    576.192    575.488    575.549    575.488
 10.070    600.000    576.325     23.675    575.498    576.263    575.498    575.559    575.498
 10.170    593.000    576.400     16.600    575.503    576.338    575.503    575.564    575.503
 10.270    551.379    576.481    -25.101    575.503    576.419    575.503    575.565    575.503
 10.370    585.000    576.571      8.429    575.498    576.509    575.498    575.560    575.498
 10.470    572.000    576.671     -4.671    575.488    576.609    575.488    575.550    575.488
 10.570    562.136    576.787    -14.650    575.473    576.724    575.473    575.535    575.473
 10.670    625.000    576.922     48.078    575.453    576.859    575.453    575.515    575.453
 10.770    586.000    577.084      8.916    575.428    577.021    575.428    575.490    575.428
 10.870    583.000    577.284      5.716    575.398    577.220    575.398    575.461    575.398
 10.970    586.000    577.536      8.464    575.363    577.468    575.363    575.430    575.363
 11.070    601.615    577.855     23.760    575.324    577.785    575.324    575.393    575.324
 11.170    562.285    578.269    -15.984    575.280    578.198    575.280    575.349    575.280
 11.270    576.587    578.822     -2.235    575.231    578.751    575.231    575.300    575.231
 11.370    597.000    579.589     17.411    575.177    579.516    575.177    575.247    575.177
 11.470    580.000    580.735     -0.735    575.120    580.662    575.120    575.190    575.120
 11.570    632.000    582.712     49.288    575.057    582.637    575.057    575.128    575.057
 11.670    643.000    586.730     56.270    574.990    586.652    574.990    575.061    574.990
 11.770    634.000    595.431     38.569    574.919    595.348    574.919    574.990    574.919
 11.870    654.000    612.811     41.189    574.843    612.718    574.843    574.915    574.843
 11.970    669.014    641.677     27.337    574.764    641.568    574.764    574.835    574.764
 12.070    664.000    678.091    -14.091    574.679    677.961    574.679    574.752    574.679
 12.170    665.904    706.410    -40.506    574.591    706.263    574.591    574.663    574.591
 12.270    684.000    707.239    -23.239    574.498    707.091    574.498    574.571    574.498
 12.370    679.000    679.765     -0.765    574.402    679.632    574.402    574.475    574.402
 12.470    655.000    643.034     11.966    574.301    642.922    574.301    574.374    574.301
 12.570    632.155    613.368     18.787    574.196    613.272    574.196    574.270    574.196
 12.670    556.000    595.239    -39.239    574.087    595.153    574.087    574.162    574.087
 12.770    575.792    586.019    -10.227    573.975    585.938    573.975    574.049    573.975
 12.870    603.190    581.666     21.524    573.858    581.587    573.858    573.933    573.858
 12.970    558.089    579.448    -21.359    573.738    579.370    573.738    573.813    573.738
 13.070    548.000    578.096    -30.096    573.613    578.018    573.613    573.689    573.613
 13.170    613.199    577.137     36.061    573.485    577.059    573.485    573.561    573.485
 13.270    557.000    576.398    -19.398    573.354    576.320    573.354    573.430    573.354
 13.370    559.000    575.801    -16.801    573.218    575.723    573.218    573.295    573.218
 13.470    575.921    575.303      0.618    573.079    575.225    573.079    573.156    573.079
 13.570    549.060    574.876    -25.817    572.937    574.798    572.937    573.014    572.937
 13.670    595.000    574.501     20.499    572.790    574.423    572.790    572.868    572.790
 13.770    543.395    574.165    -30.770    572.641    574.086    572.641    572.719    572.641
 13.870    558.400    573.858    -15.459    572.488    573.779    572.488    572.566    572.488
 13.970    556.000    573.574    -17.574    572.331    573.495    572.331    572.410    572.331
 14.070    542.162    573.308    -31.146    572.171    573.228    572.171    572.250    572.171
 14.170    574.000    573.056      0.944    572.008    572.976    572.008    572.088    572.008
 14.270    532.000    572.812    -40.812    571.841    572.732    571.841    571.922    571.841
 14.370    553.000    572.575    -19.575    571.672    572.494    571.672    571.752    571.672
 14.470    616.000    572.343     43.657    571.499    572.262    571.499    571.580    571.499
 14.570    556.426    572.116    -15.690    571.323    572.034    571.323    571.404    571.323
 14.670    606.000    571.892     34.108    571.143    571.810    571.143    571.225    571.143
 14.770    519.000    571.670    -52.670    570.961    571.587    570.961    571.043    570.961
 14.870    530.499    571.450    -40.951    570.776    571.367    570.776    570.858    570.776
 14.970    539.000    571.230    -32.230    570.587    571.147    570.587    570.670    570.587
 15.070    545.897    571.012    -25.114    570.396    570.928    570.396    570.480    570.396
 15.170    619.000    570.793     48.207    570.202    570.709    570.202    570.286    570.202
 15.270    504.000    570.574    -66.574    570.005    570.489    570.005    570.089    570.005
 15.370    553.000    570.355    -17.355    569.805    570.269    569.805    569.890    569.805
 15.470    586.000    570.134     15.866    569.602    570.049    569.602    569.687    569.602
 15.570    521.000    569.913    -48.913    569.396    569.827    569.396    569.482    569.396
 15.670    548.000    569.691    -21.691    569.188    569.605    569.188    569.275    569.188
 15.770    566.000    569.468     -3.468    568.977    569.381    568.977    569.064    568.977
 15.870    612.641    569.243     43.398    568.764    569.155    568.764    568.851    568.764
 15.970    585.000    569.016     15.984    568.548    568.928    568.548    568.636    568.548
 16.070    539.000    568.788    -29.788    568.329    568.700    568.329    568.417    568.329
 16.170    612.000    568.559     43.441    568.108    568.470    568.108    568.197    568.108
 16.270    549.000    568.328    -19.328    567.884    568.238    567.884    567.973    567.884
 16.370    525.000    568.095    -43.095    567.658    568.005    567.658    567.748    567.658
 16.470    621.000    567.861     53.139    567.429    567.770    567.429    567.520    567.429
 16.570    610.723    567.625     43.098    567.198    567.534    567.198    567.289    567.198
 16.670    550.000    567.390    -17.390    566.965    567.298    566.965    567.057    566.965
 16.770    560.000    567.152     -7.152    566.730    567.058    566.730    566.824    566.730
 16.870    541.459    566.912    -25.453    566.492    566.816    566.492    566.587    566.492
 16.970    593.000    566.669     26.331    566.252    566.573    566.252    566.348    566.252
 17.070    540.059    566.424    -26.366    566.009    566.328    566.009    566.106    566.009
 17.170    567.000    566.178      0.822    565.765    566.081    565.765    565.862    565.765
 17.270    533.000    565.931    -32.931    565.518    565.833    565.518    565.616    565.518
 17.370    551.000    565.681    -14.681    565.270    565.583    565.270    565.368    565.270
 17.470    526.022    565.430    -39.408    565.019    565.331    565.019    565.118    565.019
 17.570    545.000    565.177    -20.177    564.766    565.077    564.766    564.866    564.766
 17.670    555.000    564.922     -9.922    564.512    564.821    564.512    564.612    564.512
 17.770    507.000    564.666    -57.666    564.255    564.565    564.255    564.356    564.255
 17.870    544.000    564.409    -20.409    563.997    564.307    563.997    564.098    563.997
 17.970    542.000    564.150    -22.150    563.736    564.048    563.736    563.839    563.736
 18.070    580.000    563.890     16.110    563.474    563.786    563.474    563.577    563.474
 18.170    565.000    563.627      1.373    563.210    563.523    563.210    563.314    563.210
 18.270    595.000    563.363     31.637    562.944    563.258    562.944    563.049    562.944
 18.370    592.708    563.098     29.610    562.676    562.992    562.676    562.782    562.676
 18.470    554.000    562.831     -8.831    562.407    562.725    562.407    562.513    562.407
 18.570    599.005    562.563     36.442    562.136    562.456    562.136    562.243    562.136
 18.670    591.070    562.294     28.777    561.864    562.186    561.864    561.971    561.864
 18.770    575.916    562.023     13.893    561.589    561.914    561.589    561.698    561.589
 18.870    546.039    561.751    -15.711    561.314    561.641    561.314    561.423    561.314
 18.970    564.000    561.477      2.523    561.036    561.367    561.036    561.147    561.036
 19.070    572.335    561.204     11.131    560.758    561.093    560.758    560.869    560.758
 19.170    555.000    560.943     -5.943    560.477    560.830    560.477    560.589    560.477
 19.270    528.823    560.676    -31.853    560.196    560.563    560.196    560.308    560.196
 19.370    523.665    560.399    -36.735    559.912    560.286    559.912    560.026    559.912
 19.470    530.626    560.121    -29.494    559.628    560.006    559.628    559.743    559.628
 19.570    596.000    559.841     36.159    559.342    559.725    559.342    559.458    559.342
 19.670    593.794    559.560     34.233    559.055    559.444    559.055    559.171    559.055
 19.770    593.000    559.279     33.721    558.766    559.161    558.766    558.884    558.766
 19.870    551.714    558.997     -7.282    558.477    558.878    558.477    558.595    558.477
 19.970    549.000    558.714     -9.714    558.186    558.594    558.186    558.305    558.186
 20.070    556.000    558.430     -2.430    557.893    558.309    557.893    558.014    557.893
 20.170    553.000    558.145     -5.145    557.600    558.023    557.600    557.722    557.600
 20.270    522.708    557.860    -35.152    557.306    557.737    557.306    557.428    557.306
 20.370    527.810    557.583    -29.772    557.010    557.459    557.010    557.134    557.010
 20.470    584.018    557.381     26.637    556.713    557.256    556.713    556.838    556.713
 20.570    598.957    557.116     41.840    556.416    556.990    556.416    556.542    556.416
 20.670    557.000    556.831      0.169    556.117    556.703    556.117    556.244    556.117
 20.770    543.000    556.544    -13.544    555.817    556.415    555.817    555.946    555.817
 20.870    595.455    556.257     39.198    555.517    556.127    555.517    555.647    555.517
 20.970    545.000    555.970    -10.970    555.215    555.838    555.215    555.346    555.215
 21.070    494.000    555.682    -61.682    554.912    555.550    554.912    555.045    554.912
 21.170    550.527    555.395     -4.868    554.609    555.261    554.609    554.743    554.609
 21.270    577.000    555.108     21.892    554.305    554.973    554.305    554.440    554.305
 21.370    536.000    554.822    -18.822    554.000    554.685    554.000    554.137    554.000
 21.470    527.000    554.536    -27.536    553.694    554.398    553.694    553.832    553.694
 21.570    562.000    554.253      7.747    553.387    554.113    553.387    553.527    553.387
 21.670    563.728    553.972      9.756    553.080    553.831    553.080    553.221    553.080
 21.770    582.818    553.690     29.127    552.772    553.547    552.772    552.915    552.772
 21.870    567.513    553.411     14.102    552.463    553.266    552.463    552.608    552.463
 21.970    552.000    553.133     -1.133    552.154    552.986    552.154    552.300    552.154
 22.070    513.407    552.880    -39.473    551.844    552.731    551.844    551.992    551.844
 22.170    530.000    552.676    -22.676    551.533    552.526    551.533    551.683    551.533
 22.270    582.239    552.425     29.815    551.222    552.273    551.222    551.374    551.222
 22.370    589.000    552.157     36.843    550.910    552.003    550.910    551.064    550.910
 22.470    527.000    551.891    -24.891    550.598    551.735    550.598    550.754    550.598
 22.570    562.000    551.631     10.369    550.285    551.472    550.285    550.443    550.285
 22.670    544.000    551.375     -7.375    549.972    551.215    549.972    550.132    549.972
 22.770    544.000    551.127     -7.127    549.658    550.965    549.658    549.821    549.658
 22.870    571.000    550.887     20.113    549.344    550.722    549.344    549.509    549.344
 22.970    583.878    550.656     33.222    549.029    550.489    549.029    549.197    549.029
 23.070    573.137    550.438     22.699    548.714    550.269    548.714    548.885    548.714
 23.170    569.000    550.236     18.764    548.399    550.063    548.399    548.572    548.399
 23.270    560.000    550.052      9.948    548.084    549.877    548.084    548.259    548.084
 23.370    532.990    549.893    -16.904    547.768    549.715    547.768    547.946    547.768
 23.470    554.080    549.767      4.314    547.452    549.586    547.452    547.633    547.452
 23.570    542.000    549.681     -7.681    547.135    549.497    547.135    547.320    547.135
 23.670    524.453    549.650    -25.198    546.818    549.464    546.818    547.006    546.818
 23.770    544.343    549.697     -5.354    546.502    549.507    546.502    546.693    546.502
 23.870    584.548    549.854     34.694    546.185    549.660    546.185    546.379    546.185
 23.970    578.937    550.184     28.753    545.867    549.987    545.867    546.066    545.867
 24.070    587.025    550.840     36.185    545.550    550.641    545.550    545.753    545.550
 24.170    546.000    552.224     -6.224    545.233    552.021    545.233    545.439    545.233
 24.270    557.712    555.343      2.369    544.915    555.139    544.915    545.126    544.915
 24.370    605.355    562.142     43.213    544.598    561.938    544.598    544.813    544.598
 24.470    619.106    575.067     44.039    544.280    574.867    544.280    544.500    544.280
 24.570    609.000    595.077     13.923    543.962    594.888    543.962    544.187    543.962
 24.670    601.557    618.200    -16.642    543.645    618.021    543.645    543.875    543.645
 24.770    675.000    633.322     41.678    543.327    633.149    543.327    543.563    543.327
 24.870    587.428    629.604    -42.175    543.009    629.423    543.009    543.251    543.009
 24.970    612.389    609.984      2.405    542.692    609.783    542.692    542.940    542.692
 25.070    621.913    586.656     35.258    542.375    586.432    542.375    542.629    542.375
 25.170    568.000    568.348     -0.348    542.057    568.104    542.057    542.319    542.057
 25.270    589.965    557.090     32.876    541.740    556.830    541.740    542.009    541.740
 25.370    558.430    551.165      7.265    541.423    550.894    541.423    541.700    541.423
 25.470    580.000    548.199     31.801    541.106    547.917    541.106    541.392    541.106
 25.570    554.000    546.580      7.420    540.789    546.288    540.789    541.084    540.789
 25.670    561.000    545.546     15.454    540.473    545.243    540.473    540.777    540.473
 25.770    557.000    544.798     12.202    540.157    544.485    540.157    540.471    540.157
 25.870    574.000    544.212     29.788    539.841    543.888    539.841    540.167    539.841
 25.970    539.000    543.730     -4.730    539.525    543.394    539.525    539.863    539.525
 26.070    576.477    543.309     33.168    539.210    542.959    539.210    539.560    539.210
 26.170    575.000    542.952     32.048    538.895    542.588    538.895    539.259    538.895
 26.270    510.497    542.653    -32.155    538.580    542.273    538.580    538.960    538.580
 26.370    541.000    542.405     -1.405    538.265    542.009    538.265    538.662    538.265
 26.470    534.260    542.208     -7.948    537.951    541.794    537.951    538.366    537.951
 26.570    518.000    542.074    -24.074    537.638    541.640    537.638    538.072    537.638
 26.670    552.000    542.009      9.991    537.324    541.553    537.324    537.780    537.324
 26.770    528.869    541.985    -13.116    537.012    541.505    537.012    537.491    537.012
 26.870    537.000    542.032     -5.032    536.699    541.526    536.699    537.205    536.699
 26.970    564.699    542.171     22.528    536.387    541.636    536.387    536.922    536.387
 27.070    538.968    542.424     -3.456    536.076    541.857    536.076    536.643    536.076
 27.170    531.000    542.827    -11.827    535.765    542.223    535.765    536.368    535.765
 27.270    549.000    543.432      5.568    535.454    542.788    535.454    536.098    535.454
 27.370    567.994    544.332     23.663    535.144    543.642    535.144    535.833    535.144
 27.470    515.233    545.657    -30.424    534.835    544.916    534.835    535.575    534.835
 27.570    583.792    547.797     35.995    534.526    546.997    534.526    535.324    534.526
 27.670    593.000    552.147     40.853    534.218    551.279    534.218    535.083    534.218
 27.770    537.270    563.409    -26.139    533.911    562.461    533.911    534.852    533.911
 27.870    621.428    593.423     28.004    533.604    592.377    533.604    534.633    533.604
 27.970    634.018    660.369    -26.350    533.297    659.197    533.297    534.430    533.297
 28.070    766.114    771.907     -5.793    532.992    770.582    532.992    534.246    532.992
 28.170    867.919    896.092    -28.173    532.687    894.597    532.687    534.086    532.687
 28.270    910.000    957.133    -47.133    532.382    955.467    532.382    533.955    532.382
 28.370    828.000    905.551    -77.551    532.079    903.709    532.079    533.864    532.079
 28.470    805.488    794.102     11.386    531.776    792.030    531.776    533.825    531.776
 28.570    722.752    707.602     15.150    531.473    705.204    531.473    533.861    531.473
 28.670    661.185    689.945    -28.760    531.172    687.097    531.172    534.006    531.172
 28.770    721.154    735.927    -14.772    530.871    732.470    530.871    534.311    530.871
 28.870    776.438    804.911    -28.473    530.571    800.626    530.571    534.846    530.571
 28.970    825.000    837.409    -12.409    530.272    831.981    530.272    535.705    530.272
 29.070    808.014    798.547      9.468    529.974    791.540    529.974    536.995    529.974
 29.170    676.000    718.510    -42.510    529.677    709.385    529.677    538.815    529.677
 29.270    615.517    644.358    -28.841    529.380    632.526    529.380    541.221    529.380
 29.370    620.000    597.643     22.357    529.084    582.590    529.084    544.142    529.084
 29.470    654.000    575.895     78.105    528.789    557.442    528.789    547.243    528.789
 29.570    564.696    567.852     -3.156    528.495    546.570    528.495    549.777    528.495
 29.670    549.082    564.329    -15.248    528.202    541.797    528.202    550.733    528.202
 29.770    542.559    560.900    -18.341    527.910    539.262    527.910    549.547    527.910
 29.870    603.000    556.646     46.354    527.619    537.622    527.619    546.642    527.619
 29.970    582.000    552.147     29.853    527.328    536.472    527.328    543.002    527.328
 30.070    564.000    548.085     15.915    527.039    535.684    527.039    539.438    527.039
 30.170    562.000    544.838     17.162    526.750    535.238    526.750    536.349    526.750
 30.270    522.000    542.632    -20.632    526.463    535.250    526.463    533.842    526.463
 30.370    513.482    541.882    -28.400    526.177    536.175    526.177    531.879    526.177
