neutron_powder_diffraction_0025
R_wp: 3.697
Temperature (K): 519.093
Counts: 83319.00
Wavelength (Ã…): 2.52098
COMMENTS
Test file for demonstrating the .xyy file format in Reel1.0
END OF HEADER
   tth       Y_obs     Y_calc      Y_res    Background    Phase_1_Nuc    Phase_1_Mag    Phase_2_Nuc    Phase_2_Mag
  9.970    744.000    716.720     27.280    715.050    716.102    715.667    715.050    715.050
 10.070    743.000    715.775     27.225    714.014    715.151    714.638    714.014    714.014
 10.170    761.632    714.847     46.785    712.982    714.216    713.613    712.982    712.982
 10.270    749.000    713.937     35.063    711.956    713.299    712.593    711.956    711.956
 10.370    689.000    713.049    -24.049    710.934    712.404    711.578    710.934    710.934
 10.470    749.000    712.186     36.814    709.917    711.534    710.568    709.917    709.917
 10.570    699.000    711.353    -12.353    708.905    710.694    709.563    708.905    708.905
 10.670    708.000    710.556     -2.556    707.897    709.889    708.563    707.897    707.897
 10.770    761.000    709.801     51.199    706.894    709.127    707.567    706.894    706.894
 10.870    726.000    709.101     16.899    705.896    708.419    706.577    705.896    705.896
 10.970    695.355    708.468    -13.113    704.903    707.778    705.591    704.903    704.903
 11.070    706.000    707.922     -1.922    703.914    707.225    704.610    703.914    703.914
 11.170    734.000    707.490     26.510    702.930    706.785    703.634    702.930    702.930
 11.270    744.151    707.214     36.937    701.951    706.500    702.662    701.951    701.951
 11.370    677.000    707.157    -30.157    700.977    706.435    701.696    700.977    700.977
 11.470    783.000    707.443     75.557    700.007    706.712    700.734    700.007    700.007
 11.570    731.000    708.334     22.666    699.042    707.593    699.777    699.042    699.042
 11.670    798.000    710.416     87.584    698.081    709.664    698.826    698.081    698.081
 11.770    730.880    714.870     16.010    697.125    714.107    697.879    697.125    697.125
 11.870    705.995    723.646    -17.651    696.174    722.868    696.937    696.174    696.174
 11.970    794.055    739.031     55.024    695.228    738.235    695.999    695.228    695.228
 12.070    843.000    762.103     80.897    694.286    761.284    695.066    694.286    694.286
 12.170    851.000    789.899     61.101    693.349    789.054    694.139    693.349    693.349
 12.270    840.000    812.449     27.551    692.416    811.581    693.216    692.416    692.416
 12.370    866.497    816.048     50.449    691.488    815.167    692.297    691.488    691.488
 12.470    762.240    797.129    -34.889    690.565    796.249    691.384    690.565    690.565
 12.570    725.000    767.639    -42.639    689.647    766.766    690.475    689.647    689.647
 12.670    790.795    740.344     50.451    688.733    739.475    689.572    688.733    688.733
 12.770    763.768    720.355     43.414    687.823    719.487    688.673    687.823    687.823
 12.870    685.062    707.667    -22.605    686.919    706.795    687.779    686.919    686.919
 12.970    638.000    700.148    -62.148    686.018    699.269    686.890    686.018    686.018
 13.070    675.000    695.608    -20.608    685.123    694.720    686.005    685.123    685.123
 13.170    713.749    692.577     21.171    684.232    691.680    685.125    684.232    684.232
 13.270    692.311    690.297      2.014    683.346    689.389    684.250    683.346    683.346
 13.370    659.000    688.424    -29.424    682.464    687.505    683.380    682.464    682.464
 13.470    679.000    686.802     -7.802    681.587    685.872    682.515    681.587    681.587
 13.570    650.602    685.354    -34.752    680.714    684.412    681.655    680.714    680.714
 13.670    706.031    684.033     21.998    679.846    683.079    680.799    679.846    679.846
 13.770    645.000    682.807    -37.807    678.983    681.840    679.948    678.983    678.983
 13.870    637.226    681.654    -44.429    678.124    680.675    679.102    678.124    678.124
 13.970    702.000    680.560     21.440    677.270    679.567    678.261    677.270    677.270
 14.070    641.779    679.512    -37.732    676.420    678.506    677.424    676.420    676.420
 14.170    676.000    678.505     -2.505    675.575    677.486    676.593    675.575    675.575
 14.270    693.000    677.547     15.453    674.734    676.514    675.766    674.734    674.734
 14.370    671.350    676.606     -5.256    673.898    675.558    674.945    673.898    673.898
 14.470    698.000    675.678     22.322    673.066    674.616    674.128    673.066    673.066
 14.570    644.000    674.769    -30.769    672.239    673.692    673.315    672.239    672.239
 14.670    646.000    673.877    -27.877    671.416    672.785    672.508    671.416    671.416
 14.770    713.000    673.000     40.000    670.598    671.892    671.705    670.598    670.598
 14.870    708.383    672.137     36.246    669.784    671.013    670.907    669.784    669.784
 14.970    621.000    671.286    -50.286    668.975    670.147    670.114    668.975    668.975
 15.070    697.762    670.446     27.315    668.170    669.291    669.326    668.170    668.170
 15.170    644.454    669.617    -25.164    667.370    668.445    668.542    667.370    667.370
 15.270    667.008    668.799     -1.791    666.574    667.609    667.763    666.574    666.574
 15.370    666.000    667.994     -1.994    665.783    666.786    666.990    665.783    665.783
 15.470    687.112    667.193     19.919    664.996    665.968    666.221    664.996    664.996
 15.570    709.000    666.400     42.601    664.213    665.156    665.457    664.213    664.213
 15.670    668.301    665.614      2.687    663.435    664.352    664.697    663.435    663.435
 15.770    664.000    664.836     -0.836    662.662    663.554    663.943    662.662    662.662
 15.870    652.779    664.065    -11.286    661.892    662.764    663.194    661.892    661.892
 15.970    661.000    663.301     -2.301    661.128    661.980    662.449    661.128    661.128
 16.070    637.000    662.544    -25.544    660.367    661.202    661.709    660.367    660.367
 16.170    634.000    661.794    -27.794    659.611    660.430    660.974    659.611    659.611
 16.270    700.247    661.050     39.197    658.859    659.665    660.244    658.859    658.859
 16.370    677.357    660.312     17.046    658.112    658.905    659.519    658.112    658.112
 16.470    646.000    659.580    -13.580    657.369    658.150    658.799    657.369    657.369
 16.570    671.000    658.855     12.145    656.631    657.402    658.083    656.631    656.631
 16.670    700.000    658.141     41.859    655.896    656.664    657.373    655.896    655.896
 16.770    647.585    657.430     -9.845    655.167    655.928    656.668    655.167    655.167
 16.870    642.000    656.723    -14.723    654.441    655.196    655.967    654.441    654.441
 16.970    702.897    656.021     46.876    653.720    654.469    655.272    653.720    653.720
 17.070    635.749    655.325    -19.576    653.003    653.746    654.581    653.003    653.003
 17.170    656.000    654.637      1.363    652.290    653.032    653.896    652.290    652.290
 17.270    688.121    653.987     34.135    651.582    652.352    653.216    651.582    651.582
 17.370    618.000    653.369    -35.369    650.878    651.704    652.543    650.878    650.878
 17.470    567.000    652.702    -85.702    650.178    651.007    651.873    650.178    650.178
 17.570    612.000    652.035    -40.035    649.483    650.310    651.207    649.483    649.483
 17.670    677.000    651.373     25.627    648.792    649.618    650.547    648.792    648.792
 17.770    669.214    650.718     18.496    648.105    648.931    649.892    648.105    648.105
 17.870    677.000    650.070     26.930    647.422    648.250    649.242    647.422    647.422
 17.970    641.000    649.449     -8.449    646.744    647.596    648.597    646.744    646.744
 18.070    644.879    648.818     -3.939    646.070    646.931    647.957    646.070    646.070
 18.170    633.000    648.186    -15.186    645.400    646.263    647.322    645.400    645.400
 18.270    665.496    647.558     17.937    644.734    645.599    646.693    644.734    644.734
 18.370    616.459    646.937    -30.477    644.073    644.940    646.069    644.073    644.073
 18.470    659.634    646.321     13.313    643.416    644.286    645.450    643.416    643.416
 18.570    610.858    645.711    -34.852    642.762    643.636    644.837    642.762    642.762
 18.670    618.341    645.107    -26.765    642.114    642.991    644.229    642.114    642.114
 18.770    638.970    644.508     -5.539    641.469    642.351    643.626    641.469    641.469
 18.870    595.543    643.921    -48.378    640.828    641.720    643.029    640.828    640.828
 18.970    645.000    643.343      1.657    640.192    641.097    642.437    640.192    640.192
 19.070    629.000    642.763    -13.763    639.560    640.471    641.851    639.560    639.560
 19.170    602.598    642.188    -39.590    638.931    639.849    641.270    638.931    638.931
 19.270    685.167    641.620     43.547    638.307    639.232    640.695    638.307    638.307
 19.370    661.000    641.063     19.937    637.688    638.623    640.128    637.688    637.688
 19.470    627.000    640.566    -13.566    637.072    638.056    639.581    637.072    637.072
 19.570    674.150    640.034     34.115    636.460    637.465    639.029    636.460    636.460
 19.670    630.000    639.495     -9.495    635.853    636.870    638.478    635.853    635.853
 19.770    605.000    638.981    -33.981    635.249    636.298    637.932    635.249    635.249
 19.870    603.644    638.457    -34.814    634.650    635.714    637.392    634.650    634.650
 19.970    644.000    637.936      6.064    634.054    635.131    636.859    634.054    634.054
 20.070    582.000    637.420    -55.420    633.463    634.552    636.332    633.463    633.463
 20.170    598.000    636.921    -38.921    632.876    633.981    635.816    632.876    632.876
 20.270    635.000    636.467     -1.467    632.293    633.440    635.319    632.293    632.293
 20.370    631.902    635.990     -4.088    631.714    632.889    634.814    631.714    631.714
 20.470    598.000    635.574    -37.574    631.138    632.398    634.314    631.138    631.138
 20.570    620.000    635.111    -15.111    630.567    631.859    633.819    630.567    630.567
 20.670    639.643    634.651      4.993    630.000    631.319    633.332    630.000    630.000
 20.770    616.795    634.208    -17.413    629.437    630.795    632.851    629.437    629.437
 20.870    615.000    633.762    -18.762    628.878    630.263    632.377    628.878    628.878
 20.970    679.641    633.357     46.284    628.323    629.768    631.911    628.323    628.323
 21.070    636.000    632.922      3.078    627.771    629.242    631.452    627.771    627.771
 21.170    644.000    632.493     11.507    627.224    628.717    631.000    627.224    627.224
 21.270    620.934    632.077    -11.142    626.681    628.200    630.557    626.681    626.681
 21.370    639.000    631.682      7.318    626.141    627.695    630.128    626.141    626.141
 21.470    630.000    631.286     -1.286    625.606    627.191    629.701    625.606    625.606
 21.570    628.053    630.911     -2.858    625.074    626.703    629.282    625.074    625.074
 21.670    596.000    630.532    -34.532    624.547    626.208    628.871    624.547    624.547
 21.770    657.194    630.163     27.030    624.023    625.717    628.469    624.023    624.023
 21.870    642.504    629.806     12.698    623.503    625.232    628.077    623.503    623.503
 21.970    638.000    629.461      8.539    622.987    624.754    627.694    622.987    622.987
 22.070    666.000    629.128     36.872    622.475    624.283    627.321    622.475    622.475
 22.170    597.828    628.810    -30.982    621.966    623.819    626.958    621.966    621.966
 22.270    621.000    628.507     -7.507    621.462    623.364    626.605    621.462    621.462
 22.370    635.000    628.218      6.782    620.961    622.915    626.264    620.961    620.961
 22.470    647.000    627.945     19.055    620.464    622.477    625.934    620.464    620.464
 22.570    637.860    627.691     10.169    619.971    622.048    625.616    619.971    619.971
 22.670    643.000    627.456     15.544    619.482    621.628    625.311    619.482    619.482
 22.770    583.234    627.242    -44.009    618.997    621.220    625.019    618.997    618.997
 22.870    627.000    627.057     -0.057    618.515    620.829    624.742    618.515    618.515
 22.970    630.000    626.890      3.110    618.037    620.448    624.478    618.037    618.037
 23.070    629.000    626.749      2.251    617.563    620.083    624.230    617.563    617.563
 23.170    613.000    626.640    -13.640    617.093    619.737    623.997    617.093    617.093
 23.270    598.000    626.567    -28.567    616.626    619.412    623.780    616.626    616.626
 23.370    605.000    626.533    -21.533    616.163    619.114    623.583    616.163    616.163
 23.470    653.000    626.548     26.452    615.704    618.848    623.404    615.704    615.704
 23.570    623.000    626.617     -3.617    615.248    618.620    623.245    615.248    615.248
 23.670    622.000    626.752     -4.752    614.797    618.442    623.108    614.797    614.797
 23.770    617.000    626.969     -9.969    614.348    618.326    622.993    614.348    614.348
 23.870    618.064    627.289     -9.225    613.904    618.291    622.903    613.904    613.904
 23.970    663.000    627.741     35.259    613.463    618.367    622.839    613.463    613.463
 24.070    630.000    628.374      1.626    613.026    618.599    622.803    613.026    613.026
 24.170    624.000    629.281     -5.281    612.593    619.078    622.798    612.593    612.593
 24.270    622.339    630.656     -8.317    612.163    619.997    622.826    612.163    612.163
 24.370    639.000    632.924      6.076    611.736    621.775    622.890    611.736    611.736
 24.470    592.000    636.903    -44.903    611.314    625.233    622.992    611.314    611.314
 24.570    693.968    643.893     50.075    610.895    631.664    623.136    610.895    610.895
 24.670    668.000    655.338     12.662    610.479    642.511    623.326    610.479    610.479
 24.770    685.000    671.811     13.189    610.067    658.344    623.566    610.067    610.067
 24.870    698.000    691.241      6.759    609.659    677.082    623.862    609.659    609.659
 24.970    718.000    707.129     10.871    609.254    692.219    624.220    609.254    609.254
 25.070    745.000    710.693     34.307    608.853    694.960    624.644    608.853    608.853
 25.170    701.000    699.586      1.414    608.455    682.946    625.144    608.455    608.455
 25.270    706.000    681.335     24.665    608.061    663.704    625.728    608.061    608.061
 25.370    687.000    664.269     22.731    607.670    645.558    626.405    607.670    607.670
 25.470    638.315    652.012    -13.698    607.283    632.123    627.187    607.283    607.283
 25.570    642.000    644.721     -2.721    606.899    623.541    628.087    606.899    606.899
 25.670    603.775    641.110    -37.335    606.519    618.512    629.122    606.519    606.519
 25.770    612.999    639.763    -26.764    606.142    615.599    630.309    606.142    606.142
 25.870    682.711    639.695     43.016    605.769    613.795    631.670    605.769    605.769
 25.970    640.000    640.386     -0.386    605.399    612.553    633.233    605.399    605.399
 26.070    632.836    641.615     -8.779    605.033    611.620    635.027    605.033    605.033
 26.170    664.000    643.306     20.694    604.670    610.883    637.092    604.670    604.670
 26.270    625.243    645.451    -20.208    604.310    610.286    639.474    604.310    604.310
 26.370    647.000    648.084     -1.084    603.954    609.804    642.232    603.954    603.954
 26.470    647.831    651.251     -3.420    603.601    609.417    645.433    603.601    603.601
 26.570    639.000    655.022    -16.022    603.251    609.106    649.163    603.251    603.251
 26.670    647.000    659.510    -12.510    602.905    608.874    653.538    602.905    602.905
 26.770    684.000    664.860     19.140    602.562    608.719    658.699    602.562    602.562
 26.870    689.000    671.262     17.738    602.223    608.646    664.834    602.223    602.223
 26.970    701.000    678.971     22.029    601.887    608.665    672.187    601.887    601.887
 27.070    683.000    688.331     -5.331    601.554    608.790    681.087    601.554    601.554
 27.170    688.987    699.812    -10.825    601.224    609.044    691.984    601.224    601.224
 27.270    718.000    714.072      3.928    600.898    609.458    705.501    600.898    600.898
 27.370    663.000    732.052    -69.052    600.575    610.080    722.534    600.575    600.575
 27.470    768.000    755.156     12.844    600.256    610.981    744.414    600.256    600.256
 27.570    757.000    785.705    -28.705    599.939    612.280    773.342    599.939    599.939
 27.670    828.000    828.564     -0.564    599.626    614.224    813.936    599.626    599.626
 27.770    942.000    897.374     44.626    599.316    617.500    879.140    599.316    599.316
 27.870   1021.154   1033.881    -12.726    599.009    624.211   1008.578    599.009    599.009
 27.970   1276.000   1347.402    -71.402    598.706    639.854   1306.040    598.706    598.706
 28.070   2046.000   2047.091     -1.091    598.405    674.946   1970.129    598.405    598.405
 28.170   3161.000   3368.316   -207.316    598.108    741.329   3224.401    598.108    598.108
 28.270   5230.000   5303.689    -73.689    597.814    838.673   5061.929    597.814    597.814
 28.370   7118.814   7268.796   -149.982    597.523    937.715   6927.756    597.523    597.523
 28.470   8059.000   8138.665    -79.665    597.236    982.157   7753.223    597.236    597.236
 28.570   7438.636   7267.972    170.664    596.951    940.110   6924.626    596.951    596.951
 28.670   5413.379   5476.763    -63.383    596.670    853.906   5219.502    596.670    596.670
 28.770   3949.500   3980.241    -30.742    596.391    786.411   3790.210    596.391    596.391
 28.870   3401.000   3390.303     10.697    596.116    770.021   3216.331    596.116    596.116
 28.970   3770.853   3649.834    121.019    595.844    801.318   3444.248    595.844    595.844
 29.070   4334.903   4263.436     71.467    595.575    850.255   4008.665    595.575    595.575
 29.170   4542.000   4545.769     -3.769    595.309    872.489   4268.618    595.309    595.309
 29.270   4172.000   4087.717     84.283    595.046    841.141   3841.816    595.046    595.046
 29.370   3104.000   3159.545    -55.545    594.786    776.081   2978.524    594.786    594.786
 29.470   2279.651   2233.291     46.360    594.529    710.946   2117.120    594.529    594.529
 29.570   1568.120   1557.335     10.785    594.275    663.401   1488.379    594.275    594.275
 29.670   1107.036   1157.204    -50.168    594.024    635.301   1116.024    594.024    594.024
 29.770   1026.000    950.994     75.006    593.776    620.883    923.935    593.776    593.776
 29.870    868.000    848.631     19.369    593.531    613.798    828.386    593.531    593.531
 29.970    819.000    793.159     25.841    593.289    610.038    776.421    593.289    593.289
 30.070    783.644    758.130     25.513    593.050    607.751    743.435    593.050    593.050
 30.170    774.358    733.262     41.095    592.814    606.236    719.842    592.814    592.814
 30.270    775.000    714.623     60.377    592.581    605.257    701.947    592.581    592.581
 30.370    715.000    700.518     14.482    592.351    604.775    688.091    592.351    592.351
