neutron_powder_diffraction_0170
R_wp: 3.868
Temperature (K): 1074.000
Counts: 83814.00
Wavelength (Ã…): 2.52098
COMMENTS
Test file for demonstrating the .xyy file format in Reel1.0
END OF HEADER
   tth       Y_obs     Y_calc      Y_res    Background    Phase_1_Nuc    Phase_1_Mag    Phase_2_Nuc    Phase_2_Mag
  9.970    599.000    572.906     26.094    572.196    572.856    572.196    572.245    572.196
 10.070    532.617    573.031    -40.414    572.264    572.981    572.264    572.313    572.264
 10.170    596.000    573.159     22.841    572.326    573.109    572.326    572.376    572.326
 10.270    530.616    573.294    -42.677    572.383    573.241    572.383    572.435    572.383
 10.370    595.724    573.433     22.291    572.434    573.379    572.434    572.487    572.434
 10.470    614.071    573.583     40.489    572.480    573.528    572.480    572.534    572.480
 10.570    590.000    573.744     16.256    572.520    573.689    572.520    572.574    572.520
 10.670    614.000    573.924     40.076    572.555    573.869    572.555    572.610    572.555
 10.770    583.000    574.130      8.870    572.584    574.073    572.584    572.640    572.584
 10.870    586.897    574.368     12.529    572.608    574.311    572.608    572.664    572.608
 10.970    590.000    574.652     15.348    572.628    574.595    572.628    572.684    572.628
 11.070    580.000    575.000      5.000    572.641    574.943    572.641    572.698    572.641
 11.170    587.000    575.438     11.562    572.650    575.380    572.650    572.707    572.650
 11.270    562.165    576.004    -13.840    572.654    575.946    572.654    572.711    572.654
 11.370    585.648    576.770      8.879    572.652    576.710    572.652    572.710    572.652
 11.470    531.420    577.885    -46.465    572.646    577.824    572.646    572.704    572.646
 11.570    599.000    579.767     19.233    572.635    579.706    572.635    572.693    572.635
 11.670    617.935    583.587     34.347    572.619    583.524    572.619    572.677    572.619
 11.770    632.000    592.013     39.987    572.598    591.944    572.598    572.656    572.598
 11.870    655.000    609.272     45.728    572.572    609.194    572.572    572.631    572.572
 11.970    667.424    638.563     28.861    572.542    638.469    572.542    572.600    572.542
 12.070    675.000    676.053     -1.053    572.506    675.938    572.506    572.565    572.506
 12.170    660.000    705.453    -45.453    572.467    705.322    572.467    572.526    572.467
 12.270    702.000    706.368     -4.368    572.422    706.236    572.422    572.482    572.422
 12.370    630.343    677.938    -47.595    572.373    677.821    572.373    572.433    572.373
 12.470    629.000    640.201    -11.201    572.320    640.104    572.320    572.380    572.320
 12.570    644.000    610.169     33.831    572.262    610.089    572.262    572.323    572.262
 12.670    550.819    592.240    -41.421    572.200    592.168    572.200    572.261    572.200
 12.770    571.000    583.393    -12.393    572.134    583.326    572.134    572.195    572.134
 12.870    548.000    579.341    -31.341    572.063    579.276    572.063    572.124    572.063
 12.970    547.000    577.318    -30.318    571.988    577.253    571.988    572.049    571.988
 13.070    574.000    576.096     -2.096    571.908    576.031    571.908    571.971    571.908
 13.170    551.224    575.236    -24.012    571.825    575.171    571.825    571.889    571.825
 13.270    604.606    574.580     30.026    571.737    574.515    571.737    571.801    571.737
 13.370    541.572    574.057    -32.484    571.646    573.991    571.646    571.710    571.646
 13.470    555.000    573.625    -18.625    571.550    573.559    571.550    571.615    571.550
 13.570    544.186    573.260    -29.074    571.450    573.194    571.450    571.515    571.450
 13.670    541.000    572.943    -31.943    571.347    572.876    571.347    571.412    571.347
 13.770    580.000    572.661      7.339    571.239    572.595    571.239    571.305    571.239
 13.870    589.000    572.406     16.594    571.128    572.339    571.128    571.194    571.128
 13.970    601.121    572.171     28.951    571.013    572.104    571.013    571.079    571.013
 14.070    565.447    571.951     -6.504    570.894    571.883    570.894    570.961    570.894
 14.170    556.000    571.742    -15.742    570.771    571.675    570.771    570.838    570.771
 14.270    565.000    571.542     -6.542    570.645    571.475    570.645    570.713    570.645
 14.370    517.000    571.349    -54.349    570.515    571.281    570.515    570.583    570.515
 14.470    602.000    571.161     30.839    570.382    571.093    570.382    570.450    570.382
 14.570    566.000    570.979     -4.979    570.245    570.910    570.245    570.313    570.245
 14.670    589.423    570.798     18.625    570.104    570.729    570.104    570.173    570.104
 14.770    593.000    570.618     22.382    569.960    570.548    569.960    570.030    569.960
 14.870    566.784    570.438     -3.654    569.813    570.368    569.813    569.883    569.813
 14.970    601.000    570.258     30.742    569.662    570.188    569.662    569.732    569.662
 15.070    567.000    570.079     -3.079    569.508    570.008    569.508    569.579    569.508
 15.170    534.000    569.899    -35.899    569.351    569.828    569.351    569.422    569.351
 15.270    555.000    569.718    -14.718    569.190    569.646    569.190    569.262    569.190
 15.370    535.173    569.536    -34.363    569.027    569.464    569.027    569.098    569.027
 15.470    533.663    569.353    -35.689    568.860    569.281    568.860    568.932    568.860
 15.570    585.498    569.168     16.330    568.690    569.095    568.690    568.762    568.690
 15.670    539.000    568.982    -29.982    568.516    568.909    568.516    568.589    568.516
 15.770    582.000    568.794     13.206    568.340    568.720    568.340    568.414    568.340
 15.870    516.000    568.604    -52.604    568.161    568.530    568.161    568.235    568.161
 15.970    589.130    568.413     20.717    567.979    568.338    567.979    568.054    567.979
 16.070    559.000    568.223     -9.223    567.794    568.144    567.794    567.873    567.794
 16.170    562.000    568.031     -6.031    567.606    567.949    567.606    567.687    567.606
 16.270    573.000    567.835      5.165    567.415    567.753    567.415    567.497    567.415
 16.370    555.000    567.635    -12.635    567.222    567.553    567.222    567.304    567.222
 16.470    517.000    567.434    -50.434    567.025    567.351    567.025    567.108    567.025
 16.570    545.099    567.230    -22.131    566.826    567.147    566.826    566.910    566.826
 16.670    548.457    567.024    -18.567    566.625    566.940    566.625    566.708    566.625
 16.770    579.000    566.816     12.184    566.420    566.732    566.420    566.504    566.420
 16.870    558.000    566.606     -8.606    566.213    566.521    566.213    566.298    566.213
 16.970    568.748    566.394      2.354    566.004    566.309    566.004    566.089    566.004
 17.070    577.000    566.180     10.820    565.792    566.094    565.792    565.877    565.792
 17.170    531.742    565.964    -34.222    565.577    565.878    565.577    565.663    565.577
 17.270    568.000    565.748      2.252    565.360    565.661    565.360    565.447    565.360
 17.370    553.216    565.528    -12.312    565.140    565.440    565.140    565.228    565.140
 17.470    596.846    565.306     31.540    564.919    565.217    564.919    565.007    564.919
 17.570    533.320    565.081    -31.761    564.694    564.992    564.694    564.783    564.694
 17.670    597.023    564.855     32.168    564.468    564.765    564.468    564.557    564.468
 17.770    523.724    564.626    -40.903    564.239    564.537    564.239    564.329    564.239
 17.870    533.000    564.396    -31.396    564.008    564.306    564.008    564.099    564.008
 17.970    540.000    564.164    -24.164    563.775    564.073    563.775    563.866    563.775
 18.070    532.000    563.930    -31.930    563.540    563.838    563.540    563.631    563.540
 18.170    550.000    563.694    -13.694    563.302    563.602    563.302    563.395    563.302
 18.270    572.000    563.456      8.544    563.063    563.363    563.063    563.156    563.063
 18.370    558.000    563.217     -5.217    562.821    563.123    562.821    562.915    562.821
 18.470    566.000    562.976      3.024    562.577    562.881    562.577    562.672    562.577
 18.570    580.261    562.733     17.528    562.332    562.638    562.332    562.427    562.332
 18.670    542.197    562.489    -20.292    562.084    562.393    562.084    562.180    562.084
 18.770    553.000    562.242     -9.242    561.834    562.146    561.834    561.931    561.834
 18.870    551.000    561.995    -10.995    561.583    561.898    561.583    561.680    561.583
 18.970    531.104    561.746    -30.642    561.330    561.648    561.330    561.428    561.330
 19.070    514.000    561.495    -47.495    561.075    561.397    561.075    561.173    561.075
 19.170    547.000    561.244    -14.244    560.818    561.144    560.818    560.917    560.818
 19.270    516.350    560.991    -44.641    560.559    560.891    560.559    560.659    560.559
 19.370    573.000    560.736     12.264    560.299    560.635    560.299    560.400    560.299
 19.470    567.000    560.480      6.520    560.037    560.377    560.037    560.139    560.037
 19.570    499.000    560.222    -61.222    559.773    560.119    559.773    559.876    559.773
 19.670    539.000    559.963    -20.963    559.508    559.859    559.508    559.611    559.508
 19.770    567.000    559.702      7.298    559.241    559.598    559.241    559.345    559.241
 19.870    572.933    559.442     13.491    558.972    559.337    558.972    559.078    558.972
 19.970    566.983    559.193      7.790    558.702    559.087    558.702    558.809    558.702
 20.070    552.000    558.940     -6.940    558.431    558.832    558.431    558.538    558.431
 20.170    559.000    558.676      0.324    558.158    558.568    558.158    558.266    558.158
 20.270    503.000    558.411    -55.411    557.884    558.301    557.884    557.993    557.884
 20.370    559.000    558.145      0.855    557.608    558.034    557.608    557.718    557.608
 20.470    521.000    557.877    -36.877    557.331    557.766    557.331    557.442    557.331
 20.570    560.000    557.610      2.390    557.052    557.497    557.052    557.165    557.052
 20.670    538.000    557.343    -19.343    556.773    557.228    556.773    556.888    556.773
 20.770    575.352    557.075     18.277    556.492    556.957    556.492    556.609    556.492
 20.870    520.000    556.805    -36.805    556.209    556.687    556.209    556.328    556.209
 20.970    575.000    556.535     18.465    555.926    556.415    555.926    556.046    555.926
 21.070    599.338    556.265     43.073    555.641    556.144    555.641    555.762    555.641
 21.170    574.056    555.995     18.062    555.355    555.872    555.355    555.478    555.355
 21.270    534.397    555.724    -21.327    555.068    555.600    555.068    555.192    555.068
 21.370    533.000    555.453    -22.453    554.780    555.328    554.780    554.906    554.780
 21.470    554.000    555.183     -1.183    554.491    555.056    554.491    554.618    554.491
 21.570    539.000    554.913    -15.913    554.201    554.785    554.201    554.329    554.201
 21.670    509.000    554.643    -45.643    553.910    554.514    553.910    554.039    553.910
 21.770    608.000    554.382     53.618    553.618    554.251    553.618    553.749    553.618
 21.870    525.286    554.197    -28.911    553.325    554.065    553.325    553.457    553.325
 21.970    503.000    553.952    -50.952    553.031    553.818    553.031    553.165    553.031
 22.070    542.000    553.688    -11.688    552.736    553.553    552.736    552.871    552.736
 22.170    518.139    553.427    -35.288    552.440    553.290    552.440    552.577    552.440
 22.270    513.534    553.187    -39.653    552.143    553.048    552.143    552.283    552.143
 22.370    550.000    552.961     -2.961    551.846    552.820    551.846    551.987    551.846
 22.470    526.000    552.756    -26.756    551.548    552.613    551.548    551.691    551.548
 22.570    597.000    552.528     44.472    551.249    552.383    551.249    551.394    551.249
 22.670    535.068    552.285    -17.217    550.949    552.138    550.949    551.096    550.949
 22.770    521.371    552.045    -30.674    550.649    551.897    550.649    550.798    550.649
 22.870    556.000    551.813      4.187    550.348    551.663    550.348    550.499    550.348
 22.970    526.000    551.591    -25.591    550.046    551.438    550.046    550.199    550.046
 23.070    562.227    551.379     10.848    549.743    551.223    549.743    549.899    549.743
 23.170    578.000    551.181     26.819    549.441    551.023    549.441    549.599    549.441
 23.270    591.128    551.000     40.127    549.137    550.840    549.137    549.298    549.137
 23.370    556.000    550.842      5.158    548.833    550.679    548.833    548.996    548.833
 23.470    524.473    550.713    -26.240    548.528    550.548    548.528    548.694    548.528
 23.570    576.000    550.625     25.375    548.223    550.457    548.223    548.392    548.223
 23.670    553.219    550.586      2.633    547.918    550.415    547.918    548.090    547.918
 23.770    549.000    550.617     -1.617    547.612    550.444    547.612    547.787    547.612
 23.870    536.000    550.750    -14.750    547.305    550.574    547.305    547.484    547.305
 23.970    509.208    551.040    -41.832    546.999    550.861    546.999    547.180    546.999
 24.070    571.615    551.621     19.994    546.691    551.438    546.691    546.877    546.691
 24.170    553.000    552.862      0.138    546.384    552.677    546.384    546.573    546.384
 24.270    574.000    555.743     18.257    546.076    555.556    546.076    546.269    546.076
 24.370    593.395    562.273     31.123    545.768    562.087    545.768    545.965    545.768
 24.470    627.000    575.194     51.806    545.459    575.014    545.459    545.661    545.459
 24.570    603.000    595.814      7.186    545.151    595.644    545.151    545.357    545.151
 24.670    632.000    620.094     11.906    544.842    619.938    544.842    545.053    544.842
 24.770    634.000    636.142     -2.142    544.533    635.993    544.533    544.749    544.533
 24.870    632.000    632.202     -0.202    544.224    632.044    544.224    544.445    544.224
 24.970    652.000    611.460     40.540    543.914    611.282    543.914    544.141    543.914
 25.070    580.000    587.136     -7.136    543.605    586.934    543.605    543.837    543.605
 25.170    613.000    568.474     44.526    543.295    568.252    543.295    543.534    543.295
 25.270    549.000    557.370     -8.370    542.985    557.133    542.985    543.231    542.985
 25.370    574.000    551.744     22.256    542.675    551.495    542.675    542.929    542.675
 25.470    513.000    549.007    -36.007    542.365    548.749    542.365    542.627    542.365
 25.570    539.000    547.521     -8.521    542.055    547.253    542.055    542.325    542.055
 25.670    550.000    546.554      3.446    541.746    546.277    541.746    542.024    541.746
 25.770    562.000    545.833     16.167    541.436    545.546    541.436    541.724    541.436
 25.870    560.000    545.257     14.743    541.126    544.960    541.126    541.424    541.126
 25.970    514.000    544.784    -30.784    540.816    544.476    540.816    541.125    540.816
 26.070    543.000    544.390     -1.390    540.506    544.070    540.506    540.827    540.506
 26.170    536.906    544.057     -7.151    540.197    543.723    540.197    540.531    540.197
 26.270    538.000    543.780     -5.780    539.887    543.432    539.887    540.235    539.887
 26.370    546.835    543.579      3.256    539.578    543.216    539.578    539.941    539.578
 26.470    523.000    543.423    -20.423    539.269    543.044    539.269    539.649    539.269
 26.570    573.000    543.297     29.703    538.960    542.899    538.960    539.358    538.960
 26.670    538.565    543.227     -4.662    538.651    542.809    538.651    539.069    538.651
 26.770    530.662    543.224    -12.562    538.342    542.784    538.342    538.782    538.342
 26.870    509.302    543.290    -33.988    538.034    542.826    538.034    538.498    538.034
 26.970    538.000    543.449     -5.449    537.726    542.958    537.726    538.217    537.726
 27.070    570.000    543.733     26.267    537.418    543.212    537.418    537.939    537.418
 27.170    543.814    544.188     -0.375    537.111    543.634    537.111    537.664    537.111
 27.270    608.000    544.851     63.149    536.804    544.260    536.804    537.395    536.804
 27.370    533.922    545.781    -11.860    536.497    545.148    536.497    537.130    536.497
 27.470    544.000    547.150     -3.150    536.191    546.468    536.191    536.871    536.191
 27.570    521.711    549.348    -27.638    535.885    548.612    535.885    536.619    535.885
 27.670    564.000    553.753     10.247    535.579    552.953    535.579    536.375    535.579
 27.770    574.114    565.037      9.076    535.274    564.163    535.274    536.141    535.274
 27.870    551.866    595.048    -43.183    534.969    594.081    534.969    535.919    534.969
 27.970    695.752    662.218     33.534    534.665    661.134    534.665    535.712    534.665
 28.070    801.410    774.698     26.712    534.361    773.468    534.361    535.522    534.361
 28.170    907.000    900.611      6.389    534.058    899.218    534.058    535.354    534.058
 28.270   1004.000    962.746     41.254    533.755    961.193    533.755    535.214    533.755
 28.370    871.000    910.108    -39.108    533.452    908.393    533.452    535.111    533.452
 28.470    822.000    796.847     25.153    533.151    794.919    533.151    535.056    533.151
 28.570    711.000    709.293      1.707    532.849    707.064    532.849    535.069    532.849
 28.670    707.000    691.601     15.399    532.549    688.953    532.549    535.183    532.549
 28.770    720.000    738.458    -18.458    532.249    735.234    532.249    535.455    532.249
 28.870    761.000    808.854    -47.854    531.949    804.817    531.949    535.977    531.949
 28.970    817.000    842.151    -25.151    531.650    836.921    531.650    536.886    531.650
 29.070    735.000    802.569    -67.569    531.352    795.571    531.352    538.366    531.352
 29.170    738.883    721.472     17.411    531.055    711.923    531.055    540.619    531.055
 29.270    600.947    647.185    -46.239    530.758    634.154    530.758    543.798    530.758
 29.370    611.000    601.413      9.587    530.462    583.990    530.462    547.889    530.462
 29.470    563.000    581.212    -18.212    530.166    558.899    530.166    552.480    530.166
 29.570    582.000    574.672      7.328    529.872    548.087    529.872    556.455    529.872
 29.670    558.801    571.848    -13.047    529.578    543.316    529.578    558.108    529.578
 29.770    609.063    567.884     41.179    529.284    540.754    529.284    556.412    529.284
 29.870    520.814    562.240    -41.426    528.992    539.084    528.992    552.146    528.992
 29.970    592.000    556.203     35.797    528.700    537.908    528.700    546.994    528.700
 30.070    586.000    550.881     35.119    528.409    537.097    528.409    542.192    528.409
 30.170    523.000    546.769    -23.769    528.119    536.629    528.119    538.258    528.119
 30.270    584.000    544.047     39.953    527.830    536.613    527.830    535.262    527.830
 30.370    551.505    543.021      8.485    527.542    537.489    527.542    533.070    527.542
