neutron_powder_diffraction_0094
R_wp: 3.994
Temperature (K): 859.925
Counts: 83557.00
Wavelength (Ã…): 2.52098
COMMENTS
Test file for demonstrating the .xyy file format in Reel1.0
END OF HEADER
   tth       Y_obs     Y_calc      Y_res    Background    Phase_1_Nuc    Phase_1_Mag    Phase_2_Nuc    Phase_2_Mag
  9.970    616.000    550.707     65.293    549.260    550.392    549.260    549.573    549.260
 10.070    571.000    551.308     19.692    549.764    550.992    549.764    550.080    549.764
 10.170    558.941    551.912      7.029    550.259    551.595    550.259    550.575    550.259
 10.270    604.000    552.522     51.478    550.742    552.204    550.742    551.060    550.742
 10.370    585.000    553.141     31.859    551.216    552.822    551.216    551.535    551.216
 10.470    593.000    553.774     39.226    551.679    553.453    551.679    551.999    551.679
 10.570    609.000    554.427     54.573    552.131    554.104    552.131    552.453    552.131
 10.670    573.000    555.106     17.894    552.574    554.782    552.574    552.897    552.574
 10.770    582.000    555.821     26.179    553.006    555.496    553.006    553.330    553.006
 10.870    517.255    556.586    -39.331    553.428    556.259    553.428    553.754    553.428
 10.970    594.148    557.419     36.729    553.841    557.091    553.841    554.168    553.841
 11.070    596.000    558.345     37.655    554.243    558.015    554.243    554.572    554.243
 11.170    614.000    559.401     54.599    554.636    559.069    554.636    554.966    554.636
 11.270    577.000    560.644     16.356    555.019    560.310    555.019    555.350    555.019
 11.370    647.000    562.179     84.821    555.393    561.843    555.393    555.725    555.393
 11.470    568.000    564.214      3.786    555.756    563.876    555.756    556.090    555.756
 11.570    552.000    567.215    -15.215    556.111    566.873    556.111    556.446    556.111
 11.670    576.000    572.146      3.854    556.456    571.800    556.456    556.793    556.456
 11.770    531.297    580.675    -49.378    556.792    580.324    556.792    557.130    556.792
 11.870    636.000    594.958     41.042    557.118    594.598    557.118    557.458    557.118
 11.970    655.069    616.515     38.554    557.435    616.141    557.435    557.777    557.435
 12.070    605.763    643.965    -38.202    557.743    643.575    557.743    558.086    557.743
 12.170    674.000    669.877      4.123    558.043    669.471    558.043    558.387    558.043
 12.270    650.000    680.428    -30.428    558.333    680.015    558.333    558.679    558.333
 12.370    625.000    667.654    -42.654    558.614    667.246    558.614    558.962    558.614
 12.470    620.000    641.220    -21.220    558.887    640.826    558.887    559.236    558.887
 12.570    566.000    614.776    -48.776    559.151    614.395    559.151    559.502    559.151
 12.670    631.494    594.794     36.700    559.406    594.423    559.406    559.758    559.406
 12.770    631.000    582.031     48.969    559.653    581.665    559.653    560.007    559.653
 12.870    523.000    574.742    -51.742    559.891    574.378    559.891    560.247    559.891
 12.970    555.000    570.774    -15.774    560.121    570.412    560.121    560.478    560.121
 13.070    561.006    568.554     -7.548    560.343    568.191    560.343    560.702    560.343
 13.170    576.000    567.204      8.796    560.556    566.841    560.556    560.917    560.556
 13.270    560.000    566.312     -6.312    560.761    565.947    560.761    561.123    560.761
 13.370    518.000    565.690    -47.690    560.958    565.324    560.958    561.322    560.958
 13.470    549.211    565.246    -16.035    561.147    564.878    561.147    561.513    561.147
 13.570    589.000    564.927     24.073    561.328    564.558    561.328    561.696    561.328
 13.670    566.000    564.702      1.298    561.501    564.331    561.501    561.871    561.501
 13.770    557.000    564.544     -7.544    561.667    564.172    561.667    562.038    561.667
 13.870    569.177    564.456      4.721    561.824    564.083    561.824    562.197    561.824
 13.970    568.000    564.387      3.613    561.974    564.011    561.974    562.349    561.974
 14.070    571.000    564.341      6.659    562.116    563.964    562.116    562.493    562.116
 14.170    541.000    564.316    -23.316    562.251    563.937    562.251    562.629    562.251
 14.270    556.000    564.307     -8.307    562.378    563.926    562.378    562.759    562.378
 14.370    538.668    564.310    -25.641    562.498    563.927    562.498    562.880    562.498
 14.470    597.911    564.321     33.590    562.611    563.936    562.611    562.995    562.611
 14.570    552.372    564.338    -11.966    562.716    563.952    562.716    563.102    562.716
 14.670    577.844    564.360     13.484    562.814    563.971    562.814    563.202    562.814
 14.770    532.000    564.383    -32.383    562.905    563.993    562.905    563.295    562.905
 14.870    518.000    564.408    -46.408    562.989    564.015    562.989    563.381    562.989
 14.970    553.343    564.432    -11.089    563.066    564.038    563.066    563.460    563.066
 15.070    571.551    564.456      7.095    563.136    564.060    563.136    563.532    563.136
 15.170    544.775    564.478    -19.703    563.199    564.080    563.199    563.597    563.199
 15.270    523.323    564.498    -41.174    563.255    564.097    563.255    563.656    563.255
 15.370    541.000    564.515    -23.515    563.305    564.112    563.305    563.707    563.305
 15.470    515.063    564.529    -49.466    563.348    564.124    563.348    563.752    563.348
 15.570    559.000    564.539     -5.539    563.384    564.132    563.384    563.791    563.384
 15.670    521.000    564.557    -43.557    563.414    564.147    563.414    563.823    563.414
 15.770    503.000    564.667    -61.667    563.437    564.255    563.437    563.849    563.437
 15.870    529.414    564.685    -35.271    563.454    564.271    563.454    563.868    563.454
 15.970    529.000    564.680    -35.680    563.465    564.264    563.465    563.881    563.465
 16.070    579.000    564.670     14.330    563.470    564.252    563.470    563.888    563.470
 16.170    539.000    564.659    -25.659    563.468    564.238    563.468    563.888    563.468
 16.270    529.000    564.644    -35.644    563.460    564.221    563.460    563.883    563.460
 16.370    562.539    564.621     -2.081    563.446    564.195    563.446    563.871    563.446
 16.470    561.000    564.592     -3.592    563.426    564.164    563.426    563.854    563.426
 16.570    529.000    564.559    -35.559    563.400    564.128    563.400    563.830    563.400
 16.670    600.000    564.521     35.479    563.368    564.088    563.368    563.801    563.368
 16.770    597.665    564.478     33.187    563.330    564.042    563.330    563.766    563.330
 16.870    576.000    564.430     11.570    563.287    563.992    563.287    563.725    563.287
 16.970    545.000    564.378    -19.378    563.237    563.937    563.237    563.678    563.237
 17.070    554.668    564.322     -9.654    563.183    563.879    563.183    563.626    563.183
 17.170    574.616    564.263     10.354    563.122    563.816    563.122    563.569    563.122
 17.270    592.052    564.196     27.856    563.056    563.747    563.056    563.506    563.056
 17.370    541.000    564.124    -23.124    562.985    563.672    562.985    563.437    562.985
 17.470    517.000    564.048    -47.048    562.908    563.593    562.908    563.363    562.908
 17.570    572.000    563.966      8.034    562.826    563.508    562.826    563.284    562.826
 17.670    603.359    563.883     39.476    562.739    563.422    562.739    563.200    562.739
 17.770    544.000    563.817    -19.817    562.646    563.353    562.646    563.110    562.646
 17.870    543.419    563.771    -20.352    562.548    563.304    562.548    563.015    562.548
 17.970    565.704    563.676      2.027    562.445    563.206    562.445    562.916    562.445
 18.070    575.174    563.573     11.601    562.337    563.099    562.337    562.811    562.337
 18.170    573.000    563.466      9.534    562.224    562.989    562.224    562.701    562.224
 18.270    600.302    563.365     36.937    562.107    562.885    562.107    562.587    562.107
 18.370    610.310    563.265     47.045    561.984    562.782    561.984    562.467    561.984
 18.470    582.970    563.157     19.813    561.856    562.670    561.856    562.343    561.856
 18.570    594.868    563.035     31.833    561.724    562.545    561.724    562.214    561.724
 18.670    542.000    562.906    -20.906    561.587    562.412    561.587    562.081    561.587
 18.770    580.000    562.772     17.228    561.445    562.275    561.445    561.943    561.445
 18.870    566.000    562.634      3.366    561.299    562.134    561.299    561.800    561.299
 18.970    532.000    562.493    -30.493    561.148    561.988    561.148    561.653    561.148
 19.070    577.000    562.348     14.652    560.993    561.840    560.993    561.502    560.993
 19.170    559.915    562.210     -2.295    560.833    561.697    560.833    561.346    560.833
 19.270    540.000    562.057    -22.057    560.669    561.541    560.669    561.186    560.669
 19.370    539.000    561.900    -22.900    560.501    561.380    560.501    561.021    560.501
 19.470    609.663    561.739     47.923    560.328    561.215    560.328    560.853    560.328
 19.570    565.000    561.575      3.425    560.151    561.046    560.151    560.680    560.151
 19.670    518.188    561.407    -43.219    559.970    560.874    559.970    560.503    559.970
 19.770    522.096    561.237    -39.141    559.785    560.700    559.785    560.323    559.785
 19.870    577.000    561.063     15.937    559.596    560.521    559.596    560.138    559.596
 19.970    556.008    560.885     -4.877    559.403    560.339    559.403    559.949    559.403
 20.070    606.518    560.704     45.814    559.206    560.153    559.206    559.757    559.206
 20.170    593.512    560.521     32.992    559.005    559.965    559.005    559.561    559.005
 20.270    567.000    560.351      6.649    558.800    559.790    558.800    559.361    558.800
 20.370    561.000    560.196      0.804    558.591    559.630    558.591    559.157    558.591
 20.470    524.171    560.007    -35.836    558.379    559.437    558.379    558.950    558.379
 20.570    524.000    559.816    -35.816    558.163    559.240    558.163    558.739    558.163
 20.670    552.757    559.618     -6.861    557.943    559.037    557.943    558.524    557.943
 20.770    558.000    559.420     -1.420    557.720    558.833    557.720    558.307    557.720
 20.870    584.106    559.242     24.863    557.493    558.650    557.493    558.085    557.493
 20.970    547.000    559.117    -12.117    557.263    558.519    557.263    557.861    557.263
 21.070    564.000    558.935      5.065    557.029    558.331    557.029    557.633    557.029
 21.170    536.081    558.730    -22.650    556.792    558.120    556.792    557.402    556.792
 21.270    516.000    558.534    -42.534    556.551    557.918    556.551    557.168    556.551
 21.370    552.000    558.356     -6.356    556.308    557.733    556.308    556.930    556.308
 21.470    539.000    558.158    -19.158    556.061    557.529    556.061    556.690    556.061
 21.570    594.676    557.965     36.711    555.810    557.329    555.810    556.446    555.810
 21.670    575.000    557.759     17.241    555.557    557.116    555.557    556.200    555.557
 21.770    529.000    557.548    -28.548    555.301    556.898    555.301    555.951    555.301
 21.870    555.000    557.337     -2.337    555.041    556.680    555.041    555.699    555.041
 21.970    571.000    557.124     13.876    554.779    556.460    554.779    555.444    554.779
 22.070    525.046    556.918    -31.872    554.513    556.245    554.513    555.186    554.513
 22.170    538.000    556.718    -18.718    554.245    556.038    554.245    554.925    554.245
 22.270    568.000    556.510     11.490    553.974    555.822    553.974    554.663    553.974
 22.370    569.710    556.306     13.404    553.700    555.609    553.700    554.397    553.700
 22.470    557.230    556.115      1.115    553.423    555.410    553.423    554.129    553.423
 22.570    546.770    555.920     -9.150    553.143    555.205    553.143    553.858    553.143
 22.670    536.000    555.728    -19.728    552.861    555.004    552.861    553.586    552.861
 22.770    531.000    555.544    -24.544    552.576    554.810    552.576    553.310    552.576
 22.870    551.031    555.369     -4.338    552.289    554.625    552.289    553.033    552.289
 22.970    551.000    555.205     -4.205    551.999    554.452    551.999    552.753    551.999
 23.070    556.000    555.057      0.943    551.706    554.292    551.706    552.471    551.706
 23.170    540.000    554.927    -14.927    551.411    554.151    551.411    552.188    551.411
 23.270    555.592    554.820      0.772    551.114    554.033    551.114    551.902    551.114
 23.370    561.000    554.744      6.256    550.814    553.945    550.814    551.614    550.814
 23.470    528.000    554.706    -26.706    550.512    553.895    550.512    551.324    550.512
 23.570    598.000    554.718     43.282    550.208    553.895    550.208    551.033    550.208
 23.670    568.000    554.799     13.201    549.901    553.963    549.901    550.739    549.901
 23.770    526.000    554.975    -28.975    549.592    554.125    549.592    550.445    549.592
 23.870    567.000    555.273     11.727    549.281    554.408    549.281    550.148    549.281
 23.970    555.000    555.760     -0.760    548.968    554.882    548.968    549.850    548.968
 24.070    558.401    556.572      1.829    548.653    555.678    548.653    549.551    548.653
 24.170    537.742    557.994    -20.251    548.336    557.085    548.336    549.250    548.336
 24.270    557.000    560.609     -3.609    548.017    559.685    548.017    548.948    548.017
 24.370    572.000    565.426      6.574    547.696    564.488    547.696    548.644    547.696
 24.470    600.000    573.766     26.234    547.372    572.815    547.372    548.340    547.372
 24.570    541.967    586.657    -44.689    547.048    585.696    547.048    548.035    547.048
 24.670    618.613    603.587     15.026    546.721    602.619    546.721    547.728    546.721
 24.770    621.000    620.619      0.381    546.392    619.642    546.392    547.421    546.392
 24.870    608.023    629.545    -21.522    546.062    628.552    546.062    547.114    546.062
 24.970    635.000    624.126     10.874    545.730    623.105    545.730    546.805    545.730
 25.070    567.445    608.235    -40.791    545.396    607.179    545.396    546.496    545.396
 25.170    588.025    590.275     -2.250    545.061    589.179    545.061    546.187    545.061
 25.270    575.000    575.494     -0.494    544.724    574.359    544.724    545.878    544.724
 25.370    594.000    565.295     28.705    544.385    564.124    544.385    545.569    544.385
 25.470    518.994    559.002    -40.008    544.045    557.796    544.045    545.260    544.045
 25.570    559.092    555.314      3.778    543.704    554.073    543.704    544.951    543.704
 25.670    554.539    553.103      1.436    543.361    551.827    543.361    544.642    543.361
 25.770    586.278    551.667     34.611    543.017    550.353    543.017    544.334    543.017
 25.870    570.000    550.640     19.360    542.671    549.286    542.671    544.027    542.671
 25.970    540.000    549.854     -9.854    542.324    548.458    542.324    543.721    542.324
 26.070    556.771    549.229      7.542    541.976    547.789    541.976    543.417    541.976
 26.170    565.000    548.724     16.276    541.626    547.238    541.626    543.114    541.626
 26.270    540.352    548.317     -7.964    541.275    546.781    541.275    542.813    541.275
 26.370    568.000    547.993     20.007    540.923    546.403    540.923    542.514    540.923
 26.470    624.000    547.745     76.255    540.570    546.099    540.570    542.217    540.570
 26.570    515.749    547.569    -31.821    540.216    545.862    540.216    541.923    540.216
 26.670    604.000    547.468     56.532    539.860    545.696    539.860    541.633    539.860
 26.770    564.000    547.447     16.553    539.504    545.606    539.504    541.346    539.504
 26.870    496.000    547.517    -51.517    539.146    545.600    539.146    541.063    539.146
 26.970    602.000    547.693     54.307    538.788    545.697    538.788    540.785    538.788
 27.070    640.000    548.000     92.000    538.428    545.917    538.428    540.512    538.428
 27.170    544.000    548.473     -4.473    538.068    546.297    538.068    540.244    538.068
 27.270    579.000    549.161     29.839    537.707    546.885    537.707    539.983    537.707
 27.370    599.000    550.145     48.855    537.345    547.761    537.345    539.728    537.345
 27.470    623.000    551.562     71.438    536.982    549.062    536.982    539.481    536.982
 27.570    568.000    553.740     14.260    536.618    551.115    536.618    539.242    536.618
 27.670    575.000    557.683     17.317    536.254    554.921    536.254    539.012    536.254
 27.770    563.000    566.430     -3.430    535.889    563.521    535.889    538.792    535.889
 27.870    604.000    587.384     16.616    535.523    584.311    535.523    538.581    535.523
 27.970    653.827    632.934     20.893    535.157    629.677    535.157    538.382    535.157
 28.070    700.448    713.286    -12.838    534.790    709.827    534.790    538.195    534.790
 28.170    854.000    819.233     34.767    534.422    815.560    534.422    538.019    534.422
 28.270    882.482    908.250    -25.768    534.054    904.369    534.054    537.855    534.054
 28.370    939.997    925.221     14.777    533.685    921.142    533.685    537.704    533.685
 28.470    896.000    862.012     33.988    533.316    857.729    533.316    537.564    533.316
 28.570    799.000    774.017     24.983    532.946    769.509    532.946    537.435    532.946
 28.670    708.000    719.677    -11.677    532.576    714.923    532.576    537.315    532.576
 28.770    765.000    720.406     44.594    532.205    715.393    532.205    537.201    532.205
 28.870    778.000    761.205     16.795    531.834    755.930    531.834    537.092    531.834
 28.970    862.013    803.446     58.567    531.463    797.917    531.463    536.982    531.463
 29.070    850.732    806.433     44.298    531.092    800.663    531.092    536.865    531.092
 29.170    787.000    760.394     26.606    530.720    754.389    530.720    536.737    530.720
 29.270    740.929    692.550     48.379    530.348    686.322    530.348    536.589    530.348
 29.370    649.125    632.440     16.685    529.975    626.010    529.975    536.414    529.975
 29.470    636.000    592.053     43.947    529.603    585.456    529.603    536.205    529.603
 29.570    596.000    569.667     26.333    529.230    562.944    529.230    535.955    529.230
 29.670    589.325    558.589     30.735    528.857    551.788    528.857    535.659    528.857
 29.770    557.351    553.080      4.271    528.484    546.251    528.484    535.314    528.484
 29.870    652.000    549.962    102.038    528.111    543.156    528.111    534.918    528.111
 29.970    504.987    547.903    -42.917    527.738    541.169    527.738    534.472    527.738
 30.070    521.563    546.433    -24.869    527.365    539.817    527.365    533.980    527.365
 30.170    564.000    545.416     18.584    526.992    538.958    526.992    533.448    526.992
 30.270    581.000    544.902     36.098    526.618    538.635    526.618    532.883    526.618
 30.370    555.000    545.174      9.826    526.245    539.125    526.245    532.292    526.245
