neutron_powder_diffraction_0134
R_wp: 3.964
Temperature (K): 1057.541
Counts: 83058.00
Wavelength (Ã…): 2.52098
COMMENTS
Test file for demonstrating the .xyy file format in Reel1.0
END OF HEADER
   tth       Y_obs     Y_calc      Y_res    Background    Phase_1_Nuc    Phase_1_Mag    Phase_2_Nuc    Phase_2_Mag
  9.970    575.110    567.222      7.888    566.277    567.159    566.277    566.340    566.277
 10.070    589.139    567.451     21.688    566.431    567.388    566.431    566.494    566.431
 10.170    605.000    567.685     37.315    566.578    567.622    566.578    566.641    566.578
 10.270    605.000    567.926     37.074    566.718    567.862    566.718    566.781    566.718
 10.370    574.000    568.176      5.824    566.852    568.112    566.852    566.915    566.852
 10.470    595.487    568.440     27.047    566.979    568.375    566.979    567.043    566.979
 10.570    604.000    568.722     35.278    567.099    568.657    567.099    567.164    567.099
 10.670    583.000    569.029     13.971    567.214    568.963    567.214    567.278    567.214
 10.770    576.000    569.368      6.632    567.322    569.303    567.322    567.386    567.322
 10.870    591.000    569.753     21.247    567.423    569.687    567.423    567.488    567.423
 10.970    571.638    570.198      1.439    567.519    570.132    567.519    567.584    567.519
 11.070    549.000    570.728    -21.728    567.608    570.660    567.608    567.674    567.608
 11.170    594.000    571.374     22.626    567.691    571.306    567.691    567.757    567.691
 11.270    592.100    572.191     19.910    567.769    572.122    567.769    567.835    567.769
 11.370    599.000    573.274     25.726    567.840    573.205    567.840    567.906    567.840
 11.470    636.000    574.842     61.158    567.905    574.772    567.905    567.972    567.905
 11.570    550.000    577.442    -27.442    567.965    577.369    567.965    568.031    567.965
 11.670    594.000    582.356     11.644    568.018    582.281    568.018    568.085    568.018
 11.770    594.428    592.015      2.413    568.066    591.934    568.066    568.134    568.066
 11.870    698.000    609.613     88.387    568.108    609.522    568.108    568.176    568.108
 11.970    670.000    636.904     33.096    568.145    636.797    568.145    568.213    568.145
 12.070    714.000    669.991     44.009    568.176    669.865    568.176    568.244    568.176
 12.170    653.476    695.533    -42.057    568.201    695.393    568.201    568.270    568.201
 12.270    646.000    697.070    -51.070    568.221    696.927    568.221    568.291    568.221
 12.370    644.196    673.325    -29.129    568.235    673.195    568.235    568.307    568.235
 12.470    639.000    640.176     -1.176    568.244    640.064    568.244    568.316    568.244
 12.570    607.000    611.992     -4.992    568.248    611.895    568.248    568.321    568.248
 12.670    561.000    593.493    -32.493    568.247    593.407    568.247    568.319    568.247
 12.770    624.518    583.251     41.267    568.240    583.170    568.240    568.313    568.240
 12.870    596.000    578.058     17.942    568.228    577.979    568.228    568.302    568.228
 12.970    582.453    575.360      7.094    568.211    575.282    568.211    568.285    568.211
 13.070    523.000    573.774    -50.774    568.189    573.697    568.189    568.263    568.189
 13.170    569.000    572.704     -3.704    568.162    572.627    568.162    568.237    568.162
 13.270    576.000    571.915      4.085    568.130    571.838    568.130    568.205    568.130
 13.370    561.000    571.303    -10.303    568.093    571.227    568.093    568.169    568.093
 13.470    579.243    570.815      8.429    568.052    570.738    568.052    568.127    568.052
 13.570    557.000    570.414    -13.414    568.005    570.337    568.005    568.081    568.005
 13.670    569.000    570.077     -1.077    567.954    570.000    567.954    568.030    567.954
 13.770    578.870    569.788      9.082    567.898    569.711    567.898    567.975    567.898
 13.870    598.000    569.535     28.465    567.838    569.457    567.838    567.914    567.838
 13.970    522.000    569.309    -47.309    567.772    569.231    567.772    567.850    567.772
 14.070    529.000    569.104    -40.104    567.703    569.026    567.703    567.780    567.703
 14.170    560.000    568.915     -8.915    567.629    568.836    567.629    567.707    567.629
 14.270    544.000    568.737    -24.737    567.550    568.658    567.550    567.628    567.550
 14.370    578.000    568.569      9.431    567.467    568.490    567.467    567.546    567.467
 14.470    522.000    568.410    -46.410    567.380    568.331    567.380    567.459    567.380
 14.570    558.000    568.255    -10.255    567.288    568.175    567.288    567.368    567.288
 14.670    559.034    568.103     -9.069    567.192    568.023    567.192    567.272    567.192
 14.770    522.000    567.953    -45.953    567.092    567.872    567.092    567.173    567.092
 14.870    558.000    567.805     -9.805    566.988    567.724    566.988    567.069    566.988
 14.970    612.788    567.658     45.130    566.879    567.576    566.879    566.961    566.879
 15.070    532.855    567.512    -34.657    566.767    567.430    566.767    566.849    566.767
 15.170    541.000    567.366    -26.366    566.651    567.283    566.651    566.733    566.651
 15.270    546.353    567.218    -20.865    566.530    567.135    566.530    566.613    566.530
 15.370    569.000    567.069      1.931    566.406    566.986    566.406    566.489    566.406
 15.470    548.545    566.919    -18.374    566.278    566.835    566.278    566.362    566.278
 15.570    549.000    566.767    -17.767    566.146    566.683    566.146    566.230    566.146
 15.670    523.925    566.614    -42.689    566.010    566.529    566.010    566.095    566.010
 15.770    511.000    566.458    -55.458    565.871    566.373    565.871    565.956    565.871
 15.870    566.000    566.300     -0.300    565.728    566.215    565.728    565.813    565.728
 15.970    594.150    566.141     28.009    565.581    566.055    565.581    565.667    565.581
 16.070    590.000    565.979     24.021    565.431    565.893    565.431    565.517    565.431
 16.170    570.464    565.815      4.648    565.277    565.728    565.277    565.364    565.277
 16.270    564.000    565.648     -1.648    565.120    565.561    565.120    565.207    565.120
 16.370    583.527    565.479     18.048    564.959    565.391    564.959    565.047    564.959
 16.470    559.252    565.307     -6.055    564.795    565.219    564.795    564.883    564.795
 16.570    521.364    565.134    -43.771    564.627    565.045    564.627    564.716    564.627
 16.670    583.000    564.970     18.030    564.456    564.881    564.456    564.546    564.456
 16.770    565.586    564.804      0.782    564.282    564.714    564.282    564.372    564.282
 16.870    587.000    564.624     22.376    564.105    564.533    564.105    564.196    564.105
 16.970    590.000    564.439     25.561    563.924    564.348    563.924    564.016    563.924
 17.070    546.000    564.252    -18.252    563.741    564.160    563.741    563.832    563.741
 17.170    549.000    564.063    -15.063    563.554    563.970    563.554    563.646    563.554
 17.270    544.000    563.871    -19.871    563.364    563.778    563.364    563.457    563.364
 17.370    547.000    563.676    -16.676    563.171    563.583    563.171    563.265    563.171
 17.470    583.893    563.479     20.413    562.975    563.385    562.975    563.069    562.975
 17.570    533.000    563.280    -30.280    562.776    563.185    562.776    562.871    562.776
 17.670    580.000    563.078     16.922    562.575    562.983    562.575    562.670    562.575
 17.770    566.000    562.878      3.122    562.370    562.781    562.370    562.466    562.370
 17.870    575.000    562.672     12.328    562.163    562.575    562.163    562.260    562.163
 17.970    565.000    562.462      2.538    561.953    562.365    561.953    562.050    561.953
 18.070    574.000    562.251     11.749    561.740    562.153    561.740    561.838    561.740
 18.170    589.597    562.037     27.560    561.524    561.938    561.524    561.623    561.524
 18.270    593.943    561.821     32.121    561.306    561.722    561.306    561.406    561.306
 18.370    559.219    561.603     -2.384    561.086    561.503    561.086    561.186    561.086
 18.470    533.000    561.382    -28.382    560.862    561.282    560.862    560.963    560.862
 18.570    538.000    561.160    -23.160    560.636    561.058    560.636    560.738    560.636
 18.670    577.000    560.935     16.065    560.408    560.833    560.408    560.510    560.408
 18.770    582.000    560.710     21.290    560.177    560.607    560.177    560.280    560.177
 18.870    548.000    560.486    -12.486    559.944    560.382    559.944    560.048    559.944
 18.970    599.458    560.256     39.202    559.708    560.151    559.708    559.813    559.708
 19.070    577.000    560.023     16.977    559.471    559.917    559.471    559.576    559.471
 19.170    535.000    559.788    -24.788    559.230    559.682    559.230    559.337    559.230
 19.270    532.647    559.552    -26.904    558.988    559.444    558.988    559.095    558.988
 19.370    558.000    559.313     -1.313    558.743    559.205    558.743    558.851    558.743
 19.470    530.000    559.073    -29.073    558.496    558.964    558.496    558.605    558.496
 19.570    536.711    558.838    -22.127    558.247    558.728    558.247    558.357    558.247
 19.670    582.959    558.665     24.293    557.996    558.555    557.996    558.107    557.996
 19.770    581.279    558.461     22.818    557.743    558.350    557.743    557.855    557.743
 19.870    557.000    558.219     -1.219    557.488    558.106    557.488    557.601    557.488
 19.970    522.000    557.971    -35.971    557.231    557.857    557.231    557.344    557.231
 20.070    548.000    557.722     -9.722    556.972    557.607    556.972    557.086    556.972
 20.170    566.000    557.472      8.528    556.711    557.356    556.711    556.826    556.711
 20.270    544.000    557.221    -13.221    556.448    557.105    556.448    556.564    556.448
 20.370    582.000    556.969     25.031    556.183    556.851    556.183    556.301    556.183
 20.470    514.798    556.715    -41.917    555.916    556.596    555.916    556.035    555.916
 20.570    580.392    556.464     23.928    555.648    556.344    555.648    555.768    555.648
 20.670    599.215    556.253     42.962    555.378    556.132    555.378    555.499    555.378
 20.770    561.728    556.020      5.708    555.106    555.898    555.106    555.228    555.106
 20.870    574.000    555.765     18.235    554.833    555.642    554.833    554.956    554.833
 20.970    575.000    555.508     19.492    554.558    555.384    554.558    554.682    554.558
 21.070    550.907    555.250     -4.343    554.281    555.124    554.281    554.407    554.281
 21.170    549.000    554.992     -5.992    554.003    554.865    554.003    554.130    554.003
 21.270    551.000    554.733     -3.733    553.723    554.604    553.723    553.851    553.723
 21.370    590.000    554.476     35.524    553.441    554.346    553.441    553.571    553.441
 21.470    533.059    554.236    -21.178    553.159    554.105    553.159    553.290    553.159
 21.570    571.638    554.009     17.629    552.874    553.876    552.874    553.007    552.874
 21.670    551.000    553.754     -2.754    552.589    553.620    552.589    552.723    552.589
 21.770    495.000    553.498    -58.498    552.302    553.362    552.302    552.438    552.302
 21.870    527.174    553.242    -26.068    552.013    553.105    552.013    552.151    552.013
 21.970    594.000    552.989     41.011    551.724    552.850    551.724    551.863    551.724
 22.070    577.164    552.740     24.424    551.433    552.599    551.433    551.574    551.433
 22.170    530.000    552.494    -22.494    551.140    552.352    551.140    551.283    551.140
 22.270    569.000    552.269     16.731    550.847    552.124    550.847    550.992    550.847
 22.370    527.000    552.028    -25.028    550.553    551.882    550.553    550.699    550.553
 22.470    582.000    551.797     30.203    550.257    551.649    550.257    550.405    550.257
 22.570    534.000    551.567    -17.567    549.960    551.417    549.960    550.110    549.960
 22.670    558.647    551.340      7.307    549.662    551.187    549.662    549.815    549.662
 22.770    545.000    551.120     -6.120    549.363    550.966    549.363    549.518    549.363
 22.870    521.000    550.910    -29.910    549.063    550.754    549.063    549.220    549.063
 22.970    528.130    550.712    -22.582    548.762    550.553    548.762    548.921    548.762
 23.070    577.000    550.529     26.471    548.460    550.368    548.460    548.622    548.460
 23.170    560.000    550.364      9.636    548.157    550.201    548.157    548.321    548.157
 23.270    565.000    550.224     14.776    547.854    550.058    547.854    548.020    547.854
 23.370    549.000    550.120     -1.120    547.549    549.951    547.549    547.718    547.549
 23.470    582.392    550.048     32.344    547.243    549.876    547.243    547.416    547.243
 23.570    556.000    550.038      5.962    546.937    549.864    546.937    547.112    546.937
 23.670    566.000    550.094     15.906    546.630    549.917    546.630    546.808    546.630
 23.770    586.000    550.251     35.749    546.322    550.071    546.322    546.504    546.322
 23.870    563.000    550.534     12.466    546.014    550.351    546.014    546.199    546.014
 23.970    578.000    551.027     26.973    545.704    550.841    545.704    545.893    545.704
 24.070    522.790    551.934    -29.144    545.394    551.746    545.394    545.587    545.394
 24.170    545.000    553.737     -8.737    545.084    553.546    545.084    545.280    545.084
 24.270    532.028    557.457    -25.429    544.773    557.265    544.773    544.973    544.773
 24.370    584.306    564.723     19.583    544.461    564.532    544.461    544.665    544.461
 24.470    563.000    577.304    -14.304    544.149    577.118    544.149    544.357    544.149
 24.570    616.000    595.586     20.414    543.836    595.408    543.836    544.049    543.836
 24.670    613.000    616.036     -3.036    543.522    615.868    543.522    543.741    543.522
 24.770    661.691    629.604     32.087    543.208    629.440    543.208    543.432    543.208
 24.870    650.469    627.292     23.177    542.894    627.122    542.894    543.123    542.894
 24.970    652.000    610.715     41.285    542.579    610.528    542.579    542.814    542.579
 25.070    628.713    589.751     38.962    542.264    589.542    542.264    542.506    542.264
 25.170    596.000    572.169     23.831    541.949    571.941    541.949    542.197    541.949
 25.270    542.000    560.414    -18.414    541.633    560.171    541.633    541.888    541.633
 25.370    606.000    553.626     52.374    541.317    553.370    541.317    541.579    541.317
 25.470    501.000    549.971    -48.971    541.000    549.705    541.000    541.271    541.000
 25.570    537.000    547.925    -10.925    540.683    547.649    540.683    540.962    540.683
 25.670    504.763    546.638    -41.875    540.366    546.352    540.366    540.655    540.366
 25.770    503.746    545.718    -41.972    540.049    545.422    540.049    540.347    540.049
 25.870    588.163    545.005     43.158    539.732    544.698    539.732    540.040    539.732
 25.970    511.100    544.428    -33.328    539.414    544.110    539.414    539.734    539.414
 26.070    555.000    543.954     11.046    539.096    543.622    539.096    539.428    539.096
 26.170    578.000    543.563     34.437    538.778    543.218    538.778    539.124    538.778
 26.270    500.961    543.249    -42.288    538.460    542.890    538.460    538.820    538.460
 26.370    543.000    542.986      0.014    538.142    542.611    538.142    538.518    538.142
 26.470    542.000    542.779     -0.779    537.824    542.387    537.824    538.216    537.824
 26.570    533.000    542.633     -9.633    537.506    542.223    537.506    537.917    537.506
 26.670    546.000    542.551      3.449    537.188    542.120    537.188    537.619    537.188
 26.770    548.000    542.538      5.462    536.870    542.085    536.870    537.323    536.870
 26.870    542.000    542.607     -0.607    536.552    542.129    536.552    537.030    536.552
 26.970    558.000    542.778     15.222    536.234    542.272    536.234    536.739    536.234
 27.070    560.749    543.074     17.675    535.916    542.539    535.916    536.451    535.916
 27.170    505.629    543.536    -37.907    535.598    542.966    535.598    536.167    535.598
 27.270    559.000    544.218     14.782    535.280    543.611    535.280    535.886    535.280
 27.370    537.724    545.209     -7.485    534.963    544.559    534.963    535.611    534.963
 27.470    582.000    546.672     35.328    534.645    545.974    534.645    535.341    534.645
 27.570    515.754    549.034    -33.281    534.328    548.282    534.328    535.078    534.328
 27.670    563.000    553.768      9.232    534.011    552.953    534.011    534.823    534.011
 27.770    572.000    565.621      6.379    533.694    564.731    533.694    534.577    533.694
 27.870    602.000    595.974      6.026    533.378    594.993    533.378    534.342    533.378
 27.970    647.000    661.605    -14.605    533.062    660.509    533.062    534.121    533.062
 28.070    788.000    769.015     18.985    532.746    767.778    532.746    533.916    532.746
 28.170    896.931    888.382      8.550    532.430    886.987    532.430    533.733    532.430
 28.270    920.000    949.173    -29.173    532.115    947.622    532.115    533.577    532.115
 28.370    876.000    903.781    -27.781    531.800    902.069    531.800    533.457    531.800
 28.470    778.436    799.559    -21.123    531.486    797.639    531.486    533.386    531.486
 28.570    703.000    716.062    -13.062    531.172    713.847    531.172    533.381    531.172
 28.670    714.000    696.191     17.809    530.858    693.573    530.858    533.468    530.858
 28.770    716.906    736.675    -19.769    530.545    733.524    530.545    533.680    530.545
 28.870    749.000    800.386    -51.386    530.232    796.540    530.232    534.059    530.232
 28.970    862.000    831.604     30.396    529.920    826.859    529.920    534.654    529.920
 29.070    747.000    796.108    -49.108    529.608    790.208    529.608    535.514    529.608
 29.170    652.000    720.278    -68.278    529.297    712.912    529.297    536.677    529.297
 29.270    629.000    647.608    -18.608    528.986    638.459    528.986    538.149    528.986
 29.370    610.822    599.239     11.584    528.676    588.066    528.676    539.858    528.676
 29.470    554.517    574.503    -19.986    528.366    561.292    528.366    541.581    528.366
 29.570    565.000    563.896      1.104    528.057    549.049    528.057    542.905    528.057
 29.670    516.756    559.064    -42.309    527.749    543.482    527.749    543.330    527.749
 29.770    601.000    555.675     45.325    527.441    540.532    527.441    542.583    527.441
 29.870    575.253    552.362     22.890    527.134    538.659    527.134    540.836    527.134
 29.970    558.000    549.101      8.899    526.827    537.365    526.827    538.563    526.827
 30.070    573.319    546.180     27.139    526.521    536.488    526.521    536.212    526.521
 30.170    511.000    543.847    -32.847    526.216    536.008    526.216    534.054    526.216
 30.270    563.900    542.342     21.558    525.912    536.058    525.912    532.193    525.912
 30.370    591.000    542.156     48.844    525.608    537.118    525.608    530.642    525.608
