neutron_powder_diffraction_0243
R_wp: 4.017
Temperature (K): 984.749
Counts: 83947.00
Wavelength (Ã…): 2.52098
COMMENTS
Test file for demonstrating the .xyy file format in Reel1.0
END OF HEADER
   tth       Y_obs     Y_calc      Y_res    Background    Phase_1_Nuc    Phase_1_Mag    Phase_2_Nuc    Phase_2_Mag
  9.970    605.000    561.201     43.799    560.636    561.183    560.636    560.654    560.636
 10.070    585.000    561.475     23.525    560.859    561.454    560.859    560.880    560.859
 10.170    623.000    561.747     61.253    561.075    561.726    561.075    561.096    561.075
 10.270    603.000    562.031     40.969    561.283    562.009    561.283    561.305    561.283
 10.370    623.000    562.314     60.686    561.485    562.292    561.485    561.506    561.485
 10.470    582.000    562.595     19.405    561.679    562.573    561.679    561.700    561.679
 10.570    555.586    562.884     -7.298    561.866    562.862    561.866    561.888    561.866
 10.670    619.000    563.186     55.814    562.046    563.164    562.046    562.068    562.046
 10.770    543.214    563.506    -20.292    562.219    563.483    562.219    562.241    562.219
 10.870    595.966    563.851     32.115    562.385    563.828    562.385    562.407    562.385
 10.970    515.000    564.232    -49.232    562.545    564.209    562.545    562.567    562.545
 11.070    547.766    564.663    -16.897    562.697    564.639    562.697    562.720    562.697
 11.170    544.000    565.165    -21.165    562.843    565.142    562.843    562.866    562.843
 11.270    584.000    565.771     18.229    562.982    565.747    562.982    563.005    562.982
 11.370    592.000    566.535     25.465    563.115    566.511    563.115    563.138    563.115
 11.470    553.528    567.567    -14.039    563.241    567.542    563.241    563.264    563.241
 11.570    539.000    569.172    -30.172    563.361    569.146    563.361    563.384    563.361
 11.670    617.000    572.284     44.716    563.474    572.256    563.474    563.497    563.474
 11.770    563.353    579.324    -15.971    563.581    579.292    563.581    563.604    563.581
 11.870    606.325    594.789     11.536    563.681    594.749    563.681    563.705    563.681
 11.970    646.000    623.246     22.754    563.776    623.191    563.776    563.799    563.776
 12.070    637.000    662.844    -25.844    563.864    662.767    563.864    563.888    563.864
 12.170    655.000    698.011    -43.011    563.946    697.915    563.946    563.970    563.946
 12.270    669.000    704.944    -35.944    564.022    704.844    564.022    564.046    564.022
 12.370    661.000    677.350    -16.350    564.092    677.264    564.092    564.116    564.092
 12.470    668.000    636.455     31.545    564.156    636.392    564.156    564.180    564.156
 12.570    591.000    603.257    -12.257    564.214    603.212    564.214    564.239    564.214
 12.670    573.000    583.827    -10.827    564.267    583.792    564.267    564.291    564.267
 12.770    623.586    574.739     48.847    564.313    574.709    564.313    564.338    564.313
 12.870    569.000    570.895     -1.895    564.354    570.867    564.354    564.379    564.354
 12.970    559.000    569.125    -10.125    564.389    569.098    564.389    564.414    564.389
 13.070    571.000    568.119      2.881    564.419    568.092    564.419    564.444    564.419
 13.170    576.000    567.443      8.557    564.443    567.416    564.443    564.468    564.443
 13.270    529.682    566.950    -37.268    564.462    566.924    564.462    564.487    564.462
 13.370    578.000    566.579     11.421    564.475    566.550    564.475    564.503    564.475
 13.470    545.000    566.289    -21.289    564.483    566.258    564.483    564.513    564.483
 13.570    570.078    566.056      4.023    564.485    566.024    564.485    564.516    564.485
 13.670    543.000    565.865    -22.865    564.482    565.831    564.482    564.515    564.482
 13.770    543.831    565.702    -21.872    564.474    565.669    564.474    564.507    564.474
 13.870    554.000    565.562    -11.562    564.461    565.529    564.461    564.494    564.461
 13.970    535.000    565.438    -30.438    564.442    565.404    564.442    564.476    564.442
 14.070    530.000    565.325    -35.325    564.419    565.292    564.419    564.452    564.419
 14.170    583.337    565.221     18.115    564.391    565.187    564.391    564.424    564.391
 14.270    521.000    565.124    -44.124    564.357    565.089    564.357    564.391    564.357
 14.370    544.000    565.030    -21.030    564.319    564.995    564.319    564.353    564.319
 14.470    563.000    564.939     -1.939    564.276    564.904    564.276    564.310    564.276
 14.570    570.000    564.849      5.151    564.228    564.814    564.228    564.262    564.228
 14.670    549.813    564.760    -14.946    564.175    564.725    564.175    564.210    564.175
 14.770    561.000    564.670     -3.670    564.118    564.635    564.118    564.153    564.118
 14.870    513.000    564.580    -51.580    564.056    564.544    564.056    564.091    564.056
 14.970    584.063    564.489     19.574    563.989    564.454    563.989    564.025    563.989
 15.070    545.000    564.401    -19.401    563.918    564.364    563.918    563.954    563.918
 15.170    519.061    564.312    -45.251    563.843    564.270    563.843    563.884    563.843
 15.270    609.000    564.223     44.777    563.763    564.173    563.763    563.812    563.763
 15.370    566.000    564.123      1.877    563.678    564.072    563.678    563.729    563.678
 15.470    535.000    564.020    -29.020    563.589    563.969    563.589    563.640    563.589
 15.570    545.960    563.915    -17.955    563.496    563.863    563.496    563.548    563.496
 15.670    576.075    563.806     12.269    563.399    563.754    563.399    563.451    563.399
 15.770    563.000    563.695     -0.695    563.297    563.642    563.297    563.350    563.297
 15.870    552.000    563.580    -11.580    563.192    563.527    563.192    563.244    563.192
 15.970    595.715    563.465     32.250    563.082    563.409    563.082    563.138    563.082
 16.070    562.000    563.348     -1.348    562.968    563.288    562.968    563.028    562.968
 16.170    575.941    563.224     12.717    562.851    563.163    562.851    562.911    562.851
 16.270    559.393    563.096     -3.703    562.729    563.036    562.729    562.790    562.729
 16.370    509.000    562.966    -53.966    562.603    562.904    562.603    562.665    562.603
 16.470    544.000    562.833    -18.833    562.474    562.770    562.474    562.536    562.474
 16.570    559.000    562.696     -3.696    562.341    562.633    562.341    562.404    562.341
 16.670    538.773    562.555    -23.783    562.203    562.492    562.203    562.267    562.203
 16.770    512.180    562.412    -50.232    562.063    562.348    562.063    562.127    562.063
 16.870    554.000    562.265     -8.265    561.918    562.200    561.918    561.983    561.918
 16.970    574.430    562.115     12.315    561.770    562.050    561.770    561.835    561.770
 17.070    516.211    561.961    -45.750    561.619    561.896    561.619    561.684    561.619
 17.170    553.365    561.805     -8.440    561.464    561.739    561.464    561.529    561.464
 17.270    535.624    561.645    -26.021    561.305    561.579    561.305    561.371    561.305
 17.370    519.000    561.483    -42.483    561.143    561.416    561.143    561.209    561.143
 17.470    553.000    561.317     -8.317    560.977    561.250    560.977    561.045    560.977
 17.570    522.256    561.149    -38.893    560.809    561.082    560.809    560.876    560.809
 17.670    575.570    560.979     14.591    560.637    560.911    560.637    560.705    560.637
 17.770    588.000    560.805     27.195    560.461    560.736    560.461    560.530    560.461
 17.870    544.000    560.627    -16.627    560.283    560.558    560.283    560.352    560.283
 17.970    540.000    560.447    -20.447    560.101    560.377    560.101    560.170    560.101
 18.070    585.028    560.263     24.765    559.916    560.193    559.916    559.986    559.916
 18.170    565.998    560.077      5.921    559.728    560.006    559.728    559.799    559.728
 18.270    560.000    559.888      0.112    559.537    559.817    559.537    559.608    559.537
 18.370    554.000    559.696     -5.696    559.343    559.625    559.343    559.415    559.343
 18.470    548.857    559.502    -10.645    559.146    559.430    559.146    559.218    559.146
 18.570    539.000    559.305    -20.305    558.946    559.232    558.946    559.019    558.946
 18.670    546.827    559.105    -12.279    558.744    559.032    558.744    558.817    558.744
 18.770    584.485    558.903     25.583    558.538    558.829    558.538    558.612    558.538
 18.870    584.000    558.698     25.302    558.330    558.623    558.330    558.404    558.330
 18.970    581.606    558.491     23.115    558.119    558.415    558.119    558.194    558.119
 19.070    595.690    558.281     37.409    557.905    558.205    557.905    557.981    557.905
 19.170    544.000    558.072    -14.072    557.688    557.992    557.688    557.768    557.688
 19.270    553.000    557.860     -4.860    557.469    557.779    557.469    557.550    557.469
 19.370    589.996    557.644     32.352    557.248    557.562    557.248    557.329    557.248
 19.470    561.000    557.426      3.574    557.023    557.342    557.023    557.107    557.023
 19.570    561.000    557.205      3.795    556.797    557.120    556.797    556.881    556.797
 19.670    588.918    556.982     31.936    556.567    556.897    556.567    556.653    556.567
 19.770    536.000    556.757    -20.757    556.336    556.671    556.336    556.422    556.336
 19.870    552.286    556.530     -4.244    556.102    556.443    556.102    556.189    556.102
 19.970    593.326    556.301     37.025    555.866    556.213    555.866    555.954    555.866
 20.070    589.000    556.072     32.928    555.627    555.983    555.627    555.716    555.627
 20.170    551.000    555.859     -4.859    555.386    555.769    555.386    555.476    555.386
 20.270    583.000    555.626     27.374    555.143    555.536    555.143    555.233    555.143
 20.370    589.121    555.390     33.731    554.898    555.298    554.898    554.989    554.898
 20.470    535.000    555.152    -20.152    554.650    555.059    554.650    554.742    554.650
 20.570    556.000    554.912      1.088    554.400    554.819    554.400    554.494    554.400
 20.670    529.012    554.671    -25.659    554.149    554.577    554.149    554.243    554.149
 20.770    572.000    554.428     17.572    553.895    554.333    553.895    553.990    553.895
 20.870    592.072    554.184     37.887    553.639    554.088    553.639    553.736    553.639
 20.970    535.000    553.939    -18.939    553.382    553.842    553.382    553.479    553.382
 21.070    504.000    553.694    -49.694    553.122    553.594    553.122    553.222    553.122
 21.170    581.000    553.447     27.553    552.861    553.346    552.861    552.962    552.861
 21.270    560.000    553.199      6.801    552.597    553.097    552.597    552.700    552.597
 21.370    574.000    552.950     21.050    552.332    552.846    552.332    552.436    552.332
 21.470    574.000    552.700     21.300    552.065    552.595    552.065    552.170    552.065
 21.570    568.886    552.449     16.436    551.797    552.344    551.797    551.903    551.797
 21.670    538.000    552.199    -14.199    551.526    552.091    551.526    551.633    551.526
 21.770    521.927    551.948    -30.021    551.254    551.839    551.254    551.363    551.254
 21.870    518.000    551.697    -33.697    550.980    551.587    550.980    551.090    550.980
 21.970    538.000    551.446    -13.446    550.705    551.335    550.705    550.816    550.705
 22.070    563.789    551.196     12.593    550.428    551.083    550.428    550.541    550.428
 22.170    553.318    550.953      2.366    550.150    550.839    550.150    550.264    550.150
 22.270    569.000    550.754     18.246    549.870    550.638    549.870    549.986    549.870
 22.370    519.000    550.576    -31.576    549.588    550.452    549.588    549.712    549.588
 22.470    556.000    550.384      5.616    549.306    550.259    549.306    549.432    549.306
 22.570    560.000    550.150      9.850    549.021    550.022    549.021    549.149    549.021
 22.670    542.000    549.913     -7.913    548.736    549.783    548.736    548.865    548.736
 22.770    574.068    549.680     24.389    548.449    549.548    548.449    548.580    548.449
 22.870    534.000    549.452    -15.452    548.161    549.319    548.161    548.294    548.161
 22.970    540.000    549.235     -9.235    547.871    549.100    547.871    548.006    547.871
 23.070    510.769    549.044    -38.275    547.580    548.907    547.580    547.718    547.580
 23.170    595.000    548.886     46.114    547.288    548.747    547.288    547.428    547.288
 23.270    517.000    548.703    -31.703    546.995    548.562    546.995    547.137    546.995
 23.370    536.995    548.535    -11.540    546.701    548.391    546.701    546.845    546.701
 23.470    539.000    548.389     -9.389    546.406    548.243    546.406    546.552    546.406
 23.570    547.000    548.275     -1.275    546.109    548.127    546.109    546.258    546.109
 23.670    566.000    548.202     17.798    545.812    548.052    545.812    545.963    545.812
 23.770    562.000    548.187     13.813    545.513    548.034    545.513    545.667    545.513
 23.870    527.000    548.252    -21.252    545.213    548.096    545.213    545.371    545.213
 23.970    533.000    548.440    -15.440    544.913    548.282    544.913    545.073    544.913
 24.070    528.000    548.843    -20.843    544.612    548.682    544.612    544.775    544.612
 24.170    548.000    549.721     -1.721    544.309    549.557    544.309    544.476    544.309
 24.270    582.000    551.810     30.190    544.006    551.644    544.006    544.176    544.006
 24.370    560.000    556.821      3.179    543.702    556.656    543.702    543.876    543.702
 24.470    590.000    567.545     22.455    543.397    567.384    543.397    543.575    543.397
 24.570    558.000    586.280    -28.280    543.092    586.129    543.092    543.274    543.092
 24.670    612.000    611.004      0.996    542.785    610.868    542.785    542.971    542.785
 24.770    630.000    631.759     -1.759    542.478    631.633    542.478    542.669    542.478
 24.870    633.000    634.772     -1.772    542.171    634.644    542.171    542.366    542.171
 24.970    615.763    617.196     -1.434    541.862    617.050    541.862    542.063    541.862
 25.070    562.000    591.489    -29.489    541.553    591.319    541.553    541.759    541.553
 25.170    555.976    569.977    -14.002    541.244    569.786    541.244    541.455    541.244
 25.270    569.052    556.665     12.388    540.933    556.458    540.933    541.151    540.933
 25.370    572.000    549.931     22.069    540.623    549.712    540.623    540.846    540.623
 25.470    560.000    546.815     13.185    540.311    546.587    540.311    540.542    540.311
 25.570    517.000    545.268    -28.268    540.000    545.029    540.000    540.241    540.000
 25.670    559.000    544.296     14.704    539.687    544.049    539.687    539.937    539.687
 25.770    604.000    543.597     60.403    539.375    543.341    539.375    539.632    539.375
 25.870    535.380    543.030     -7.651    539.062    542.764    539.062    539.328    539.062
 25.970    542.000    542.563     -0.563    538.748    542.287    538.748    539.025    538.748
 26.070    561.000    542.175     18.825    538.434    541.889    538.434    538.721    538.434
 26.170    594.000    541.846     52.154    538.120    541.548    538.120    538.419    538.120
 26.270    563.000    541.572     21.428    537.806    541.261    537.806    538.116    537.806
 26.370    550.000    541.348      8.652    537.491    541.023    537.491    537.815    537.491
 26.470    566.000    541.167     24.833    537.176    540.828    537.176    537.515    537.176
 26.570    548.000    541.036      6.964    536.861    540.681    536.861    537.216    536.861
 26.670    572.000    540.959     31.041    536.545    540.587    536.545    536.918    536.545
 26.770    541.000    540.945      0.055    536.229    540.553    536.229    536.621    536.229
 26.870    546.000    541.005      4.995    535.914    540.592    535.914    536.327    535.914
 26.970    544.000    541.177      2.823    535.598    540.739    535.598    536.034    535.598
 27.070    563.000    541.488     21.512    535.282    541.025    535.282    535.745    535.282
 27.170    571.476    541.913     29.563    534.966    541.420    534.966    535.458    534.966
 27.270    543.266    542.534      0.732    534.649    542.008    534.649    535.174    534.649
 27.370    522.924    543.438    -20.513    534.333    542.875    534.333    534.895    534.333
 27.470    503.192    544.769    -41.577    534.017    544.163    534.017    534.621    534.017
 27.570    550.000    546.881      3.119    533.701    546.228    533.701    534.352    533.701
 27.670    546.818    550.975     -4.157    533.385    550.265    533.385    534.091    533.385
 27.770    598.000    561.037     36.963    533.068    560.261    533.068    533.837    533.068
 27.870    602.000    587.315     14.685    532.752    586.457    532.752    533.594    532.752
 27.970    670.000    646.421     23.579    532.437    645.459    532.437    533.363    532.437
 28.070    763.000    748.193     14.807    532.121    747.101    532.121    533.148    532.121
 28.170    896.000    869.458     26.542    531.805    868.221    531.805    532.952    531.805
 28.270    950.000    943.583      6.417    531.490    942.202    531.490    532.781    531.490
 28.370    901.000    914.808    -13.808    531.174    913.284    531.174    532.641    531.174
 28.470    856.000    815.120     40.880    530.859    813.413    530.859    532.543    530.859
 28.570    721.000    723.149     -2.149    530.544    721.184    530.544    532.500    530.544
 28.670    721.940    691.254     30.686    530.230    688.936    530.230    532.538    530.230
 28.770    747.000    724.972     22.028    529.916    722.171    529.916    532.699    529.916
 28.870    812.000    791.396     20.604    529.602    787.905    529.602    533.070    529.602
 28.970    834.639    833.359      1.280    529.288    828.814    529.288    533.820    529.288
 29.070    842.000    808.761     33.239    528.975    802.494    528.975    535.245    528.975
 29.170    723.000    735.815    -12.815    528.662    726.700    528.662    537.790    528.662
 29.270    647.519    660.731    -13.212    528.349    647.133    528.349    541.960    528.349
 29.370    655.886    611.271     44.615    528.037    591.230    528.037    548.086    528.037
 29.470    563.000    589.319    -26.319    527.725    561.172    527.725    555.874    527.725
 29.570    585.000    583.929      1.071    527.414    547.596    527.414    563.745    527.414
 29.670    605.000    583.087     21.913    527.103    541.658    527.103    568.529    527.103
 29.770    588.953    579.244      9.709    526.793    538.643    526.793    567.391    526.793
 29.870    615.147    571.167     43.979    526.483    536.763    526.483    560.884    526.483
 29.970    632.000    561.493     70.507    526.173    535.451    526.173    552.213    526.173
 30.070    596.535    552.820     43.715    525.865    534.526    525.865    544.157    525.865
 30.170    575.000    546.295     28.705    525.556    533.939    525.556    537.910    525.556
 30.270    606.000    542.079     63.921    525.249    533.760    525.249    533.566    525.249
 30.370    554.000    540.113     13.887    524.942    534.329    524.942    530.722    524.942
