neutron_powder_diffraction_0053
R_wp: 3.919
Temperature (K): 661.566
Counts: 83321.00
Wavelength (Ã…): 2.52098
COMMENTS
Test file for demonstrating the .xyy file format in Reel1.0
END OF HEADER
   tth       Y_obs     Y_calc      Y_res    Background    Phase_1_Nuc    Phase_1_Mag    Phase_2_Nuc    Phase_2_Mag
  9.970    704.000    662.559     41.441    661.169    662.215    661.513    661.169    661.169
 10.070    710.000    662.130     47.870    660.651    661.782    660.999    660.651    660.651
 10.170    691.000    661.711     29.289    660.133    661.359    660.484    660.133    660.133
 10.270    627.947    661.305    -33.358    659.613    660.949    659.968    659.613    659.613
 10.370    738.000    660.915     77.085    659.092    660.555    659.451    659.092    659.092
 10.470    681.945    660.545     21.399    658.571    660.182    658.934    658.571    658.571
 10.570    623.529    660.200    -36.671    658.049    659.832    658.416    658.049    658.049
 10.670    639.644    659.886    -20.242    657.526    659.514    657.897    657.526    657.526
 10.770    692.613    659.613     33.000    657.002    659.236    657.377    657.002    657.002
 10.870    721.000    659.388     61.612    656.477    659.007    656.857    656.477    656.477
 10.970    697.000    659.226     37.774    655.952    658.841    656.336    655.952    655.952
 11.070    689.659    659.150     30.509    655.427    658.760    655.815    655.427    655.427
 11.170    615.039    659.188    -44.149    654.900    658.794    655.293    654.900    654.900
 11.270    682.000    659.385     22.615    654.373    658.985    654.770    654.373    654.373
 11.370    633.000    659.813    -26.813    653.845    659.408    654.247    653.845    653.845
 11.470    657.000    660.615     -3.615    653.317    660.205    653.723    653.317    653.317
 11.570    681.092    662.115     18.977    652.789    661.699    653.199    652.789    652.789
 11.670    687.000    665.044     21.956    652.259    664.622    652.675    652.259    652.259
 11.770    703.527    670.874     32.653    651.730    670.443    652.150    651.730    651.730
 11.870    763.000    681.913     81.087    651.200    681.471    651.625    651.200    651.200
 11.970    717.825    700.562     17.263    650.669    700.104    651.100    650.669    650.669
 12.070    694.930    727.205    -32.275    650.138    726.727    650.574    650.138    650.138
 12.170    796.000    756.771     39.229    649.607    756.271    650.048    649.607    649.607
 12.270    818.000    776.262     41.738    649.075    775.746    649.522    649.075    649.075
 12.370    778.000    772.695      5.305    648.543    772.175    648.995    648.543    648.543
 12.470    772.000    748.493     23.507    648.011    747.981    648.468    648.011    648.011
 12.570    681.000    717.856    -36.856    647.479    717.354    647.942    647.479    647.479
 12.670    735.484    691.877     43.607    646.946    691.384    647.415    646.946    646.946
 12.770    665.000    674.074     -9.074    646.413    673.585    646.888    646.413    646.413
 12.870    627.000    663.400    -36.400    645.880    662.910    646.361    645.880    645.880
 12.970    629.000    657.341    -28.341    645.347    656.848    645.834    645.347    645.347
 13.070    655.000    653.879      1.121    644.814    653.381    645.307    644.814    644.814
 13.170    680.442    651.558     28.884    644.280    651.055    644.779    644.280    644.280
 13.270    629.000    649.810    -20.810    643.746    649.302    644.252    643.746    643.746
 13.370    617.000    648.395    -31.395    643.213    647.881    643.725    643.213    643.213
 13.470    629.498    647.193    -17.694    642.679    646.672    643.198    642.679    642.679
 13.570    644.000    646.138     -2.138    642.146    645.611    642.671    642.146    642.146
 13.670    640.000    645.191     -5.191    641.612    644.657    642.145    641.612    641.612
 13.770    598.414    644.325    -45.911    641.078    643.784    641.618    641.078    641.078
 13.870    594.000    643.520    -49.520    640.545    642.972    641.092    640.545    640.545
 13.970    642.000    642.765     -0.765    640.011    642.209    640.566    640.011    640.011
 14.070    615.000    642.046    -27.046    639.478    641.483    640.040    639.478    639.478
 14.170    616.000    641.358    -25.358    638.945    640.787    639.514    638.945    638.945
 14.270    680.353    640.694     39.659    638.412    640.116    638.989    638.412    638.412
 14.370    617.819    640.050    -22.231    637.879    639.464    638.464    637.879    637.879
 14.470    653.000    639.423     13.577    637.346    638.829    637.940    637.346    637.346
 14.570    635.920    638.811     -2.891    636.814    638.208    637.415    636.814    636.814
 14.670    634.000    638.215     -4.215    636.281    637.604    636.892    636.281    636.281
 14.770    616.000    637.624    -21.624    635.749    637.005    636.368    635.749    635.749
 14.870    619.000    637.042    -18.042    635.218    636.413    635.846    635.218    635.218
 14.970    605.000    636.466    -31.466    634.686    635.829    635.323    634.686    634.686
 15.070    613.471    635.897    -22.427    634.155    635.250    634.802    634.155    634.155
 15.170    654.000    635.334     18.666    633.624    634.678    634.280    633.624    633.624
 15.270    596.197    634.776    -38.579    633.094    634.110    633.760    633.094    633.094
 15.370    610.000    634.223    -24.223    632.564    633.547    633.240    632.564    632.564
 15.470    590.000    633.675    -43.675    632.035    632.990    632.720    632.035    632.035
 15.570    606.000    633.152    -27.152    631.506    632.456    632.202    631.506    631.506
 15.670    614.812    632.618    -17.806    630.977    631.911    631.684    630.977    630.977
 15.770    611.000    632.080    -21.080    630.449    631.362    631.166    630.449    630.449
 15.870    636.000    631.544      4.456    629.921    630.816    630.650    629.921    629.921
 15.970    622.000    631.016     -9.016    629.394    630.276    630.134    629.394    629.394
 16.070    577.000    630.488    -53.488    628.868    629.736    629.619    628.868    628.868
 16.170    600.289    629.960    -29.671    628.342    629.196    629.105    628.342    628.342
 16.270    623.000    629.434     -6.434    627.816    628.658    628.592    627.816    627.816
 16.370    620.000    628.910     -8.910    627.291    628.122    628.079    627.291    627.291
 16.470    636.208    628.389      7.820    626.767    627.588    627.568    626.767    626.767
 16.570    634.000    627.869      6.131    626.243    627.055    627.057    626.243    626.243
 16.670    588.313    627.352    -39.038    625.720    626.524    626.548    625.720    625.720
 16.770    623.172    626.836     -3.664    625.198    625.995    626.039    625.198    625.198
 16.870    628.000    626.323      1.677    624.677    625.467    625.532    624.677    624.677
 16.970    656.760    625.811     30.949    624.156    624.941    625.026    624.156    624.156
 17.070    581.000    625.302    -44.302    623.636    624.417    624.521    623.636    623.636
 17.170    617.000    624.798     -7.798    623.116    623.897    624.017    623.116    623.116
 17.270    596.000    624.330    -28.330    622.598    623.414    623.514    622.598    622.598
 17.370    627.661    623.872      3.788    622.080    622.939    623.013    622.080    622.080
 17.470    642.449    623.382     19.068    621.563    622.432    622.512    621.563    621.563
 17.570    577.000    622.882    -45.882    621.047    621.916    622.013    621.047    621.047
 17.670    600.937    622.384    -21.447    620.531    621.401    621.515    620.531    620.531
 17.770    587.000    621.888    -34.888    620.017    620.886    621.018    620.017    620.017
 17.870    601.000    621.394    -20.394    619.503    620.373    620.523    619.503    619.503
 17.970    609.000    620.901    -11.901    618.991    619.862    620.029    618.991    618.991
 18.070    626.517    620.410      6.106    618.479    619.352    619.537    618.479    618.479
 18.170    630.000    619.921     10.079    617.968    618.843    619.046    617.968    617.968
 18.270    627.863    619.435      8.428    617.458    618.336    618.557    617.458    617.458
 18.370    607.610    618.950    -11.340    616.949    617.830    618.069    616.949    616.949
 18.470    652.000    618.467     33.533    616.441    617.326    617.583    616.441    616.441
 18.570    595.000    617.988    -22.988    615.934    616.823    617.098    615.934    615.934
 18.670    586.000    617.520    -31.520    615.428    616.332    616.615    615.428    615.428
 18.770    622.000    617.051      4.949    614.923    615.839    616.134    614.923    614.923
 18.870    609.796    616.583     -6.786    614.419    615.346    615.656    614.419    614.419
 18.970    632.000    616.164     15.836    613.916    614.893    615.188    613.916    613.916
 19.070    594.000    615.712    -21.712    613.414    614.411    614.715    613.414    613.414
 19.170    599.000    615.246    -16.246    612.914    613.918    614.241    612.914    612.914
 19.270    603.000    614.782    -11.782    612.414    613.426    613.770    612.414    612.414
 19.370    605.000    614.321     -9.321    611.915    612.936    613.300    611.915    611.915
 19.470    598.300    613.862    -15.562    611.418    612.447    612.832    611.418    611.418
 19.570    647.000    613.405     33.595    610.922    611.960    612.367    610.922    610.922
 19.670    650.860    612.952     37.908    610.427    611.475    611.903    610.427    610.427
 19.770    596.046    612.501    -16.455    609.933    610.992    611.442    609.933    609.933
 19.870    589.000    612.055    -23.055    609.440    610.512    610.984    609.440    609.440
 19.970    624.998    611.624     13.375    608.949    610.045    610.527    608.949    608.949
 20.070    569.363    611.196    -41.833    608.459    609.581    610.074    608.459    608.459
 20.170    593.000    610.768    -17.768    607.970    609.114    609.623    607.970    607.970
 20.270    567.000    610.367    -43.367    607.482    608.668    609.181    607.482    607.482
 20.370    601.649    609.947     -8.298    606.995    608.205    608.737    606.995    606.995
 20.470    608.000    609.564     -1.564    606.510    607.780    608.294    606.510    606.510
 20.570    600.000    609.192     -9.192    606.026    607.364    607.854    606.026    606.026
 20.670    617.000    608.777      8.223    605.544    606.904    607.416    605.544    605.544
 20.770    597.309    608.365    -11.055    605.062    606.445    606.982    605.062    605.062
 20.870    594.000    607.995    -13.995    604.582    606.026    606.551    604.582    604.582
 20.970    585.412    607.617    -22.205    604.104    605.598    606.123    604.104    604.104
 21.070    654.300    607.225     47.076    603.626    605.151    605.700    603.626    603.626
 21.170    574.000    606.833    -32.833    603.150    604.704    605.279    603.150    603.150
 21.270    597.000    606.449     -9.449    602.676    604.263    604.862    602.676    602.676
 21.370    581.000    606.062    -25.062    602.203    603.818    604.447    602.203    602.203
 21.470    632.832    605.680     27.152    601.731    603.374    604.037    601.731    601.731
 21.570    566.000    605.304    -39.304    601.261    602.934    603.631    601.261    601.261
 21.670    613.810    604.935      8.875    600.792    602.498    603.229    600.792    600.792
 21.770    604.242    604.575     -0.334    600.325    602.069    602.831    600.325    600.325
 21.870    582.000    604.220    -22.220    599.859    601.641    602.438    599.859    599.859
 21.970    606.020    603.871      2.148    599.394    601.216    602.049    599.394    599.394
 22.070    608.000    603.531      4.469    598.931    600.797    601.666    598.931    598.931
 22.170    595.000    603.200     -8.200    598.470    600.382    601.288    598.470    598.470
 22.270    564.436    602.878    -38.443    598.010    599.973    600.915    598.010    598.010
 22.370    612.000    602.569      9.431    597.551    599.573    600.548    597.551    597.551
 22.470    634.000    602.275     31.725    597.094    599.181    600.188    597.094    597.094
 22.570    620.639    601.990     18.649    596.639    598.795    599.833    596.639    596.639
 22.670    583.000    601.717    -18.717    596.185    598.416    599.485    596.185    596.185
 22.770    606.000    601.458      4.542    595.732    598.047    599.144    595.732    595.732
 22.870    632.956    601.218     31.738    595.282    597.690    598.810    595.282    595.282
 22.970    605.000    600.997      4.003    594.832    597.346    598.483    594.832    594.832
 23.070    594.000    600.797     -6.797    594.385    597.017    598.165    594.385    594.385
 23.170    632.000    600.623     31.377    593.939    596.706    597.856    593.939    593.939
 23.270    594.000    600.478     -6.478    593.494    596.417    597.556    593.494    593.494
 23.370    548.580    600.369    -51.789    593.052    596.155    597.266    593.052    593.052
 23.470    648.589    600.302     48.287    592.610    595.927    596.986    592.610    592.610
 23.570    605.000    600.286      4.714    592.171    595.741    596.718    592.171    592.171
 23.670    621.717    600.335     21.382    591.733    595.608    596.462    591.733    591.733
 23.770    595.000    600.465     -5.465    591.297    595.544    596.219    591.297    591.297
 23.870    623.000    600.700     22.300    590.862    595.575    595.989    590.862    590.862
 23.970    644.697    601.079     43.618    590.430    595.735    595.775    590.430    590.430
 24.070    650.000    601.670     48.330    589.998    596.094    595.577    589.998    589.998
 24.170    634.330    602.617     31.713    589.569    596.794    595.396    589.569    589.569
 24.270    619.000    604.237     14.763    589.141    598.149    595.234    589.141    589.141
 24.370    587.212    607.183    -19.971    588.715    600.813    595.092    588.715    588.715
 24.470    663.191    612.574     50.617    588.291    605.902    594.974    588.291    588.291
 24.570    681.000    621.844     59.156    587.868    614.850    594.880    587.868    587.868
 24.670    581.727    636.026    -54.299    587.447    628.688    594.812    587.447    587.447
 24.770    657.591    654.364      3.228    587.028    646.658    594.775    587.028    587.028
 24.870    721.000    672.398     48.602    586.611    664.293    594.770    586.611    586.611
 24.970    705.000    681.396     23.604    586.195    672.851    594.801    586.195    586.195
 25.070    685.000    675.224      9.776    585.781    666.189    594.872    585.781    585.781
 25.170    617.642    658.520    -40.878    585.369    648.945    594.987    585.369    585.369
 25.270    641.000    640.124      0.876    584.959    629.960    595.153    584.959    584.959
 25.370    640.625    625.331     15.294    584.550    614.526    595.375    584.550    584.550
 25.470    620.230    615.492      4.738    584.144    603.988    595.659    584.144    584.144
 25.570    616.000    609.831      6.169    583.739    597.562    596.015    583.739    583.739
 25.670    643.000    606.944     36.056    583.336    593.832    596.452    583.336    583.336
 25.770    562.337    605.648    -43.311    582.934    591.603    596.982    582.934    582.934
 25.870    610.000    605.225      4.775    582.535    590.144    597.618    582.535    582.535
 25.970    643.000    605.323     37.677    582.137    589.086    598.376    582.137    582.137
 26.070    574.702    605.798    -31.096    581.742    588.263    599.277    581.742    581.742
 26.170    559.085    606.598    -47.513    581.348    587.600    600.346    581.348    581.348
 26.270    634.000    607.713     26.287    580.956    587.059    601.610    580.956    580.956
 26.370    616.000    609.160      6.840    580.566    586.619    603.106    580.566    580.566
 26.470    671.000    610.968     60.032    580.177    586.265    604.880    580.177    580.177
 26.570    630.000    613.186     16.814    579.791    585.988    606.987    579.791    579.791
 26.670    673.000    615.889     57.111    579.406    585.792    609.502    579.406    579.406
 26.770    665.612    619.176     46.436    579.024    585.679    612.519    579.024    579.024
 26.870    622.054    623.179     -1.125    578.643    585.657    616.161    578.643    578.643
 26.970    653.000    628.074     24.926    578.264    585.742    620.593    578.264    578.264
 27.070    597.290    634.107    -36.817    577.887    585.954    626.036    577.887    577.887
 27.170    660.000    641.616     18.384    577.512    586.325    632.798    577.512    577.512
 27.270    655.000    651.081      3.919    577.139    586.898    641.315    577.139    577.139
 27.370    724.000    663.210     60.790    576.767    587.743    652.227    576.767    576.767
 27.470    703.000    679.108     23.892    576.398    588.963    666.534    576.398    576.398
 27.570    669.703    700.907    -31.204    576.031    590.761    686.164    576.031    576.031
 27.670    689.573    733.979    -44.407    575.665    593.646    715.980    575.665    575.665
 27.770    828.983    793.952     35.031    575.302    599.094    770.129    575.302    575.302
 27.870    863.000    922.185    -59.185    574.940    611.002    886.063    574.940    574.940
 27.970   1162.000   1203.100    -41.100    574.581    637.321   1140.232    574.581    574.581
 28.070   1677.000   1749.889    -72.889    574.223    688.717   1635.152    574.223    574.223
 28.170   2544.000   2614.019    -70.019    573.867    770.061   2417.441    573.867    573.867
 28.270   3631.200   3632.647     -1.447    573.513    866.100   3339.584    573.513    573.513
 28.370   4484.391   4350.183    134.208    573.162    934.129   3988.806    573.162    573.162
 28.470   4383.000   4311.511     71.489    572.812    931.703   3952.423    572.812    572.812
 28.570   3694.000   3603.654     90.346    572.464    867.821   3308.283    572.464    572.464
 28.670   2648.000   2765.369   -117.369    572.118    794.575   2542.956    572.118    572.118
 28.770   2116.000   2248.473   -132.473    571.774    756.059   2064.208    571.774    571.774
 28.870   2234.094   2179.196     54.898    571.432    764.524   1986.083    571.432    571.432
 28.970   2418.657   2407.895     10.762    571.092    803.001   2175.961    571.092    571.092
 29.070   2616.000   2624.920     -8.920    570.754    835.086   2360.622    570.754    570.754
 29.170   2572.911   2551.256     21.655    570.419    827.104   2294.692    570.419    570.419
 29.270   2232.000   2169.135     62.865    570.085    778.020   1961.364    570.085    570.085
 29.370   1685.000   1678.709      6.291    569.753    714.450   1534.157    569.753    569.753
 29.470   1222.000   1261.428    -39.428    569.423    660.261   1170.690    569.423    569.423
 29.570   1029.000    982.173     46.827    569.095    623.999    927.326    569.095    569.095
 29.670    824.000    823.819      0.181    568.769    603.469    789.148    568.769    568.769
 29.770    782.000    741.898     40.102    568.445    592.892    717.466    568.445    568.445
 29.870    775.000    699.002     75.998    568.123    587.403    679.729    568.123    568.123
 29.970    769.000    673.887     95.113    567.803    584.250    657.443    567.803    567.803
 30.070    762.000    657.090    104.910    567.485    582.220    642.357    567.485    567.485
 30.170    698.000    644.887     53.113    567.170    580.861    631.196    567.170    567.170
 30.270    698.000    635.796     62.204    566.856    580.039    622.612    566.856    566.856
 30.370    583.556    629.264    -45.708    566.544    579.817    615.988    566.544    566.544
