neutron_powder_diffraction_0144
R_wp: 3.886
Temperature (K): 1074.000
Counts: 83774.00
Wavelength (Ã…): 2.52098
COMMENTS
Test file for demonstrating the .xyy file format in Reel1.0
END OF HEADER
   tth       Y_obs     Y_calc      Y_res    Background    Phase_1_Nuc    Phase_1_Mag    Phase_2_Nuc    Phase_2_Mag
  9.970    563.044    576.709    -13.665    575.886    576.657    575.886    575.937    575.886
 10.070    605.000    576.766     28.234    575.875    576.714    575.875    575.927    575.875
 10.170    586.000    576.828      9.172    575.860    576.776    575.860    575.912    575.860
 10.270    615.000    576.898     38.102    575.840    576.845    575.840    575.892    575.840
 10.370    601.000    576.977     24.023    575.816    576.925    575.816    575.868    575.816
 10.470    539.000    577.071    -38.071    575.787    577.018    575.787    575.840    575.787
 10.570    562.000    577.182    -15.182    575.754    577.128    575.754    575.807    575.754
 10.670    606.000    577.315     28.685    575.716    577.262    575.716    575.769    575.716
 10.770    631.000    577.480     53.520    575.674    577.426    575.674    575.727    575.674
 10.870    585.000    577.685      7.315    575.628    577.631    575.628    575.681    575.628
 10.970    555.698    577.947    -22.249    575.577    577.892    575.577    575.631    575.577
 11.070    565.945    578.285    -12.339    575.522    578.229    575.522    575.576    575.522
 11.170    626.000    578.729     47.271    575.463    578.673    575.463    575.517    575.463
 11.270    577.027    579.327     -2.300    575.400    579.271    575.400    575.454    575.400
 11.370    577.000    580.164     -3.164    575.332    580.107    575.332    575.387    575.332
 11.470    592.000    581.430     10.570    575.261    581.372    575.261    575.316    575.261
 11.570    566.612    583.623    -17.011    575.186    583.563    575.186    575.241    575.186
 11.670    678.000    587.977     90.023    575.106    587.914    575.106    575.162    575.106
 11.770    599.000    596.964      2.036    575.023    596.893    575.023    575.082    575.023
 11.870    576.103    614.004    -37.901    574.936    613.922    574.936    574.996    574.936
 11.970    618.154    641.155    -23.001    574.845    641.057    574.845    574.906    574.845
 12.070    710.000    674.491     35.509    574.750    674.373    574.750    574.811    574.750
 12.170    674.159    700.035    -25.876    574.651    699.903    574.651    574.713    574.651
 12.270    709.000    700.759      8.241    574.549    700.626    574.549    574.611    574.549
 12.370    647.250    675.952    -28.703    574.443    675.833    574.443    574.505    574.443
 12.470    605.000    642.331    -37.331    574.333    642.230    574.333    574.396    574.333
 12.570    571.000    614.451    -43.451    574.220    614.365    574.220    574.283    574.220
 12.670    605.000    596.698      8.302    574.103    596.622    574.103    574.166    574.103
 12.770    616.401    587.187     29.215    573.983    587.116    573.983    574.046    573.983
 12.870    600.000    582.473     17.527    573.859    582.404    573.859    573.923    573.859
 12.970    543.026    580.012    -36.986    573.732    579.945    573.732    573.796    573.732
 13.070    593.000    578.517     14.483    573.602    578.450    573.602    573.666    573.602
 13.170    618.000    577.466     40.534    573.468    577.399    573.468    573.532    573.468
 13.270    546.000    576.660    -30.660    573.331    576.594    573.331    573.395    573.331
 13.370    566.579    576.012     -9.433    573.190    575.946    573.190    573.255    573.190
 13.470    565.000    575.473    -10.473    573.046    575.407    573.046    573.112    573.046
 13.570    532.000    575.014    -43.014    572.899    574.947    572.899    572.965    572.899
 13.670    562.856    574.614    -11.758    572.749    574.547    572.749    572.815    572.749
 13.770    576.000    574.257      1.743    572.596    574.190    572.596    572.663    572.596
 13.870    616.278    573.931     42.347    572.440    573.863    572.440    572.507    572.440
 13.970    581.940    573.629      8.311    572.281    573.562    572.281    572.348    572.281
 14.070    563.000    573.347    -10.347    572.119    573.279    572.119    572.186    572.119
 14.170    609.652    573.080     36.572    571.953    573.012    571.953    572.021    571.953
 14.270    590.638    572.825     17.813    571.785    572.757    571.785    571.853    571.785
 14.370    550.330    572.579    -22.249    571.614    572.510    571.614    571.683    571.614
 14.470    592.000    572.340     19.660    571.440    572.271    571.440    571.509    571.440
 14.570    578.000    572.106      5.894    571.264    572.037    571.264    571.333    571.264
 14.670    545.316    571.877    -26.561    571.084    571.807    571.084    571.154    571.084
 14.770    525.515    571.651    -46.136    570.902    571.581    570.902    570.972    570.902
 14.870    551.682    571.427    -19.745    570.717    571.357    570.717    570.788    570.717
 14.970    574.669    571.205      3.464    570.530    571.134    570.530    570.600    570.530
 15.070    605.559    570.984     34.575    570.340    570.913    570.340    570.411    570.340
 15.170    558.000    570.764    -12.764    570.147    570.693    570.147    570.218    570.147
 15.270    568.000    570.545     -2.545    569.952    570.473    569.952    570.024    569.952
 15.370    550.000    570.325    -20.325    569.754    570.253    569.754    569.826    569.754
 15.470    603.235    570.105     33.130    569.554    570.033    569.554    569.626    569.554
 15.570    611.081    569.885     41.196    569.351    569.812    569.351    569.424    569.351
 15.670    615.497    569.664     45.833    569.146    569.591    569.146    569.219    569.146
 15.770    584.630    569.442     15.187    568.939    569.368    568.939    569.012    568.939
 15.870    557.000    569.220    -12.220    568.729    569.145    568.729    568.803    568.729
 15.970    584.000    568.996     15.004    568.517    568.921    568.517    568.591    568.517
 16.070    527.387    568.773    -41.386    568.302    568.698    568.302    568.378    568.302
 16.170    543.000    568.548    -25.548    568.086    568.472    568.086    568.161    568.086
 16.270    580.248    568.321     11.927    567.867    568.245    567.867    567.943    567.867
 16.370    548.000    568.093    -20.093    567.646    568.017    567.646    567.723    567.646
 16.470    581.397    567.864     13.533    567.423    567.787    567.423    567.500    567.423
 16.570    570.000    567.633      2.367    567.198    567.556    567.198    567.275    567.198
 16.670    573.647    567.401      6.247    566.971    567.323    566.971    567.049    566.971
 16.770    580.000    567.167     12.833    566.742    567.088    566.742    566.820    566.742
 16.870    552.000    566.931    -14.931    566.510    566.853    566.510    566.589    566.510
 16.970    564.000    566.695     -2.695    566.277    566.615    566.277    566.356    566.277
 17.070    573.820    566.456      7.364    566.042    566.377    566.042    566.122    566.042
 17.170    546.000    566.217    -20.217    565.805    566.136    565.805    565.885    565.805
 17.270    579.079    565.976     13.103    565.566    565.895    565.566    565.647    565.566
 17.370    532.000    565.735    -33.735    565.325    565.652    565.325    565.408    565.325
 17.470    538.000    565.492    -27.492    565.083    565.407    565.083    565.167    565.083
 17.570    553.209    565.247    -12.037    564.839    565.162    564.839    564.924    564.839
 17.670    586.072    565.001     21.071    564.593    564.915    564.593    564.678    564.593
 17.770    543.616    564.753    -21.137    564.345    564.667    564.345    564.431    564.345
 17.870    534.514    564.504    -29.989    564.096    564.417    564.096    564.182    564.096
 17.970    535.723    564.253    -28.530    563.844    564.166    563.844    563.932    563.844
 18.070    550.000    564.001    -14.001    563.592    563.914    563.592    563.680    563.592
 18.170    532.523    563.748    -31.226    563.338    563.660    563.338    563.426    563.338
 18.270    554.000    563.495     -9.495    563.082    563.406    563.082    563.171    563.082
 18.370    575.000    563.254     11.746    562.825    563.164    562.825    562.914    562.825
 18.470    543.000    563.008    -20.008    562.566    562.917    562.566    562.656    562.566
 18.570    552.000    562.751    -10.751    562.306    562.660    562.306    562.396    562.306
 18.670    522.000    562.492    -40.492    562.044    562.401    562.044    562.136    562.044
 18.770    523.203    562.232    -39.029    561.781    562.140    561.781    561.873    561.781
 18.870    524.170    561.972    -37.801    561.516    561.879    561.516    561.609    561.516
 18.970    558.000    561.710     -3.710    561.251    561.616    561.251    561.344    561.251
 19.070    572.000    561.447     10.553    560.984    561.352    560.984    561.078    560.984
 19.170    600.703    561.183     39.520    560.715    561.088    560.715    560.810    560.715
 19.270    564.000    560.918      3.082    560.446    560.822    560.446    560.541    560.446
 19.370    596.000    560.653     35.347    560.175    560.556    560.175    560.271    560.175
 19.470    574.000    560.386     13.614    559.903    560.289    559.903    560.000    559.903
 19.570    551.150    560.119     -8.970    559.629    560.021    559.629    559.728    559.629
 19.670    565.000    559.851      5.149    559.355    559.752    559.355    559.454    559.355
 19.770    546.000    559.583    -13.583    559.080    559.483    559.080    559.180    559.080
 19.870    599.280    559.314     39.966    558.803    559.213    558.803    558.904    558.803
 19.970    544.000    559.044    -15.044    558.526    558.942    558.526    558.627    558.526
 20.070    542.000    558.773    -16.773    558.247    558.671    558.247    558.349    558.247
 20.170    578.796    558.502     20.293    557.967    558.399    557.967    558.071    557.967
 20.270    595.000    558.231     36.769    557.687    558.127    557.687    557.791    557.687
 20.370    583.000    557.959     25.041    557.405    557.854    557.405    557.510    557.405
 20.470    592.000    557.688     34.312    557.123    557.581    557.123    557.229    557.123
 20.570    515.840    557.418    -41.578    556.839    557.311    556.839    556.947    556.839
 20.670    515.000    557.153    -42.153    556.555    557.045    556.555    556.663    556.555
 20.770    601.295    556.881     44.414    556.270    556.772    556.270    556.379    556.270
 20.870    569.000    556.617     12.383    555.984    556.506    555.984    556.095    555.984
 20.970    569.000    556.425     12.575    555.698    556.313    555.698    555.809    555.698
 21.070    577.452    556.174     21.278    555.410    556.061    555.410    555.523    555.410
 21.170    560.000    555.903      4.097    555.122    555.790    555.122    555.236    555.122
 21.270    513.032    555.632    -42.601    554.833    555.517    554.833    554.948    554.833
 21.370    573.000    555.362     17.638    554.543    555.245    554.543    554.660    554.543
 21.470    574.475    555.092     19.383    554.253    554.974    554.253    554.371    554.253
 21.570    515.904    554.823    -38.919    553.962    554.704    553.962    554.081    553.962
 21.670    562.000    554.555      7.445    553.671    554.435    553.671    553.791    553.671
 21.770    554.000    554.289     -0.289    553.379    554.168    553.379    553.500    553.379
 21.870    530.984    554.026    -23.042    553.086    553.903    553.086    553.209    553.086
 21.970    578.000    553.767     24.233    552.793    553.643    552.793    552.918    552.793
 22.070    566.000    553.552     12.448    552.499    553.426    552.499    552.625    552.499
 22.170    572.000    553.312     18.688    552.205    553.185    552.205    552.333    552.205
 22.270    552.000    553.059     -1.059    551.911    552.930    551.911    552.040    551.911
 22.370    533.000    552.808    -19.808    551.615    552.677    551.615    551.746    551.615
 22.470    574.000    552.563     21.437    551.320    552.431    551.320    551.453    551.320
 22.570    598.000    552.341     45.659    551.024    552.207    551.024    551.159    551.024
 22.670    577.648    552.132     25.516    550.728    551.995    550.728    550.864    550.728
 22.770    554.000    551.907      2.093    550.431    551.769    550.431    550.569    550.431
 22.870    514.000    551.688    -37.688    550.134    551.548    550.134    550.275    550.134
 22.970    554.000    551.481      2.519    549.837    551.339    549.837    549.979    549.837
 23.070    505.000    551.287    -46.287    549.539    551.143    549.539    549.684    549.539
 23.170    555.924    551.111      4.813    549.242    550.964    549.242    549.388    549.242
 23.270    528.810    550.955    -22.146    548.944    550.807    548.944    549.093    548.944
 23.370    528.808    550.826    -22.019    548.645    550.676    548.645    548.797    548.645
 23.470    528.000    550.732    -22.732    548.347    550.579    548.347    548.501    548.347
 23.570    581.000    550.683     30.317    548.048    550.527    548.048    548.205    548.048
 23.670    585.095    550.695     34.400    547.749    550.537    547.749    547.909    547.749
 23.770    558.753    550.792      7.961    547.451    550.631    547.451    547.613    547.451
 23.870    518.000    551.014    -33.014    547.152    550.850    547.152    547.317    547.152
 23.970    591.000    551.427     39.573    546.852    551.261    546.852    547.021    546.852
 24.070    513.104    552.215    -39.111    546.553    552.046    546.553    546.725    546.553
 24.170    564.000    553.805     10.195    546.254    553.634    546.254    546.430    546.254
 24.270    578.000    557.197     20.803    545.955    557.025    545.955    546.134    545.955
 24.370    551.000    564.142    -13.142    545.656    563.971    545.656    545.839    545.656
 24.470    552.781    576.653    -23.872    545.356    576.487    545.356    545.543    545.356
 24.570    627.000    595.261     31.739    545.057    595.104    545.057    545.248    545.057
 24.670    622.000    616.215      5.785    544.758    616.070    544.758    544.954    544.758
 24.770    622.000    629.739     -7.739    544.459    629.599    544.459    544.659    544.459
 24.870    646.000    626.425     19.575    544.160    626.278    544.160    544.365    544.160
 24.970    612.000    608.807      3.193    543.861    608.642    543.861    544.072    543.861
 25.070    626.000    587.487     38.513    543.563    587.301    543.563    543.779    543.563
 25.170    610.000    570.262     39.738    543.264    570.058    543.264    543.486    543.264
 25.270    550.851    559.215     -8.364    542.966    558.997    542.966    543.194    542.966
 25.370    554.000    553.104      0.896    542.667    552.875    542.667    542.903    542.667
 25.470    536.000    549.915    -13.915    542.369    549.677    542.369    542.612    542.369
 25.570    571.000    548.148     22.852    542.072    547.901    542.072    542.322    542.072
 25.670    545.000    547.045     -2.045    541.774    546.788    541.774    542.033    541.774
 25.770    568.000    546.244     21.756    541.477    545.979    541.477    541.744    541.477
 25.870    537.000    545.597     -8.597    541.180    545.322    541.180    541.457    541.180
 25.970    545.137    545.066      0.071    540.883    544.780    540.883    541.170    540.883
 26.070    500.046    544.624    -44.578    540.587    544.327    540.587    540.885    540.587
 26.170    581.437    544.254     37.183    540.291    543.945    540.291    540.601    540.291
 26.270    546.000    543.954      2.046    539.995    543.632    539.995    540.318    539.995
 26.370    566.768    543.717     23.051    539.700    543.381    539.700    540.037    539.700
 26.470    522.000    543.507    -21.507    539.405    543.156    539.405    539.758    539.405
 26.570    567.296    543.346     23.950    539.111    542.978    539.111    539.480    539.111
 26.670    501.000    543.238    -42.238    538.817    542.851    538.817    539.204    538.817
 26.770    563.000    543.186     19.814    538.523    542.779    538.523    538.931    538.523
 26.870    533.000    543.203    -10.203    538.230    542.773    538.230    538.660    538.230
 26.970    504.785    543.308    -38.523    537.937    542.853    537.937    538.392    537.937
 27.070    525.312    543.521    -18.208    537.645    543.038    537.645    538.127    537.645
 27.170    577.638    543.866     33.772    537.354    543.353    537.354    537.866    537.354
 27.270    536.000    544.383     -8.383    537.062    543.836    537.062    537.609    537.062
 27.370    614.000    545.152     68.848    536.772    544.566    536.772    537.357    536.772
 27.470    588.000    546.299     41.701    536.482    545.669    536.482    537.111    536.482
 27.570    504.332    548.164    -43.832    536.192    547.483    536.192    536.871    536.192
 27.670    597.000    552.026     44.974    535.903    551.287    535.903    536.638    535.903
 27.770    563.000    562.458      0.542    535.615    561.651    535.615    536.415    535.615
 27.870    636.000    591.598     44.402    535.327    590.705    535.327    536.203    535.327
 27.970    667.000    659.159      7.841    535.040    658.157    535.040    536.004    535.040
 28.070    822.000    774.650     47.350    534.754    773.511    534.754    535.822    534.754
 28.170    915.000    904.809     10.191    534.468    903.519    534.468    535.659    534.468
 28.270    984.193    968.809     15.384    534.183    967.373    534.183    535.522    534.183
 28.370    879.000    914.077    -35.077    533.899    912.497    533.899    535.419    533.899
 28.470    794.000    796.282     -2.282    533.615    794.514    533.615    535.360    533.615
 28.570    702.000    705.496     -3.496    533.332    703.453    533.332    535.366    533.332
 28.670    680.941    687.597     -6.656    533.050    685.170    533.050    535.464    533.050
 28.770    762.996    736.012     26.984    532.768    733.062    532.768    535.700    532.768
 28.870    781.000    807.891    -26.891    532.488    804.227    532.488    536.139    532.488
 28.970    854.000    841.753     12.247    532.208    837.097    532.208    536.867    532.208
 29.070    743.000    801.907    -58.907    531.929    795.867    531.929    537.983    531.929
 29.170    681.000    719.641    -38.641    531.650    711.721    531.650    539.584    531.650
 29.270    645.000    643.692      1.308    531.373    633.347    531.373    541.726    531.373
 29.370    618.703    596.263     22.440    531.096    583.007    531.096    544.355    531.096
 29.470    568.000    574.468     -6.468    530.820    558.116    530.820    547.172    530.820
 29.570    582.000    566.552     15.448    530.545    547.605    530.545    549.491    530.545
 29.670    590.000    563.190     26.810    530.271    543.090    530.271    550.369    530.271
 29.770    568.000    559.996      8.004    529.998    540.721    529.998    549.271    529.998
 29.870    580.000    556.072     23.928    529.726    539.198    529.726    546.598    529.726
 29.970    517.344    551.958    -34.614    529.454    538.138    529.454    543.273    529.454
 30.070    549.744    548.278      1.466    529.184    537.420    529.184    540.040    529.184
 30.170    583.061    545.374     37.687    528.914    537.029    528.914    537.257    528.914
 30.270    545.000    543.454      1.546    528.645    537.082    528.645    535.016    528.645
 30.370    582.000    542.930     39.070    528.378    538.032    528.378    533.273    528.378
