neutron_powder_diffraction_0065
R_wp: 4.165
Temperature (K): 721.317
Counts: 83387.00
Wavelength (Ã…): 2.52098
COMMENTS
Test file for demonstrating the .xyy file format in Reel1.0
END OF HEADER
   tth       Y_obs     Y_calc      Y_res    Background    Phase_1_Nuc    Phase_1_Mag    Phase_2_Nuc    Phase_2_Mag
  9.970    653.000    635.241     17.759    634.303    635.043    634.502    634.303    634.303
 10.070    686.000    635.466     50.534    634.470    635.266    634.671    634.470    634.470
 10.170    693.000    635.691     57.309    634.629    635.488    634.831    634.629    634.629
 10.270    648.000    635.917     12.083    634.780    635.712    634.984    634.780    634.780
 10.370    617.313    636.146    -18.834    634.922    635.939    635.129    634.922    634.922
 10.470    680.000    636.382     43.618    635.057    636.172    635.266    635.057    635.057
 10.570    664.000    636.626     27.374    635.184    636.414    635.395    635.184    635.184
 10.670    662.000    636.884     25.116    635.303    636.670    635.517    635.303    635.303
 10.770    619.980    637.168    -17.188    635.414    636.951    635.630    635.414    635.414
 10.870    641.000    637.545      3.455    635.518    637.325    635.736    635.518    635.518
 10.970    590.730    637.987    -47.257    635.614    637.765    635.835    635.614    635.614
 11.070    617.000    638.390    -21.390    635.703    638.165    635.926    635.703    635.703
 11.170    601.997    638.855    -36.858    635.784    638.628    636.010    635.784    635.784
 11.270    688.885    639.424     49.461    635.857    639.194    636.086    635.857    635.857
 11.370    593.659    640.144    -46.485    635.924    639.911    636.155    635.924    635.924
 11.470    645.000    641.102      3.898    635.983    640.865    636.217    635.983    635.983
 11.570    660.400    642.496     17.904    636.035    642.256    636.272    636.035    636.035
 11.670    729.000    644.912     84.088    636.080    644.668    636.319    636.080    636.080
 11.770    737.000    650.007     86.993    636.118    649.757    636.360    636.118    636.118
 11.870    662.316    661.465      0.851    636.149    661.205    636.394    636.149    636.149
 11.970    773.000    684.648     88.352    636.173    684.373    636.421    636.173    636.173
 12.070    672.298    722.330    -50.032    636.190    722.030    636.441    636.190    636.190
 12.170    802.000    766.612     35.388    636.200    766.285    636.454    636.200    636.200
 12.270    745.608    794.101    -48.493    636.204    793.754    636.461    636.204    636.204
 12.370    766.065    783.389    -17.324    636.201    783.046    636.461    636.201    636.201
 12.470    753.465    744.118      9.348    636.191    743.793    636.455    636.191    636.191
 12.570    691.000    701.737    -10.737    636.175    701.434    636.442    636.175    636.175
 12.670    638.437    671.502    -33.065    636.153    671.212    636.423    636.153    636.153
 12.770    660.000    654.880      5.120    636.124    654.596    636.397    636.124    636.124
 12.870    652.000    647.133      4.867    636.089    646.850    636.366    636.089    636.089
 12.970    648.000    643.631      4.369    636.047    643.346    636.328    636.047    636.047
 13.070    625.000    641.823    -16.823    635.999    641.536    636.284    635.999    635.999
 13.170    675.000    640.688     34.312    635.946    640.398    636.233    635.946    635.946
 13.270    603.000    639.875    -36.875    635.886    639.581    636.177    635.886    635.886
 13.370    626.000    639.252    -13.252    635.820    638.955    636.115    635.820    635.820
 13.470    601.000    638.755    -37.755    635.748    638.454    636.047    635.748    635.748
 13.570    584.000    638.346    -54.346    635.670    638.042    635.973    635.670    635.670
 13.670    587.249    638.001    -50.752    635.587    637.693    635.894    635.587    635.587
 13.770    656.602    637.701     18.900    635.497    637.389    635.809    635.497    635.497
 13.870    598.000    637.435    -39.435    635.402    637.119    635.718    635.402    635.402
 13.970    603.656    637.194    -33.537    635.302    636.873    635.622    635.302    635.302
 14.070    657.234    636.971     20.264    635.196    636.646    635.520    635.196    635.196
 14.170    567.000    636.761    -69.761    635.084    636.432    635.412    635.084    635.084
 14.270    592.797    636.563    -43.766    634.967    636.230    635.300    634.967    634.967
 14.370    597.415    636.386    -38.972    634.844    636.048    635.182    634.844    634.844
 14.470    601.000    636.213    -35.213    634.716    635.870    635.059    634.716    634.716
 14.570    586.000    636.031    -50.031    634.583    635.683    634.931    634.583    634.583
 14.670    594.184    635.850    -41.666    634.444    635.496    634.797    634.444    634.444
 14.770    645.000    635.669      9.331    634.301    635.311    634.659    634.301    634.301
 14.870    685.276    635.491     49.785    634.152    635.128    634.515    634.152    634.152
 14.970    592.000    635.334    -43.334    633.998    634.963    634.369    633.998    633.998
 15.070    627.144    635.204     -8.060    633.839    634.824    634.220    633.839    633.839
 15.170    583.000    635.026    -52.026    633.676    634.640    634.062    633.676    633.676
 15.270    651.000    634.842     16.158    633.507    634.450    633.899    633.507    633.507
 15.370    581.000    634.655    -53.655    633.334    634.257    633.731    633.334    633.334
 15.470    623.000    634.466    -11.466    633.155    634.062    633.559    633.155    633.155
 15.570    560.000    634.275    -74.275    632.973    633.865    633.382    632.973    632.973
 15.670    604.000    634.080    -30.080    632.785    633.664    633.201    632.785    632.785
 15.770    625.000    633.884     -8.884    632.593    633.461    633.015    632.593    632.593
 15.870    685.360    633.694     51.667    632.396    633.265    632.825    632.396    632.396
 15.970    643.000    633.564      9.436    632.195    633.128    632.630    632.195    632.195
 16.070    660.493    633.368     27.125    631.989    632.926    632.432    631.989    631.989
 16.170    582.000    633.159    -51.159    631.779    632.710    632.229    631.779    631.779
 16.270    657.000    632.947     24.053    631.565    632.490    632.021    631.565    631.565
 16.370    589.581    632.732    -43.151    631.346    632.268    631.810    631.346    631.346
 16.470    612.000    632.513    -20.513    631.123    632.041    631.595    631.123    631.123
 16.570    654.000    632.291     21.709    630.896    631.812    631.376    630.896    630.896
 16.670    610.000    632.066    -22.066    630.665    631.579    631.152    630.665    630.665
 16.770    583.254    631.838    -48.584    630.430    631.343    630.925    630.430    630.430
 16.870    611.000    631.612    -20.612    630.191    631.108    630.694    630.191    630.191
 16.970    602.439    631.379    -28.941    629.948    630.867    630.460    629.948    629.948
 17.070    598.641    631.142    -32.500    629.701    630.621    630.221    629.701    629.701
 17.170    628.505    630.901     -2.395    629.450    630.371    629.979    629.450    629.450
 17.270    641.678    630.657     11.021    629.195    630.118    629.734    629.195    629.195
 17.370    636.000    630.417      5.583    628.937    629.868    629.485    628.937    628.937
 17.470    601.000    630.189    -29.189    628.675    629.631    629.232    628.675    628.675
 17.570    637.000    629.939      7.061    628.409    629.371    628.977    628.409    628.409
 17.670    590.497    629.686    -39.189    628.139    629.108    628.717    628.139    628.139
 17.770    598.000    629.438    -31.438    627.866    628.849    628.455    627.866    627.866
 17.870    613.446    629.180    -15.734    627.590    628.581    628.189    627.590    627.590
 17.970    607.116    628.917    -21.801    627.310    628.306    627.920    627.310    627.310
 18.070    575.989    628.657    -52.668    627.027    628.035    627.649    627.027    627.027
 18.170    572.810    628.429    -55.619    626.740    627.795    627.374    626.740    626.740
 18.270    661.056    628.172     32.885    626.450    627.525    627.096    626.450    626.450
 18.370    575.287    627.929    -52.642    626.157    627.270    626.816    626.157    626.157
 18.470    636.645    627.661      8.984    625.860    626.989    626.532    625.860    625.860
 18.570    591.000    627.383    -36.383    625.561    626.698    626.246    625.561    625.561
 18.670    627.000    627.102     -0.102    625.258    626.403    625.957    625.258    625.258
 18.770    674.625    626.826     47.799    624.952    626.112    625.666    624.952    624.952
 18.870    597.624    626.546    -28.922    624.643    625.816    625.373    624.643    624.643
 18.970    667.091    626.263     40.828    624.332    625.517    625.078    624.332    624.332
 19.070    651.693    625.974     25.719    624.017    625.212    624.778    624.017    624.017
 19.170    612.926    625.682    -12.756    623.699    624.905    624.477    623.699    623.699
 19.270    637.000    625.389     11.611    623.379    624.595    624.173    623.379    623.379
 19.370    578.000    625.093    -47.093    623.056    624.282    623.866    623.056    623.056
 19.470    617.000    624.797     -7.797    622.730    623.969    623.558    622.730    622.730
 19.570    614.000    624.511    -10.511    622.401    623.664    623.247    622.401    622.401
 19.670    584.000    624.267    -40.267    622.070    623.402    622.935    622.070    622.070
 19.770    612.407    623.971    -11.565    621.736    623.087    622.620    621.736    621.736
 19.870    675.457    623.669     51.789    621.399    622.765    622.303    621.399    621.399
 19.970    617.000    623.368     -6.368    621.060    622.443    621.985    621.060    621.060
 20.070    631.000    623.084      7.916    620.719    622.138    621.665    620.719    620.719
 20.170    601.000    622.800    -21.800    620.375    621.832    621.343    620.375    620.375
 20.270    614.074    622.504     -8.430    620.028    621.513    621.020    620.028    620.028
 20.370    637.000    622.221     14.779    619.680    621.206    620.695    619.680    619.680
 20.470    597.000    621.938    -24.938    619.329    620.898    620.369    619.329    619.329
 20.570    595.000    621.632    -26.632    618.976    620.566    620.041    618.976    618.976
 20.670    636.027    621.322     14.705    618.620    620.230    619.712    618.620    618.620
 20.770    642.674    621.012     21.662    618.262    619.893    619.382    618.262    618.262
 20.870    637.307    620.703     16.605    617.903    619.555    619.051    617.903    617.903
 20.970    633.676    620.399     13.277    617.541    619.220    618.719    617.541    617.541
 21.070    628.000    620.094      7.906    617.177    618.885    618.386    617.177    617.177
 21.170    608.000    619.786    -11.786    616.811    618.545    618.052    616.811    616.811
 21.270    667.239    619.481     47.758    616.443    618.206    617.718    616.443    616.443
 21.370    614.000    619.176     -5.176    616.073    617.866    617.383    616.073    616.073
 21.470    601.000    618.873    -17.873    615.702    617.527    617.047    615.702    615.702
 21.570    585.038    618.569    -33.531    615.328    617.185    616.712    615.328    615.328
 21.670    629.000    618.265     10.735    614.953    616.842    616.376    614.953    614.953
 21.770    625.793    617.963      7.830    614.575    616.499    616.040    614.575    614.575
 21.870    574.821    617.663    -42.842    614.197    616.156    615.704    614.197    614.197
 21.970    584.000    617.366    -33.366    613.816    615.814    615.368    613.816    613.816
 22.070    604.000    617.072    -13.072    613.434    615.473    615.033    613.434    613.434
 22.170    568.868    616.783    -47.914    613.050    615.134    614.698    613.050    613.050
 22.270    590.000    616.498    -26.498    612.664    614.798    614.364    612.664    612.664
 22.370    632.000    616.216     15.784    612.277    614.462    614.032    612.277    612.277
 22.470    585.000    615.939    -30.939    611.889    614.129    613.700    611.889    611.889
 22.570    592.000    615.671    -23.671    611.499    613.801    613.369    611.499    611.499
 22.670    623.000    615.408      7.592    611.108    613.475    613.041    611.108    611.108
 22.770    634.000    615.154     18.846    610.715    613.155    612.714    610.715    610.715
 22.870    570.000    614.910    -44.910    610.321    612.841    612.389    610.321    610.321
 22.970    585.000    614.677    -29.677    609.925    612.536    612.067    609.925    609.925
 23.070    617.000    614.457      2.543    609.529    612.239    611.747    609.529    609.529
 23.170    538.000    614.252    -76.252    609.131    611.953    611.430    609.131    609.131
 23.270    575.355    614.066    -38.711    608.732    611.681    611.117    608.732    608.732
 23.370    655.472    613.904     41.568    608.331    611.428    610.807    608.331    608.331
 23.470    625.880    613.769     12.112    607.930    611.197    610.502    607.930    607.930
 23.570    655.000    613.669     41.331    607.527    610.996    610.202    607.527    607.527
 23.670    588.112    613.620    -25.508    607.124    610.838    609.907    607.124    607.124
 23.770    599.000    613.629    -14.629    606.719    610.731    609.618    606.719    606.719
 23.870    628.000    613.707     14.293    606.313    610.687    609.335    606.313    606.313
 23.970    642.860    613.889     28.971    605.907    610.739    609.058    605.907    605.907
 24.070    604.000    614.225    -10.225    605.499    610.936    608.790    605.499    605.499
 24.170    665.000    614.818     50.182    605.091    611.381    608.530    605.091    605.091
 24.270    644.000    615.946     28.054    604.682    612.350    608.280    604.682    604.682
 24.370    631.735    618.356     13.379    604.271    614.590    608.042    604.271    604.271
 24.470    627.000    623.717      3.283    603.860    619.772    607.815    603.860    603.860
 24.570    586.014    634.762    -48.748    603.449    630.628    607.600    603.449    603.449
 24.670    670.000    653.962     16.038    603.036    649.630    607.400    603.036    603.036
 24.770    690.000    680.112      9.888    602.623    675.569    607.216    602.623    602.623
 24.870    695.000    704.510     -9.510    602.210    699.737    607.050    602.210    602.210
 24.970    679.000    712.490    -33.490    601.795    707.454    606.904    601.795    601.795
 25.070    706.000    697.346      8.654    601.380    692.007    606.781    601.380    601.380
 25.170    711.000    670.460     40.540    600.965    664.784    606.684    600.965    600.965
 25.270    673.721    645.923     27.797    600.548    639.882    606.615    600.548    600.548
 25.370    672.000    629.630     42.370    600.132    623.195    606.579    600.132    600.132
 25.470    652.000    620.967     31.033    599.715    614.108    606.581    599.715    599.715
 25.570    569.677    617.013    -47.336    599.297    609.690    606.624    599.297    599.297
 25.670    574.147    615.319    -41.173    598.879    607.486    606.715    598.879    598.879
 25.770    592.331    614.598    -22.267    598.461    606.198    606.862    598.461    598.461
 25.870    663.145    614.340     48.806    598.042    605.310    607.073    598.042    598.042
 25.970    655.000    614.373     40.627    597.623    604.639    607.358    597.623    597.623
 26.070    652.358    614.640     37.718    597.204    604.115    607.730    597.204    597.204
 26.170    666.000    615.124     50.876    596.784    603.705    608.203    596.784    596.784
 26.270    625.799    615.824      9.975    596.364    603.393    608.796    596.364    596.364
 26.370    603.818    616.756    -12.939    595.944    603.169    609.532    595.944    595.944
 26.470    654.000    617.946     36.054    595.524    603.031    610.439    595.524    595.524
 26.570    575.319    619.431    -44.112    595.104    602.981    611.553    595.104    595.104
 26.670    648.000    621.268     26.732    594.683    603.029    612.921    594.683    594.683
 26.770    680.000    623.527     56.473    594.263    603.187    614.601    594.263    594.263
 26.870    635.979    626.307      9.672    593.842    603.476    616.672    593.842    593.842
 26.970    634.854    629.741      5.113    593.421    603.923    619.237    593.421    593.421
 27.070    687.000    634.008     52.992    593.001    604.569    622.437    593.001    593.001
 27.170    738.000    639.358     98.642    592.580    605.468    626.467    592.580    592.580
 27.270    678.000    646.150     31.850    592.159    606.700    631.606    592.159    592.159
 27.370    678.000    654.931     23.069    591.739    608.389    638.276    591.739    591.739
 27.470    620.521    666.642    -46.122    591.318    610.743    647.212    591.318    591.318
 27.570    660.181    683.234    -23.053    590.898    614.196    659.928    590.898    590.898
 27.670    765.000    709.214     55.786    590.478    619.746    679.934    590.478    590.478
 27.770    847.000    754.667     92.333    590.058    629.622    715.084    590.058    590.058
 27.870    880.000    838.709     41.291    589.638    648.043    780.271    589.638    589.638
 27.970    939.263    988.749    -49.486    589.218    681.061    896.848    589.218    589.218
 28.070   1123.000   1228.466   -105.466    588.799    733.917   1083.253    588.799    588.799
 28.170   1502.246   1551.356    -49.110    588.380    805.222   1334.381    588.380    588.380
 28.270   1867.000   1884.385    -17.385    587.961    878.984   1593.210    587.961    587.961
 28.370   2129.000   2074.507     54.493    587.542    921.701   1740.225    587.542    587.542
 28.470   2006.000   2007.391     -1.391    587.124    908.609   1685.852    587.124    587.124
 28.570   1802.000   1765.092     36.908    586.707    858.515   1493.286    586.707    586.707
 28.670   1478.928   1521.045    -42.116    586.289    810.597   1296.758    586.289    586.289
 28.770   1449.551   1387.222     62.329    585.872    790.276   1182.834    585.872    585.872
 28.870   1426.588   1384.112     42.475    585.456    801.673   1167.901    585.456    585.456
 28.970   1448.250   1456.165     -7.915    585.040    829.721   1211.492    585.040    585.040
 29.070   1461.000   1495.937    -34.937    584.624    845.010   1235.580    584.624    584.624
 29.170   1483.000   1419.621     63.379    584.209    824.635   1179.251    584.209    584.209
 29.270   1236.000   1248.541    -12.541    583.795    775.734   1056.669    583.795    583.795
 29.370   1112.000   1058.393     53.607    583.381    720.852    920.982    583.381    583.381
 29.470    915.716    901.303     14.414    582.967    675.405    808.908    582.967    582.967
 29.570    831.000    792.561     38.439    582.554    643.953    731.190    582.554    582.554
 29.670    726.112    725.603      0.508    582.142    624.626    683.136    582.142    582.142
 29.770    650.806    686.733    -35.927    581.731    613.456    655.016    581.731    581.731
 29.870    703.000    663.891     39.109    581.320    606.948    638.268    581.320    581.320
 29.970    605.291    649.458    -44.167    580.910    602.899    627.471    580.910    580.910
 30.070    592.521    639.520    -46.999    580.500    600.194    619.827    580.500    580.500
 30.170    623.463    632.303     -8.840    580.092    598.353    614.041    580.092    580.092
 30.270    624.296    627.075     -2.779    579.684    597.236    609.521    579.684    579.684
 30.370    646.496    623.673     22.823    579.276    596.944    606.002    579.276    579.276
