neutron_powder_diffraction_0096
R_wp: 4.063
Temperature (K): 870.085
Counts: 83396.00
Wavelength (Ã…): 2.52098
COMMENTS
Test file for demonstrating the .xyy file format in Reel1.0
END OF HEADER
   tth       Y_obs     Y_calc      Y_res    Background    Phase_1_Nuc    Phase_1_Mag    Phase_2_Nuc    Phase_2_Mag
  9.970    627.000    547.505     79.495    546.189    547.186    546.189    546.508    546.189
 10.070    621.000    548.177     72.823    546.776    547.857    546.776    547.096    546.776
 10.170    572.000    548.850     23.150    547.352    548.528    547.352    547.673    547.352
 10.270    547.000    549.526     -2.526    547.916    549.202    547.916    548.238    547.916
 10.370    523.000    550.207    -27.207    548.468    549.883    548.468    548.792    548.468
 10.470    582.000    550.898     31.102    549.009    550.573    549.009    549.334    549.009
 10.570    573.000    551.607     21.393    549.538    551.280    549.538    549.865    549.538
 10.670    622.000    552.337     69.663    550.056    552.009    550.056    550.384    550.056
 10.770    508.066    553.096    -45.029    550.563    552.766    550.563    550.893    550.563
 10.870    529.430    553.896    -24.466    551.059    553.564    551.059    551.390    551.059
 10.970    556.000    554.755      1.245    551.544    554.421    551.544    551.876    551.544
 11.070    607.000    555.695     51.305    552.018    555.360    552.018    552.351    552.018
 11.170    596.000    556.749     39.251    552.481    556.412    552.481    552.816    552.481
 11.270    586.000    557.969     28.031    552.933    557.630    552.933    553.270    552.933
 11.370    639.000    559.440     79.560    553.375    559.100    553.375    553.713    553.375
 11.470    606.000    561.347     44.653    553.806    561.004    553.806    554.145    553.806
 11.570    573.000    564.112      8.888    554.227    563.767    554.227    554.567    554.227
 11.670    556.000    568.720    -12.720    554.637    568.370    554.637    554.979    554.637
 11.770    628.000    577.084     50.916    555.037    576.728    555.037    555.380    555.037
 11.870    593.000    591.986      1.014    555.427    591.620    555.427    555.772    555.427
 11.970    627.000    615.731     11.269    555.806    615.351    555.806    556.153    555.806
 12.070    696.300    647.076     49.224    556.176    646.677    556.176    556.524    556.176
 12.170    647.096    677.140    -30.044    556.535    676.722    556.535    556.885    556.535
 12.270    721.967    689.111     32.857    556.885    688.685    556.885    557.236    556.885
 12.370    625.000    673.483    -48.483    557.225    673.065    557.225    557.577    557.225
 12.470    648.058    642.535      5.523    557.555    642.133    557.555    557.909    557.555
 12.570    572.059    612.719    -40.660    557.875    612.333    557.875    558.231    557.875
 12.670    600.991    591.317      9.674    558.186    590.941    558.186    558.544    558.186
 12.770    614.000    578.561     35.439    558.488    578.191    558.488    558.847    558.488
 12.870    553.007    571.829    -18.822    558.780    571.461    558.780    559.140    558.780
 12.970    552.627    568.414    -15.787    559.063    568.046    559.063    559.425    559.063
 13.070    532.387    566.583    -34.197    559.336    566.216    559.336    559.700    559.336
 13.170    574.000    565.495      8.505    559.601    565.126    559.601    559.966    559.601
 13.270    573.000    564.790      8.210    559.856    564.420    559.856    560.223    559.856
 13.370    578.000    564.315     13.685    560.102    563.944    560.102    560.471    560.102
 13.470    524.000    563.995    -39.995    560.340    563.622    560.340    560.711    560.340
 13.570    528.000    563.784    -35.784    560.568    563.410    560.568    560.941    560.568
 13.670    559.122    563.651     -4.529    560.788    563.275    560.788    561.163    560.788
 13.770    545.613    563.575    -17.962    561.000    563.198    561.000    561.376    561.000
 13.870    536.124    563.542    -27.418    561.202    563.162    561.202    561.580    561.202
 13.970    582.000    563.539     18.461    561.396    563.158    561.396    561.776    561.396
 14.070    524.702    563.560    -38.858    561.582    563.177    561.582    561.964    561.582
 14.170    600.722    563.598     37.124    561.760    563.213    561.760    562.143    561.760
 14.270    536.186    563.648    -27.462    561.929    563.261    561.929    562.314    561.929
 14.370    530.580    563.707    -33.126    562.090    563.318    562.090    562.477    562.090
 14.470    540.382    563.771    -23.389    562.242    563.381    562.242    562.632    562.242
 14.570    514.000    563.839    -49.839    562.387    563.447    562.387    562.779    562.387
 14.670    534.000    563.909    -29.909    562.524    563.515    562.524    562.918    562.524
 14.770    562.230    563.979     -1.750    562.653    563.583    562.653    563.049    562.653
 14.870    568.000    564.049      3.951    562.774    563.651    562.774    563.172    562.774
 14.970    531.000    564.116    -33.116    562.887    563.716    562.887    563.287    562.887
 15.070    507.000    564.182    -57.182    562.993    563.780    562.993    563.395    562.993
 15.170    624.000    564.244     59.756    563.091    563.840    563.091    563.495    563.091
 15.270    551.000    564.303    -13.303    563.182    563.897    563.182    563.588    563.182
 15.370    557.000    564.362     -7.362    563.265    563.954    563.265    563.673    563.265
 15.470    581.470    564.442     17.028    563.341    564.031    563.341    563.751    563.341
 15.570    575.000    564.587     10.413    563.409    564.174    563.409    563.822    563.409
 15.670    529.000    564.641    -35.641    563.471    564.226    563.471    563.886    563.471
 15.770    609.887    564.703     45.185    563.525    564.285    563.525    563.942    563.525
 15.870    547.000    564.737    -17.737    563.572    564.317    563.572    563.991    563.572
 15.970    596.655    564.764     31.892    563.612    564.341    563.612    564.034    563.612
 16.070    558.000    564.785     -6.785    563.645    564.360    563.645    564.069    563.645
 16.170    564.000    564.800     -0.800    563.671    564.374    563.671    564.098    563.671
 16.270    584.334    564.811     19.523    563.690    564.382    563.690    564.120    563.690
 16.370    570.000    564.820      5.180    563.703    564.388    563.703    564.135    563.703
 16.470    589.514    564.820     24.693    563.709    564.386    563.709    564.143    563.709
 16.570    583.000    564.814     18.186    563.709    564.377    563.709    564.145    563.709
 16.670    549.000    564.802    -15.802    563.701    564.363    563.701    564.141    563.701
 16.770    580.000    564.785     15.215    563.688    564.342    563.688    564.130    563.688
 16.870    583.257    564.762     18.495    563.668    564.317    563.668    564.113    563.668
 16.970    532.213    564.733    -32.519    563.642    564.285    563.642    564.089    563.642
 17.070    556.000    564.699     -8.699    563.609    564.249    563.609    564.059    563.609
 17.170    602.091    564.659     37.431    563.571    564.206    563.571    564.024    563.571
 17.270    558.698    564.614     -5.916    563.526    564.158    563.526    563.982    563.526
 17.370    519.000    564.564    -45.564    563.475    564.105    563.475    563.934    563.475
 17.470    542.396    564.508    -22.112    563.418    564.046    563.418    563.880    563.418
 17.570    529.000    564.447    -35.447    563.356    563.982    563.356    563.820    563.356
 17.670    547.000    564.380    -17.380    563.287    563.913    563.287    563.755    563.287
 17.770    520.000    564.308    -44.308    563.213    563.838    563.213    563.683    563.213
 17.870    550.000    564.232    -14.232    563.133    563.758    563.133    563.606    563.133
 17.970    528.000    564.149    -36.149    563.047    563.672    563.047    563.524    563.047
 18.070    583.878    564.062     19.815    562.956    563.582    562.956    563.436    562.956
 18.170    543.000    563.974    -20.974    562.859    563.490    562.859    563.342    562.859
 18.270    595.000    563.882     31.118    562.756    563.395    562.756    563.243    562.756
 18.370    527.304    563.783    -36.479    562.649    563.293    562.649    563.139    562.649
 18.470    571.000    563.677      7.323    562.536    563.183    562.536    563.029    562.536
 18.570    569.000    563.567      5.433    562.417    563.070    562.417    562.914    562.417
 18.670    586.000    563.481     22.519    562.294    562.980    562.294    562.795    562.294
 18.770    539.000    563.402    -24.402    562.165    562.898    562.165    562.670    562.165
 18.870    600.909    563.281     37.629    562.031    562.773    562.031    562.539    562.031
 18.970    509.000    563.151    -54.151    561.893    562.639    561.893    562.404    561.893
 19.070    545.000    563.016    -18.016    561.749    562.501    561.749    562.265    561.749
 19.170    543.000    562.877    -19.877    561.600    562.358    561.600    562.120    561.600
 19.270    588.150    562.734     25.416    561.447    562.211    561.447    561.970    561.447
 19.370    528.000    562.587    -34.587    561.288    562.059    561.288    561.816    561.288
 19.470    535.559    562.435    -26.877    561.125    561.904    561.125    561.657    561.125
 19.570    551.000    562.280    -11.280    560.958    561.744    560.958    561.494    560.958
 19.670    556.127    562.120     -5.993    560.786    561.580    560.786    561.326    560.786
 19.770    533.005    561.957    -28.952    560.609    561.412    560.609    561.154    560.609
 19.870    532.846    561.789    -28.943    560.427    561.240    560.427    560.977    560.427
 19.970    545.000    561.619    -16.619    560.242    561.065    560.242    560.796    560.242
 20.070    577.117    561.458     15.659    560.052    560.899    560.052    560.610    560.052
 20.170    546.000    561.300    -15.300    559.857    560.737    559.857    560.421    559.857
 20.270    531.425    561.150    -29.725    559.658    560.582    559.658    560.227    559.658
 20.370    558.467    560.971     -2.504    559.456    560.398    559.456    560.029    559.456
 20.470    520.000    560.793    -40.793    559.249    560.214    559.249    559.827    559.249
 20.570    579.129    560.604     18.525    559.037    560.020    559.037    559.621    559.037
 20.670    537.000    560.426    -23.426    558.822    559.836    558.822    559.412    558.822
 20.770    574.772    560.239     14.533    558.603    559.644    558.603    559.198    558.603
 20.870    541.137    560.040    -18.903    558.380    559.440    558.380    558.981    558.380
 20.970    542.647    559.838    -17.191    558.153    559.231    558.153    558.760    558.153
 21.070    572.000    559.633     12.367    557.922    559.021    557.922    558.535    557.922
 21.170    547.000    559.427    -12.427    557.688    558.809    557.688    558.307    557.688
 21.270    586.096    559.218     26.878    557.450    558.593    557.450    558.075    557.450
 21.370    522.000    559.007    -37.007    557.208    558.376    557.208    557.839    557.208
 21.470    541.000    558.802    -17.802    556.963    558.164    556.963    557.600    556.963
 21.570    567.600    558.606      8.993    556.714    557.962    556.714    557.358    556.714
 21.670    510.000    558.398    -48.398    556.461    557.746    556.461    557.113    556.461
 21.770    577.000    558.195     18.805    556.205    557.536    556.205    556.864    556.205
 21.870    579.000    557.993     21.007    555.946    557.327    555.946    556.612    555.946
 21.970    572.000    557.781     14.219    555.683    557.108    555.683    556.357    555.683
 22.070    523.329    557.611    -34.282    555.417    556.930    555.417    556.099    555.417
 22.170    530.000    557.423    -27.423    555.148    556.733    555.148    555.838    555.148
 22.270    545.000    557.219    -12.219    554.876    556.521    554.876    555.574    554.876
 22.370    539.000    557.008    -18.008    554.601    556.302    554.601    555.307    554.601
 22.470    560.000    556.818      3.182    554.322    556.103    554.322    555.038    554.322
 22.570    533.000    556.650    -23.650    554.041    555.925    554.041    554.765    554.041
 22.670    572.000    556.455     15.545    553.756    555.721    553.756    554.490    553.756
 22.770    558.328    556.268      2.061    553.469    555.524    553.469    554.213    553.469
 22.870    566.000    556.089      9.911    553.178    555.335    553.178    553.933    553.178
 22.970    568.000    555.912     12.088    552.885    555.148    552.885    553.650    552.885
 23.070    574.000    555.752     18.248    552.589    554.978    552.589    553.365    552.589
 23.170    547.000    555.605     -8.605    552.291    554.819    552.291    553.077    552.291
 23.270    540.251    555.478    -15.227    551.989    554.680    551.989    552.788    551.989
 23.370    611.000    555.379     55.621    551.685    554.569    551.685    552.496    551.685
 23.470    522.000    555.316    -33.316    551.379    554.495    551.379    552.202    551.379
 23.570    589.352    555.298     34.054    551.070    554.464    551.070    551.906    551.070
 23.670    532.000    555.342    -23.342    550.758    554.494    550.758    551.607    550.758
 23.770    553.000    555.461     -2.461    550.444    554.599    550.444    551.307    550.444
 23.870    564.565    555.694      8.872    550.127    554.818    550.127    551.006    550.127
 23.970    599.801    556.095     43.706    549.809    555.204    549.809    550.702    549.809
 24.070    544.000    556.777    -12.777    549.487    555.871    549.487    550.397    549.487
 24.170    573.000    558.002     14.998    549.164    557.080    549.164    550.090    549.164
 24.270    598.000    560.368     37.632    548.838    559.431    548.838    549.782    548.838
 24.370    558.000    565.047     -7.047    548.511    564.095    548.511    549.472    548.511
 24.470    602.000    573.778     28.222    548.181    572.814    548.181    549.161    548.181
 24.570    601.000    588.136     12.864    547.849    587.162    547.849    548.849    547.849
 24.670    642.000    607.780     34.220    547.515    606.800    547.515    548.536    547.515
 24.770    657.000    627.927     29.073    547.179    626.940    547.179    548.221    547.179
 24.870    615.959    638.188    -22.229    546.841    637.185    546.841    547.906    546.841
 24.970    649.000    630.816     18.184    546.501    629.784    546.501    547.590    546.501
 25.070    571.749    611.447    -39.698    546.159    610.377    546.159    547.274    546.159
 25.170    583.000    590.700     -7.700    545.815    589.588    545.815    546.957    545.815
 25.270    565.980    574.564     -8.584    545.470    573.412    545.470    546.640    545.470
 25.370    601.334    564.167     37.167    545.123    562.979    545.123    546.322    545.123
 25.470    570.629    558.214     12.416    544.774    556.990    544.774    546.005    544.774
 25.570    566.000    554.931     11.069    544.424    553.672    544.424    545.687    544.424
 25.670    556.000    553.014      2.986    544.071    551.719    544.071    545.370    544.071
 25.770    566.000    551.755     14.245    543.718    550.422    543.718    545.053    543.718
 25.870    553.000    550.836      2.164    543.363    549.463    543.363    544.738    543.363
 25.970    511.461    550.122    -38.660    543.006    548.707    543.006    544.423    543.006
 26.070    562.708    549.548     13.160    542.648    548.088    542.648    544.109    542.648
 26.170    530.000    549.081    -19.081    542.288    547.574    542.288    543.797    542.288
 26.270    586.000    548.704     37.296    541.927    547.146    541.927    543.486    541.927
 26.370    620.000    548.403     71.597    541.565    546.790    541.565    543.178    541.565
 26.470    545.000    548.172     -3.172    541.201    546.502    541.201    542.872    541.201
 26.570    637.000    548.012     88.988    540.836    546.280    540.836    542.569    540.836
 26.670    584.000    547.923     36.077    540.470    546.125    540.470    542.269    540.470
 26.770    520.000    547.915    -27.915    540.103    546.046    540.103    541.972    540.103
 26.870    546.895    547.995     -1.101    539.735    546.050    539.735    541.680    539.735
 26.970    563.000    548.183     14.817    539.365    546.156    539.365    541.392    539.365
 27.070    566.569    548.503     18.066    538.995    546.387    538.995    541.110    538.995
 27.170    603.000    548.991     54.009    538.623    546.780    538.623    540.833    538.623
 27.270    581.733    549.700     32.033    538.250    547.387    538.250    540.562    538.250
 27.370    572.000    550.712     21.288    537.877    548.289    537.877    540.299    537.877
 27.470    549.000    552.172     -3.172    537.502    549.631    537.502    540.043    537.502
 27.570    590.000    554.431     35.569    537.127    551.761    537.127    539.795    537.127
 27.670    523.725    558.560    -34.834    536.751    555.751    536.751    539.556    536.751
 27.770    520.576    567.774    -47.198    536.374    564.813    536.374    539.328    536.374
 27.870    614.000    589.753     24.247    535.996    586.624    535.996    539.110    535.996
 27.970    656.000    637.001     18.999    535.618    633.683    535.618    538.903    535.618
 28.070    680.000    719.168    -39.168    535.238    715.642    535.238    538.708    535.238
 28.170    762.000    825.658    -63.658    534.858    821.912    534.858    538.526    534.858
 28.270    931.000    912.647     18.353    534.478    908.687    534.478    538.356    534.478
 28.370    950.352    925.967     24.385    534.097    921.802    534.097    538.198    534.097
 28.470    896.000    860.766     35.234    533.715    856.391    533.715    538.053    533.715
 28.570    777.000    773.592      3.408    533.333    768.985    533.333    537.919    533.333
 28.670    750.000    722.118     27.882    532.950    717.256    532.950    537.795    532.950
 28.770    687.482    726.834    -39.352    532.567    721.703    532.567    537.678    532.567
 28.870    721.594    771.475    -49.880    532.183    766.072    532.183    537.564    532.183
 28.970    778.000    815.275    -37.275    531.799    809.611    531.799    537.450    531.799
 29.070    765.000    816.222    -51.222    531.414    810.307    531.414    537.330    531.414
 29.170    742.000    766.185    -24.185    531.029    760.028    531.029    537.197    531.029
 29.270    702.000    694.777      7.223    530.644    688.390    530.644    537.043    530.644
 29.370    680.000    632.643     47.357    530.259    626.049    530.259    536.862    530.259
 29.470    558.746    591.631    -32.884    529.873    584.864    529.873    536.645    529.873
 29.570    546.161    569.310    -23.149    529.487    562.415    529.487    536.384    529.487
 29.670    585.000    558.430     26.570    529.101    551.456    529.101    536.076    529.101
 29.770    575.000    553.041     21.959    528.715    546.041    528.715    535.715    528.715
 29.870    584.000    549.963     34.037    528.329    542.990    528.329    535.302    528.329
 29.970    565.601    547.898     17.703    527.942    541.004    527.942    534.837    527.942
 30.070    614.000    546.397     67.603    527.556    539.628    527.556    534.324    527.556
 30.170    576.000    545.331     30.669    527.169    538.729    527.169    533.770    527.169
 30.270    588.000    544.745     43.255    526.783    538.344    526.783    533.182    526.783
 30.370    591.143    544.920     46.222    526.396    538.746    526.396    532.567    526.396
