neutron_powder_diffraction_0211
R_wp: 3.924
Temperature (K): 1074.000
Counts: 83783.00
Wavelength (Ã…): 2.52098
COMMENTS
Test file for demonstrating the .xyy file format in Reel1.0
END OF HEADER
   tth       Y_obs     Y_calc      Y_res    Background    Phase_1_Nuc    Phase_1_Mag    Phase_2_Nuc    Phase_2_Mag
  9.970    598.000    581.169     16.831    580.554    581.141    580.554    580.582    580.554
 10.070    588.000    581.130      6.870    580.461    581.101    580.461    580.489    580.461
 10.170    637.000    581.110     55.890    580.364    581.081    580.364    580.393    580.364
 10.270    626.000    581.082     44.918    580.262    581.052    580.262    580.292    580.262
 10.370    617.000    581.057     35.943    580.157    581.027    580.157    580.187    580.157
 10.470    575.000    581.042     -6.042    580.048    581.011    580.048    580.079    580.048
 10.570    617.000    581.041     35.959    579.935    581.009    579.935    579.966    579.935
 10.670    583.000    581.057      1.943    579.818    581.025    579.818    579.850    579.818
 10.770    590.087    581.097      8.990    579.698    581.064    579.698    579.729    579.698
 10.870    596.000    581.169     14.831    579.573    581.135    579.573    579.606    579.573
 10.970    574.007    581.295     -7.288    579.445    581.250    579.445    579.489    579.445
 11.070    588.000    581.470      6.530    579.313    581.424    579.313    579.358    579.313
 11.170    586.000    581.728      4.272    579.178    581.681    579.178    579.223    579.178
 11.270    550.000    582.106    -32.106    579.039    582.058    579.039    579.084    579.039
 11.370    585.000    582.665      2.335    578.896    582.617    578.896    578.942    578.896
 11.470    560.000    583.541    -23.541    578.750    583.493    578.750    578.796    578.750
 11.570    647.000    585.115     61.885    578.601    585.065    578.601    578.647    578.601
 11.670    639.000    588.521     50.479    578.448    588.469    578.448    578.494    578.448
 11.770    619.807    596.546     23.261    578.292    596.489    578.292    578.339    578.292
 11.870    603.018    613.933    -10.915    578.132    613.861    578.132    578.185    578.132
 11.970    685.000    644.641     40.359    577.969    644.550    577.969    578.023    577.969
 12.070    653.935    684.911    -30.975    577.803    684.797    577.803    577.857    577.803
 12.170    743.450    716.838     26.612    577.633    716.706    577.633    577.687    577.633
 12.270    658.000    717.718    -59.718    577.461    717.585    577.461    577.515    577.461
 12.370    671.051    686.588    -15.537    577.285    686.472    577.285    577.340    577.285
 12.470    621.000    645.764    -24.764    577.106    645.671    577.106    577.161    577.106
 12.570    597.000    613.972    -16.972    576.924    613.896    576.924    576.979    576.924
 12.670    565.286    595.615    -30.329    576.739    595.549    576.739    576.795    576.739
 12.770    603.000    586.904     16.096    576.551    586.842    576.551    576.607    576.551
 12.870    580.000    583.015     -3.015    576.360    582.955    576.360    576.416    576.360
 12.970    592.000    581.049     10.951    576.166    580.990    576.166    576.223    576.166
 13.070    574.000    579.810     -5.810    575.969    579.752    575.969    576.026    575.969
 13.170    554.000    578.899    -24.899    575.770    578.841    575.770    575.827    575.770
 13.270    600.000    578.175     21.825    575.567    578.116    575.567    575.625    575.567
 13.370    596.879    577.574     19.305    575.362    577.515    575.362    575.420    575.362
 13.470    556.473    577.059    -20.586    575.154    577.000    575.154    575.212    575.154
 13.570    550.017    576.605    -26.588    574.944    576.546    574.944    575.002    574.944
 13.670    577.000    576.196      0.804    574.730    576.137    574.730    574.789    574.730
 13.770    586.300    575.822     10.478    574.514    575.761    574.514    574.574    574.514
 13.870    527.647    575.474    -47.827    574.296    575.411    574.296    574.358    574.296
 13.970    551.000    575.145    -24.145    574.075    575.080    574.075    574.139    574.075
 14.070    571.000    574.829     -3.829    573.851    574.764    573.851    573.916    573.851
 14.170    549.098    574.525    -25.427    573.625    574.459    573.625    573.690    573.625
 14.270    596.112    574.229     21.883    573.397    574.163    573.397    573.462    573.397
 14.370    551.000    573.941    -22.941    573.166    573.875    573.166    573.232    573.166
 14.470    580.112    573.658      6.454    572.932    573.591    572.932    572.999    572.932
 14.570    536.000    573.379    -37.379    572.697    573.311    572.697    572.764    572.697
 14.670    560.000    573.102    -13.102    572.459    573.035    572.459    572.526    572.459
 14.770    617.000    572.829     44.171    572.219    572.761    572.219    572.286    572.219
 14.870    564.000    572.557     -8.557    571.976    572.489    571.976    572.044    571.976
 14.970    535.000    572.289    -37.289    571.731    572.221    571.731    571.800    571.731
 15.070    547.000    572.021    -25.021    571.485    571.952    571.485    571.553    571.485
 15.170    582.000    571.751     10.249    571.236    571.682    571.236    571.305    571.236
 15.270    577.000    571.482      5.518    570.984    571.412    570.984    571.054    570.984
 15.370    548.000    571.212    -23.212    570.731    571.142    570.731    570.801    570.731
 15.470    556.000    570.942    -14.942    570.476    570.872    570.476    570.546    570.476
 15.570    573.000    570.672      2.328    570.219    570.601    570.219    570.290    570.219
 15.670    558.000    570.401    -12.401    569.960    570.329    569.960    570.031    569.960
 15.770    589.567    570.129     19.438    569.698    570.057    569.698    569.770    569.698
 15.870    551.000    569.857    -18.857    569.435    569.784    569.435    569.507    569.435
 15.970    576.000    569.583      6.417    569.170    569.511    569.170    569.243    569.170
 16.070    551.000    569.309    -18.309    568.904    569.236    568.904    568.977    568.904
 16.170    585.000    569.035     15.965    568.635    568.961    568.635    568.708    568.635
 16.270    567.000    568.760     -1.760    568.365    568.686    568.365    568.439    568.365
 16.370    548.998    568.484    -19.486    568.093    568.408    568.093    568.168    568.093
 16.470    575.000    568.206      6.794    567.819    568.129    567.819    567.895    567.819
 16.570    569.000    567.926      1.074    567.543    567.849    567.543    567.620    567.543
 16.670    521.000    567.645    -46.645    567.266    567.568    567.266    567.343    567.266
 16.770    605.642    567.364     38.278    566.987    567.286    566.987    567.065    566.987
 16.870    581.000    567.081     13.919    566.707    567.002    566.707    566.785    566.707
 16.970    552.000    566.796    -14.796    566.425    566.717    566.425    566.504    566.425
 17.070    572.000    566.511      5.489    566.141    566.432    566.141    566.221    566.141
 17.170    554.586    566.225    -11.639    565.856    566.145    565.856    565.936    565.856
 17.270    520.000    565.937    -45.937    565.570    565.857    565.570    565.650    565.570
 17.370    569.000    565.649      3.351    565.282    565.568    565.282    565.363    565.282
 17.470    588.000    565.359     22.641    564.992    565.278    564.992    565.074    564.992
 17.570    544.000    565.069    -21.069    564.701    564.986    564.701    564.784    564.701
 17.670    581.000    564.779     16.221    564.409    564.696    564.409    564.492    564.409
 17.770    601.869    564.487     37.382    564.116    564.404    564.116    564.199    564.116
 17.870    612.652    564.194     48.458    563.821    564.110    563.821    563.905    563.821
 17.970    558.000    563.899     -5.899    563.525    563.814    563.525    563.610    563.525
 18.070    521.330    563.603    -42.273    563.228    563.518    563.228    563.313    563.228
 18.170    539.900    563.306    -23.407    562.929    563.221    562.929    563.015    562.929
 18.270    563.000    563.009     -0.009    562.630    562.922    562.630    562.716    562.630
 18.370    571.000    562.710      8.290    562.329    562.623    562.329    562.416    562.329
 18.470    580.000    562.411     17.589    562.027    562.323    562.027    562.115    562.027
 18.570    577.252    562.116     15.136    561.724    562.022    561.724    561.817    561.724
 18.670    616.000    561.817     54.183    561.420    561.721    561.420    561.515    561.420
 18.770    588.000    561.515     26.485    561.114    561.418    561.114    561.211    561.114
 18.870    561.890    561.212      0.677    560.808    561.115    560.808    560.906    560.808
 18.970    547.000    560.909    -13.909    560.501    560.811    560.501    560.599    560.501
 19.070    506.000    560.606    -54.606    560.193    560.507    560.193    560.292    560.193
 19.170    546.000    560.302    -14.302    559.884    560.202    559.884    559.983    559.884
 19.270    533.000    559.997    -26.997    559.574    559.896    559.574    559.674    559.574
 19.370    544.000    559.691    -15.691    559.263    559.590    559.263    559.364    559.263
 19.470    606.214    559.385     46.829    558.951    559.283    558.951    559.053    558.951
 19.570    535.000    559.079    -24.079    558.638    558.976    558.638    558.741    558.638
 19.670    526.254    558.773    -32.519    558.325    558.669    558.325    558.429    558.325
 19.770    600.130    558.465     41.665    558.011    558.361    558.011    558.115    558.011
 19.870    556.000    558.157     -2.157    557.696    558.052    557.696    557.801    557.696
 19.970    521.000    557.849    -36.849    557.380    557.743    557.380    557.486    557.380
 20.070    605.228    557.541     47.687    557.063    557.433    557.063    557.171    557.063
 20.170    541.057    557.233    -16.176    556.746    557.124    556.746    556.855    556.746
 20.270    548.000    556.937     -8.937    556.428    556.828    556.428    556.538    556.428
 20.370    579.582    556.638     22.944    556.110    556.527    556.110    556.221    556.110
 20.470    539.000    556.330    -17.330    555.791    556.218    555.791    555.903    555.791
 20.570    576.025    556.021     20.004    555.471    555.908    555.471    555.584    555.471
 20.670    547.000    555.712     -8.712    555.151    555.598    555.151    555.265    555.151
 20.770    563.000    555.403      7.597    554.830    555.288    554.830    554.945    554.830
 20.870    547.000    555.094     -8.094    554.509    554.978    554.509    554.625    554.509
 20.970    518.000    554.785    -36.785    554.188    554.668    554.188    554.305    554.188
 21.070    554.921    554.477      0.444    553.865    554.359    553.865    553.984    553.865
 21.170    559.444    554.170      5.274    553.543    554.050    553.543    553.662    553.543
 21.270    522.275    553.862    -31.587    553.220    553.741    553.220    553.341    553.220
 21.370    542.000    553.556    -11.556    552.896    553.434    552.896    553.019    552.896
 21.470    527.000    553.250    -26.250    552.572    553.127    552.572    552.696    552.572
 21.570    539.000    552.946    -13.946    552.248    552.821    552.248    552.373    552.248
 21.670    550.956    552.642     -1.686    551.924    552.516    551.924    552.050    551.924
 21.770    544.000    552.348     -8.348    551.599    552.220    551.599    551.727    551.599
 21.870    531.180    552.131    -20.951    551.274    552.001    551.274    551.404    551.274
 21.970    542.717    551.855     -9.139    550.949    551.724    550.949    551.080    550.949
 22.070    555.000    551.582      3.418    550.623    551.449    550.623    550.756    550.623
 22.170    527.000    551.316    -24.316    550.297    551.181    550.297    550.432    550.297
 22.270    543.000    551.027     -8.027    549.971    550.891    549.971    550.107    549.971
 22.370    578.000    550.739     27.261    549.645    550.601    549.645    549.783    549.645
 22.470    549.000    550.455     -1.455    549.319    550.315    549.319    549.459    549.319
 22.570    572.955    550.177     22.778    548.992    550.033    548.992    549.136    548.992
 22.670    559.000    549.903      9.097    548.666    549.756    548.666    548.813    548.666
 22.770    553.000    549.641      3.359    548.339    549.492    548.339    548.488    548.339
 22.870    573.000    549.429     23.571    548.012    549.278    548.012    548.164    548.012
 22.970    551.000    549.195      1.805    547.685    549.042    547.685    547.839    547.685
 23.070    586.512    548.956     37.557    547.359    548.800    547.359    547.515    547.359
 23.170    573.000    548.728     24.272    547.032    548.570    547.032    547.190    547.032
 23.270    533.000    548.518    -15.518    546.705    548.357    546.705    546.866    546.705
 23.370    570.287    548.329     21.958    546.378    548.166    546.378    546.542    546.378
 23.470    543.000    548.167     -5.167    546.052    548.002    546.052    546.218    546.052
 23.570    575.000    548.042     26.958    545.725    547.874    545.725    545.894    545.725
 23.670    528.848    547.966    -19.119    545.398    547.795    545.398    545.571    545.398
 23.770    521.000    547.959    -26.959    545.072    547.785    545.072    545.248    545.072
 23.870    589.019    548.045     40.974    544.746    547.868    544.746    544.924    544.746
 23.970    553.476    548.277      5.199    544.420    548.097    544.420    544.602    544.420
 24.070    539.000    548.777     -9.777    544.094    548.593    544.094    544.279    544.094
 24.170    579.000    549.897     29.103    543.768    549.711    543.768    543.957    543.768
 24.270    564.000    552.615     11.385    543.442    552.427    543.442    543.636    543.442
 24.370    521.253    559.059    -37.806    543.117    558.871    543.117    543.315    543.117
 24.470    580.000    572.283      7.717    542.792    572.101    542.792    542.994    542.792
 24.570    569.000    593.924    -24.924    542.467    593.754    542.467    542.674    542.467
 24.670    596.721    619.765    -23.044    542.142    619.608    542.142    542.354    542.142
 24.770    610.000    636.947    -26.947    541.818    636.798    541.818    542.035    541.818
 24.870    628.000    632.718     -4.718    541.494    632.560    541.494    541.716    541.494
 24.970    605.000    610.545     -5.545    541.171    610.366    541.171    541.398    541.171
 25.070    590.000    584.741      5.259    540.847    584.537    540.847    541.081    540.847
 25.170    578.000    565.296     12.704    540.524    565.073    540.524    540.765    540.524
 25.270    598.000    554.033     43.967    540.202    553.794    540.202    540.449    540.202
 25.370    544.000    548.521     -4.521    539.880    548.271    539.880    540.134    539.880
 25.470    572.000    545.913     26.087    539.558    545.653    539.558    539.821    539.558
 25.570    559.000    544.508     14.492    539.237    544.240    539.237    539.508    539.237
 25.670    542.000    543.588     -1.588    538.916    543.309    538.916    539.196    538.916
 25.770    545.000    542.898      2.102    538.596    542.610    538.596    538.885    538.596
 25.870    566.000    542.346     23.654    538.276    542.047    538.276    538.576    538.276
 25.970    549.000    541.893      7.107    537.957    541.583    537.957    538.268    537.957
 26.070    576.000    541.512     34.488    537.638    541.190    537.638    537.961    537.638
 26.170    569.000    541.191     27.809    537.320    540.855    537.320    537.656    537.320
 26.270    520.902    540.923    -20.021    537.002    540.573    537.002    537.352    537.002
 26.370    553.000    540.705     12.295    536.685    540.340    536.685    537.050    536.685
 26.470    536.000    540.537     -4.537    536.368    540.155    536.368    536.750    536.368
 26.570    505.000    540.424    -35.424    536.052    540.023    536.052    536.453    536.052
 26.670    549.000    540.394      8.606    535.737    539.973    535.737    536.157    535.737
 26.770    575.000    540.426     34.574    535.422    539.983    535.422    535.865    535.422
 26.870    566.615    540.517     26.099    535.108    540.049    535.108    535.575    535.108
 26.970    563.000    540.703     22.297    534.795    540.209    534.795    535.289    534.795
 27.070    510.000    541.015    -31.015    534.482    540.490    534.482    535.006    534.482
 27.170    538.000    541.490     -3.490    534.170    540.931    534.170    534.728    534.170
 27.270    542.000    542.190     -0.190    533.858    541.593    533.858    534.454    533.858
 27.370    583.208    543.207     40.001    533.548    542.568    533.548    534.186    533.548
 27.470    522.844    544.700    -21.856    533.238    544.012    533.238    533.924    533.238
 27.570    571.000    547.079     23.921    532.929    546.335    532.929    533.670    532.929
 27.670    553.000    551.808      1.192    532.620    551.000    532.620    533.424    532.620
 27.770    572.000    563.666      8.334    532.313    562.782    532.313    533.189    532.313
 27.870    618.000    594.602     23.398    532.006    593.623    532.006    532.967    532.006
 27.970    685.000    662.794     22.206    531.700    661.696    531.700    532.759    531.700
 28.070    740.300    775.879    -35.579    531.395    774.633    531.395    532.570    531.395
 28.170    848.000    901.920    -53.920    531.090    900.509    531.090    532.404    531.090
 28.270    949.000    964.102    -15.102    530.787    962.527    530.787    532.267    530.787
 28.370    960.710    911.564     49.146    530.484    909.822    530.484    532.168    530.484
 28.470    806.000    798.441      7.559    530.182    796.482    530.182    532.118    530.182
 28.570    712.185    710.802      1.383    529.881    708.536    529.881    532.137    529.881
 28.670    742.192    693.055     49.137    529.581    690.365    529.581    532.257    529.581
 28.770    727.000    740.503    -13.503    529.282    737.229    529.282    532.537    529.282
 28.870    845.149    812.036     33.113    528.984    807.927    528.984    533.082    528.984
 28.970    833.000    845.912    -12.912    528.687    840.541    528.687    534.063    528.687
 29.070    763.000    805.529    -42.529    528.390    798.204    528.390    535.730    528.390
 29.170    774.580    723.043     51.538    528.095    712.768    528.095    538.383    528.095
 29.270    634.000    647.907    -13.907    527.800    633.431    527.800    542.285    527.800
 29.370    610.000    602.255      7.745    527.507    582.283    527.507    547.481    527.507
 29.470    634.000    582.975     51.025    527.215    556.695    527.215    553.493    527.215
 29.570    608.000    577.585     30.415    526.923    545.648    526.923    558.856    526.923
 29.670    604.000    575.316     28.684    526.633    540.755    526.633    561.189    526.633
 29.770    562.497    570.780     -8.284    526.343    538.117    526.343    559.003    526.343
 29.870    570.000    563.773      6.227    526.055    536.392    526.055    553.432    526.055
 29.970    578.538    556.256     22.283    525.767    535.175    525.767    546.845    525.767
 30.070    544.624    549.736     -5.112    525.481    534.334    525.481    540.881    525.481
 30.170    574.000    544.812     29.188    525.196    533.839    525.196    536.166    525.196
 30.270    564.000    541.613     22.387    524.912    533.797    524.912    532.725    524.912
 30.370    555.000    540.340     14.660    524.629    534.643    524.629    530.322    524.629
