neutron_powder_diffraction_0041
R_wp: 3.789
Temperature (K): 597.424
Counts: 83871.00
Wavelength (Ã…): 2.52098
COMMENTS
Test file for demonstrating the .xyy file format in Reel1.0
END OF HEADER
   tth       Y_obs     Y_calc      Y_res    Background    Phase_1_Nuc    Phase_1_Mag    Phase_2_Nuc    Phase_2_Mag
  9.970    730.000    690.062     39.938    688.532    689.577    689.017    688.532    688.532
 10.070    668.595    689.338    -20.743    687.718    688.847    688.208    687.718    687.718
 10.170    690.000    688.627      1.373    686.906    688.132    687.401    686.906    686.906
 10.270    697.616    687.933      9.683    686.097    687.432    686.597    686.097    686.097
 10.370    693.892    687.258      6.634    685.290    686.752    685.796    685.290    685.290
 10.470    643.501    686.606    -43.105    684.485    686.094    684.996    684.485    684.485
 10.570    731.000    685.981     45.019    683.682    685.463    684.199    683.682    683.682
 10.670    655.633    685.390    -29.757    682.881    684.866    683.404    682.881    682.881
 10.770    739.000    684.840     54.160    682.083    684.310    682.611    682.083    682.083
 10.870    685.809    684.341      1.467    681.287    683.806    681.821    681.287    681.287
 10.970    685.721    683.910      1.811    680.493    683.368    681.034    680.493    680.493
 11.070    659.906    683.564    -23.659    679.702    683.016    680.248    679.702    679.702
 11.170    714.000    683.333     30.667    678.913    682.779    679.465    678.913    678.913
 11.270    656.000    683.259    -27.259    678.126    682.698    678.685    678.126    678.126
 11.370    711.000    683.411     27.589    677.341    682.843    677.906    677.341    677.341
 11.470    718.000    683.922     34.078    676.559    683.347    677.131    676.559    676.559
 11.570    681.000    685.082     -4.082    675.779    684.499    676.358    675.779    675.779
 11.670    699.159    687.541     11.617    675.002    686.950    675.587    675.002    675.002
 11.770    765.000    692.596     72.404    674.227    691.995    674.819    674.227    674.227
 11.870    736.966    702.325     34.641    673.454    701.711    674.053    673.454    673.454
 11.970    762.000    719.011     42.989    672.683    718.379    673.289    672.683    672.683
 12.070    730.371    743.370    -12.999    671.915    742.717    672.529    671.915    671.915
 12.170    816.000    771.478     44.522    671.150    770.802    671.770    671.150    671.150
 12.270    800.000    792.065      7.935    670.387    791.370    671.015    670.387    670.387
 12.370    826.000    792.014     33.986    669.626    791.311    670.261    669.626    669.626
 12.470    759.000    770.767    -11.767    668.867    770.067    669.511    668.867    668.867
 12.570    778.000    741.163     36.837    668.111    740.472    668.763    668.111    668.111
 12.670    747.893    714.912     32.981    667.358    714.227    668.017    667.358    667.358
 12.770    613.000    696.292    -83.292    666.607    695.609    667.274    666.607    666.607
 12.870    682.000    684.740     -2.740    665.858    684.054    666.534    665.858    665.858
 12.970    687.000    677.994      9.006    665.112    677.303    665.796    665.112    665.112
 13.070    648.000    673.940    -25.940    664.368    673.242    665.061    664.368    664.368
 13.170    673.000    671.232      1.768    663.627    670.527    664.329    663.627    663.627
 13.270    635.000    669.198    -34.198    662.888    668.484    663.599    662.888    662.888
 13.370    672.000    667.568      4.432    662.152    666.846    662.872    662.152    662.152
 13.470    616.630    666.245    -49.615    661.419    665.514    662.148    661.419    661.419
 13.570    632.000    664.979    -32.979    660.687    664.239    661.426    660.687    660.687
 13.670    668.000    663.819      4.181    659.959    663.069    660.707    659.959    659.959
 13.770    633.602    662.746    -29.144    659.233    661.987    659.991    659.233    659.233
 13.870    648.282    661.742    -13.460    658.509    660.972    659.278    658.509    658.509
 13.970    665.000    660.790      4.210    657.788    660.010    658.567    657.788    657.788
 14.070    635.000    659.881    -24.881    657.070    659.090    657.859    657.070    657.070
 14.170    676.000    659.016     16.984    656.354    658.215    657.154    656.354    656.354
 14.270    636.000    658.188    -22.188    655.640    657.376    656.452    655.640    655.640
 14.370    686.000    657.369     28.631    654.929    656.545    655.752    654.929    654.929
 14.470    680.000    656.565     23.435    654.221    655.730    655.056    654.221    654.221
 14.570    626.444    655.778    -29.334    653.516    654.932    654.362    653.516    653.516
 14.670    646.000    655.006     -9.006    652.813    654.148    653.671    652.813    652.813
 14.770    600.000    654.247    -54.247    652.112    653.376    652.982    652.112    652.112
 14.870    650.504    653.499     -2.996    651.414    652.616    652.297    651.414    651.414
 14.970    604.000    652.762    -48.762    650.719    651.866    651.615    650.719    650.719
 15.070    696.928    652.033     44.895    650.027    651.124    650.935    650.027    650.027
 15.170    645.393    651.313     -5.919    649.337    650.391    650.258    649.337    649.337
 15.270    624.000    650.600    -26.600    648.649    649.664    649.585    648.649    648.649
 15.370    619.000    649.894    -30.894    647.965    648.945    648.914    647.965    647.965
 15.470    636.000    649.195    -13.195    647.283    648.232    648.246    647.283    647.283
 15.570    611.000    648.503    -37.503    646.603    647.524    647.581    646.603    646.603
 15.670    633.000    647.816    -14.816    645.926    646.823    646.919    645.926    645.926
 15.770    610.000    647.137    -37.137    645.252    646.129    646.260    645.252    645.252
 15.870    646.000    646.464     -0.464    644.581    645.440    645.605    644.581    644.581
 15.970    633.000    645.793    -12.793    643.912    644.753    644.952    643.912    643.912
 16.070    692.854    645.126     47.727    643.246    644.070    644.302    643.246    643.246
 16.170    606.123    644.465    -38.342    642.583    643.392    643.655    642.583    642.583
 16.270    603.000    643.808    -40.808    641.922    642.718    643.012    641.922    641.922
 16.370    600.000    643.155    -43.155    641.264    642.048    642.371    641.264    641.264
 16.470    638.685    642.507     -3.822    640.609    641.382    641.734    640.609    640.609
 16.570    658.000    641.863     16.137    639.956    640.720    641.100    639.956    639.956
 16.670    581.000    641.227    -60.227    639.307    640.065    640.469    639.307    639.307
 16.770    621.000    640.596    -19.596    638.659    639.414    639.841    638.659    638.659
 16.870    664.000    639.965     24.035    638.015    638.764    639.216    638.015    638.015
 16.970    602.000    639.338    -37.338    637.373    638.116    638.595    637.373    637.373
 17.070    601.934    638.715    -36.780    636.734    637.472    637.977    636.734    636.734
 17.170    607.000    638.102    -31.102    636.098    636.838    637.362    636.098    636.098
 17.270    639.000    637.553      1.447    635.464    636.265    636.752    635.464    635.464
 17.370    667.000    636.954     30.046    634.834    635.644    636.144    634.834    634.834
 17.470    623.000    636.348    -13.348    634.206    635.015    635.539    634.206    634.206
 17.570    614.000    635.747    -21.747    633.580    634.390    634.937    633.580    633.580
 17.670    645.000    635.161      9.839    632.958    633.779    634.339    632.958    632.958
 17.770    673.000    634.567     38.433    632.338    633.161    633.744    632.338    632.338
 17.870    618.000    633.976    -15.976    631.721    632.544    633.153    631.721    631.721
 17.970    590.000    633.390    -43.390    631.107    631.931    632.565    631.107    631.107
 18.070    595.000    632.819    -37.819    630.495    631.333    631.981    630.495    630.495
 18.170    582.183    632.259    -50.075    629.886    630.745    631.400    629.886    629.886
 18.270    609.000    631.686    -22.686    629.281    630.143    630.823    629.281    629.281
 18.370    641.489    631.115     10.374    628.677    629.543    630.249    628.677    628.677
 18.470    601.997    630.548    -28.551    628.077    628.945    629.679    628.077    628.077
 18.570    618.000    629.985    -11.985    627.479    628.351    629.113    627.479    627.479
 18.670    577.000    629.427    -52.427    626.884    627.761    628.550    626.884    626.884
 18.770    662.834    628.875     33.959    626.292    627.175    627.992    626.292    626.292
 18.870    621.270    628.336     -7.066    625.703    626.602    627.437    625.703    625.703
 18.970    630.000    627.791      2.209    625.117    626.022    626.886    625.117    625.117
 19.070    602.000    627.250    -25.250    624.533    625.444    626.338    624.533    624.533
 19.170    623.000    626.713     -3.713    623.952    624.870    625.795    623.952    623.952
 19.270    618.000    626.183     -8.183    623.374    624.300    625.256    623.374    623.374
 19.370    652.370    625.683     26.687    622.799    623.753    624.728    622.799    622.799
 19.470    571.000    625.205    -54.205    622.226    623.223    624.208    622.226    622.226
 19.570    597.000    624.691    -27.691    621.657    622.665    623.682    621.657    621.657
 19.670    605.000    624.177    -19.177    621.090    622.108    623.159    621.090    621.090
 19.770    665.826    623.669     42.157    620.526    621.554    622.641    620.526    620.526
 19.870    611.000    623.166    -12.166    619.964    621.003    622.127    619.964    619.964
 19.970    660.237    622.675     37.561    619.406    620.464    621.617    619.406    619.406
 20.070    637.000    622.201     14.799    618.850    619.939    621.112    618.850    618.850
 20.170    628.000    621.720      6.280    618.297    619.404    620.613    618.297    618.297
 20.270    649.385    621.271     28.114    617.747    618.888    620.130    617.747    617.747
 20.370    584.301    620.815    -36.515    617.200    618.372    619.643    617.200    617.200
 20.470    613.000    620.393     -7.393    616.656    617.891    619.158    616.656    616.656
 20.570    650.000    619.954     30.046    616.114    617.391    618.677    616.114    616.114
 20.670    632.012    619.523     12.489    615.576    616.897    618.201    615.576    615.576
 20.770    598.000    619.080    -21.080    615.040    616.389    617.731    615.040    615.040
 20.870    617.000    618.652     -1.652    614.507    615.893    617.265    614.507    614.507
 20.970    647.000    618.255     28.745    613.977    615.425    616.806    613.977    613.977
 21.070    596.000    617.829    -21.829    613.449    614.926    616.352    613.449    613.449
 21.170    660.292    617.403     42.890    612.925    614.424    615.903    612.925    612.925
 21.270    665.905    616.985     48.920    612.403    613.927    615.461    612.403    612.403
 21.370    631.000    616.587     14.413    611.884    613.443    615.028    611.884    611.884
 21.470    577.637    616.195    -38.559    611.368    612.965    614.598    611.368    611.368
 21.570    585.345    615.808    -30.464    610.854    612.489    614.174    610.854    610.854
 21.670    608.000    615.426     -7.426    610.344    612.013    613.757    610.344    610.344
 21.770    583.000    615.049    -32.049    609.836    611.539    613.346    609.836    609.836
 21.870    593.000    614.681    -21.681    609.332    611.071    612.943    609.332    609.332
 21.970    636.000    614.325     21.675    608.830    610.608    612.546    608.830    608.830
 22.070    630.293    613.978     16.316    608.331    610.150    612.158    608.331    608.331
 22.170    589.000    613.642    -24.642    607.834    609.699    611.777    607.834    607.834
 22.270    632.000    613.318     18.682    607.341    609.255    611.405    607.341    607.341
 22.370    580.000    613.008    -33.008    606.850    608.817    611.041    606.850    606.850
 22.470    641.462    612.711     28.750    606.362    608.388    610.686    606.362    606.362
 22.570    661.627    612.430     49.196    605.877    607.968    610.340    605.877    605.877
 22.670    608.921    612.167     -3.246    605.395    607.558    610.005    605.395    605.395
 22.770    566.637    611.927    -45.290    604.916    607.162    609.681    604.916    604.916
 22.870    617.000    611.705      5.295    604.439    606.777    609.367    604.439    604.439
 22.970    619.000    611.500      7.500    603.966    606.402    609.064    603.966    603.966
 23.070    610.000    611.321     -1.321    603.495    606.043    608.773    603.495    603.495
 23.170    614.574    611.169      3.405    603.027    605.702    608.494    603.027    603.027
 23.270    578.276    611.050    -32.774    602.562    605.384    608.229    602.562    602.562
 23.370    575.814    610.969    -35.155    602.099    605.091    607.978    602.099    602.099
 23.470    600.000    610.933    -10.933    601.640    604.831    607.742    601.640    601.640
 23.570    630.000    610.949     19.051    601.183    604.611    607.522    601.183    601.183
 23.670    606.698    611.031     -4.332    600.729    604.441    607.319    600.729    600.729
 23.770    604.000    611.193     -7.193    600.278    604.337    607.136    600.278    600.278
 23.870    612.506    611.458      1.047    599.830    604.319    606.971    599.830    599.830
 23.970    600.608    611.860    -11.252    599.384    604.418    606.827    599.384    599.384
 24.070    620.000    612.453      7.547    598.941    604.690    606.706    598.941    598.941
 24.170    580.110    613.347    -33.236    598.502    605.242    606.609    598.502    598.502
 24.270    604.000    614.782    -10.782    598.064    606.312    606.539    598.064    598.064
 24.370    635.000    617.280     17.720    597.630    608.419    606.497    597.630    597.630
 24.470    606.000    621.817    -15.817    597.199    612.537    606.487    597.199    597.199
 24.570    688.000    629.827     58.173    596.770    620.101    606.511    596.770    596.770
 24.670    621.189    642.678    -21.489    596.344    632.475    606.572    596.344    596.344
 24.770    690.000    660.398     29.602    595.921    649.682    606.674    595.921    595.921
 24.870    720.961    679.647     41.315    595.501    668.378    606.820    595.501    595.501
 24.970    738.000    692.353     45.647    595.084    680.480    607.016    595.084    595.084
 25.070    710.000    690.674     19.326    594.669    678.134    607.267    594.669    594.669
 25.170    690.000    676.152     13.848    594.257    662.877    607.579    594.257    594.257
 25.270    676.000    657.463     18.537    593.848    643.385    607.959    593.848    593.848
 25.370    680.403    641.507     38.896    593.442    626.554    608.416    593.442    593.442
 25.470    604.000    630.639    -26.639    593.038    614.732    608.958    593.038    593.038
 25.570    638.457    624.388     14.069    592.637    607.435    609.597    592.637    592.637
 25.670    641.000    621.316     19.684    592.239    603.214    610.346    592.239    592.239
 25.770    665.206    620.109     45.098    591.844    600.735    611.221    591.844    591.844
 25.870    609.000    619.933    -10.933    591.452    599.149    612.238    591.452    591.452
 25.970    616.000    620.378     -4.378    591.062    598.020    613.421    591.062    591.062
 26.070    652.000    621.273     30.727    590.675    597.153    614.796    590.675    590.675
 26.170    636.771    622.561     14.211    590.291    596.458    616.394    590.291    590.291
 26.270    673.354    624.236     49.117    589.910    595.891    618.255    589.910    589.910
 26.370    654.652    626.323     28.329    589.531    595.428    620.426    589.531    589.531
 26.470    636.000    628.870      7.130    589.155    595.055    622.969    589.155    589.155
 26.570    627.000    631.938     -4.938    588.782    594.762    625.956    588.782    588.782
 26.670    610.767    635.619    -24.852    588.412    594.546    629.483    588.412    588.412
 26.770    638.000    640.045     -2.045    588.044    594.414    633.672    588.044    588.044
 26.870    657.000    645.378     11.622    587.679    594.370    638.685    587.679    587.679
 26.970    720.000    651.839     68.161    587.317    594.420    644.733    587.317    587.317
 27.070    686.000    659.736     26.264    586.958    594.586    652.102    586.958    586.958
 27.170    673.000    669.488      3.512    586.601    594.895    661.187    586.601    586.601
 27.270    705.000    681.688     23.312    586.247    595.386    672.541    586.247    586.247
 27.370    730.722    697.195     33.527    585.896    596.116    686.965    585.896    585.896
 27.470    675.038    717.331    -42.293    585.547    597.172    705.694    585.547    585.547
 27.570    720.000    744.473    -24.473    585.201    598.714    730.945    585.201    585.201
 27.670    818.000    784.253     33.747    584.858    601.116    767.972    584.858    584.858
 27.770    815.327    853.073    -37.745    584.518    605.463    832.089    584.518    584.518
 27.870   1016.000    997.109     18.891    584.180    614.803    966.408    584.180    584.180
 27.970   1387.667   1320.817     66.850    583.845    636.027   1268.469    583.845    583.845
 28.070   1872.000   1988.406   -116.406    583.512    679.967   1891.629    583.512    583.512
 28.170   3034.000   3126.183    -92.183    583.183    754.973   2953.874    583.183    583.183
 28.270   4673.267   4605.420     67.847    582.856    852.619   4335.007    582.856    582.856
 28.370   5754.867   5862.524   -107.657    582.531    935.901   5508.589    582.531    582.531
 28.470   6307.000   6140.648    166.352    582.210    955.259   5767.322    582.210    582.210
 28.570   5221.674   5276.953    -55.278    581.891    900.661   4958.152    581.891    581.891
 28.670   3861.659   3986.609   -124.950    581.574    820.556   3747.679    581.574    581.574
 28.770   3004.000   3053.738    -49.738    581.261    768.356   2866.659    581.261    581.261
 28.870   2759.000   2789.641    -30.641    580.950    765.563   2604.988    580.950    580.950
 28.970   3040.000   3056.024    -16.024    580.641    801.190   2835.436    580.641    580.641
 29.070   3603.000   3439.921    163.079    580.336    841.536   3178.774    580.336    580.336
 29.170   3446.648   3485.170    -38.523    580.033    847.716   3217.675    580.033    580.033
 29.270   3062.000   3032.268     29.732    579.732    806.588   2805.663    579.732    579.732
 29.370   2254.184   2330.328    -76.144    579.434    741.917   2168.067    579.434    579.434
 29.470   1577.000   1685.409   -108.409    579.139    682.351   1582.350    579.139    579.139
 29.570   1201.000   1234.260    -33.260    578.846    640.680   1172.514    578.846    578.846
 29.670   1016.000    972.400     43.600    578.556    616.533    934.468    578.556    578.556
 29.770    798.436    837.026    -38.590    578.269    604.103    811.213    578.269    578.269
 29.870    818.909    767.986     50.924    577.984    597.825    748.156    577.984    577.984
 29.970    718.779    729.071    -10.292    577.702    594.355    712.424    577.702    577.702
 30.070    686.284    703.747    -17.463    577.423    592.179    688.994    577.423    577.423
 30.170    734.000    685.525     48.475    577.145    590.722    671.950    577.145    577.145
 30.270    663.000    671.852     -8.852    576.871    589.796    658.928    576.871    576.871
 30.370    699.680    661.643     38.038    576.599    589.399    648.841    576.599    576.599
