AC_425764
R_wp: 6.257
Temperature (K): 1074.000
Counts: 83929.00
Wavelength (Ã…): 2.52098
COMMENTS
Hello World
END OF HEADER
   tth       Y_obs     Y_calc      Y_res    Background    SrFe12O19_Nuc    SrFe12O19_Mag
  9.970    616.000    583.706     32.294    583.609    583.706    583.609
 10.070    587.000    583.513      3.487    583.407    583.513    583.407
 10.170    590.000    583.319      6.681    583.203    583.319    583.203
 10.270    585.000    583.124      1.876    582.996    583.124    582.996
 10.370    614.000    582.929     31.071    582.786    582.929    582.786
 10.470    571.000    582.734    -11.734    582.575    582.734    582.575
 10.570    617.000    582.539     34.461    582.360    582.539    582.360
 10.670    608.000    582.345     25.655    582.144    582.345    582.144
 10.770    602.000    582.155     19.845    581.925    582.155    581.925
 10.870    549.000    581.968    -32.968    581.704    581.968    581.704
 10.970    577.000    581.786     -4.786    581.481    581.786    581.481
 11.070    615.000    581.614     33.386    581.256    581.614    581.256
 11.170    540.000    581.455    -41.455    581.028    581.455    581.028
 11.270    613.000    581.314     31.686    580.799    581.314    580.799
 11.370    552.000    581.202    -29.202    580.567    581.202    580.567
 11.470    572.000    581.166     -9.166    580.333    581.166    580.333
 11.570    599.000    581.177     17.823    580.097    581.177    580.097
 11.670    623.000    581.382     41.618    579.860    581.382    579.860
 11.770    608.000    582.565     25.435    579.620    582.565    579.620
 11.870    648.000    588.909     59.091    579.378    588.909    579.378
 11.970    678.000    613.517     64.483    579.134    613.517    579.134
 12.070    651.000    673.328    -22.328    578.889    673.328    578.889
 12.170    702.000    752.519    -50.519    578.642    752.519    578.642
 12.270    687.000    782.874    -95.874    578.392    782.874    578.392
 12.370    632.000    727.205    -95.205    578.142    727.205    578.142
 12.470    659.000    646.474     12.526    577.889    646.474    577.889
 12.570    590.000    598.729     -8.729    577.634    598.729    577.634
 12.670    575.000    582.847     -7.847    577.378    582.847    577.378
 12.770    617.000    579.209     37.791    577.121    579.209    577.121
 12.870    569.000    578.191     -9.191    576.861    578.191    576.861
 12.970    567.000    577.604    -10.604    576.600    577.604    576.600
 13.070    588.000    577.133     10.867    576.338    577.133    576.338
 13.170    594.000    576.723     17.277    576.074    576.723    576.074
 13.270    565.000    576.351    -11.351    575.808    576.351    575.808
 13.370    565.000    576.004    -11.004    575.541    576.004    575.541
 13.470    588.000    575.675     12.325    575.272    575.675    575.272
 13.570    524.000    575.357    -51.357    575.002    575.357    575.002
 13.670    598.000    575.048     22.952    574.731    575.048    574.731
 13.770    560.000    574.744    -14.744    574.458    574.744    574.458
 13.870    599.000    574.445     24.555    574.184    574.445    574.184
 13.970    578.000    574.149      3.851    573.909    574.149    573.909
 14.070    580.000    573.855      6.145    573.632    573.855    573.632
 14.170    589.000    573.563     15.437    573.354    573.563    573.354
 14.270    520.000    573.279    -53.279    573.075    573.279    573.075
 14.370    538.000    572.989    -34.989    572.794    572.989    572.794
 14.470    573.000    572.699      0.301    572.513    572.699    572.513
 14.570    548.000    572.408    -24.408    572.230    572.408    572.230
 14.670    520.000    572.118    -52.118    571.946    572.118    571.946
 14.770    562.000    571.828     -9.828    571.661    571.828    571.661
 14.870    581.000    571.537      9.463    571.375    571.537    571.375
 14.970    591.000    571.246     19.754    571.088    571.246    571.088
 15.070    591.000    570.954     20.046    570.800    570.954    570.800
 15.170    550.000    570.662    -20.662    570.511    570.662    570.511
 15.270    581.000    570.369     10.631    570.220    570.369    570.220
 15.370    570.000    570.076     -0.076    569.929    570.076    569.929
 15.470    580.000    569.782     10.218    569.637    569.782    569.637
 15.570    532.000    569.488    -37.488    569.345    569.488    569.345
 15.670    593.000    569.193     23.807    569.051    569.193    569.051
 15.770    553.000    568.898    -15.898    568.756    568.898    568.756
 15.870    571.000    568.602      2.398    568.461    568.602    568.461
 15.970    578.000    568.305      9.695    568.165    568.305    568.165
 16.070    595.000    568.008     26.992    567.868    568.008    567.868
 16.170    548.000    567.710    -19.710    567.570    567.710    567.570
 16.270    565.000    567.412     -2.412    567.271    567.412    567.271
 16.370    556.000    567.113    -11.113    566.972    567.113    566.972
 16.470    558.000    566.813     -8.813    566.672    566.813    566.672
 16.570    577.000    566.513     10.487    566.372    566.513    566.372
 16.670    557.000    566.213     -9.213    566.071    566.213    566.071
 16.770    524.000    565.912    -41.912    565.769    565.912    565.769
 16.870    570.000    565.611      4.389    565.467    565.611    565.467
 16.970    554.000    565.309    -11.309    565.164    565.309    565.164
 17.070    560.000    565.007     -5.007    564.861    565.007    564.861
 17.170    534.000    564.704    -30.704    564.557    564.704    564.557
 17.270    535.000    564.401    -29.401    564.252    564.401    564.252
 17.370    593.000    564.078     28.922    563.947    564.078    563.947
 17.470    580.000    563.775     16.225    563.642    563.775    563.642
 17.570    549.000    563.472    -14.472    563.336    563.472    563.336
 17.670    570.000    563.212      6.788    563.030    563.212    563.030
 17.770    566.000    562.919      3.081    562.724    562.919    562.724
 17.870    530.000    562.616    -32.616    562.417    562.616    562.417
 17.970    526.000    562.312    -36.312    562.110    562.312    562.110
 18.070    545.000    562.008    -17.008    561.802    562.008    561.802
 18.170    606.000    561.703     44.297    561.494    561.703    561.494
 18.270    545.000    561.399    -16.399    561.186    561.399    561.186
 18.370    543.000    561.094    -18.094    560.878    561.094    560.878
 18.470    530.000    560.790    -30.790    560.569    560.790    560.569
 18.570    556.000    560.485     -4.485    560.261    560.485    560.261
 18.670    544.000    560.180    -16.180    559.952    560.180    559.952
 18.770    535.000    559.875    -24.875    559.642    559.875    559.642
 18.870    563.000    559.570      3.430    559.333    559.570    559.333
 18.970    561.000    559.265      1.735    559.024    559.265    559.024
 19.070    544.000    558.960    -14.960    558.714    558.960    558.714
 19.170    571.000    558.655     12.345    558.405    558.655    558.405
 19.270    595.000    558.350     36.650    558.095    558.350    558.095
 19.370    568.000    558.046      9.954    557.785    558.046    557.785
 19.470    588.000    557.741     30.259    557.475    557.741    557.475
 19.570    553.000    557.440     -4.440    557.166    557.440    557.166
 19.670    584.000    557.143     26.857    556.856    557.143    556.856
 19.770    522.000    556.840    -34.840    556.546    556.840    556.546
 19.870    569.000    556.536     12.464    556.237    556.536    556.237
 19.970    588.000    556.233     31.767    555.927    556.233    555.927
 20.070    554.000    555.930     -1.930    555.617    555.930    555.617
 20.170    548.000    555.628     -7.628    555.308    555.628    555.308
 20.270    565.000    555.326      9.674    554.999    555.326    554.999
 20.370    545.000    555.024    -10.024    554.689    555.024    554.689
 20.470    527.000    554.723    -27.723    554.380    554.723    554.380
 20.570    564.000    554.422      9.578    554.072    554.422    554.072
 20.670    514.000    554.122    -40.122    553.763    554.122    553.763
 20.770    525.000    553.822    -28.822    553.455    553.822    553.455
 20.870    586.000    553.523     32.477    553.146    553.523    553.146
 20.970    556.000    553.224      2.776    552.838    553.224    552.838
 21.070    538.000    552.926    -14.926    552.531    552.926    552.531
 21.170    539.000    552.629    -13.629    552.223    552.629    552.223
 21.270    588.000    552.333     35.667    551.916    552.333    551.916
 21.370    598.000    552.037     45.963    551.609    552.037    551.609
 21.470    539.000    551.742    -12.742    551.303    551.742    551.303
 21.570    541.000    551.448    -10.448    550.997    551.448    550.997
 21.670    546.000    551.155     -5.155    550.691    551.155    550.691
 21.770    562.000    550.863     11.137    550.386    550.863    550.386
 21.870    563.000    550.573     12.427    550.081    550.573    550.081
 21.970    553.000    550.283      2.717    549.776    550.283    549.776
 22.070    600.000    549.995     50.005    549.472    549.995    549.472
 22.170    537.000    549.707    -12.707    549.168    549.707    549.168
 22.270    590.000    549.422     40.578    548.865    549.422    548.865
 22.370    564.000    549.137     14.863    548.562    549.137    548.562
 22.470    561.000    548.855     12.145    548.260    548.855    548.260
 22.570    547.000    548.574     -1.574    547.958    548.574    547.958
 22.670    549.000    548.295      0.705    547.657    548.295    547.657
 22.770    534.000    548.019    -14.019    547.356    548.019    547.356
 22.870    559.000    547.744     11.256    547.056    547.744    547.056
 22.970    553.000    547.473      5.527    546.756    547.473    546.756
 23.070    542.000    547.204     -5.204    546.457    547.204    546.457
 23.170    518.000    546.939    -28.939    546.159    546.939    546.159
 23.270    543.000    546.678     -3.678    545.861    546.678    545.861
 23.370    563.000    546.421     16.579    545.564    546.421    545.564
 23.470    538.000    546.171     -8.171    545.267    546.171    545.267
 23.570    529.000    545.927    -16.927    544.971    545.927    544.971
 23.670    559.000    545.692     13.308    544.676    545.692    544.676
 23.770    533.000    545.468    -12.468    544.382    545.468    544.382
 23.870    589.000    545.260     43.740    544.088    545.260    544.088
 23.970    585.000    545.073     39.927    543.795    545.073    543.795
 24.070    523.000    544.917    -21.917    543.502    544.917    543.502
 24.170    562.000    544.820     17.180    543.210    544.820    543.210
 24.270    549.000    544.923      4.077    542.919    544.923    542.919
 24.370    575.000    546.057     28.943    542.629    546.057    542.629
 24.470    581.000    551.529     29.471    542.340    551.529    542.340
 24.570    591.000    568.699     22.301    542.051    568.699    542.051
 24.670    613.000    602.629     10.371    541.763    602.629    541.763
 24.770    640.000    639.765      0.235    541.476    639.765    541.476
 24.870    622.000    649.055    -27.055    541.190    649.055    541.190
 24.970    620.000    619.997      0.003    540.904    619.997    540.904
 25.070    605.000    580.232     24.768    540.620    580.232    540.620
 25.170    552.000    555.003     -3.003    540.336    555.003    540.336
 25.270    532.000    545.369    -13.369    540.053    545.369    540.053
 25.370    523.000    542.797    -19.797    539.771    542.797    539.771
 25.470    573.000    542.086     30.914    539.490    542.086    539.490
 25.570    555.000    541.732     13.268    539.210    541.732    539.210
 25.670    582.000    541.468     40.532    538.931    541.468    538.931
 25.770    562.000    541.255     20.745    538.653    541.255    538.653
 25.870    559.000    541.082     17.918    538.375    541.082    538.375
 25.970    553.000    540.944     12.056    538.099    540.944    538.099
 26.070    553.000    540.840     12.160    537.823    540.840    537.823
 26.170    584.000    540.772     43.228    537.549    540.772    537.549
 26.270    546.000    540.742      5.258    537.275    540.742    537.275
 26.370    525.000    540.756    -15.756    537.003    540.756    537.003
 26.470    589.000    540.820     48.180    536.731    540.820    536.731
 26.570    561.000    540.951     20.049    536.461    540.951    536.461
 26.670    547.000    541.156      5.844    536.191    541.156    536.191
 26.770    538.000    541.444     -3.444    535.923    541.444    535.923
 26.870    565.000    541.846     23.154    535.656    541.846    535.656
 26.970    559.000    542.393     16.607    535.389    542.393    535.389
 27.070    594.000    543.128     50.872    535.124    543.128    535.124
 27.170    559.000    544.115     14.885    534.860    544.115    534.860
 27.270    557.000    545.445     11.555    534.597    545.445    534.597
 27.370    540.000    547.271     -7.271    534.334    547.271    534.334
 27.470    578.000    549.887     28.113    534.074    549.887    534.074
 27.570    544.000    554.020    -10.020    533.814    554.020    533.814
 27.670    559.000    561.565     -2.565    533.555    561.565    533.555
 27.770    554.000    576.830    -22.830    533.297    576.830    533.297
 27.870    571.000    607.193    -36.193    533.041    607.193    533.041
 27.970    641.000    660.446    -19.446    532.786    660.446    532.786
 28.070    750.000    737.011     12.989    532.531    737.011    532.531
 28.170    835.000    818.642     16.358    532.278    818.642    532.278
 28.270    921.000    860.905     60.095    532.027    860.905    532.027
 28.370    923.000    831.078     91.922    531.776    831.078    531.776
 28.470    777.000    762.657     14.343    531.526    762.657    531.526
 28.570    695.000    706.039    -11.039    531.278    706.039    531.278
 28.670    656.000    686.576    -30.576    531.031    686.576    531.031
 28.770    726.000    704.943     21.057    530.785    704.943    530.785
 28.870    834.000    741.214     92.786    530.541    741.214    530.541
 28.970    819.000    758.428     60.572    530.297    758.428    530.297
 29.070    753.000    730.449     22.551    530.055    730.449    530.055
 29.170    769.000    675.794     93.206    529.814    675.794    529.814
 29.270    653.000    623.339     29.661    529.574    623.339    529.574
 29.370    580.000    585.911     -5.911    529.336    585.911    529.336
 29.470    572.000    563.899      8.101    529.099    563.899    529.099
 29.570    631.000    552.410     78.590    528.863    552.410    528.863
 29.670    634.000    546.596     87.404    528.628    546.596    528.628
 29.770    608.000    543.327     64.673    528.395    543.327    528.395
 29.870    598.000    541.178     56.822    528.163    541.178    528.163
 29.970    559.000    539.706     19.294    527.932    539.706    527.932
 30.070    618.000    538.722     79.278    527.703    538.722    527.703
 30.170    545.000    538.183      6.817    527.475    538.183    527.475
 30.270    567.000    538.235     28.765    527.248    538.235    527.248
 30.370    557.000    539.328     17.672    527.022    539.328    527.022
 30.470    549.000    542.543      6.457    526.798    542.543    526.798
 30.570    555.000    549.675      5.325    526.575    549.675    526.575
 30.670    579.000    562.509     16.491    526.354    562.509    526.354
 30.770    570.000    580.927    -10.927    526.134    580.927    526.134
 30.870    604.000    600.343      3.657    525.915    600.343    525.915
 30.970    635.000    610.238     24.762    525.697    610.238    525.697
 31.070    612.000    602.507      9.493    525.481    602.507    525.481
 31.170    532.000    583.384    -51.384    525.267    583.384    525.267
 31.270    560.000    563.645     -3.645    525.053    563.645    525.053
 31.370    565.000    548.932     16.068    524.841    548.932    524.841
 31.470    543.000    540.023      2.977    524.631    540.023    524.631
 31.570    548.000    535.336     12.664    524.422    535.336    524.422
 31.670    534.000    532.994      1.006    524.214    532.994    524.214
 31.770    518.000    531.750    -13.750    524.007    531.750    524.007
 31.870    557.000    531.002     25.998    523.802    531.002    523.802
 31.970    503.000    530.515    -27.515    523.599    530.515    523.599
 32.070    529.000    530.203     -1.203    523.397    530.203    523.397
 32.170    505.000    530.031    -25.031    523.196    530.031    523.196
 32.270    584.000    529.986     54.014    522.996    529.986    522.996
 32.370    501.000    530.066    -29.066    522.799    530.066    522.799
 32.470    550.000    530.279     19.721    522.602    530.279    522.602
 32.570    552.000    530.639     21.361    522.407    530.639    522.407
 32.670    510.000    531.175    -21.175    522.213    531.175    522.213
 32.770    528.000    531.926     -3.926    522.021    531.926    522.021
 32.870    534.000    532.952      1.048    521.830    532.952    521.830
 32.970    512.000    534.339    -22.339    521.641    534.339    521.641
 33.070    556.000    536.222     19.778    521.453    536.222    521.453
 33.170    547.000    538.841      8.159    521.267    538.841    521.267
 33.270    554.000    542.734     11.266    521.082    542.734    521.082
 33.370    572.000    549.301     22.699    520.898    549.301    520.898
 33.470    574.000    562.101     11.899    520.716    562.101    520.716
 33.570    568.000    588.665    -20.665    520.536    588.665    520.536
 33.670    674.000    640.810     33.190    520.357    640.810    520.357
 33.770    727.000    729.680     -2.680    520.179    729.680    520.179
 33.870    917.000    853.881     63.119    520.003    853.881    520.003
 33.970   1000.000    984.489     15.511    519.828    984.489    519.828
 34.070   1013.000   1058.191    -45.191    519.655   1058.191    519.655
 34.170    988.000   1023.047    -35.047    519.484   1023.047    519.484
 34.270    940.000    906.853     33.147    519.313    906.853    519.313
 34.370    784.000    775.362      8.638    519.145    775.362    519.145
 34.470    646.000    671.047    -25.047    518.977    671.047    518.977
 34.570    590.000    604.729    -14.729    518.812    604.729    518.812
 34.670    524.000    568.799    -44.799    518.647    568.799    518.647
 34.770    564.000    550.962     13.038    518.485    550.962    518.485
 34.870    540.000    541.915     -1.915    518.323    541.915    518.323
 34.970    528.000    536.701     -8.701    518.164    536.701    518.164
 35.070    515.000    533.209    -18.209    518.005    533.209    518.005
 35.170    515.000    530.624    -15.624    517.849    530.624    517.849
 35.270    554.000    528.612     25.388    517.693    528.612    517.693
 35.370    505.000    526.999    -21.999    517.540    526.999    517.540
 35.470    481.000    525.679    -44.679    517.387    525.679    517.387
 35.570    526.000    524.747      1.253    517.237    524.747    517.237
 35.670    498.000    523.863    -25.863    517.088    523.863    517.088
 35.770    519.000    523.070     -4.070    516.940    523.070    516.940
 35.870    550.000    522.382     27.618    516.794    522.382    516.794
 35.970    520.000    521.779     -1.779    516.649    521.779    516.649
 36.070    535.000    521.246     13.754    516.506    521.246    516.506
 36.170    520.000    520.781     -0.781    516.364    520.781    516.364
 36.270    531.000    520.362     10.638    516.224    520.362    516.224
 36.370    517.000    519.996     -2.996    516.085    519.996    516.085
 36.470    485.000    519.656    -34.656    515.948    519.656    515.948
 36.570    477.000    519.336    -42.336    515.813    519.336    515.813
