S13 800C 10Kmin    CELL:    5.90300   5.90300  23.16907   90.0000   90.0000  120.0000   SPGR: P 63/m m c             TEMP:     47.00
  1    775     1.78919     1.79310     0.53886     0.00000    -0.83959    0
   70    0    2
      59.50000      63.70000
      47.20000      48.40000
 2Theta	Yobs	Ycal	Yobs-Ycal	Backg	Bragg	Posr	(hkl)	K
     34.2679	   998.0	  1107.1	 -3125.4	   877.7	     35.3414	       0	(  1  1  0)	  0  1
     34.3065	  1095.0	  1107.2	 -3028.5	   872.5	     35.4201	       0	(  1  1  0)	  0  2
     34.3452	  1149.0	  1105.4	 -2972.6	   867.8	     36.0306	       0	(  0  0  8)	  0  1
     34.3839	  1122.0	  1105.5	 -2999.8	   863.6	     36.1110	       0	(  0  0  8)	  0  2
     34.4225	  1192.0	  1105.1	 -2929.4	   859.7	     36.4938	       0	(  1  1  2)	  0  1
     34.4613	  1151.0	  1105.5	 -2970.8	   856.2	     36.5753	       0	(  1  1  2)	  0  2
     34.5000	  1095.0	  1106.8	 -3028.0	   853.2	     37.5931	       0	(  1  0  7)	  0  1
     34.5387	  1176.0	  1108.9	 -2949.2	   850.5	     37.6773	       0	(  1  0  7)	  0  2
     34.5774	  1105.0	  1112.1	 -3023.4	   848.1	     39.7774	       0	(  1  1  4)	  0  1
     34.6162	  1059.0	  1116.4	 -3073.7	   846.1	     39.8670	       0	(  1  1  4)	  0  2
     34.6550	  1170.0	  1122.1	 -2968.3	   844.5	     40.9615	       0	(  2  0  0)	  0  1
     34.6938	  1108.0	  1129.3	 -3037.5	   843.2	     41.0540	       0	(  2  0  0)	  0  2
     34.7326	  1130.0	  1138.5	 -3024.8	   842.2	     41.2185	       0	(  2  0  1)	  0  1
     34.7714	  1087.0	  1150.5	 -3079.8	   841.5	     41.3117	       0	(  2  0  1)	  0  2
     34.8102	  1214.0	  1166.6	 -2968.8	   841.1	     41.5707	       0	(  1  0  8)	  0  1
     34.8491	  1185.0	  1188.9	 -3020.2	   841.0	     41.6647	       0	(  1  0  8)	  0  2
     34.8880	  1183.0	  1221.0	 -3054.3	   841.2	     41.9817	       0	(  2  0  2)	  0  1
     34.9268	  1249.0	  1267.8	 -3035.0	   841.7	     42.0768	       0	(  2  0  2)	  0  2
     34.9657	  1347.0	  1335.0	 -3004.3	   842.4	     43.2293	       0	(  2  0  3)	  0  1
     35.0046	  1518.0	  1428.7	 -2927.0	   843.4	     43.3275	       0	(  2  0  3)	  0  2
     35.0435	  1514.0	  1554.5	 -3056.8	   844.6	     44.7995	       0	(  1  1  6)	  0  1
     35.0825	  1762.0	  1721.4	 -2975.6	   846.0	     44.9018	       0	(  1  1  6)	  0  2
     35.1214	  1853.0	  1944.0	 -3107.2	   847.7	     44.9289	       0	(  2  0  4)	  0  1
     35.1604	  2207.0	  2232.5	 -3041.7	   849.6	     45.0316	       0	(  2  0  4)	  0  2
     35.1994	  2522.0	  2575.5	 -3069.8	   851.7	     45.3669	       0	(  0  0 10)	  0  1
     35.2384	  3181.0	  3005.3	 -2840.6	   854.0	     45.4707	       0	(  0  0 10)	  0  2
     35.2774	  3821.0	  3715.2	 -2910.5	   856.4	     45.7314	       0	(  1  0  9)	  0  1
     35.3164	  4835.0	  4879.0	 -3060.3	   859.1	     45.8361	       0	(  1  0  9)	  0  2
     35.3554	  6059.0	  6020.5	 -2977.7	   861.9	     47.0429	       0	(  2  0  5)	  0  1
     35.3945	  6365.0	  6318.6	 -2969.8	   864.9	     47.1511	       0	(  2  0  5)	  0  2
     35.4335	  5504.0	  5671.8	 -3184.0	   868.1	     49.5326	       0	(  2  0  6)	  0  1
     35.4726	  4268.0	  4426.3	 -3174.5	   871.4	     49.6474	       0	(  2  0  6)	  0  2
     35.5117	  2908.0	  3132.3	 -3240.5	   874.9	     50.0589	       0	(  1  0 10)	  0  1
     35.5508	  2129.0	  2193.9	 -3081.2	   878.5	     50.1750	       0	(  1  0 10)	  0  2
     35.5899	  1770.0	  1683.9	 -2930.1	   882.2	     51.1698	       0	(  1  1  8)	  0  1
     35.6290	  1716.0	  1482.2	 -2782.4	   886.1	     51.2889	       0	(  1  1  8)	  0  2
     35.6682	  1493.0	  1442.5	 -2965.8	   890.1	     52.3619	       0	(  2  0  7)	  0  1
     35.7073	  1486.0	  1470.1	 -3000.4	   894.2	     52.4843	       0	(  2  0  7)	  0  2
     35.7465	  1484.0	  1519.3	 -3051.6	   898.4	     54.5461	       0	(  1  0 11)	  0  1
     35.7857	  1526.0	  1571.2	 -3061.4	   902.7	     54.6745	       0	(  1  0 11)	  0  2
     35.8249	  1630.0	  1620.5	 -3006.8	   907.1	     55.0103	       0	(  2  1  0)	  0  1
     35.8641	  1653.0	  1672.4	 -3035.7	   911.5	     55.0550	       0	(  0  0 12)	  0  1
     35.9033	  1680.0	  1743.3	 -3079.5	   916.1	     55.1400	       0	(  2  1  0)	  0  2
     35.9426	  1923.0	  1858.7	 -2951.9	   920.8	     55.1849	       0	(  0  0 12)	  0  2
     35.9818	  2064.0	  2035.1	 -2987.3	   925.5	     55.2164	       0	(  2  1  1)	  0  1
     36.0211	  2220.0	  2244.1	 -3040.3	   930.3	     55.3467	       0	(  2  1  1)	  0  2
     36.0603	  2349.0	  2406.1	 -3073.3	   935.1	     55.4998	       0	(  2  0  8)	  0  1
     36.0996	  2453.0	  2453.1	 -3016.4	   940.0	     55.6309	       0	(  2  0  8)	  0  2
     36.1389	  2299.0	  2373.8	 -3091.0	   945.0	     55.8319	       0	(  2  1  2)	  0  1
     36.1783	  2077.0	  2204.4	 -3143.6	   950.0	     55.9639	       0	(  2  1  2)	  0  2
     36.2176	  2040.0	  2007.1	 -2983.4	   955.0	     56.8479	       0	(  2  1  3)	  0  1
     36.2569	  1862.0	  1836.4	 -2990.6	   960.1	     56.9829	       0	(  2  1  3)	  0  2
     36.2963	  1725.0	  1719.6	 -3010.8	   965.3	     58.2514	       0	(  2  1  4)	  0  1
     36.3357	  1714.0	  1660.3	 -2962.5	   970.4	     58.3904	       0	(  2  1  4)	  0  2
     36.3750	  1702.0	  1655.0	 -2969.3	   975.6	     58.6165	       0	(  1  1 10)	  0  1
     36.4144	  1808.0	  1711.4	 -2919.7	   980.8	     58.7565	       0	(  1  1 10)	  0  2
     36.4539	  1808.0	  1840.2	 -3048.5	   986.0	     58.9213	       0	(  2  0  9)	  0  1
     36.4933	  1991.0	  2002.6	 -3027.9	   991.3	     59.0623	       0	(  2  0  9)	  0  2
     36.5327	  2136.0	  2101.5	 -2981.8	   996.5	     59.1934	       0	(  1  0 12)	  0  1
     36.5722	  1932.0	  2084.9	 -3169.1	  1001.8	     59.3351	       0	(  1  0 12)	  0  2
     36.6116	  1932.0	  1968.7	 -3053.0	  1007.1	     63.8798	       0	(  3  0  2)	  0  1
     36.6511	  1719.0	  1805.7	 -3103.0	  1012.4	     64.0074	       0	(  1  0 13)	  0  1
     36.6906	  1682.0	  1658.1	 -2992.4	  1017.6	     64.0357	       0	(  3  0  2)	  0  2
     36.7301	  1685.0	  1559.3	 -2890.5	  1022.9	     64.1637	       0	(  1  0 13)	  0  2
     36.7696	  1618.0	  1510.6	 -2908.9	  1028.2	     64.6172	       0	(  2  1  7)	  0  1
     36.8091	  1653.0	  1499.4	 -2862.7	  1033.4	     64.7753	       0	(  2  1  7)	  0  2
     36.8487	  1608.0	  1511.8	 -2920.0	  1038.6	     64.8197	       0	(  3  0  3)	  0  1
     36.8882	  1560.0	  1539.3	 -2995.6	  1043.9	     64.9785	       0	(  3  0  3)	  0  2
     36.9278	  1628.0	  1578.8	 -2967.0	  1049.1	     65.2191	       0	(  0  0 14)	  0  1
     36.9674	  1647.0	  1630.6	 -2999.8	  1054.3	     65.3791	       0	(  0  0 14)	  0  2
     37.0070	  1694.0	  1697.4	 -3019.7	  1059.4
     37.0466	  1680.0	  1783.2	 -3119.4	  1064.6
     37.0862	  1843.0	  1892.0	 -3065.2	  1069.7
     37.1258	  1814.0	  2027.2	 -3229.4	  1074.8
     37.1654	  1995.0	  2190.9	 -3212.2	  1079.8
     37.2051	  2114.0	  2384.3	 -3286.5	  1084.8
     37.2448	  2286.0	  2608.1	 -3338.4	  1089.8
     37.2844	  2532.0	  2863.5	 -3347.7	  1094.8
     37.3241	  2759.0	  3150.0	 -3407.2	  1099.7
     37.3638	  3272.0	  3465.7	 -3210.0	  1104.6
     37.4035	  3745.0	  3819.2	 -3090.4	  1109.4
     37.4433	  4654.0	  4259.8	 -2622.1	  1114.2
     37.4830	  5220.0	  4906.6	 -2702.8	  1118.9
     37.5228	  6146.0	  5905.1	 -2775.4	  1123.6
     37.5625	  7264.0	  7237.9	 -2990.1	  1128.2
     37.6023	  8535.0	  8503.4	 -2984.6	  1132.8
     37.6421	  9242.0	  9135.3	 -2909.5	  1137.4
     37.6819	  8531.0	  8872.7	 -3358.0	  1141.9
     37.7217	  7441.0	  7824.1	 -3399.4	  1146.3
     37.7615	  5944.0	  6343.8	 -3416.0	  1150.7
     37.8014	  4542.0	  4850.6	 -3324.9	  1155.1
     37.8412	  3476.0	  3622.1	 -3162.4	  1159.4
     37.8811	  2953.0	  2749.2	 -2812.4	  1163.6
     37.9210	  2485.0	  2198.8	 -2730.1	  1167.8
     37.9608	  2192.0	  1888.5	 -2712.8	  1171.9
     38.0007	  2049.0	  1734.1	 -2701.4	  1175.9
     38.0406	  2019.0	  1670.7	 -2667.9	  1179.9
     38.0806	  1999.0	  1654.7	 -2672.0	  1183.9
     38.1205	  1899.0	  1659.6	 -2776.9	  1187.7
     38.1604	  1818.0	  1670.2	 -2868.4	  1191.6
     38.2004	  1853.0	  1678.8	 -2842.0	  1195.3
     38.2404	  1774.0	  1682.6	 -2924.8	  1199.0
     38.2803	  1671.0	  1681.5	 -3026.8	  1202.7
     38.3203	  1755.0	  1676.7	 -2938.0	  1206.2
     38.3603	  1675.0	  1669.8	 -3011.1	  1209.7
     38.4003	  1724.0	  1662.1	 -2954.4	  1213.2
     38.4404	  1663.0	  1654.9	 -3008.1	  1216.6
     38.4804	  1627.0	  1648.4	 -3037.6	  1219.9
     38.5205	  1764.0	  1643.3	 -2895.6	  1223.2
     38.5605	  1751.0	  1639.7	 -2904.9	  1226.4
     38.6006	  1850.0	  1637.6	 -2803.9	  1229.5
     38.6407	  1833.0	  1637.1	 -2820.3	  1232.6
     38.6808	  1753.0	  1638.1	 -2901.4	  1235.6
     38.7209	  1661.0	  1640.7	 -2995.9	  1238.5
     38.7610	  1683.0	  1644.8	 -2978.0	  1241.4
     38.8011	  1615.0	  1650.4	 -3051.7	  1244.2
     38.8412	  1594.0	  1657.7	 -3080.0	  1247.0
     38.8814	  1502.0	  1666.9	 -3181.2	  1249.7
     38.9215	  1540.0	  1678.1	 -3154.4	  1252.3
     38.9617	  1643.0	  1691.8	 -3065.1	  1254.9
     39.0019	  1666.0	  1708.6	 -3058.9	  1257.4
     39.0421	  1655.0	  1729.5	 -3090.8	  1259.8
     39.0823	  1702.0	  1756.0	 -3070.3	  1262.2
     39.1225	  1658.0	  1790.4	 -3148.6	  1264.5
     39.1627	  1726.0	  1835.9	 -3126.1	  1266.8
     39.2030	  1739.0	  1896.9	 -3174.2	  1269.0
     39.2432	  1845.0	  1978.9	 -3150.1	  1271.1
     39.2835	  1809.0	  2087.7	 -3294.9	  1273.2
     39.3237	  1929.0	  2229.0	 -3316.2	  1275.2
     39.3640	  2154.0	  2408.1	 -3270.4	  1277.1
     39.4043	  2248.0	  2631.1	 -3399.4	  1279.0
     39.4446	  2511.0	  2907.3	 -3412.6	  1280.9
     39.4849	  2844.0	  3251.1	 -3423.3	  1282.7
     39.5252	  3408.0	  3675.7	 -3283.9	  1284.4
     39.5656	  3913.0	  4191.2	 -3294.4	  1286.0
     39.6059	  4659.0	  4811.0	 -3168.3	  1287.6
     39.6463	  5879.0	  5613.6	 -2750.8	  1289.2
     39.6866	  7005.0	  6774.5	 -2785.7	  1290.7
     39.7270	  8781.0	  8429.6	 -2664.8	  1292.1
     39.7674	 10546.0	 10287.2	 -2757.5	  1293.5
     39.8078	 12065.0	 11533.5	 -2484.7	  1294.8
     39.8482	 11736.0	 11577.4	 -2857.6	  1296.1
     39.8886	 10755.0	 10438.6	 -2699.9	  1297.3
     39.9290	  8550.0	  8509.9	 -2976.2	  1298.4
     39.9695	  6358.0	  6401.4	 -3059.6	  1299.5
     40.0099	  4562.0	  4612.8	 -3067.1	  1300.6
     40.0504	  3510.0	  3344.5	 -2850.8	  1301.6
     40.0908	  2968.0	  2566.4	 -2614.7	  1302.6
     40.1313	  2590.0	  2146.6	 -2572.9	  1303.4
     40.1718	  2354.0	  1947.1	 -2609.3	  1304.3
     40.2123	  2161.0	  1866.1	 -2721.3	  1305.1
     40.2528	  1928.0	  1841.2	 -2929.4	  1305.8
     40.2933	  1967.0	  1838.1	 -2887.4	  1306.5
     40.3338	  1934.0	  1839.7	 -2922.0	  1307.2
     40.3744	  1949.0	  1838.9	 -2906.1	  1307.8
     40.4149	  1745.0	  1833.9	 -3105.2	  1308.4
     40.4555	  1757.0	  1826.3	 -3085.6	  1308.9
     40.4960	  1716.0	  1818.3	 -3118.6	  1309.3
     40.5366	  1673.0	  1812.4	 -3155.6	  1309.8
     40.5772	  1704.0	  1811.7	 -3123.9	  1310.1
     40.6178	  1689.0	  1816.1	 -3143.4	  1310.5
     40.6584	  1857.0	  1829.4	 -2988.7	  1310.8
     40.6990	  1888.0	  1855.9	 -2984.1	  1311.0
     40.7396	  1829.0	  1898.8	 -3086.1	  1311.2
     40.7802	  1959.0	  1961.2	 -3018.5	  1311.4
     40.8209	  1971.0	  2045.7	 -3091.0	  1311.5
     40.8615	  2193.0	  2164.3	 -2987.5	  1311.6
     40.9022	  2359.0	  2337.3	 -2994.5	  1311.6
     40.9428	  2497.0	  2554.5	 -3073.7	  1311.6
     40.9835	  2831.0	  2736.3	 -2921.5	  1311.6
     41.0242	  2829.0	  2808.5	 -2995.8	  1311.5
     41.0649	  2852.0	  2776.6	 -2940.9	  1311.4
     41.1056	  2700.0	  2692.0	 -3008.2	  1311.3
     41.1463	  2624.0	  2635.3	 -3027.5	  1311.1
     41.1870	  2577.0	  2660.3	 -3099.5	  1310.9
     41.2278	  2731.0	  2728.8	 -3014.1	  1310.6
     41.2685	  2755.0	  2753.5	 -3014.7	  1310.3
     41.3092	  2671.0	  2697.6	 -3042.8	  1310.0
     41.3500	  2645.0	  2575.2	 -2946.5	  1309.6
     41.3908	  2435.0	  2432.5	 -3013.8	  1309.2
     41.4315	  2379.0	  2329.3	 -2966.5	  1308.8
     41.4723	  2450.0	  2305.1	 -2871.3	  1308.4
     41.5131	  2491.0	  2365.8	 -2891.0	  1307.9
     41.5539	  2532.0	  2476.7	 -2961.0	  1307.4
     41.5947	  2538.0	  2572.5	 -3050.7	  1306.9
     41.6355	  2550.0	  2599.4	 -3065.7	  1306.3
     41.6764	  2399.0	  2543.8	 -3161.1	  1305.7
     41.7172	  2444.0	  2423.0	 -2995.3	  1305.1
     41.7581	  2137.0	  2273.3	 -3152.6	  1304.4
     41.7989	  2059.0	  2133.5	 -3090.7	  1303.7
     41.8398	  1950.0	  2029.9	 -3096.2	  1303.0
     41.8806	  1970.0	  1976.4	 -3022.6	  1302.3
     41.9215	  1992.0	  1976.1	 -3000.3	  1301.6
     41.9624	  2052.0	  2013.1	 -2977.4	  1300.8
     42.0033	  2123.0	  2046.9	 -2940.2	  1300.0
     42.0442	  2030.0	  2042.9	 -3029.2	  1299.2
     42.0851	  2073.0	  1994.9	 -2938.1	  1298.3
     42.1260	  1860.0	  1914.3	 -3070.5	  1297.5
     42.1669	  1734.0	  1823.8	 -3106.1	  1296.6
     42.2079	  1753.0	  1745.2	 -3008.5	  1295.7
     42.2488	  1547.0	  1688.9	 -3158.2	  1294.8
     42.2898	  1665.0	  1654.8	 -3006.0	  1293.8
     42.3307	  1590.0	  1637.4	 -3063.7	  1292.9
     42.3717	  1537.0	  1630.7	 -3109.9	  1291.9
     42.4127	  1567.0	  1630.2	 -3079.4	  1290.9
     42.4537	  1629.0	  1633.6	 -3020.9	  1289.9
     42.4946	  1717.0	  1639.9	 -2939.2	  1288.8
     42.5356	  1742.0	  1649.3	 -2923.6	  1287.8
     42.5766	  1647.0	  1662.7	 -3031.9	  1286.7
     42.6177	  1702.0	  1681.9	 -2996.2	  1285.7
     42.6587	  1862.0	  1707.8	 -2862.0	  1284.6
     42.6997	  1846.0	  1743.1	 -2913.3	  1283.5
     42.7407	  1862.0	  1790.6	 -2944.9	  1282.4
     42.7818	  1834.0	  1852.2	 -3034.5	  1281.2
     42.8228	  1906.0	  1931.5	 -3041.8	  1280.1
     42.8639	  2118.0	  2033.7	 -2932.0	  1279.0
     42.9050	  2256.0	  2168.0	 -2928.2	  1277.8
     42.9460	  2431.0	  2346.7	 -2931.9	  1276.6
     42.9871	  2495.0	  2581.6	 -3102.8	  1275.5
     43.0282	  2953.0	  2881.0	 -2944.2	  1274.3
     43.0693	  3314.0	  3260.3	 -2962.6	  1273.1
     43.1104	  4066.0	  3762.3	 -2712.6	  1271.9
     43.1515	  4456.0	  4445.6	 -3005.8	  1270.7
     43.1926	  5080.0	  5284.1	 -3220.4	  1269.4
     43.2337	  5717.0	  6035.5	 -3334.8	  1268.2
     43.2749	  6338.0	  6364.0	 -3042.2	  1267.0
     43.3160	  5869.0	  6148.2	 -3295.5	  1265.8
     43.3571	  5227.0	  5474.6	 -3263.8	  1264.5
     43.3983	  4339.0	  4540.0	 -3217.3	  1263.3
     43.4395	  3413.0	  3596.3	 -3199.6	  1262.1
     43.4806	  2766.0	  2821.5	 -3071.7	  1260.8
     43.5218	  2324.0	  2281.1	 -2973.3	  1259.6
     43.5630	  2041.0	  1949.2	 -2924.5	  1258.3
     43.6041	  1920.0	  1766.0	 -2862.2	  1257.1
     43.6453	  1843.0	  1675.2	 -2848.4	  1255.8
     43.6865	  1720.0	  1633.4	 -2929.6	  1254.6
     43.7277	  1686.0	  1615.1	 -2945.3	  1253.3
     43.7690	  1668.0	  1606.5	 -2954.7	  1252.1
     43.8102	  1611.0	  1600.7	 -3005.9	  1250.8
     43.8514	  1683.0	  1594.8	 -2928.0	  1249.6
     43.8926	  1557.0	  1587.8	 -3047.0	  1248.3
     43.9339	  1567.0	  1579.9	 -3029.1	  1247.1
     43.9751	  1537.0	  1571.6	 -3050.9	  1245.9
     44.0163	  1537.0	  1563.6	 -3042.9	  1244.6
     44.0576	  1555.0	  1556.4	 -3017.7	  1243.4
     44.0989	  1519.0	  1550.4	 -3047.6	  1242.2
     44.1401	  1548.0	  1545.8	 -3014.0	  1241.0
     44.1814	  1590.0	  1542.9	 -2969.2	  1239.8
     44.2227	  1609.0	  1541.9	 -2949.2	  1238.6
     44.2640	  1564.0	  1543.1	 -2995.3	  1237.4
     44.3053	  1558.0	  1546.5	 -3004.7	  1236.2
     44.3466	  1521.0	  1552.4	 -3047.7	  1235.0
     44.3879	  1579.0	  1561.3	 -2998.6	  1233.8
     44.4292	  1635.0	  1574.0	 -2955.2	  1232.7
     44.4705	  1552.0	  1591.4	 -3055.6	  1231.5
     44.5118	  1652.0	  1614.7	 -2979.0	  1230.4
     44.5531	  1655.0	  1645.1	 -3006.3	  1229.2
     44.5945	  1639.0	  1683.7	 -3061.0	  1228.1
     44.6358	  1860.0	  1733.4	 -2889.6	  1227.0
     44.6771	  1707.0	  1799.3	 -3108.5	  1225.9
     44.7185	  1809.0	  1885.8	 -3093.1	  1224.8
     44.7598	  1983.0	  1986.9	 -3020.1	  1223.8
     44.8012	  2038.0	  2076.2	 -3054.4	  1222.7
     44.8426	  2171.0	  2119.9	 -2965.2	  1221.7
     44.8839	  2122.0	  2103.3	 -2997.6	  1220.6
     44.9253	  2033.0	  2032.4	 -3015.6	  1219.6
     44.9667	  1963.0	  1925.7	 -2978.9	  1218.6
     45.0081	  1799.0	  1809.1	 -3026.4	  1217.6
     45.0495	  1632.0	  1705.2	 -3089.5	  1216.7
     45.0909	  1600.0	  1625.6	 -3041.8	  1215.7
     45.1323	  1612.0	  1572.0	 -2976.2	  1214.8
     45.1737	  1590.0	  1540.6	 -2966.8	  1213.9
     45.2151	  1501.0	  1526.0	 -3041.3	  1213.0
     45.2565	  1435.0	  1520.6	 -3101.9	  1212.1
     45.2979	  1531.0	  1525.9	 -3011.1	  1211.2
     45.3394	  1589.0	  1534.8	 -2962.1	  1210.4
     45.3808	  1574.0	  1541.4	 -2983.6	  1209.5
     45.4222	  1572.0	  1544.3	 -2988.5	  1208.7
     45.4637	  1501.0	  1540.8	 -3056.1	  1207.9
     45.5051	  1543.0	  1531.7	 -3005.0	  1207.2
     45.5466	  1459.0	  1519.0	 -3076.3	  1206.4
     45.5880	  1556.0	  1505.6	 -2965.8	  1205.7
     45.6295	  1461.0	  1493.7	 -3049.0	  1205.0
     45.6709	  1490.0	  1484.8	 -3011.0	  1204.3
     45.7124	  1492.0	  1478.7	 -3003.0	  1203.7
     45.7539	  1543.0	  1474.8	 -2948.1	  1203.0
     45.7954	  1485.0	  1472.2	 -3003.4	  1202.4
     45.8369	  1444.0	  1470.1	 -3042.4	  1201.8
     45.8783	  1433.0	  1468.3	 -3051.5	  1201.2
     45.9198	  1460.0	  1467.1	 -3023.3	  1200.7
     45.9613	  1426.0	  1466.5	 -3056.7	  1200.2
     46.0028	  1402.0	  1466.9	 -3081.1	  1199.7
     46.0443	  1374.0	  1468.4	 -3110.7	  1199.2
     46.0858	  1492.0	  1471.1	 -2995.3	  1198.7
     46.1274	  1386.0	  1475.0	 -3105.2	  1198.3
     46.1689	  1453.0	  1480.1	 -3043.4	  1197.9
     46.2104	  1463.0	  1486.9	 -3040.1	  1197.5
     46.2519	  1398.0	  1495.5	 -3113.7	  1197.2
     46.2934	  1495.0	  1506.6	 -3027.9	  1196.8
     46.3350	  1432.0	  1520.6	 -3104.9	  1196.5
     46.3765	  1466.0	  1539.0	 -3089.2	  1196.2
     46.4181	  1586.0	  1562.7	 -2992.9	  1196.0
     46.4596	  1556.0	  1592.7	 -3052.9	  1195.8
     46.5011	  1564.0	  1630.8	 -3083.0	  1195.6
     46.5427	  1528.0	  1678.3	 -3166.6	  1195.4
     46.5843	  1654.0	  1737.7	 -3099.9	  1195.2
     46.6258	  1774.0	  1812.3	 -3054.5	  1195.1
     46.6674	  1875.0	  1908.2	 -3049.4	  1195.0
     46.7089	  2141.0	  2033.7	 -2909.0	  1194.9
     46.7505	  2246.0	  2198.3	 -2968.6	  1194.9
     46.7921	  2430.0	  2410.7	 -2997.0	  1194.9
     46.8337	  2572.0	  2679.4	 -3123.6	  1194.9
     46.8752	  3043.0	  3018.4	 -2991.7	  1194.9
     46.9168	  3627.0	  3451.3	 -2840.5	  1195.0
     46.9584	  4078.0	  3994.2	 -2932.4	  1195.1
     47.0000	  4630.0	  4604.8	 -2991.1	  1195.2
     47.0416	  4808.0	  5134.6	 -3342.8	  1195.4
     47.0832	  5691.0	  5395.8	 -2721.0	  1195.5
     47.1248	  5527.0	  5306.7	 -2796.0	  1195.7
     47.1664	  4942.0	  1380.8	   545.0	  1196.0
     47.2080	  4310.0	  1381.0	 -3016.2	  1196.2
     47.2496	  3616.0	  1381.3	 -3016.2	  1196.5
     47.2912	  3048.0	  1381.6	 -3016.2	  1196.8
     47.3328	  2626.0	  1381.9	 -3016.2	  1197.1
     47.3744	  2328.0	  1382.3	 -3016.2	  1197.5
     47.4160	  1981.0	  1382.7	 -3016.2	  1197.9
     47.4577	  1881.0	  1383.1	 -3016.2	  1198.3
     47.4993	  1820.0	  1383.5	 -3016.2	  1198.7
     47.5409	  1792.0	  1384.0	 -3016.2	  1199.2
     47.5826	  1791.0	  1384.4	 -3016.2	  1199.7
     47.6242	  1740.0	  1385.0	 -3016.2	  1200.2
     47.6658	  1704.0	  1385.5	 -3016.2	  1200.7
     47.7075	  1695.0	  1386.1	 -3016.2	  1201.3
     47.7491	  1679.0	  1386.6	 -3016.2	  1201.8
     47.7907	  1654.0	  1387.3	 -3016.2	  1202.5
     47.8324	  1573.0	  1387.9	 -3016.2	  1203.1
     47.8740	  1547.0	  1388.5	 -3016.2	  1203.7
     47.9157	  1606.0	  1389.2	 -3016.2	  1204.4
     47.9573	  1717.0	  1389.9	 -3016.2	  1205.1
     47.9990	  1595.0	  1390.7	 -3016.2	  1205.9
     48.0406	  1783.0	  1391.4	 -3016.2	  1206.6
     48.0823	  1816.0	  1392.2	 -3016.2	  1207.4
