S13 800C 10Kmin    CELL:    5.90263   5.90263  23.16668   90.0000   90.0000  120.0000   SPGR: P 63/m m c             TEMP:     35.00
  1    775     1.78919     1.79310     0.54007     0.00000    -0.83959    0
   70    0    2
      59.50000      63.70000
      47.20000      48.40000
 2Theta	Yobs	Ycal	Yobs-Ycal	Backg	Bragg	Posr	(hkl)	K
     34.2679	  1011.0	  1125.7	 -3176.9	   889.3	     35.3448	       0	(  1  1  0)	  0  1
     34.3065	  1145.0	  1121.9	 -3039.1	   883.1	     35.4235	       0	(  1  1  0)	  0  2
     34.3452	  1248.0	  1118.8	 -2933.1	   877.4	     36.0355	       0	(  0  0  8)	  0  1
     34.3839	  1078.0	  1119.4	 -3103.6	   872.2	     36.1159	       0	(  0  0  8)	  0  2
     34.4225	  1119.0	  1118.0	 -3061.2	   867.4	     36.4974	       0	(  1  1  2)	  0  1
     34.4613	  1196.0	  1118.8	 -2985.0	   863.2	     36.5789	       0	(  1  1  2)	  0  2
     34.5000	  1145.0	  1119.1	 -3036.3	   859.3	     37.5977	       0	(  1  0  7)	  0  1
     34.5387	  1133.0	  1120.4	 -3049.6	   855.9	     37.6819	       0	(  1  0  7)	  0  2
     34.5774	  1058.0	  1122.7	 -3126.9	   853.0	     39.7814	       0	(  1  1  4)	  0  1
     34.6162	  1132.0	  1126.1	 -3056.4	   850.4	     39.8710	       0	(  1  1  4)	  0  2
     34.6550	  1160.0	  1130.9	 -3033.1	   848.2	     40.9653	       0	(  2  0  0)	  0  1
     34.6938	  1086.0	  1137.2	 -3113.4	   846.4	     41.0578	       0	(  2  0  0)	  0  2
     34.7326	  1133.0	  1145.3	 -3074.6	   845.0	     41.2223	       0	(  2  0  1)	  0  1
     34.7714	  1143.0	  1156.0	 -3075.3	   843.9	     41.3155	       0	(  2  0  1)	  0  2
     34.8102	  1270.0	  1170.4	 -2962.6	   843.1	     41.5758	       0	(  1  0  8)	  0  1
     34.8491	  1179.0	  1190.2	 -3073.5	   842.7	     41.6698	       0	(  1  0  8)	  0  2
     34.8880	  1264.0	  1218.8	 -3017.1	   842.6	     41.9856	       0	(  2  0  2)	  0  1
     34.9268	  1263.0	  1260.8	 -3060.1	   842.8	     42.0807	       0	(  2  0  2)	  0  2
     34.9657	  1245.0	  1322.2	 -3139.4	   843.3	     43.2334	       0	(  2  0  3)	  0  1
     35.0046	  1443.0	  1409.3	 -3028.6	   844.0	     43.3316	       0	(  2  0  3)	  0  2
     35.0435	  1478.0	  1528.2	 -3112.5	   845.0	     44.8042	       0	(  1  1  6)	  0  1
     35.0825	  1730.0	  1687.1	 -3019.3	   846.3	     44.9066	       0	(  1  1  6)	  0  2
     35.1214	  1889.0	  1900.7	 -3073.9	   847.8	     44.9333	       0	(  2  0  4)	  0  1
     35.1604	  2086.0	  2182.4	 -3158.7	   849.6	     45.0359	       0	(  2  0  4)	  0  2
     35.1994	  2466.0	  2524.9	 -3121.2	   851.6	     45.3729	       0	(  0  0 10)	  0  1
     35.2384	  3132.0	  2943.3	 -2873.5	   853.8	     45.4766	       0	(  0  0 10)	  0  2
     35.2774	  3616.0	  3615.9	 -3062.1	   856.2	     45.7370	       0	(  1  0  9)	  0  1
     35.3164	  4875.0	  4760.6	 -2947.9	   858.8	     45.8417	       0	(  1  0  9)	  0  2
     35.3554	  5985.0	  5966.8	 -3044.0	   861.6	     47.0476	       0	(  2  0  5)	  0  1
     35.3945	  6288.0	  6343.1	 -3117.3	   864.6	     47.1557	       0	(  2  0  5)	  0  2
     35.4335	  5641.0	  5736.6	 -3157.8	   867.7	     49.5376	       0	(  2  0  6)	  0  1
     35.4726	  4276.0	  4494.6	 -3280.9	   871.0	     49.6524	       0	(  2  0  6)	  0  2
     35.5117	  3033.0	  3174.9	 -3204.1	   874.5	     50.0650	       0	(  1  0 10)	  0  1
     35.5508	  2141.0	  2209.7	 -3131.0	   878.1	     50.1812	       0	(  1  0 10)	  0  2
     35.5899	  1809.0	  1687.0	 -2940.2	   881.8	     51.1754	       0	(  1  1  8)	  0  1
     35.6290	  1766.0	  1483.2	 -2779.4	   885.7	     51.2945	       0	(  1  1  8)	  0  2
     35.6682	  1438.0	  1444.9	 -3069.2	   889.7	     52.3674	       0	(  2  0  7)	  0  1
     35.7073	  1551.0	  1473.5	 -2984.8	   893.8	     52.4898	       0	(  2  0  7)	  0  2
     35.7465	  1412.0	  1522.5	 -3172.8	   898.0	     54.5528	       0	(  1  0 11)	  0  1
     35.7857	  1544.0	  1573.4	 -3091.6	   902.3	     54.6813	       0	(  1  0 11)	  0  2
     35.8249	  1635.0	  1621.0	 -3048.2	   906.7	     55.0150	       0	(  2  1  0)	  0  1
     35.8641	  1641.0	  1670.0	 -3091.2	   911.3	     55.0622	       0	(  0  0 12)	  0  1
     35.9033	  1734.0	  1735.5	 -3063.8	   915.9	     55.1448	       0	(  2  1  0)	  0  2
     35.9426	  1879.0	  1842.7	 -3025.9	   920.5	     55.1921	       0	(  0  0 12)	  0  2
     35.9818	  1982.0	  2010.9	 -3091.2	   925.3	     55.2212	       0	(  2  1  1)	  0  1
     36.0211	  2165.0	  2219.3	 -3116.6	   930.1	     55.3516	       0	(  2  1  1)	  0  2
     36.0603	  2441.0	  2392.0	 -3013.3	   935.0	     55.5057	       0	(  2  0  8)	  0  1
     36.0996	  2517.0	  2455.1	 -3000.3	   939.9	     55.6368	       0	(  2  0  8)	  0  2
     36.1389	  2303.0	  2390.2	 -3149.4	   944.9	     55.8368	       0	(  2  1  2)	  0  1
     36.1783	  2020.0	  2229.2	 -3271.5	   949.9	     55.9689	       0	(  2  1  2)	  0  2
     36.2176	  2035.0	  2032.7	 -3060.0	   955.0	     56.8530	       0	(  2  1  3)	  0  1
     36.2569	  1856.0	  1857.6	 -3063.9	   960.1	     56.9880	       0	(  2  1  3)	  0  2
     36.2963	  1773.0	  1734.7	 -3023.9	   965.3	     58.2567	       0	(  2  1  4)	  0  1
     36.3357	  1695.0	  1669.5	 -3036.7	   970.5	     58.3957	       0	(  2  1  4)	  0  2
     36.3750	  1746.0	  1658.3	 -2974.5	   975.7	     58.6231	       0	(  1  1 10)	  0  1
     36.4144	  1791.0	  1707.3	 -2978.5	   980.9	     58.7632	       0	(  1  1 10)	  0  2
     36.4539	  1892.0	  1829.9	 -3000.1	   986.1	     58.9277	       0	(  2  0  9)	  0  1
     36.4933	  2024.0	  1994.7	 -3033.0	   991.4	     59.0687	       0	(  2  0  9)	  0  2
     36.5327	  2108.0	  2103.2	 -3057.5	   996.6	     59.2007	       0	(  1  0 12)	  0  1
     36.5722	  1923.0	  2095.0	 -3234.3	  1001.9	     59.3425	       0	(  1  0 12)	  0  2
     36.6116	  1836.0	  1983.7	 -3209.9	  1007.2	     63.8854	       0	(  3  0  2)	  0  1
     36.6511	  1706.0	  1820.4	 -3176.7	  1012.4	     64.0155	       0	(  1  0 13)	  0  1
     36.6906	  1734.0	  1669.8	 -2998.0	  1017.7	     64.0413	       0	(  3  0  2)	  0  2
     36.7301	  1678.0	  1567.9	 -2952.2	  1022.9	     64.1717	       0	(  1  0 13)	  0  2
     36.7696	  1654.0	  1517.4	 -2925.6	  1028.2	     64.6235	       0	(  2  1  7)	  0  1
     36.8091	  1564.0	  1505.2	 -3003.4	  1033.4	     64.7816	       0	(  2  1  7)	  0  2
     36.8487	  1573.0	  1516.8	 -3006.0	  1038.6	     64.8255	       0	(  3  0  3)	  0  1
     36.8882	  1603.0	  1543.3	 -3002.6	  1043.8	     64.9842	       0	(  3  0  3)	  0  2
     36.9278	  1641.0	  1581.4	 -3002.6	  1049.0	     65.2277	       0	(  0  0 14)	  0  1
     36.9674	  1638.0	  1631.2	 -3055.5	  1054.2	     65.3877	       0	(  0  0 14)	  0  2
     37.0070	  1659.0	  1695.6	 -3098.8	  1059.3
     37.0466	  1715.0	  1778.4	 -3125.7	  1064.4
     37.0862	  1799.0	  1884.1	 -3147.3	  1069.5
     37.1258	  1847.0	  2016.1	 -3231.4	  1074.5
     37.1654	  2043.0	  2177.0	 -3196.3	  1079.6
     37.2051	  2101.0	  2367.9	 -3329.1	  1084.5
     37.2448	  2278.0	  2589.1	 -3373.3	  1089.5
     37.2844	  2584.0	  2841.5	 -3319.7	  1094.4
     37.3241	  2776.0	  3124.5	 -3410.8	  1099.2
     37.3638	  3133.0	  3436.1	 -3365.3	  1104.1
     37.4035	  3657.0	  3782.0	 -3187.2	  1108.8
     37.4433	  4518.0	  4204.8	 -2749.0	  1113.6
     37.4830	  5057.0	  4815.8	 -2821.0	  1118.3
     37.5228	  6020.0	  5767.5	 -2809.8	  1122.9
     37.5625	  7204.0	  7078.5	 -2936.7	  1127.5
     37.6023	  8474.0	  8391.9	 -2980.2	  1132.0
     37.6421	  9262.0	  9123.8	 -2924.1	  1136.5
     37.6819	  8599.0	  8961.4	 -3424.6	  1141.0
     37.7217	  7586.0	  7981.5	 -3457.8	  1145.4
     37.7615	  6083.0	  6520.1	 -3499.4	  1149.7
     37.8014	  4664.0	  5005.7	 -3403.9	  1154.0
     37.8412	  3471.0	  3738.7	 -3330.0	  1158.2
     37.8811	  3162.0	  2827.7	 -2727.9	  1162.4
     37.9210	  2627.0	  2247.9	 -2683.1	  1166.5
     37.9608	  2191.0	  1918.0	 -2789.3	  1170.6
     38.0007	  2077.0	  1752.2	 -2737.4	  1174.6
     38.0406	  2056.0	  1682.9	 -2689.1	  1178.6
     38.0806	  2035.0	  1664.4	 -2691.6	  1182.5
     38.1205	  1954.0	  1668.4	 -2776.7	  1186.3
     38.1604	  1805.0	  1678.9	 -2936.2	  1190.1
     38.2004	  1754.0	  1687.7	 -2995.9	  1193.8
     38.2404	  1784.0	  1691.6	 -2969.8	  1197.4
     38.2803	  1738.0	  1690.5	 -3014.8	  1201.0
     38.3203	  1780.0	  1685.6	 -2967.9	  1204.6
     38.3603	  1696.0	  1678.5	 -3044.7	  1208.1
     38.4003	  1717.0	  1670.5	 -3015.7	  1211.5
     38.4404	  1601.0	  1662.8	 -3124.0	  1214.8
     38.4804	  1758.0	  1656.1	 -2960.4	  1218.1
     38.5205	  1782.0	  1650.7	 -2931.0	  1221.4
     38.5605	  1750.0	  1646.9	 -2959.1	  1224.5
     38.6006	  1773.0	  1644.6	 -2933.8	  1227.7
     38.6407	  1749.0	  1643.9	 -2957.1	  1230.7
     38.6808	  1803.0	  1644.7	 -2903.9	  1233.7
     38.7209	  1655.0	  1647.0	 -3054.3	  1236.7
     38.7610	  1659.0	  1650.9	 -3054.2	  1239.5
     38.8011	  1658.0	  1656.4	 -3060.7	  1242.3
     38.8412	  1563.0	  1663.6	 -3162.8	  1245.1
     38.8814	  1681.0	  1672.5	 -3053.8	  1247.8
     38.9215	  1562.0	  1683.5	 -3183.7	  1250.4
     38.9617	  1565.0	  1696.9	 -3194.1	  1253.0
     39.0019	  1702.0	  1713.2	 -3073.5	  1255.5
     39.0421	  1557.0	  1733.4	 -3238.7	  1258.0
     39.0823	  1631.0	  1758.9	 -3190.2	  1260.4
     39.1225	  1717.0	  1791.8	 -3137.1	  1262.7
     39.1627	  1651.0	  1835.3	 -3246.5	  1265.0
     39.2030	  1823.0	  1893.6	 -3132.8	  1267.2
     39.2432	  1810.0	  1972.2	 -3224.4	  1269.4
     39.2835	  1868.0	  2077.2	 -3271.4	  1271.5
     39.3237	  1984.0	  2214.8	 -3293.1	  1273.6
     39.3640	  2089.0	  2390.7	 -3363.9	  1275.6
     39.4043	  2246.0	  2610.6	 -3426.9	  1277.5
     39.4446	  2535.0	  2882.1	 -3409.3	  1279.4
     39.4849	  2835.0	  3221.3	 -3448.5	  1281.2
     39.5252	  3457.0	  3641.8	 -3247.0	  1283.0
     39.5656	  3943.0	  4153.9	 -3273.2	  1284.7
     39.6059	  4623.0	  4769.2	 -3208.4	  1286.4
     39.6463	  5655.0	  5554.9	 -2962.1	  1288.0
     39.6866	  6829.0	  6683.9	 -2917.2	  1289.5
     39.7270	  8652.0	  8323.1	 -2733.4	  1291.0
     39.7674	 10340.0	 10241.2	 -2963.5	  1292.5
     39.8078	 12249.0	 11619.6	 -2432.8	  1293.9
     39.8482	 12062.0	 11783.4	 -2783.7	  1295.2
     39.8886	 11028.0	 10711.4	 -2745.6	  1296.5
     39.9290	  8922.0	  8782.6	 -2922.8	  1297.8
     39.9695	  6521.0	  6619.3	 -3160.6	  1299.0
     40.0099	  4622.0	  4759.4	 -3199.7	  1300.1
     40.0504	  3614.0	  3431.8	 -2880.0	  1301.2
     40.0908	  2973.0	  2614.9	 -2704.1	  1302.2
     40.1313	  2546.0	  2174.2	 -2690.5	  1303.2
     40.1718	  2303.0	  1965.4	 -2724.6	  1304.2
     40.2123	  2238.0	  1881.0	 -2705.2	  1305.1
     40.2528	  2042.0	  1855.1	 -2875.4	  1305.9
     40.2933	  2032.0	  1851.8	 -2882.1	  1306.7
     40.3338	  1964.0	  1853.1	 -2951.3	  1307.5
     40.3744	  1926.0	  1851.6	 -2987.8	  1308.2
     40.4149	  1776.0	  1845.7	 -3131.9	  1308.9
     40.4555	  1751.0	  1836.9	 -3148.2	  1309.5
     40.4960	  1716.0	  1827.7	 -3173.9	  1310.0
     40.5366	  1620.0	  1820.5	 -3262.8	  1310.6
     40.5772	  1757.0	  1817.6	 -3122.8	  1311.1
     40.6178	  1654.0	  1820.7	 -3229.0	  1311.5
     40.6584	  1791.0	  1833.4	 -3104.7	  1311.9
     40.6990	  1837.0	  1857.4	 -3082.7	  1312.3
     40.7396	  1832.0	  1898.9	 -3129.1	  1312.6
     40.7802	  1911.0	  1959.9	 -3111.2	  1312.8
     40.8209	  2008.0	  2043.3	 -3097.6	  1313.1
     40.8615	  2229.0	  2159.6	 -2992.8	  1313.3
     40.9022	  2307.0	  2330.6	 -3085.8	  1313.4
     40.9428	  2432.0	  2552.7	 -3182.9	  1313.5
     40.9835	  2890.0	  2745.8	 -2918.1	  1313.6
     41.0242	  2895.0	  2823.6	 -2990.8	  1313.6
     41.0649	  2868.0	  2787.0	 -2981.3	  1313.6
     41.1056	  2813.0	  2687.3	 -2936.5	  1313.6
     41.1463	  2491.0	  2606.7	 -3177.9	  1313.5
     41.1870	  2545.0	  2608.8	 -3126.1	  1313.4
     41.2278	  2622.0	  2666.8	 -3107.1	  1313.3
     41.2685	  2707.0	  2693.3	 -3048.6	  1313.1
     41.3092	  2617.0	  2646.5	 -3091.7	  1312.9
     41.3500	  2664.0	  2536.1	 -2934.3	  1312.6
     41.3908	  2409.0	  2403.1	 -3056.4	  1312.3
     41.4315	  2398.0	  2304.5	 -2968.7	  1312.0
     41.4723	  2450.0	  2279.9	 -2892.2	  1311.7
     41.5131	  2434.0	  2338.3	 -2966.5	  1311.3
     41.5539	  2460.0	  2450.3	 -3052.5	  1310.9
     41.5947	  2612.0	  2553.5	 -3003.7	  1310.4
     41.6355	  2517.0	  2591.5	 -3136.7	  1309.9
     41.6764	  2353.0	  2547.0	 -3256.3	  1309.4
     41.7172	  2362.0	  2434.6	 -3134.9	  1308.9
     41.7581	  2218.0	  2289.1	 -3133.4	  1308.3
     41.7989	  2093.0	  2149.8	 -3119.0	  1307.7
     41.8398	  2044.0	  2044.5	 -3062.7	  1307.1
     41.8806	  1950.0	  1988.1	 -3100.4	  1306.4
     41.9215	  1952.0	  1985.7	 -3095.9	  1305.7
     41.9624	  2044.0	  2024.0	 -3042.2	  1305.0
     42.0033	  2147.0	  2062.6	 -2977.8	  1304.3
     42.0442	  2020.0	  2063.1	 -3105.4	  1303.5
     42.0851	  2153.0	  2017.3	 -2926.5	  1302.7
     42.1260	  1928.0	  1936.3	 -3070.6	  1301.9
     42.1669	  1694.0	  1843.3	 -3211.5	  1301.1
     42.2079	  1777.0	  1761.5	 -3046.7	  1300.2
     42.2488	  1649.0	  1702.6	 -3115.8	  1299.4
     42.2898	  1688.0	  1666.8	 -3041.0	  1298.5
     42.3307	  1595.0	  1648.6	 -3115.8	  1297.5
     42.3717	  1606.0	  1641.4	 -3097.7	  1296.6
     42.4127	  1565.0	  1640.7	 -3137.9	  1295.6
     42.4537	  1671.0	  1643.7	 -3035.0	  1294.6
     42.4946	  1530.0	  1649.6	 -3181.9	  1293.6
     42.5356	  1798.0	  1658.3	 -2922.6	  1292.6
     42.5766	  1682.0	  1670.6	 -3050.9	  1291.5
     42.6177	  1780.0	  1687.9	 -2970.2	  1290.4
     42.6587	  1795.0	  1712.0	 -2979.3	  1289.4
     42.6997	  1758.0	  1746.0	 -3050.2	  1288.2
     42.7407	  1811.0	  1790.9	 -3042.1	  1287.1
     42.7818	  1902.0	  1850.3	 -3010.5	  1286.0
     42.8228	  1909.0	  1926.7	 -3080.0	  1284.8
     42.8639	  2005.0	  2025.2	 -3082.5	  1283.7
     42.9050	  2069.0	  2154.3	 -3147.6	  1282.5
     42.9460	  2435.0	  2326.3	 -2953.6	  1281.3
     42.9871	  2573.0	  2553.9	 -3043.2	  1280.1
     43.0282	  2933.0	  2846.3	 -2975.6	  1278.8
     43.0693	  3201.0	  3216.9	 -3078.2	  1277.6
     43.1104	  4012.0	  3705.3	 -2755.6	  1276.3
     43.1515	  4451.0	  4374.1	 -2985.4	  1275.1
     43.1926	  5162.0	  5216.8	 -3117.1	  1273.8
     43.2337	  5836.0	  6008.9	 -3235.1	  1272.5
     43.2749	  6279.0	  6393.7	 -3176.9	  1271.2
     43.3160	  5802.0	  6220.7	 -3481.0	  1269.9
     43.3571	  5336.0	  5569.4	 -3295.7	  1268.6
     43.3983	  4434.0	  4633.0	 -3261.2	  1267.3
     43.4395	  3396.0	  3670.0	 -3336.3	  1265.9
     43.4806	  2874.0	  2871.9	 -3060.2	  1264.6
     43.5218	  2377.0	  2313.2	 -2998.4	  1263.2
     43.5630	  2102.0	  1968.9	 -2929.1	  1261.9
     43.6041	  1937.0	  1781.2	 -2906.5	  1260.5
     43.6453	  1810.0	  1688.2	 -2940.5	  1259.2
     43.6865	  1788.0	  1645.7	 -2919.9	  1257.8
     43.7277	  1790.0	  1627.1	 -2899.3	  1256.4
     43.7690	  1682.0	  1618.2	 -2998.5	  1255.1
     43.8102	  1604.0	  1612.2	 -3070.4	  1253.7
     43.8514	  1578.0	  1605.8	 -3090.1	  1252.3
     43.8926	  1571.0	  1598.3	 -3089.6	  1250.9
     43.9339	  1686.0	  1590.0	 -2966.2	  1249.5
     43.9751	  1527.0	  1581.2	 -3116.5	  1248.2
     44.0163	  1564.0	  1572.8	 -3071.0	  1246.8
     44.0576	  1619.0	  1565.1	 -3008.4	  1245.4
     44.0989	  1599.0	  1558.6	 -3021.9	  1244.0
     44.1401	  1542.0	  1553.5	 -3073.8	  1242.6
     44.1814	  1541.0	  1550.1	 -3071.4	  1241.3
     44.2227	  1603.0	  1548.5	 -3007.8	  1239.9
     44.2640	  1567.0	  1549.0	 -3044.3	  1238.5
     44.3053	  1531.0	  1551.7	 -3082.9	  1237.2
     44.3466	  1530.0	  1556.8	 -3089.1	  1235.8
     44.3879	  1629.0	  1564.7	 -2998.0	  1234.4
     44.4292	  1580.0	  1576.1	 -3058.4	  1233.1
     44.4705	  1602.0	  1591.9	 -3052.2	  1231.7
     44.5118	  1609.0	  1613.3	 -3066.6	  1230.4
     44.5531	  1689.0	  1641.4	 -3014.6	  1229.1
     44.5945	  1679.0	  1677.2	 -3060.5	  1227.8
     44.6358	  1791.0	  1723.4	 -2994.6	  1226.4
     44.6771	  1741.0	  1784.6	 -3105.8	  1225.1
     44.7185	  1951.0	  1865.9	 -2977.1	  1223.8
     44.7598	  1932.0	  1963.4	 -3093.7	  1222.6
     44.8012	  1977.0	  2053.5	 -3138.7	  1221.3
     44.8426	  2081.0	  2101.8	 -3083.1	  1220.0
     44.8839	  2046.0	  2091.1	 -3107.4	  1218.8
     44.9253	  2038.0	  2025.8	 -3050.1	  1217.5
     44.9667	  1958.0	  1923.0	 -3027.3	  1216.3
     45.0081	  1789.0	  1808.0	 -3081.3	  1215.1
     45.0495	  1609.0	  1703.7	 -3156.9	  1213.9
     45.0909	  1587.0	  1622.4	 -3097.7	  1212.7
     45.1323	  1632.0	  1566.6	 -2996.8	  1211.5
     45.1737	  1564.0	  1532.5	 -3030.8	  1210.4
     45.2151	  1428.0	  1512.0	 -3146.2	  1209.2
     45.2565	  1503.0	  1505.4	 -3064.6	  1208.1
     45.2979	  1482.0	  1506.0	 -3086.2	  1207.0
     45.3394	  1552.0	  1509.1	 -3019.4	  1205.9
     45.3808	  1539.0	  1514.4	 -3037.7	  1204.9
     45.4222	  1595.0	  1517.9	 -2985.2	  1203.8
     45.4637	  1467.0	  1518.5	 -3113.8	  1202.8
     45.5051	  1500.0	  1516.6	 -3078.8	  1201.8
     45.5466	  1439.0	  1513.2	 -3136.5	  1200.8
     45.5880	  1537.0	  1510.4	 -3035.6	  1199.8
     45.6295	  1518.0	  1509.8	 -3054.1	  1198.8
     45.6709	  1480.0	  1512.3	 -3094.5	  1197.9
     45.7124	  1493.0	  1516.7	 -3086.0	  1197.0
     45.7539	  1610.0	  1520.5	 -2972.7	  1196.1
     45.7954	  1603.0	  1520.7	 -2980.0	  1195.3
     45.8369	  1497.0	  1517.0	 -3082.2	  1194.4
     45.8783	  1577.0	  1509.6	 -2994.9	  1193.6
     45.9198	  1439.0	  1500.4	 -3123.6	  1192.8
     45.9613	  1403.0	  1491.1	 -3150.4	  1192.0
     46.0028	  1364.0	  1483.6	 -3181.9	  1191.3
     46.0443	  1437.0	  1478.7	 -3104.0	  1190.6
     46.0858	  1428.0	  1476.6	 -3110.8	  1189.9
     46.1274	  1411.0	  1477.1	 -3128.3	  1189.2
     46.1689	  1365.0	  1480.0	 -3177.2	  1188.5
     46.2104	  1435.0	  1485.1	 -3112.3	  1187.9
     46.2519	  1487.0	  1492.3	 -3067.5	  1187.3
     46.2934	  1458.0	  1502.2	 -3106.5	  1186.8
     46.3350	  1478.0	  1515.4	 -3099.7	  1186.2
     46.3765	  1471.0	  1532.5	 -3123.7	  1185.7
     46.4181	  1567.0	  1554.7	 -3049.9	  1185.2
     46.4596	  1512.0	  1583.3	 -3133.5	  1184.8
     46.5011	  1601.0	  1619.6	 -3080.8	  1184.4
     46.5427	  1652.0	  1665.2	 -3075.4	  1184.0
     46.5843	  1674.0	  1722.2	 -3110.4	  1183.6
     46.6258	  1684.0	  1793.8	 -3172.0	  1183.2
     46.6674	  1848.0	  1885.5	 -3099.7	  1182.9
     46.7089	  2050.0	  2005.3	 -3017.6	  1182.7
     46.7505	  2254.0	  2163.0	 -2971.3	  1182.4
     46.7921	  2396.0	  2367.5	 -3033.7	  1182.2
     46.8337	  2607.0	  2627.5	 -3082.7	  1182.0
     46.8752	  3023.0	  2956.2	 -2995.4	  1181.8
     46.9168	  3396.0	  3376.6	 -3042.9	  1181.7
     46.9584	  3939.0	  3909.5	 -3032.7	  1181.6
     47.0000	  4612.0	  4523.5	 -2973.8	  1181.5
     47.0416	  4772.0	  5079.4	 -3369.6	  1181.5
     47.0832	  5564.0	  5379.8	 -2878.1	  1181.4
     47.1248	  5612.0	  5326.1	 -2776.3	  1181.5
     47.1664	  4946.0	  1374.5	   509.3	  1181.5
     47.2080	  4425.0	  1374.6	 -3062.2	  1181.6
     47.2496	  3688.0	  1374.7	 -3062.2	  1181.7
     47.2912	  3087.0	  1374.8	 -3062.2	  1181.8
     47.3328	  2650.0	  1375.0	 -3062.2	  1182.0
     47.3744	  2339.0	  1375.2	 -3062.2	  1182.2
     47.4160	  2015.0	  1375.4	 -3062.2	  1182.4
     47.4577	  1905.0	  1375.7	 -3062.2	  1182.7
     47.4993	  1881.0	  1376.0	 -3062.2	  1183.0
     47.5409	  1802.0	  1376.3	 -3062.2	  1183.3
     47.5826	  1763.0	  1376.6	 -3062.2	  1183.6
     47.6242	  1737.0	  1377.0	 -3062.2	  1184.0
     47.6658	  1818.0	  1377.4	 -3062.2	  1184.4
     47.7075	  1666.0	  1377.8	 -3062.2	  1184.9
     47.7491	  1822.0	  1378.3	 -3062.2	  1185.3
     47.7907	  1629.0	  1378.8	 -3062.2	  1185.8
     47.8324	  1609.0	  1379.3	 -3062.2	  1186.4
     47.8740	  1570.0	  1379.9	 -3062.2	  1186.9
     47.9157	  1593.0	  1380.5	 -3062.2	  1187.5
     47.9573	  1567.0	  1381.1	 -3062.2	  1188.1
     47.9990	  1712.0	  1381.7	 -3062.2	  1188.7
     48.0406	  1749.0	  1382.4	 -3062.2	  1189.4
     48.0823	  1808.0	  1383.1	 -3062.2	  1190.1
