S13 800C 10Kmin    CELL:    5.90327   5.90327  23.17168   90.0000   90.0000  120.0000   SPGR: P 63/m m c             TEMP:     60.00
  1    775     1.78919     1.79310     0.53901     0.00000    -0.83959    0
   70    0    2
      59.50000      63.70000
      47.20000      48.40000
 2Theta	Yobs	Ycal	Yobs-Ycal	Backg	Bragg	Posr	(hkl)	K
     34.2679	  1013.0	  1094.5	 -3154.5	   857.0	     35.3400	       0	(  1  1  0)	  0  1
     34.3065	  1115.0	  1096.4	 -3054.4	   856.5	     35.4187	       0	(  1  1  0)	  0  2
     34.3452	  1185.0	  1101.4	 -2989.4	   856.0	     36.0267	       0	(  0  0  8)	  0  1
     34.3839	  1056.0	  1104.0	 -3121.0	   855.7	     36.1070	       0	(  0  0  8)	  0  2
     34.4225	  1062.0	  1108.5	 -3119.5	   855.4	     36.4922	       0	(  1  1  2)	  0  1
     34.4613	  1191.0	  1112.1	 -2994.1	   855.3	     36.5737	       0	(  1  1  2)	  0  2
     34.5000	  1132.0	  1116.2	 -3057.2	   855.2	     37.5898	       0	(  1  0  7)	  0  1
     34.5387	  1149.0	  1121.0	 -3045.0	   855.3	     37.6739	       0	(  1  0  7)	  0  2
     34.5774	  1060.0	  1126.6	 -3139.6	   855.5	     39.7751	       0	(  1  1  4)	  0  1
     34.6162	  1195.0	  1133.0	 -3011.0	   855.9	     39.8647	       0	(  1  1  4)	  0  2
     34.6550	  1126.0	  1140.5	 -3087.5	   856.3	     40.9598	       0	(  2  0  0)	  0  1
     34.6938	  1151.0	  1149.3	 -3071.3	   856.9	     41.0523	       0	(  2  0  0)	  0  2
     34.7326	  1165.0	  1159.9	 -3067.9	   857.6	     41.2167	       0	(  2  0  1)	  0  1
     34.7714	  1168.0	  1172.9	 -3077.9	   858.4	     41.3099	       0	(  2  0  1)	  0  2
     34.8102	  1214.0	  1189.5	 -3048.5	   859.3	     41.5667	       0	(  1  0  8)	  0  1
     34.8491	  1258.0	  1211.9	 -3026.9	   860.3	     41.6608	       0	(  1  0  8)	  0  2
     34.8880	  1192.0	  1243.5	 -3124.5	   861.5	     41.9798	       0	(  2  0  2)	  0  1
     34.9268	  1303.0	  1289.1	 -3059.1	   862.8	     42.0749	       0	(  2  0  2)	  0  2
     34.9657	  1377.0	  1354.7	 -3050.7	   864.2	     43.2271	       0	(  2  0  3)	  0  1
     35.0046	  1460.0	  1446.3	 -3059.3	   865.7	     43.3254	       0	(  2  0  3)	  0  2
     35.0435	  1491.0	  1569.8	 -3151.8	   867.4	     44.7964	       0	(  1  1  6)	  0  1
     35.0825	  1813.0	  1734.2	 -2994.2	   869.2	     44.8987	       0	(  1  1  6)	  0  2
     35.1214	  1895.0	  1954.8	 -3132.8	   871.0	     44.9265	       0	(  2  0  4)	  0  1
     35.1604	  2132.0	  2242.4	 -3183.4	   873.0	     45.0291	       0	(  2  0  4)	  0  2
     35.1994	  2602.0	  2586.9	 -3057.9	   875.2	     45.3618	       0	(  0  0 10)	  0  1
     35.2384	  3062.0	  3018.8	 -3029.8	   877.4	     45.4655	       0	(  0  0 10)	  0  2
     35.2774	  3890.0	  3737.2	 -2920.2	   879.7	     45.7269	       0	(  1  0  9)	  0  1
     35.3164	  4821.0	  4912.5	 -3164.5	   882.2	     45.8316	       0	(  1  0  9)	  0  2
     35.3554	  6079.0	  6033.1	 -3027.1	   884.7	     47.0401	       0	(  2  0  5)	  0  1
     35.3945	  6445.0	  6276.9	 -2904.9	   887.4	     47.1482	       0	(  2  0  5)	  0  2
     35.4335	  5374.0	  5584.5	 -3283.5	   890.2	     49.5294	       0	(  2  0  6)	  0  1
     35.4726	  4170.0	  4322.9	 -3225.9	   893.0	     49.6441	       0	(  2  0  6)	  0  2
     35.5117	  2907.0	  3048.6	 -3214.6	   896.0	     50.0537	       0	(  1  0 10)	  0  1
     35.5508	  2065.0	  2146.9	 -3154.9	   899.0	     50.1698	       0	(  1  0 10)	  0  2
     35.5899	  1819.0	  1671.5	 -2925.5	   902.2	     51.1657	       0	(  1  1  8)	  0  1
     35.6290	  1698.0	  1491.9	 -2866.9	   905.5	     51.2848	       0	(  1  1  8)	  0  2
     35.6682	  1461.0	  1462.6	 -3074.6	   908.8	     52.3582	       0	(  2  0  7)	  0  1
     35.7073	  1476.0	  1493.1	 -3090.1	   912.2	     52.4806	       0	(  2  0  7)	  0  2
     35.7465	  1510.0	  1541.4	 -3104.4	   915.7	     54.5403	       0	(  1  0 11)	  0  1
     35.7857	  1597.0	  1590.9	 -3066.9	   919.3	     54.6687	       0	(  1  0 11)	  0  2
     35.8249	  1615.0	  1637.7	 -3095.7	   923.0	     55.0078	       0	(  2  1  0)	  0  1
     35.8641	  1733.0	  1687.9	 -3027.9	   926.8	     55.0486	       0	(  0  0 12)	  0  1
     35.9033	  1775.0	  1758.8	 -3056.8	   930.6	     55.1375	       0	(  2  1  0)	  0  2
     35.9426	  1897.0	  1875.8	 -3051.8	   934.5	     55.1784	       0	(  0  0 12)	  0  2
     35.9818	  1973.0	  2052.6	 -3152.6	   938.4	     55.2139	       0	(  2  1  1)	  0  1
     36.0211	  2151.0	  2255.2	 -3177.2	   942.5	     55.3442	       0	(  2  1  1)	  0  2
     36.0603	  2486.0	  2403.2	 -2990.2	   946.6	     55.4955	       0	(  2  0  8)	  0  1
     36.0996	  2443.0	  2434.3	 -3064.3	   950.7	     55.6266	       0	(  2  0  8)	  0  2
     36.1389	  2241.0	  2343.6	 -3175.6	   954.9	     55.8292	       0	(  2  1  2)	  0  1
     36.1783	  2144.0	  2170.7	 -3099.7	   959.2	     55.9613	       0	(  2  1  2)	  0  2
     36.2176	  1953.0	  1977.2	 -3097.2	   963.5	     56.8451	       0	(  2  1  3)	  0  1
     36.2569	  1826.0	  1814.3	 -3061.3	   967.9	     56.9800	       0	(  2  1  3)	  0  2
     36.2963	  1719.0	  1705.6	 -3059.6	   972.3	     58.2483	       0	(  2  1  4)	  0  1
     36.3357	  1641.0	  1652.8	 -3084.8	   976.8	     58.3873	       0	(  2  1  4)	  0  2
     36.3750	  1672.0	  1651.7	 -3052.7	   981.3	     58.6111	       0	(  1  1 10)	  0  1
     36.4144	  1797.0	  1710.2	 -2986.2	   985.8	     58.7512	       0	(  1  1 10)	  0  2
     36.4539	  1841.0	  1838.5	 -3070.5	   990.4	     58.9165	       0	(  2  0  9)	  0  1
     36.4933	  2046.0	  1996.3	 -3023.3	   995.0	     59.0574	       0	(  2  0  9)	  0  2
     36.5327	  2110.0	  2087.3	 -3050.3	   999.6	     59.1868	       0	(  1  0 12)	  0  1
     36.5722	  1971.0	  2064.7	 -3166.7	  1004.3	     59.3286	       0	(  1  0 12)	  0  2
     36.6116	  1849.0	  1947.4	 -3171.4	  1009.0	     63.8767	       0	(  3  0  2)	  0  1
     36.6511	  1677.0	  1788.4	 -3184.4	  1013.7	     64.0002	       0	(  1  0 13)	  0  1
     36.6906	  1642.0	  1648.0	 -3079.0	  1018.4	     64.0325	       0	(  3  0  2)	  0  2
     36.7301	  1616.0	  1556.3	 -3013.3	  1023.2	     64.1564	       0	(  1  0 13)	  0  2
     36.7696	  1637.0	  1513.1	 -2949.1	  1028.0	     64.6129	       0	(  2  1  7)	  0  1
     36.8091	  1625.0	  1505.1	 -2953.1	  1032.7	     64.7710	       0	(  2  1  7)	  0  2
     36.8487	  1562.0	  1519.3	 -3030.3	  1037.5	     64.8164	       0	(  3  0  3)	  0  1
     36.8882	  1636.0	  1547.7	 -2984.7	  1042.3	     64.9752	       0	(  3  0  3)	  0  2
     36.9278	  1660.0	  1587.7	 -3000.7	  1047.1	     65.2112	       0	(  0  0 14)	  0  1
     36.9674	  1618.0	  1640.1	 -3095.1	  1051.9	     65.3711	       0	(  0  0 14)	  0  2
     37.0070	  1758.0	  1707.9	 -3022.9	  1056.7
     37.0466	  1683.0	  1795.2	 -3185.2	  1061.5
     37.0862	  1822.0	  1906.2	 -3157.2	  1066.3
     37.1258	  1893.0	  2044.3	 -3224.3	  1071.0
     37.1654	  1975.0	  2211.7	 -3309.7	  1075.8
     37.2051	  2137.0	  2409.4	 -3345.4	  1080.6
     37.2448	  2269.0	  2638.1	 -3442.1	  1085.3
     37.2844	  2597.0	  2898.8	 -3374.8	  1090.0
     37.3241	  2831.0	  3190.9	 -3432.9	  1094.7
     37.3638	  3273.0	  3512.4	 -3312.4	  1099.4
     37.4035	  3723.0	  3873.6	 -3223.6	  1104.1
     37.4433	  4780.0	  4329.4	 -2622.4	  1108.7
     37.4830	  5161.0	  5006.1	 -2918.1	  1113.3
     37.5228	  6260.0	  6049.6	 -2862.6	  1117.9
     37.5625	  7819.0	  7415.7	 -2669.7	  1122.4
     37.6023	  8773.0	  8666.3	 -2966.3	  1127.0
     37.6421	  9257.0	  9229.2	 -3045.2	  1131.5
     37.6819	  8302.0	  8880.1	 -3651.1	  1135.9
     37.7217	  7322.0	  7756.6	 -3507.6	  1140.3
     37.7615	  5821.0	  6236.7	 -3488.7	  1144.7
     37.8014	  4313.0	  4740.9	 -3500.9	  1149.0
     37.8412	  3344.0	  3532.5	 -3261.5	  1153.3
     37.8811	  3026.0	  2686.9	 -2733.9	  1157.6
     37.9210	  2489.0	  2161.5	 -2745.5	  1161.8
     37.9608	  2248.0	  1869.9	 -2694.9	  1166.0
     38.0007	  2102.0	  1727.8	 -2698.8	  1170.1
     38.0406	  2072.0	  1671.7	 -2672.7	  1174.1
     38.0806	  2041.0	  1659.7	 -2691.7	  1178.2
     38.1205	  1930.0	  1666.2	 -2809.2	  1182.1
     38.1604	  1797.0	  1677.0	 -2953.0	  1186.1
     38.2004	  1795.0	  1685.0	 -2963.0	  1189.9
     38.2404	  1829.0	  1688.0	 -2932.0	  1193.7
     38.2803	  1769.0	  1686.2	 -2990.2	  1197.5
     38.3203	  1781.0	  1680.9	 -2972.9	  1201.2
     38.3603	  1721.0	  1673.6	 -3025.6	  1204.9
     38.4003	  1736.0	  1665.7	 -3002.7	  1208.4
     38.4404	  1734.0	  1658.3	 -2997.3	  1212.0
     38.4804	  1681.0	  1652.0	 -3044.0	  1215.5
     38.5205	  1736.0	  1647.0	 -2984.0	  1218.9
     38.5605	  1783.0	  1643.6	 -2933.6	  1222.2
     38.6006	  1706.0	  1641.7	 -3008.7	  1225.5
     38.6407	  1758.0	  1641.4	 -2956.4	  1228.8
     38.6808	  1706.0	  1642.6	 -3009.6	  1231.9
     38.7209	  1667.0	  1645.4	 -3051.4	  1235.1
     38.7610	  1638.0	  1649.7	 -3084.7	  1238.1
     38.8011	  1647.0	  1655.5	 -3081.5	  1241.1
     38.8412	  1521.0	  1663.1	 -3215.1	  1244.0
     38.8814	  1620.0	  1672.4	 -3125.4	  1246.9
     38.9215	  1575.0	  1683.8	 -3181.8	  1249.7
     38.9617	  1519.0	  1697.7	 -3251.7	  1252.4
     39.0019	  1764.0	  1714.6	 -3023.6	  1255.1
     39.0421	  1552.0	  1735.6	 -3256.6	  1257.7
     39.0823	  1685.0	  1762.1	 -3150.1	  1260.3
     39.1225	  1744.0	  1796.5	 -3125.5	  1262.7
     39.1627	  1689.0	  1842.0	 -3226.0	  1265.2
     39.2030	  1703.0	  1903.1	 -3273.1	  1267.5
     39.2432	  1945.0	  1985.2	 -3113.2	  1269.8
     39.2835	  1889.0	  2094.4	 -3278.4	  1272.0
     39.3237	  1990.0	  2236.6	 -3319.6	  1274.2
     39.3640	  2028.0	  2417.4	 -3462.4	  1276.3
     39.4043	  2261.0	  2642.9	 -3454.9	  1278.3
     39.4446	  2551.0	  2922.5	 -3444.5	  1280.3
     39.4849	  2950.0	  3269.8	 -3392.8	  1282.2
     39.5252	  3297.0	  3702.2	 -3478.2	  1284.0
     39.5656	  3943.0	  4225.5	 -3355.5	  1285.8
     39.6059	  4812.0	  4857.2	 -3118.2	  1287.5
     39.6463	  5907.0	  5678.7	 -2844.7	  1289.2
     39.6866	  7136.0	  6873.2	 -2810.2	  1290.8
     39.7270	  8907.0	  8571.5	 -2737.5	  1292.3
     39.7674	 10725.0	 10443.9	 -2791.9	  1293.8
     39.8078	 12292.0	 11643.1	 -2424.1	  1295.2
     39.8482	 12013.0	 11602.7	 -2662.7	  1296.5
     39.8886	 10476.0	 10378.7	 -2975.7	  1297.8
     39.9290	  8383.0	  8392.5	 -3082.5	  1299.0
     39.9695	  6232.0	  6270.5	 -3111.5	  1300.2
     40.0099	  4359.0	  4502.2	 -3216.2	  1301.3
     40.0504	  3439.0	  3268.5	 -2902.5	  1302.4
     40.0908	  2884.0	  2523.7	 -2712.7	  1303.4
     40.1313	  2455.0	  2128.6	 -2746.6	  1304.3
     40.1718	  2266.0	  1944.7	 -2751.7	  1305.2
     40.2123	  2180.0	  1872.2	 -2765.2	  1306.0
     40.2528	  2045.0	  1851.2	 -2879.2	  1306.7
     40.2933	  1948.0	  1849.2	 -2974.2	  1307.5
     40.3338	  1914.0	  1850.4	 -3009.4	  1308.1
     40.3744	  1853.0	  1848.4	 -3068.4	  1308.7
     40.4149	  1811.0	  1842.3	 -3104.3	  1309.3
     40.4555	  1785.0	  1833.5	 -3121.5	  1309.8
     40.4960	  1673.0	  1824.6	 -3224.6	  1310.2
     40.5366	  1757.0	  1817.8	 -3133.8	  1310.6
     40.5772	  1638.0	  1815.4	 -3250.4	  1310.9
     40.6178	  1756.0	  1820.1	 -3137.1	  1311.2
     40.6584	  1875.0	  1832.6	 -3030.6	  1311.5
     40.6990	  1862.0	  1857.6	 -3068.6	  1311.7
     40.7396	  1875.0	  1900.0	 -3098.0	  1311.8
     40.7802	  1925.0	  1961.3	 -3109.3	  1311.9
     40.8209	  1990.0	  2044.7	 -3127.7	  1312.0
     40.8615	  2190.0	  2162.2	 -3045.2	  1312.0
     40.9022	  2379.0	  2334.0	 -3028.0	  1311.9
     40.9428	  2544.0	  2548.3	 -3077.3	  1311.9
     40.9835	  2750.0	  2723.1	 -3046.1	  1311.7
     41.0242	  2790.0	  2787.6	 -3070.6	  1311.6
     41.0649	  2761.0	  2751.6	 -3063.6	  1311.4
     41.1056	  2741.0	  2668.0	 -3000.0	  1311.1
     41.1463	  2588.0	  2617.6	 -3102.6	  1310.8
     41.1870	  2633.0	  2650.4	 -3090.4	  1310.5
     41.2278	  2740.0	  2723.2	 -3056.2	  1310.2
     41.2685	  2665.0	  2747.0	 -3155.0	  1309.8
     41.3092	  2621.0	  2689.6	 -3141.6	  1309.3
     41.3500	  2692.0	  2567.6	 -2948.6	  1308.8
     41.3908	  2526.0	  2429.3	 -2976.3	  1308.3
     41.4315	  2412.0	  2334.6	 -2995.6	  1307.8
     41.4723	  2446.0	  2321.5	 -2948.5	  1307.2
     41.5131	  2452.0	  2393.0	 -3014.0	  1306.6
     41.5539	  2569.0	  2509.7	 -3013.7	  1306.0
     41.5947	  2580.0	  2603.5	 -3096.5	  1305.3
     41.6355	  2643.0	  2622.9	 -3052.9	  1304.6
     41.6764	  2427.0	  2558.2	 -3204.2	  1303.9
     41.7172	  2340.0	  2429.9	 -3162.9	  1303.1
     41.7581	  2143.0	  2277.0	 -3207.0	  1302.3
     41.7989	  2009.0	  2138.3	 -3202.3	  1301.5
     41.8398	  2011.0	  2039.3	 -3101.3	  1300.7
     41.8806	  1994.0	  1992.8	 -3071.8	  1299.8
     41.9215	  2012.0	  2001.6	 -3062.6	  1298.9
     41.9624	  2088.0	  2047.4	 -3032.4	  1298.0
     42.0033	  2154.0	  2085.5	 -3004.5	  1297.0
     42.0442	  2019.0	  2079.6	 -3133.6	  1296.1
     42.0851	  2186.0	  2025.1	 -2912.1	  1295.1
     42.1260	  1934.0	  1936.4	 -3075.4	  1294.1
     42.1669	  1680.0	  1838.3	 -3231.3	  1293.1
     42.2079	  1705.0	  1754.5	 -3122.5	  1292.0
     42.2488	  1623.0	  1695.3	 -3145.3	  1291.0
     42.2898	  1598.0	  1659.9	 -3134.9	  1289.9
     42.3307	  1673.0	  1642.1	 -3042.1	  1288.8
     42.3717	  1539.0	  1635.2	 -3169.2	  1287.7
     42.4127	  1628.0	  1634.6	 -3079.6	  1286.6
     42.4537	  1667.0	  1637.9	 -3043.9	  1285.4
     42.4946	  1588.0	  1644.0	 -3129.0	  1284.3
     42.5356	  1696.0	  1653.1	 -3030.1	  1283.1
     42.5766	  1726.0	  1666.1	 -3013.1	  1281.9
     42.6177	  1723.0	  1684.3	 -3034.3	  1280.7
     42.6587	  1883.0	  1710.4	 -2900.4	  1279.5
     42.6997	  1830.0	  1745.3	 -2988.3	  1278.3
     42.7407	  1783.0	  1792.3	 -3082.3	  1277.1
     42.7818	  1852.0	  1854.2	 -3075.2	  1275.9
     42.8228	  1888.0	  1933.6	 -3118.6	  1274.6
     42.8639	  2026.0	  2036.3	 -3083.3	  1273.4
     42.9050	  2214.0	  2171.5	 -3030.5	  1272.1
     42.9460	  2448.0	  2352.1	 -2977.1	  1270.8
     42.9871	  2662.0	  2590.0	 -3001.0	  1269.6
     43.0282	  2984.0	  2894.0	 -2983.0	  1268.3
     43.0693	  3258.0	  3280.1	 -3095.1	  1267.0
     43.1104	  4018.0	  3792.8	 -2847.8	  1265.7
     43.1515	  4517.0	  4492.0	 -3048.0	  1264.5
     43.1926	  5183.0	  5344.3	 -3234.3	  1263.2
     43.2337	  5838.0	  6090.2	 -3325.2	  1261.9
     43.2749	  6452.0	  6390.0	 -3011.0	  1260.6
     43.3160	  5807.0	  6137.5	 -3403.5	  1259.3
     43.3571	  5098.0	  5431.0	 -3406.0	  1258.0
     43.3983	  4242.0	  4477.6	 -3308.6	  1256.7
     43.4395	  3295.0	  3530.4	 -3308.4	  1255.4
     43.4806	  2749.0	  2769.3	 -3093.3	  1254.2
     43.5218	  2338.0	  2244.7	 -2979.7	  1252.9
     43.5630	  2041.0	  1926.4	 -2958.4	  1251.6
     43.6041	  1949.0	  1755.1	 -2879.1	  1250.3
     43.6453	  1821.0	  1671.0	 -2923.0	  1249.0
     43.6865	  1714.0	  1632.8	 -2991.8	  1247.8
     43.7277	  1811.0	  1616.1	 -2878.1	  1246.5
     43.7690	  1610.0	  1608.1	 -3071.1	  1245.3
     43.8102	  1579.0	  1602.3	 -3096.3	  1244.0
     43.8514	  1593.0	  1596.0	 -3076.0	  1242.8
     43.8926	  1578.0	  1588.7	 -3083.7	  1241.5
     43.9339	  1586.0	  1580.5	 -3067.5	  1240.3
     43.9751	  1585.0	  1572.1	 -3060.1	  1239.1
     44.0163	  1544.0	  1564.0	 -3093.0	  1237.8
     44.0576	  1585.0	  1556.7	 -3044.7	  1236.6
     44.0989	  1538.0	  1550.6	 -3085.6	  1235.4
     44.1401	  1614.0	  1546.1	 -3005.1	  1234.3
     44.1814	  1539.0	  1543.2	 -3077.2	  1233.1
     44.2227	  1647.0	  1542.2	 -2968.2	  1231.9
     44.2640	  1570.0	  1543.2	 -3046.2	  1230.8
     44.3053	  1473.0	  1546.6	 -3146.6	  1229.6
     44.3466	  1603.0	  1552.4	 -3022.4	  1228.5
     44.3879	  1555.0	  1561.1	 -3079.1	  1227.4
     44.4292	  1575.0	  1573.5	 -3071.5	  1226.3
     44.4705	  1639.0	  1590.6	 -3024.6	  1225.2
     44.5118	  1635.0	  1613.5	 -3051.5	  1224.1
     44.5531	  1711.0	  1643.4	 -3005.4	  1223.1
     44.5945	  1699.0	  1681.4	 -3055.4	  1222.0
     44.6358	  1828.0	  1730.4	 -2975.4	  1221.0
     44.6771	  1702.0	  1795.6	 -3166.6	  1220.0
     44.7185	  1904.0	  1881.2	 -3050.2	  1219.0
     44.7598	  1933.0	  1979.9	 -3119.9	  1218.0
     44.8012	  1982.0	  2064.6	 -3155.6	  1217.0
     44.8426	  2109.0	  2102.7	 -3066.7	  1216.0
     44.8839	  2031.0	  2081.4	 -3123.4	  1215.1
     44.9253	  2050.0	  2008.3	 -3031.3	  1214.2
     44.9667	  1918.0	  1902.3	 -3057.3	  1213.3
     45.0081	  1729.0	  1789.0	 -3133.0	  1212.4
     45.0495	  1622.0	  1689.6	 -3140.6	  1211.5
     45.0909	  1590.0	  1614.5	 -3097.5	  1210.7
     45.1323	  1580.0	  1564.6	 -3057.6	  1209.9
     45.1737	  1570.0	  1535.7	 -3038.7	  1209.1
     45.2151	  1492.0	  1519.7	 -3100.7	  1208.3
     45.2565	  1568.0	  1517.4	 -3022.4	  1207.5
     45.2979	  1448.0	  1522.0	 -3147.0	  1206.8
     45.3394	  1534.0	  1528.5	 -3067.5	  1206.0
     45.3808	  1548.0	  1535.7	 -3060.7	  1205.3
     45.4222	  1555.0	  1539.3	 -3057.3	  1204.6
     45.4637	  1584.0	  1538.4	 -3027.4	  1204.0
     45.5051	  1524.0	  1533.8	 -3082.8	  1203.3
     45.5466	  1496.0	  1527.5	 -3104.5	  1202.7
     45.5880	  1543.0	  1522.0	 -3052.0	  1202.1
     45.6295	  1542.0	  1519.3	 -3050.3	  1201.5
     45.6709	  1542.0	  1520.1	 -3051.1	  1201.0
     45.7124	  1575.0	  1522.9	 -3020.9	  1200.4
     45.7539	  1531.0	  1525.0	 -3067.0	  1199.9
     45.7954	  1529.0	  1523.8	 -3067.8	  1199.4
     45.8369	  1478.0	  1519.1	 -3114.1	  1199.0
     45.8783	  1549.0	  1511.5	 -3035.5	  1198.5
     45.9198	  1496.0	  1502.6	 -3079.6	  1198.1
     45.9613	  1411.0	  1494.3	 -3156.3	  1197.7
     46.0028	  1318.0	  1488.0	 -3243.0	  1197.3
     46.0443	  1389.0	  1484.2	 -3168.2	  1197.0
     46.0858	  1491.0	  1483.2	 -3065.2	  1196.6
     46.1274	  1425.0	  1484.6	 -3132.6	  1196.3
     46.1689	  1448.0	  1488.3	 -3113.3	  1196.0
     46.2104	  1456.0	  1494.1	 -3111.1	  1195.8
     46.2519	  1414.0	  1502.2	 -3161.2	  1195.6
     46.2934	  1479.0	  1512.6	 -3106.6	  1195.3
     46.3350	  1457.0	  1526.7	 -3142.7	  1195.2
     46.3765	  1545.0	  1544.6	 -3072.6	  1195.0
     46.4181	  1555.0	  1567.9	 -3085.9	  1194.9
     46.4596	  1576.0	  1597.6	 -3094.6	  1194.7
     46.5011	  1492.0	  1635.1	 -3216.1	  1194.7
     46.5427	  1639.0	  1682.1	 -3116.1	  1194.6
     46.5843	  1723.0	  1740.7	 -3090.7	  1194.6
     46.6258	  1726.0	  1814.6	 -3161.6	  1194.5
     46.6674	  1895.0	  1909.7	 -3087.7	  1194.5
     46.7089	  2077.0	  2034.3	 -3030.3	  1194.6
     46.7505	  2173.0	  2198.1	 -3098.1	  1194.6
     46.7921	  2351.0	  2409.5	 -3131.5	  1194.7
     46.8337	  2706.0	  2677.3	 -3044.3	  1194.8
     46.8752	  3130.0	  3016.0	 -2959.0	  1195.0
     46.9168	  3540.0	  3449.3	 -2982.3	  1195.1
     46.9584	  4154.0	  3992.2	 -2911.2	  1195.3
     47.0000	  4631.0	  4597.0	 -3039.0	  1195.5
     47.0416	  4657.0	  5108.8	 -3524.8	  1195.7
     47.0832	  5587.0	  5342.8	 -2828.8	  1196.0
     47.1248	  5550.0	  5228.2	 -2751.2	  1196.2
     47.1664	  4845.0	  1390.5	   381.5	  1196.5
     47.2080	  4135.0	  1390.8	 -3073.0	  1196.9
     47.2496	  3566.0	  1391.1	 -3073.0	  1197.2
     47.2912	  2877.0	  1391.5	 -3073.0	  1197.6
     47.3328	  2554.0	  1391.9	 -3073.0	  1198.0
     47.3744	  2343.0	  1392.3	 -3073.0	  1198.4
     47.4160	  1992.0	  1392.8	 -3073.0	  1198.8
     47.4577	  1917.0	  1393.2	 -3073.0	  1199.3
     47.4993	  1931.0	  1393.7	 -3073.0	  1199.7
     47.5409	  1847.0	  1394.2	 -3073.0	  1200.3
     47.5826	  1727.0	  1394.7	 -3073.0	  1200.8
     47.6242	  1725.0	  1395.3	 -3073.0	  1201.3
     47.6658	  1761.0	  1395.8	 -3073.0	  1201.9
     47.7075	  1720.0	  1396.4	 -3073.0	  1202.5
     47.7491	  1754.0	  1397.0	 -3073.0	  1203.1
     47.7907	  1629.0	  1397.7	 -3073.0	  1203.7
     47.8324	  1622.0	  1398.3	 -3073.0	  1204.4
     47.8740	  1524.0	  1399.0	 -3073.0	  1205.1
     47.9157	  1623.0	  1399.7	 -3073.0	  1205.8
     47.9573	  1623.0	  1400.4	 -3073.0	  1206.5
     47.9990	  1646.0	  1401.2	 -3073.0	  1207.2
     48.0406	  1733.0	  1401.9	 -3073.0	  1208.0
     48.0823	  1896.0	  1402.7	 -3073.0	  1208.7
