S13 800C 10Kmin    CELL:    5.90166   5.90166  23.16197   90.0000   90.0000  120.0000   SPGR: P 63/m m c             TEMP:     35.00
  1    775     1.78919     1.79310     0.53181     0.00000    -0.83959    0
   70    0    2
      59.50000      63.70000
      47.20000      48.40000
 2Theta	Yobs	Ycal	Yobs-Ycal	Backg	Bragg	Posr	(hkl)	K
     34.2679	  1029.0	  1076.6	 -3071.6	   855.2	     35.3426	       0	(  1  1  0)	  0  1
     34.3065	  1120.0	  1086.0	 -2990.0	   860.1	     35.4213	       0	(  1  1  0)	  0  2
     34.3452	  1156.0	  1093.0	 -2961.0	   864.8	     36.0348	       0	(  0  0  8)	  0  1
     34.3839	  1052.0	  1101.1	 -3073.1	   869.2	     36.1152	       0	(  0  0  8)	  0  2
     34.4225	  1138.0	  1108.1	 -2994.1	   873.4	     36.4954	       0	(  1  1  2)	  0  1
     34.4613	  1177.0	  1115.3	 -2962.3	   877.4	     36.5770	       0	(  1  1  2)	  0  2
     34.5000	  1069.0	  1122.6	 -3077.6	   881.1	     37.5970	       0	(  1  0  7)	  0  1
     34.5387	  1196.0	  1130.1	 -2958.1	   884.8	     37.6812	       0	(  1  0  7)	  0  2
     34.5774	  1058.0	  1138.0	 -3104.0	   888.2	     39.7803	       0	(  1  1  4)	  0  1
     34.6162	  1164.0	  1146.4	 -3006.4	   891.5	     39.8699	       0	(  1  1  4)	  0  2
     34.6550	  1149.0	  1155.5	 -3030.5	   894.7	     40.9641	       0	(  2  0  0)	  0  1
     34.6938	  1180.0	  1165.5	 -3009.5	   897.8	     41.0566	       0	(  2  0  0)	  0  2
     34.7326	  1119.0	  1176.6	 -3081.6	   900.8	     41.2212	       0	(  2  0  1)	  0  1
     34.7714	  1222.0	  1189.7	 -2991.7	   903.7	     41.3144	       0	(  2  0  1)	  0  2
     34.8102	  1233.0	  1205.6	 -2996.6	   906.5	     41.5759	       0	(  1  0  8)	  0  1
     34.8491	  1197.0	  1226.1	 -3053.1	   909.3	     41.6700	       0	(  1  0  8)	  0  2
     34.8880	  1282.0	  1254.0	 -2996.0	   912.0	     41.9847	       0	(  2  0  2)	  0  1
     34.9268	  1265.0	  1293.3	 -3052.3	   914.6	     42.0798	       0	(  2  0  2)	  0  2
     34.9657	  1321.0	  1348.7	 -3051.7	   917.3	     43.2328	       0	(  2  0  3)	  0  1
     35.0046	  1428.0	  1425.4	 -3021.4	   919.9	     43.3311	       0	(  2  0  3)	  0  2
     35.0435	  1557.0	  1529.9	 -2996.9	   922.5	     44.8045	       0	(  1  1  6)	  0  1
     35.0825	  1643.0	  1674.7	 -3055.7	   925.1	     44.9068	       0	(  1  1  6)	  0  2
     35.1214	  1858.0	  1883.5	 -3049.5	   927.6	     44.9331	       0	(  2  0  4)	  0  1
     35.1604	  2154.0	  2175.1	 -3045.1	   930.2	     45.0358	       0	(  2  0  4)	  0  2
     35.1994	  2533.0	  2539.4	 -3030.4	   932.8	     45.3744	       0	(  0  0 10)	  0  1
     35.2384	  3023.0	  2990.2	 -2991.2	   935.4	     45.4782	       0	(  0  0 10)	  0  2
     35.2774	  3823.0	  3698.4	 -2899.4	   938.1	     45.7382	       0	(  1  0  9)	  0  1
     35.3164	  4837.0	  4834.2	 -3021.2	   940.7	     45.8430	       0	(  1  0  9)	  0  2
     35.3554	  5942.0	  5968.3	 -3050.3	   943.4	     47.0480	       0	(  2  0  5)	  0  1
     35.3945	  6367.0	  6298.0	 -2955.0	   946.2	     47.1562	       0	(  2  0  5)	  0  2
     35.4335	  5491.0	  5672.5	 -3205.5	   948.9	     49.5387	       0	(  2  0  6)	  0  1
     35.4726	  4370.0	  4437.6	 -3091.6	   951.8	     49.6535	       0	(  2  0  6)	  0  2
     35.5117	  3129.0	  3146.9	 -3041.9	   954.6	     50.0674	       0	(  1  0 10)	  0  1
     35.5508	  2196.0	  2208.1	 -3036.1	   957.5	     50.1835	       0	(  1  0 10)	  0  2
     35.5899	  1760.0	  1700.8	 -2964.8	   960.5	     51.1773	       0	(  1  1  8)	  0  1
     35.6290	  1638.0	  1502.6	 -2888.6	   963.5	     51.2965	       0	(  1  1  8)	  0  2
     35.6682	  1453.0	  1462.6	 -3033.6	   966.6	     52.3692	       0	(  2  0  7)	  0  1
     35.7073	  1581.0	  1485.8	 -2928.8	   969.7	     52.4917	       0	(  2  0  7)	  0  2
     35.7465	  1502.0	  1529.6	 -3051.6	   972.9	     54.5563	       0	(  1  0 11)	  0  1
     35.7857	  1486.0	  1577.3	 -3115.3	   976.1	     54.6848	       0	(  1  0 11)	  0  2
     35.8249	  1602.0	  1624.2	 -3046.2	   979.4	     55.0167	       0	(  2  1  0)	  0  1
     35.8641	  1616.0	  1673.5	 -3081.5	   982.8	     55.0661	       0	(  0  0 12)	  0  1
     35.9033	  1740.0	  1738.4	 -3022.4	   986.2	     55.1465	       0	(  2  1  0)	  0  2
     35.9426	  1854.0	  1841.0	 -3011.0	   989.6	     55.1961	       0	(  0  0 12)	  0  2
     35.9818	  1963.0	  1998.1	 -3059.1	   993.2	     55.2229	       0	(  2  1  1)	  0  1
     36.0211	  2173.0	  2189.5	 -3040.5	   996.8	     55.3533	       0	(  2  1  1)	  0  2
     36.0603	  2385.0	  2346.7	 -2985.7	  1000.4	     55.5084	       0	(  2  0  8)	  0  1
     36.0996	  2456.0	  2402.6	 -2970.6	  1004.1	     55.6396	       0	(  2  0  8)	  0  2
     36.1389	  2256.0	  2339.8	 -3107.8	  1007.9	     55.8387	       0	(  2  1  2)	  0  1
     36.1783	  2072.0	  2187.6	 -3139.6	  1011.7	     55.9708	       0	(  2  1  2)	  0  2
     36.2176	  2054.0	  2002.6	 -2972.6	  1015.6	     56.8552	       0	(  2  1  3)	  0  1
     36.2569	  1842.0	  1838.9	 -3020.9	  1019.5	     56.9902	       0	(  2  1  3)	  0  2
     36.2963	  1796.0	  1726.1	 -2954.1	  1023.4	     58.2593	       0	(  2  1  4)	  0  1
     36.3357	  1680.0	  1669.2	 -3013.2	  1027.5	     58.3983	       0	(  2  1  4)	  0  2
     36.3750	  1737.0	  1664.0	 -2951.0	  1031.5	     58.6271	       0	(  1  1 10)	  0  1
     36.4144	  1814.0	  1715.3	 -2925.3	  1035.6	     58.7672	       0	(  1  1 10)	  0  2
     36.4539	  1879.0	  1832.2	 -2977.2	  1039.8	     58.9314	       0	(  2  0  9)	  0  1
     36.4933	  2009.0	  1982.0	 -2997.0	  1044.0	     59.0724	       0	(  2  0  9)	  0  2
     36.5327	  2062.0	  2077.6	 -3039.6	  1048.2	     59.2055	       0	(  1  0 12)	  0  1
     36.5722	  1916.0	  2066.2	 -3174.2	  1052.5	     59.3473	       0	(  1  0 12)	  0  2
     36.6116	  1840.0	  1959.5	 -3143.5	  1056.8	     63.8891	       0	(  3  0  2)	  0  1
     36.6511	  1671.0	  1806.5	 -3159.5	  1061.2	     64.0216	       0	(  1  0 13)	  0  1
     36.6906	  1688.0	  1666.4	 -3002.4	  1065.6	     64.0450	       0	(  3  0  2)	  0  2
     36.7301	  1624.0	  1571.9	 -2971.9	  1070.0	     64.1779	       0	(  1  0 13)	  0  2
     36.7696	  1670.0	  1525.5	 -2879.5	  1074.4	     64.6280	       0	(  2  1  7)	  0  1
     36.8091	  1558.0	  1514.6	 -2980.6	  1078.9	     64.7862	       0	(  2  1  7)	  0  2
     36.8487	  1625.0	  1525.7	 -2924.7	  1083.4	     64.8295	       0	(  3  0  3)	  0  1
     36.8882	  1635.0	  1550.5	 -2939.5	  1087.9	     64.9883	       0	(  3  0  3)	  0  2
     36.9278	  1681.0	  1586.0	 -2929.0	  1092.4	     65.2345	       0	(  0  0 14)	  0  1
     36.9674	  1673.0	  1632.7	 -2983.7	  1097.0	     65.3945	       0	(  0  0 14)	  0  2
     37.0070	  1684.0	  1693.1	 -3033.1	  1101.5
     37.0466	  1801.0	  1770.6	 -2993.6	  1106.1
     37.0862	  1692.0	  1869.2	 -3201.2	  1110.6
     37.1258	  1918.0	  1992.2	 -3098.2	  1115.2
     37.1654	  1935.0	  2142.2	 -3231.2	  1119.8
     37.2051	  2086.0	  2321.5	 -3259.5	  1124.4
     37.2448	  2262.0	  2533.4	 -3295.4	  1129.0
     37.2844	  2409.0	  2782.4	 -3397.4	  1133.5
     37.3241	  2704.0	  3071.5	 -3391.5	  1138.1
     37.3638	  3242.0	  3399.7	 -3181.7	  1142.7
     37.4035	  3724.0	  3770.8	 -3070.8	  1147.2
     37.4433	  4528.0	  4223.4	 -2719.4	  1151.8
     37.4830	  5074.0	  4863.6	 -2813.6	  1156.3
     37.5228	  6079.0	  5835.4	 -2780.4	  1160.8
     37.5625	  7377.0	  7143.4	 -2790.4	  1165.3
     37.6023	  8429.0	  8436.9	 -3031.9	  1169.8
     37.6421	  9062.0	  9152.2	 -3114.2	  1174.2
     37.6819	  8583.0	  8984.0	 -3425.0	  1178.6
     37.7217	  7689.0	  7999.5	 -3334.5	  1183.0
     37.7615	  6240.0	  6532.4	 -3316.4	  1187.4
     37.8014	  4703.0	  5009.9	 -3330.9	  1191.7
     37.8412	  3575.0	  3735.5	 -3184.5	  1196.0
     37.8811	  2952.0	  2821.6	 -2893.6	  1200.2
     37.9210	  2620.0	  2243.6	 -2647.6	  1204.5
     37.9608	  2283.0	  1917.5	 -2658.5	  1208.6
     38.0007	  2054.0	  1754.6	 -2724.6	  1212.8
     38.0406	  2009.0	  1686.4	 -2701.4	  1216.9
     38.0806	  1967.0	  1667.5	 -2724.5	  1220.9
     38.1205	  1937.0	  1670.6	 -2757.6	  1224.9
     38.1604	  1808.0	  1680.5	 -2896.5	  1228.9
     38.2004	  1832.0	  1689.2	 -2881.2	  1232.8
     38.2404	  1808.0	  1693.7	 -2909.7	  1236.7
     38.2803	  1693.0	  1693.7	 -3024.7	  1240.5
     38.3203	  1727.0	  1690.1	 -2987.1	  1244.2
     38.3603	  1732.0	  1684.5	 -2976.5	  1247.9
     38.4003	  1733.0	  1677.9	 -2968.9	  1251.6
     38.4404	  1659.0	  1671.4	 -3036.4	  1255.2
     38.4804	  1672.0	  1665.8	 -3017.8	  1258.7
     38.5205	  1787.0	  1661.3	 -2898.3	  1262.2
     38.5605	  1754.0	  1658.2	 -2928.2	  1265.6
     38.6006	  1817.0	  1656.5	 -2863.5	  1269.0
     38.6407	  1762.0	  1656.2	 -2918.2	  1272.3
     38.6808	  1799.0	  1657.3	 -2882.3	  1275.5
     38.7209	  1733.0	  1659.9	 -2950.9	  1278.7
     38.7610	  1661.0	  1663.8	 -3026.8	  1281.8
     38.8011	  1687.0	  1669.1	 -3006.1	  1284.9
     38.8412	  1533.0	  1675.9	 -3166.9	  1287.9
     38.8814	  1578.0	  1684.4	 -3130.4	  1290.8
     38.9215	  1526.0	  1694.7	 -3192.7	  1293.7
     38.9617	  1532.0	  1707.2	 -3199.2	  1296.5
     39.0019	  1700.0	  1722.5	 -3046.5	  1299.2
     39.0421	  1604.0	  1741.3	 -3161.3	  1301.9
     39.0823	  1735.0	  1765.2	 -3054.2	  1304.4
     39.1225	  1665.0	  1796.0	 -3155.0	  1307.0
     39.1627	  1657.0	  1836.6	 -3203.6	  1309.4
     39.2030	  1679.0	  1890.9	 -3235.9	  1311.8
     39.2432	  1736.0	  1963.6	 -3251.6	  1314.2
     39.2835	  1909.0	  2060.0	 -3175.0	  1316.4
     39.3237	  1908.0	  2185.4	 -3301.4	  1318.6
     39.3640	  2063.0	  2345.4	 -3306.4	  1320.8
     39.4043	  2261.0	  2547.5	 -3310.5	  1322.8
     39.4446	  2489.0	  2804.6	 -3339.6	  1324.8
     39.4849	  2793.0	  3137.4	 -3368.4	  1326.7
     39.5252	  3349.0	  3566.1	 -3241.1	  1328.6
     39.5656	  3768.0	  4102.7	 -3358.7	  1330.4
     39.6059	  4700.0	  4754.5	 -3078.5	  1332.1
     39.6463	  5846.0	  5583.1	 -2761.1	  1333.8
     39.6866	  6892.0	  6747.4	 -2879.4	  1335.4
     39.7270	  8640.0	  8384.5	 -2768.5	  1336.9
     39.7674	 10308.0	 10249.7	 -2965.7	  1338.4
     39.8078	 12096.0	 11575.2	 -2503.2	  1339.8
     39.8482	 11995.0	 11728.1	 -2757.1	  1341.1
     39.8886	 10922.0	 10665.4	 -2767.4	  1342.4
     39.9290	  8911.0	  8755.9	 -2868.9	  1343.6
     39.9695	  6666.0	  6609.9	 -2967.9	  1344.8
     40.0099	  4796.0	  4756.6	 -2984.6	  1345.9
     40.0504	  3632.0	  3428.8	 -2820.8	  1346.9
     40.0908	  2847.0	  2611.4	 -2788.4	  1347.9
     40.1313	  2703.0	  2170.9	 -2491.9	  1348.8
     40.1718	  2308.0	  1961.9	 -2677.9	  1349.6
     40.2123	  2140.0	  1876.2	 -2760.2	  1350.4
     40.2528	  2036.0	  1848.6	 -2836.6	  1351.2
     40.2933	  1967.0	  1843.9	 -2900.9	  1351.8
     40.3338	  1936.0	  1845.0	 -2933.0	  1352.5
     40.3744	  1880.0	  1844.3	 -2988.3	  1353.0
     40.4149	  1847.0	  1840.1	 -3017.1	  1353.5
     40.4555	  1763.0	  1833.2	 -3094.2	  1354.0
     40.4960	  1825.0	  1825.6	 -3024.6	  1354.4
     40.5366	  1717.0	  1820.2	 -3127.2	  1354.8
     40.5772	  1769.0	  1817.4	 -3072.4	  1355.1
     40.6178	  1760.0	  1820.4	 -3084.4	  1355.3
     40.6584	  1760.0	  1831.3	 -3095.3	  1355.5
     40.6990	  1826.0	  1855.1	 -3053.1	  1355.6
     40.7396	  1865.0	  1897.0	 -3056.0	  1355.7
     40.7802	  1923.0	  1959.6	 -3060.6	  1355.8
     40.8209	  1976.0	  2044.4	 -3092.4	  1355.8
     40.8615	  2209.0	  2161.0	 -2976.0	  1355.8
     40.9022	  2379.0	  2327.8	 -2972.8	  1355.7
     40.9428	  2558.0	  2538.2	 -3004.2	  1355.6
     40.9835	  2728.0	  2721.6	 -3017.6	  1355.4
     41.0242	  2808.0	  2802.5	 -3018.5	  1355.2
     41.0649	  2794.0	  2776.9	 -3006.9	  1354.9
     41.1056	  2741.0	  2692.3	 -2975.3	  1354.6
     41.1463	  2594.0	  2626.6	 -3056.6	  1354.3
     41.1870	  2628.0	  2636.4	 -3032.4	  1353.9
     41.2278	  2593.0	  2695.1	 -3126.1	  1353.5
     41.2685	  2748.0	  2722.2	 -2998.2	  1353.0
     41.3092	  2638.0	  2674.8	 -3060.8	  1352.6
     41.3500	  2654.0	  2561.1	 -2931.1	  1352.0
     41.3908	  2425.0	  2423.5	 -3022.5	  1351.5
     41.4315	  2423.0	  2318.7	 -2919.7	  1350.9
     41.4723	  2480.0	  2286.4	 -2830.4	  1350.3
     41.5131	  2438.0	  2335.1	 -2921.1	  1349.6
     41.5539	  2490.0	  2436.7	 -2970.7	  1348.9
     41.5947	  2558.0	  2532.3	 -2998.3	  1348.2
     41.6355	  2506.0	  2568.2	 -3086.2	  1347.5
     41.6764	  2293.0	  2526.0	 -3257.0	  1346.7
     41.7172	  2273.0	  2418.3	 -3169.3	  1345.9
     41.7581	  2273.0	  2277.5	 -3028.5	  1345.1
     41.7989	  2101.0	  2141.1	 -3064.1	  1344.3
     41.8398	  2010.0	  2036.2	 -3050.2	  1343.4
     41.8806	  1969.0	  1977.4	 -3032.4	  1342.5
     41.9215	  1955.0	  1968.1	 -3037.1	  1341.6
     41.9624	  2026.0	  1995.4	 -2993.4	  1340.6
     42.0033	  2107.0	  2025.0	 -2942.0	  1339.7
     42.0442	  2022.0	  2023.5	 -3025.5	  1338.7
     42.0851	  2077.0	  1982.9	 -2929.9	  1337.7
     42.1260	  1825.0	  1911.6	 -3110.6	  1336.6
     42.1669	  1700.0	  1829.6	 -3153.6	  1335.6
     42.2079	  1676.0	  1756.9	 -3104.9	  1334.5
     42.2488	  1747.0	  1704.0	 -2981.0	  1333.5
     42.2898	  1708.0	  1671.5	 -2987.5	  1332.4
     42.3307	  1612.0	  1654.8	 -3066.8	  1331.3
     42.3717	  1575.0	  1648.1	 -3097.1	  1330.1
     42.4127	  1568.0	  1647.1	 -3103.1	  1329.0
     42.4537	  1616.0	  1649.7	 -3057.7	  1327.8
     42.4946	  1670.0	  1654.9	 -3008.9	  1326.7
     42.5356	  1755.0	  1663.3	 -2932.3	  1325.5
     42.5766	  1702.0	  1674.5	 -2996.5	  1324.3
     42.6177	  1707.0	  1690.7	 -3007.7	  1323.1
     42.6587	  1806.0	  1712.7	 -2930.7	  1321.9
     42.6997	  1787.0	  1742.8	 -2979.8	  1320.7
     42.7407	  1716.0	  1783.2	 -3091.2	  1319.5
     42.7818	  1793.0	  1836.3	 -3067.3	  1318.2
     42.8228	  1893.0	  1905.4	 -3036.4	  1317.0
     42.8639	  2001.0	  1997.0	 -3020.0	  1315.7
     42.9050	  2158.0	  2121.9	 -2987.9	  1314.5
     42.9460	  2394.0	  2295.2	 -2925.2	  1313.2
     42.9871	  2511.0	  2530.7	 -3043.7	  1311.9
     43.0282	  2991.0	  2836.4	 -2869.4	  1310.7
     43.0693	  3297.0	  3223.2	 -2950.2	  1309.4
     43.1104	  3938.0	  3725.5	 -2811.5	  1308.1
     43.1515	  4430.0	  4395.4	 -2989.4	  1306.8
     43.1926	  5155.0	  5215.6	 -3084.6	  1305.5
     43.2337	  5703.0	  5974.2	 -3295.2	  1304.2
     43.2749	  6296.0	  6348.4	 -3076.4	  1302.9
     43.3160	  6010.0	  6188.8	 -3202.8	  1301.6
     43.3571	  5237.0	  5557.7	 -3344.7	  1300.3
     43.3983	  4360.0	  4641.5	 -3305.5	  1299.0
     43.4395	  3522.0	  3690.4	 -3192.4	  1297.8
     43.4806	  2864.0	  2895.7	 -3055.7	  1296.5
     43.5218	  2340.0	  2329.3	 -3013.3	  1295.2
     43.5630	  2072.0	  1980.0	 -2932.0	  1293.9
     43.6041	  1955.0	  1786.7	 -2855.7	  1292.6
     43.6453	  1845.0	  1690.9	 -2869.9	  1291.3
     43.6865	  1742.0	  1646.8	 -2928.8	  1290.0
     43.7277	  1766.0	  1627.5	 -2885.5	  1288.7
     43.7690	  1613.0	  1618.6	 -3029.6	  1287.4
     43.8102	  1670.0	  1613.2	 -2967.2	  1286.1
     43.8514	  1716.0	  1607.9	 -2915.9	  1284.8
     43.8926	  1531.0	  1601.9	 -3094.9	  1283.6
     43.9339	  1692.0	  1595.0	 -2927.0	  1282.3
     43.9751	  1610.0	  1587.7	 -3001.7	  1281.0
     44.0163	  1587.0	  1580.6	 -3017.6	  1279.7
     44.0576	  1590.0	  1574.0	 -3008.0	  1278.5
     44.0989	  1550.0	  1568.3	 -3042.3	  1277.2
     44.1401	  1530.0	  1563.8	 -3057.8	  1276.0
     44.1814	  1512.0	  1560.7	 -3072.7	  1274.7
     44.2227	  1606.0	  1559.2	 -2977.2	  1273.5
     44.2640	  1631.0	  1559.4	 -2952.4	  1272.3
     44.3053	  1493.0	  1561.5	 -3092.5	  1271.1
     44.3466	  1564.0	  1565.7	 -3025.7	  1269.8
     44.3879	  1521.0	  1572.5	 -3075.5	  1268.6
     44.4292	  1612.0	  1582.6	 -2994.6	  1267.4
     44.4705	  1581.0	  1597.3	 -3040.3	  1266.2
     44.5118	  1624.0	  1617.7	 -3017.7	  1265.0
     44.5531	  1634.0	  1644.8	 -3034.8	  1263.9
     44.5945	  1667.0	  1679.6	 -3036.6	  1262.7
     44.6358	  1763.0	  1723.9	 -2984.9	  1261.5
     44.6771	  1799.0	  1781.7	 -3006.7	  1260.4
     44.7185	  1772.0	  1856.6	 -3108.6	  1259.2
     44.7598	  1926.0	  1944.5	 -3042.5	  1258.1
     44.8012	  2016.0	  2025.3	 -3033.3	  1257.0
     44.8426	  2181.0	  2069.7	 -2912.7	  1255.9
     44.8839	  2065.0	  2061.7	 -3020.7	  1254.8
     44.9253	  1969.0	  2004.1	 -3059.1	  1253.7
     44.9667	  1941.0	  1911.6	 -2994.6	  1252.6
     45.0081	  1858.0	  1806.7	 -2972.7	  1251.5
     45.0495	  1669.0	  1710.3	 -3065.3	  1250.5
     45.0909	  1557.0	  1634.3	 -3101.3	  1249.4
     45.1323	  1584.0	  1581.7	 -3021.7	  1248.4
     45.1737	  1588.0	  1549.4	 -2985.4	  1247.3
     45.2151	  1554.0	  1532.5	 -3002.5	  1246.3
     45.2565	  1488.0	  1526.1	 -3062.1	  1245.3
     45.2979	  1527.0	  1524.1	 -3021.1	  1244.3
     45.3394	  1533.0	  1528.3	 -3019.3	  1243.3
     45.3808	  1489.0	  1533.4	 -3068.4	  1242.4
     45.4222	  1591.0	  1535.8	 -2968.8	  1241.4
     45.4637	  1523.0	  1536.9	 -3037.9	  1240.5
     45.5051	  1578.0	  1535.6	 -2981.6	  1239.5
     45.5466	  1469.0	  1533.0	 -3088.0	  1238.6
     45.5880	  1607.0	  1530.8	 -2947.8	  1237.7
     45.6295	  1499.0	  1530.5	 -3055.5	  1236.8
     45.6709	  1516.0	  1532.9	 -3040.9	  1235.9
     45.7124	  1569.0	  1537.1	 -2992.1	  1235.1
     45.7539	  1584.0	  1540.7	 -2980.7	  1234.2
     45.7954	  1497.0	  1541.3	 -3068.3	  1233.4
     45.8369	  1539.0	  1538.0	 -3023.0	  1232.6
     45.8783	  1624.0	  1531.1	 -2931.1	  1231.8
     45.9198	  1523.0	  1522.0	 -3023.0	  1231.0
     45.9613	  1472.0	  1512.9	 -3064.9	  1230.2
     46.0028	  1426.0	  1505.3	 -3103.3	  1229.4
     46.0443	  1386.0	  1500.1	 -3138.1	  1228.7
     46.0858	  1418.0	  1497.5	 -3103.5	  1228.0
     46.1274	  1442.0	  1497.6	 -3079.6	  1227.2
     46.1689	  1444.0	  1500.1	 -3080.1	  1226.5
     46.2104	  1527.0	  1504.6	 -3001.6	  1225.9
     46.2519	  1411.0	  1511.3	 -3124.3	  1225.2
     46.2934	  1453.0	  1520.5	 -3091.5	  1224.5
     46.3350	  1495.0	  1532.6	 -3061.6	  1223.9
     46.3765	  1529.0	  1548.2	 -3043.2	  1223.3
     46.4181	  1528.0	  1568.6	 -3064.6	  1222.7
     46.4596	  1491.0	  1594.7	 -3127.7	  1222.1
     46.5011	  1513.0	  1627.8	 -3138.8	  1221.6
     46.5427	  1631.0	  1669.4	 -3062.4	  1221.0
     46.5843	  1771.0	  1721.8	 -2974.8	  1220.5
     46.6258	  1819.0	  1789.1	 -2994.1	  1220.0
     46.6674	  1853.0	  1878.0	 -3049.0	  1219.5
     46.7089	  1961.0	  1998.1	 -3061.1	  1219.0
     46.7505	  2207.0	  2159.7	 -2976.7	  1218.6
     46.7921	  2370.0	  2371.8	 -3025.8	  1218.1
     46.8337	  2601.0	  2641.8	 -3064.8	  1217.7
     46.8752	  2958.0	  2980.4	 -3046.4	  1217.3
     46.9168	  3503.0	  3406.7	 -2927.7	  1216.9
     46.9584	  3964.0	  3935.1	 -2995.1	  1216.6
     47.0000	  4593.0	  4531.9	 -2962.9	  1216.2
     47.0416	  4846.0	  5069.0	 -3247.0	  1215.9
     47.0832	  5447.0	  5367.4	 -2944.4	  1215.6
     47.1248	  5742.0	  5328.8	 -2610.8	  1215.3
     47.1664	  4873.0	  1399.1	   449.9	  1215.1
     47.2080	  4311.0	  1398.9	 -3024.0	  1214.8
     47.2496	  3758.0	  1398.7	 -3024.0	  1214.6
     47.2912	  3076.0	  1398.5	 -3024.0	  1214.4
     47.3328	  2693.0	  1398.3	 -3024.0	  1214.2
     47.3744	  2364.0	  1398.2	 -3024.0	  1214.1
     47.4160	  2017.0	  1398.0	 -3024.0	  1213.9
     47.4577	  1855.0	  1397.9	 -3024.0	  1213.8
     47.4993	  1827.0	  1397.8	 -3024.0	  1213.7
     47.5409	  1820.0	  1397.7	 -3024.0	  1213.7
     47.5826	  1718.0	  1397.7	 -3024.0	  1213.6
     47.6242	  1718.0	  1397.7	 -3024.0	  1213.6
     47.6658	  1750.0	  1397.6	 -3024.0	  1213.6
     47.7075	  1712.0	  1397.7	 -3024.0	  1213.6
     47.7491	  1697.0	  1397.7	 -3024.0	  1213.6
     47.7907	  1677.0	  1397.8	 -3024.0	  1213.7
     47.8324	  1577.0	  1397.8	 -3024.0	  1213.8
     47.8740	  1652.0	  1397.9	 -3024.0	  1213.9
     47.9157	  1536.0	  1398.1	 -3024.0	  1214.0
     47.9573	  1590.0	  1398.2	 -3024.0	  1214.1
     47.9990	  1628.0	  1398.4	 -3024.0	  1214.3
     48.0406	  1798.0	  1398.6	 -3024.0	  1214.5
     48.0823	  1803.0	  1398.8	 -3024.0	  1214.7
