S13 800C 10Kmin    CELL:    5.90297   5.90297  23.16786   90.0000   90.0000  120.0000   SPGR: P 63/m m c             TEMP:     36.00
  1    775     1.78919     1.79310     0.54364     0.00000    -0.83959    0
   70    0    2
      59.50000      63.70000
      47.20000      48.40000
 2Theta	Yobs	Ycal	Yobs-Ycal	Backg	Bragg	Posr	(hkl)	K
     34.2679	  1031.0	  1117.0	 -3127.8	   878.7	     35.3465	       0	(  1  1  0)	  0  1
     34.3065	  1079.0	  1114.6	 -3077.3	   873.8	     35.4252	       0	(  1  1  0)	  0  2
     34.3452	  1211.0	  1112.8	 -2943.5	   869.4	     36.0373	       0	(  0  0  8)	  0  1
     34.3839	  1085.0	  1114.5	 -3071.2	   865.5	     36.1177	       0	(  0  0  8)	  0  2
     34.4225	  1147.0	  1114.2	 -3009.0	   862.0	     36.4990	       0	(  1  1  2)	  0  1
     34.4613	  1176.0	  1116.1	 -2981.8	   858.9	     36.5805	       0	(  1  1  2)	  0  2
     34.5000	  1101.0	  1117.4	 -3058.2	   856.2	     37.5994	       0	(  1  0  7)	  0  1
     34.5387	  1131.0	  1119.7	 -3030.4	   853.9	     37.6836	       0	(  1  0  7)	  0  2
     34.5774	  1135.0	  1122.9	 -3029.6	   851.9	     39.7828	       0	(  1  1  4)	  0  1
     34.6162	  1071.0	  1127.2	 -3098.0	   850.3	     39.8724	       0	(  1  1  4)	  0  2
     34.6550	  1155.0	  1132.7	 -3019.5	   849.1	     40.9666	       0	(  2  0  0)	  0  1
     34.6938	  1157.0	  1139.7	 -3024.5	   848.2	     41.0591	       0	(  2  0  0)	  0  2
     34.7326	  1143.0	  1148.6	 -3047.3	   847.6	     41.2236	       0	(  2  0  1)	  0  1
     34.7714	  1199.0	  1159.8	 -3002.5	   847.3	     41.3168	       0	(  2  0  1)	  0  2
     34.8102	  1185.0	  1174.5	 -3031.3	   847.3	     41.5772	       0	(  1  0  8)	  0  1
     34.8491	  1208.0	  1194.6	 -3028.3	   847.6	     41.6713	       0	(  1  0  8)	  0  2
     34.8880	  1198.0	  1223.1	 -3066.9	   848.1	     41.9869	       0	(  2  0  2)	  0  1
     34.9268	  1217.0	  1264.6	 -3089.4	   848.9	     42.0820	       0	(  2  0  2)	  0  2
     34.9657	  1375.0	  1325.0	 -2991.7	   850.0	     43.2346	       0	(  2  0  3)	  0  1
     35.0046	  1458.0	  1410.4	 -2994.2	   851.3	     43.3328	       0	(  2  0  3)	  0  2
     35.0435	  1581.0	  1527.2	 -2988.0	   852.8	     44.8054	       0	(  1  1  6)	  0  1
     35.0825	  1716.0	  1683.9	 -3009.7	   854.6	     44.9077	       0	(  1  1  6)	  0  2
     35.1214	  1762.0	  1896.6	 -3176.4	   856.5	     44.9344	       0	(  2  0  4)	  0  1
     35.1604	  2126.0	  2181.1	 -3096.8	   858.7	     45.0370	       0	(  2  0  4)	  0  2
     35.1994	  2512.0	  2530.5	 -3060.3	   861.1	     45.3742	       0	(  0  0 10)	  0  1
     35.2384	  3044.0	  2955.4	 -2953.2	   863.6	     45.4780	       0	(  0  0 10)	  0  2
     35.2774	  3788.0	  3626.8	 -2880.5	   866.3	     45.7383	       0	(  1  0  9)	  0  1
     35.3164	  4747.0	  4770.7	 -3065.5	   869.2	     45.8430	       0	(  1  0  9)	  0  2
     35.3554	  6036.0	  6006.7	 -3012.4	   872.2	     47.0486	       0	(  2  0  5)	  0  1
     35.3945	  6390.0	  6430.3	 -3082.1	   875.4	     47.1567	       0	(  2  0  5)	  0  2
     35.4335	  5735.0	  5848.3	 -3155.0	   878.7	     49.5385	       0	(  2  0  6)	  0  1
     35.4726	  4513.0	  4602.3	 -3131.0	   882.2	     49.6532	       0	(  2  0  6)	  0  2
     35.5117	  3070.0	  3255.4	 -3227.1	   885.8	     50.0661	       0	(  1  0 10)	  0  1
     35.5508	  2217.0	  2258.0	 -3082.7	   889.5	     50.1822	       0	(  1  0 10)	  0  2
     35.5899	  1758.0	  1711.4	 -2995.1	   893.3	     51.1762	       0	(  1  1  8)	  0  1
     35.6290	  1702.0	  1494.9	 -2834.6	   897.2	     51.2954	       0	(  1  1  8)	  0  2
     35.6682	  1424.0	  1451.0	 -3068.7	   901.2	     52.3681	       0	(  2  0  7)	  0  1
     35.7073	  1459.0	  1477.2	 -3059.9	   905.4	     52.4905	       0	(  2  0  7)	  0  2
     35.7465	  1481.0	  1525.2	 -3086.0	   909.6	     54.5536	       0	(  1  0 11)	  0  1
     35.7857	  1529.0	  1575.9	 -3088.6	   913.9	     54.6820	       0	(  1  0 11)	  0  2
     35.8249	  1569.0	  1623.6	 -3096.4	   918.3	     55.0154	       0	(  2  1  0)	  0  1
     35.8641	  1638.0	  1672.3	 -3076.0	   922.7	     55.0630	       0	(  0  0 12)	  0  1
     35.9033	  1729.0	  1736.2	 -3049.0	   927.2	     55.1452	       0	(  2  1  0)	  0  2
     35.9426	  1869.0	  1839.8	 -3012.6	   931.8	     55.1929	       0	(  0  0 12)	  0  2
     35.9818	  2001.0	  2003.3	 -3044.0	   936.4	     55.2216	       0	(  2  1  1)	  0  1
     36.0211	  2231.0	  2208.5	 -3019.3	   941.1	     55.3519	       0	(  2  1  1)	  0  2
     36.0603	  2435.0	  2382.2	 -2988.9	   945.8	     55.5062	       0	(  2  0  8)	  0  1
     36.0996	  2467.0	  2449.4	 -3024.1	   950.6	     55.6373	       0	(  2  0  8)	  0  2
     36.1389	  2337.0	  2389.4	 -3094.1	   955.4	     55.8371	       0	(  2  1  2)	  0  1
     36.1783	  2154.0	  2232.1	 -3119.8	   960.3	     55.9692	       0	(  2  1  2)	  0  2
     36.2176	  1967.0	  2037.1	 -3111.8	   965.2	     56.8533	       0	(  2  1  3)	  0  1
     36.2569	  1899.0	  1861.9	 -3004.7	   970.1	     56.9883	       0	(  2  1  3)	  0  2
     36.2963	  1796.0	  1738.4	 -2984.2	   975.0	     58.2569	       0	(  2  1  4)	  0  1
     36.3357	  1670.0	  1672.7	 -3044.5	   980.0	     58.3959	       0	(  2  1  4)	  0  2
     36.3750	  1737.0	  1660.6	 -2965.4	   984.9	     58.6235	       0	(  1  1 10)	  0  1
     36.4144	  1747.0	  1707.3	 -3002.1	   989.9	     58.7636	       0	(  1  1 10)	  0  2
     36.4539	  1834.0	  1825.9	 -3033.7	   994.9	     58.9280	       0	(  2  0  9)	  0  1
     36.4933	  2149.0	  1988.2	 -2880.9	   999.9	     59.0690	       0	(  2  0  9)	  0  2
     36.5327	  2050.0	  2098.6	 -3090.4	  1004.9	     59.2012	       0	(  1  0 12)	  0  1
     36.5722	  1935.0	  2094.7	 -3201.5	  1009.9	     59.3430	       0	(  1  0 12)	  0  2
     36.6116	  1865.0	  1987.6	 -3164.4	  1014.9	     63.8852	       0	(  3  0  2)	  0  1
     36.6511	  1746.0	  1827.1	 -3122.8	  1019.9	     64.0157	       0	(  1  0 13)	  0  1
     36.6906	  1679.0	  1677.1	 -3039.9	  1024.9	     64.0410	       0	(  3  0  2)	  0  2
     36.7301	  1627.0	  1574.6	 -2989.4	  1029.8	     64.1719	       0	(  1  0 13)	  0  2
     36.7696	  1612.0	  1523.2	 -2952.9	  1034.8	     64.6233	       0	(  2  1  7)	  0  1
     36.8091	  1629.0	  1510.1	 -2922.9	  1039.8	     64.7814	       0	(  2  1  7)	  0  2
     36.8487	  1608.0	  1520.9	 -2954.6	  1044.7	     64.8252	       0	(  3  0  3)	  0  1
     36.8882	  1634.0	  1546.5	 -2954.3	  1049.6	     64.9839	       0	(  3  0  3)	  0  2
     36.9278	  1726.0	  1583.5	 -2899.2	  1054.5	     65.2278	       0	(  0  0 14)	  0  1
     36.9674	  1605.0	  1632.1	 -3068.8	  1059.4	     65.3878	       0	(  0  0 14)	  0  2
     37.0070	  1664.0	  1694.9	 -3072.7	  1064.2
     37.0466	  1695.0	  1776.0	 -3122.7	  1069.1
     37.0862	  1759.0	  1879.6	 -3162.3	  1073.9
     37.1258	  1905.0	  2009.4	 -3146.2	  1078.6
     37.1654	  1965.0	  2168.2	 -3244.9	  1083.4
     37.2051	  2158.0	  2357.1	 -3240.9	  1088.1
     37.2448	  2327.0	  2577.3	 -3292.1	  1092.7
     37.2844	  2514.0	  2830.2	 -3357.9	  1097.4
     37.3241	  2795.0	  3116.0	 -3362.7	  1102.0
     37.3638	  3157.0	  3432.8	 -3317.5	  1106.5
     37.4035	  3807.0	  3785.0	 -3019.8	  1111.1
     37.4433	  4407.0	  4212.4	 -2847.2	  1115.5
     37.4830	  4927.0	  4823.3	 -2938.1	  1120.0
     37.5228	  6012.0	  5772.4	 -2802.2	  1124.4
     37.5625	  7301.0	  7089.3	 -2830.0	  1128.7
     37.6023	  8610.0	  8429.5	 -2861.3	  1133.1
     37.6421	  9130.0	  9201.1	 -3112.8	  1137.3
     37.6819	  8759.0	  9069.9	 -3352.6	  1141.5
     37.7217	  7826.0	  8100.6	 -3316.4	  1145.7
     37.7615	  6168.0	  6627.0	 -3500.7	  1149.9
     37.8014	  4665.0	  5086.0	 -3462.7	  1153.9
     37.8412	  3549.0	  3790.4	 -3283.2	  1158.0
     37.8811	  3157.0	  2856.8	 -2741.5	  1162.0
     37.9210	  2651.0	  2262.3	 -2653.0	  1165.9
     37.9608	  2309.0	  1924.2	 -2657.0	  1169.8
     38.0007	  2052.0	  1754.3	 -2744.0	  1173.7
     38.0406	  2033.0	  1683.0	 -2691.8	  1177.4
     38.0806	  1999.0	  1663.6	 -2706.3	  1181.2
     38.1205	  1910.0	  1667.2	 -2798.9	  1184.9
     38.1604	  1787.0	  1677.4	 -2932.1	  1188.5
     38.2004	  1854.0	  1686.0	 -2873.7	  1192.1
     38.2404	  1727.0	  1689.8	 -3004.5	  1195.6
     38.2803	  1697.0	  1688.6	 -3033.3	  1199.1
     38.3203	  1775.0	  1683.5	 -2950.3	  1202.6
     38.3603	  1808.0	  1676.2	 -2910.0	  1205.9
     38.4003	  1702.0	  1668.1	 -3007.9	  1209.3
     38.4404	  1604.0	  1660.2	 -3098.0	  1212.5
     38.4804	  1732.0	  1653.5	 -2963.2	  1215.8
     38.5205	  1661.0	  1647.9	 -3028.6	  1218.9
     38.5605	  1725.0	  1643.9	 -2960.6	  1222.0
     38.6006	  1824.0	  1641.4	 -2859.2	  1225.1
     38.6407	  1788.0	  1640.5	 -2894.2	  1228.1
     38.6808	  1739.0	  1641.1	 -2943.9	  1231.1
     38.7209	  1659.0	  1643.3	 -3026.0	  1234.0
     38.7610	  1641.0	  1646.9	 -3047.7	  1236.8
     38.8011	  1599.0	  1652.2	 -3094.9	  1239.6
     38.8412	  1656.0	  1659.0	 -3044.8	  1242.4
     38.8814	  1653.0	  1667.6	 -3056.4	  1245.1
     38.9215	  1520.0	  1678.2	 -3200.0	  1247.7
     38.9617	  1568.0	  1691.2	 -3164.9	  1250.3
     39.0019	  1673.0	  1707.0	 -3075.7	  1252.8
     39.0421	  1528.0	  1726.5	 -3240.3	  1255.3
     39.0823	  1719.0	  1751.2	 -3073.9	  1257.7
     39.1225	  1668.0	  1783.0	 -3156.7	  1260.1
     39.1627	  1683.0	  1825.0	 -3183.7	  1262.4
     39.2030	  1777.0	  1881.3	 -3146.0	  1264.7
     39.2432	  1814.0	  1957.1	 -3184.9	  1266.9
     39.2835	  1830.0	  2058.5	 -3270.2	  1269.0
     39.3237	  1917.0	  2191.5	 -3316.3	  1271.1
     39.3640	  2072.0	  2361.8	 -3331.5	  1273.2
     39.4043	  2254.0	  2575.3	 -3363.1	  1275.2
     39.4446	  2535.0	  2839.9	 -3346.6	  1277.2
     39.4849	  2838.0	  3172.8	 -3376.5	  1279.1
     39.5252	  3269.0	  3588.7	 -3361.5	  1280.9
     39.5656	  3887.0	  4098.8	 -3253.6	  1282.7
     39.6059	  4687.0	  4713.1	 -3067.9	  1284.5
     39.6463	  5615.0	  5493.8	 -2920.6	  1286.2
     39.6866	  6894.0	  6607.7	 -2755.5	  1287.8
     39.7270	  8575.0	  8222.9	 -2689.6	  1289.4
     39.7674	 10214.0	 10129.2	 -2956.9	  1291.0
     39.8078	 12167.0	 11528.9	 -2403.7	  1292.5
     39.8482	 12039.0	 11734.2	 -2736.9	  1293.9
     39.8886	 11055.0	 10702.5	 -2689.3	  1295.3
     39.9290	  8624.0	  8801.0	 -3218.7	  1296.7
     39.9695	  6579.0	  6645.4	 -3108.1	  1298.0
     40.0099	  4637.0	  4779.6	 -3184.3	  1299.3
     40.0504	  3497.0	  3442.4	 -2987.2	  1300.5
     40.0908	  2951.0	  2617.7	 -2708.5	  1301.6
     40.1313	  2524.0	  2172.5	 -2690.2	  1302.7
     40.1718	  2359.0	  1961.3	 -2644.1	  1303.8
     40.2123	  2192.0	  1875.8	 -2725.5	  1304.8
     40.2528	  1996.0	  1849.4	 -2895.1	  1305.8
     40.2933	  1990.0	  1845.9	 -2897.6	  1306.7
     40.3338	  1907.0	  1847.3	 -2982.0	  1307.6
     40.3744	  1906.0	  1846.1	 -2981.8	  1308.5
     40.4149	  1758.0	  1840.7	 -3124.4	  1309.3
     40.4555	  1781.0	  1832.4	 -3093.2	  1310.0
     40.4960	  1720.0	  1823.7	 -3145.4	  1310.7
     40.5366	  1706.0	  1816.9	 -3152.6	  1311.4
     40.5772	  1675.0	  1814.2	 -3180.9	  1312.0
     40.6178	  1772.0	  1817.5	 -3087.2	  1312.6
     40.6584	  1759.0	  1830.2	 -3113.0	  1313.1
     40.6990	  1841.0	  1854.3	 -3055.0	  1313.6
     40.7396	  1933.0	  1896.0	 -3004.8	  1314.0
     40.7802	  1820.0	  1957.7	 -3179.5	  1314.4
     40.8209	  2042.0	  2041.9	 -3041.6	  1314.8
     40.8615	  2195.0	  2158.5	 -3005.3	  1315.1
     40.9022	  2303.0	  2329.5	 -3068.2	  1315.4
     40.9428	  2502.0	  2552.0	 -3091.7	  1315.6
     40.9835	  2742.0	  2747.9	 -3047.6	  1315.8
     41.0242	  2932.0	  2828.5	 -2938.2	  1316.0
     41.0649	  2930.0	  2791.5	 -2903.2	  1316.1
     41.1056	  2731.0	  2687.0	 -2997.8	  1316.2
     41.1463	  2611.0	  2596.8	 -3027.6	  1316.2
     41.1870	  2519.0	  2586.4	 -3109.1	  1316.2
     41.2278	  2526.0	  2635.0	 -3150.8	  1316.2
     41.2685	  2633.0	  2660.8	 -3069.6	  1316.1
     41.3092	  2661.0	  2620.8	 -3001.5	  1316.0
     41.3500	  2603.0	  2521.7	 -2960.5	  1315.8
     41.3908	  2401.0	  2401.4	 -3042.1	  1315.6
     41.4315	  2432.0	  2313.8	 -2923.5	  1315.4
     41.4723	  2503.0	  2298.3	 -2837.1	  1315.2
     41.5131	  2505.0	  2365.0	 -2901.8	  1314.9
     41.5539	  2544.0	  2485.7	 -2983.5	  1314.5
     41.5947	  2597.0	  2596.9	 -3041.6	  1314.2
     41.6355	  2601.0	  2639.2	 -3079.9	  1313.8
     41.6764	  2317.0	  2593.4	 -3318.2	  1313.4
     41.7172	  2416.0	  2474.3	 -3100.0	  1312.9
     41.7581	  2196.0	  2318.0	 -3163.8	  1312.4
     41.7989	  2090.0	  2166.3	 -3118.0	  1311.9
     41.8398	  1995.0	  2048.7	 -3095.5	  1311.3
     41.8806	  1945.0	  1980.7	 -3077.4	  1310.7
     41.9215	  2017.0	  1966.3	 -2991.1	  1310.1
     41.9624	  2027.0	  1993.3	 -3008.0	  1309.5
     42.0033	  2040.0	  2024.7	 -3026.4	  1308.8
     42.0442	  2017.0	  2024.5	 -3049.3	  1308.1
     42.0851	  2034.0	  1983.6	 -2991.4	  1307.3
     42.1260	  1952.0	  1911.6	 -3001.4	  1306.6
     42.1669	  1708.0	  1828.2	 -3161.9	  1305.8
     42.2079	  1758.0	  1754.4	 -3038.1	  1304.9
     42.2488	  1643.0	  1701.0	 -3099.8	  1304.1
     42.2898	  1645.0	  1668.5	 -3065.2	  1303.2
     42.3307	  1607.0	  1651.9	 -3086.7	  1302.3
     42.3717	  1599.0	  1645.5	 -3088.2	  1301.4
     42.4127	  1608.0	  1644.9	 -3078.6	  1300.4
     42.4537	  1637.0	  1647.9	 -3052.6	  1299.5
     42.4946	  1686.0	  1653.6	 -3009.3	  1298.5
     42.5356	  1776.0	  1662.0	 -2927.8	  1297.5
     42.5766	  1690.0	  1674.0	 -3025.7	  1296.4
     42.6177	  1747.0	  1690.8	 -2985.6	  1295.3
     42.6587	  1834.0	  1714.4	 -2922.1	  1294.3
     42.6997	  1961.0	  1747.5	 -2828.2	  1293.2
     42.7407	  1780.0	  1791.2	 -3053.0	  1292.0
     42.7818	  1867.0	  1849.3	 -3024.0	  1290.9
     42.8228	  1864.0	  1924.0	 -3101.7	  1289.7
     42.8639	  2063.0	  2020.6	 -2999.4	  1288.5
     42.9050	  2167.0	  2148.0	 -3022.7	  1287.3
     42.9460	  2459.0	  2318.8	 -2901.6	  1286.1
     42.9871	  2620.0	  2546.5	 -2968.2	  1284.9
     43.0282	  2925.0	  2840.0	 -2956.8	  1283.6
     43.0693	  3260.0	  3212.2	 -2993.9	  1282.3
     43.1104	  3901.0	  3700.6	 -2841.4	  1281.1
     43.1515	  4497.0	  4367.2	 -2911.9	  1279.8
     43.1926	  4992.0	  5208.0	 -3257.7	  1278.4
     43.2337	  5742.0	  6005.2	 -3304.9	  1277.1
     43.2749	  6368.0	  6404.2	 -3078.0	  1275.8
     43.3160	  5998.0	  6246.0	 -3289.8	  1274.4
     43.3571	  5309.0	  5604.1	 -3336.9	  1273.1
     43.3983	  4374.0	  4669.9	 -3337.6	  1271.7
     43.4395	  3563.0	  3699.7	 -3178.4	  1270.3
     43.4806	  2870.0	  2895.8	 -3067.6	  1268.9
     43.5218	  2384.0	  2329.0	 -2986.7	  1267.5
     43.5630	  2152.0	  1978.9	 -2868.7	  1266.1
     43.6041	  1972.0	  1787.8	 -2857.5	  1264.7
     43.6453	  1855.0	  1692.9	 -2879.7	  1263.3
     43.6865	  1711.0	  1649.5	 -2980.3	  1261.9
     43.7277	  1763.0	  1630.5	 -2909.3	  1260.4
     43.7690	  1571.0	  1621.5	 -3092.3	  1259.0
     43.8102	  1517.0	  1615.5	 -3140.2	  1257.6
     43.8514	  1693.0	  1609.2	 -2958.0	  1256.1
     43.8926	  1499.0	  1601.9	 -3144.6	  1254.7
     43.9339	  1586.0	  1593.6	 -3049.3	  1253.2
     43.9751	  1644.0	  1585.0	 -2982.7	  1251.8
     44.0163	  1542.0	  1576.6	 -3076.3	  1250.3
     44.0576	  1538.0	  1568.9	 -3072.7	  1248.9
     44.0989	  1541.0	  1562.4	 -3063.2	  1247.4
     44.1401	  1522.0	  1557.3	 -3077.0	  1246.0
     44.1814	  1540.0	  1553.7	 -3055.5	  1244.5
     44.2227	  1497.0	  1552.0	 -3096.7	  1243.1
     44.2640	  1584.0	  1552.2	 -3009.9	  1241.6
     44.3053	  1465.0	  1554.5	 -3131.3	  1240.2
     44.3466	  1548.0	  1559.2	 -3053.0	  1238.8
     44.3879	  1637.0	  1566.6	 -2971.4	  1237.3
     44.4292	  1587.0	  1577.5	 -3032.2	  1235.9
     44.4705	  1585.0	  1592.7	 -3049.4	  1234.5
     44.5118	  1605.0	  1613.4	 -3050.2	  1233.1
     44.5531	  1634.0	  1640.8	 -3048.6	  1231.7
     44.5945	  1670.0	  1676.0	 -3047.7	  1230.3
     44.6358	  1830.0	  1721.1	 -2932.8	  1228.9
     44.6771	  1836.0	  1780.8	 -2986.5	  1227.5
     44.7185	  1929.0	  1859.9	 -2972.7	  1226.2
     44.7598	  1917.0	  1955.0	 -3079.8	  1224.8
     44.8012	  1966.0	  2043.6	 -3119.4	  1223.5
     44.8426	  2090.0	  2092.4	 -3044.1	  1222.2
     44.8839	  2114.0	  2083.7	 -3011.4	  1220.9
     44.9253	  2033.0	  2021.5	 -3030.2	  1219.6
     44.9667	  1912.0	  1922.1	 -3051.8	  1218.3
     45.0081	  1724.0	  1810.1	 -3127.9	  1217.0
     45.0495	  1639.0	  1708.3	 -3111.0	  1215.7
     45.0909	  1563.0	  1629.0	 -3107.8	  1214.5
     45.1323	  1620.0	  1574.9	 -2996.7	  1213.3
     45.1737	  1619.0	  1542.6	 -2965.3	  1212.1
     45.2151	  1507.0	  1523.9	 -3058.7	  1210.9
     45.2565	  1483.0	  1519.5	 -3078.3	  1209.7
     45.2979	  1549.0	  1522.8	 -3015.5	  1208.6
     45.3394	  1609.0	  1528.9	 -2961.7	  1207.4
     45.3808	  1524.0	  1536.9	 -3054.6	  1206.3
     45.4222	  1554.0	  1542.2	 -3030.0	  1205.2
     45.4637	  1545.0	  1543.6	 -3040.3	  1204.2
     45.5051	  1519.0	  1541.3	 -3064.1	  1203.1
     45.5466	  1454.0	  1537.2	 -3124.9	  1202.1
     45.5880	  1551.0	  1533.6	 -3024.3	  1201.1
     45.6295	  1473.0	  1533.0	 -3101.7	  1200.1
     45.6709	  1513.0	  1536.4	 -3065.1	  1199.2
     45.7124	  1546.0	  1542.5	 -3038.2	  1198.2
     45.7539	  1611.0	  1547.6	 -2978.4	  1197.3
     45.7954	  1605.0	  1548.1	 -2984.8	  1196.4
     45.8369	  1543.0	  1543.0	 -3041.8	  1195.6
     45.8783	  1630.0	  1533.0	 -2944.7	  1194.8
     45.9198	  1492.0	  1519.9	 -3069.6	  1194.0
     45.9613	  1439.0	  1506.7	 -3109.4	  1193.2
     46.0028	  1403.0	  1495.6	 -3134.3	  1192.4
     46.0443	  1377.0	  1487.8	 -3152.5	  1191.7
     46.0858	  1500.0	  1483.5	 -3025.3	  1191.0
     46.1274	  1459.0	  1482.6	 -3065.3	  1190.4
     46.1689	  1549.0	  1484.5	 -2977.2	  1189.7
     46.2104	  1482.0	  1489.0	 -3048.7	  1189.1
     46.2519	  1440.0	  1495.7	 -3097.5	  1188.5
     46.2934	  1477.0	  1505.3	 -3070.0	  1188.0
     46.3350	  1458.0	  1518.2	 -3101.9	  1187.5
     46.3765	  1482.0	  1534.8	 -3094.6	  1187.0
     46.4181	  1484.0	  1556.6	 -3114.3	  1186.5
     46.4596	  1534.0	  1584.6	 -3092.4	  1186.1
     46.5011	  1538.0	  1620.2	 -3124.0	  1185.7
     46.5427	  1668.0	  1665.0	 -3038.7	  1185.4
     46.5843	  1761.0	  1721.0	 -3001.7	  1185.0
     46.6258	  1693.0	  1791.6	 -3140.3	  1184.7
     46.6674	  1783.0	  1882.4	 -3141.1	  1184.5
     46.7089	  1946.0	  2001.8	 -3097.5	  1184.2
     46.7505	  2132.0	  2159.6	 -3069.3	  1184.0
     46.7921	  2412.0	  2365.0	 -2994.8	  1183.9
     46.8337	  2547.0	  2626.7	 -3121.4	  1183.7
     46.8752	  3073.0	  2957.2	 -2925.9	  1183.6
     46.9168	  3440.0	  3378.9	 -2980.6	  1183.6
     46.9584	  4025.0	  3912.1	 -2928.9	  1183.5
     47.0000	  4575.0	  4526.9	 -2993.6	  1183.5
     47.0416	  4857.0	  5086.4	 -3271.2	  1183.5
     47.0832	  5594.0	  5394.5	 -2842.2	  1183.6
     47.1248	  5508.0	  5348.8	 -2882.5	  1183.7
     47.1664	  4951.0	  1379.6	   529.7	  1183.8
     47.2080	  4296.0	  1379.7	 -3041.8	  1184.0
     47.2496	  3787.0	  1379.9	 -3041.8	  1184.2
     47.2912	  3041.0	  1380.1	 -3041.8	  1184.4
     47.3328	  2647.0	  1380.4	 -3041.8	  1184.7
     47.3744	  2282.0	  1380.7	 -3041.8	  1185.0
     47.4160	  2040.0	  1381.0	 -3041.8	  1185.3
     47.4577	  1962.0	  1381.4	 -3041.8	  1185.6
     47.4993	  1834.0	  1381.8	 -3041.8	  1186.0
     47.5409	  1778.0	  1382.2	 -3041.8	  1186.5
     47.5826	  1753.0	  1382.6	 -3041.8	  1186.9
     47.6242	  1719.0	  1383.1	 -3041.8	  1187.4
     47.6658	  1735.0	  1383.6	 -3041.8	  1187.9
     47.7075	  1721.0	  1384.2	 -3041.8	  1188.5
     47.7491	  1748.0	  1384.8	 -3041.8	  1189.0
     47.7907	  1640.0	  1385.4	 -3041.8	  1189.6
     47.8324	  1614.0	  1386.0	 -3041.8	  1190.3
     47.8740	  1545.0	  1386.7	 -3041.8	  1191.0
     47.9157	  1542.0	  1387.4	 -3041.8	  1191.7
     47.9573	  1663.0	  1388.1	 -3041.8	  1192.4
     47.9990	  1563.0	  1388.9	 -3041.8	  1193.1
     48.0406	  1767.0	  1389.7	 -3041.8	  1193.9
     48.0823	  1788.0	  1390.5	 -3041.8	  1194.7
