S13 800C 10Kmin    CELL:    5.90284   5.90284  23.16811   90.0000   90.0000  120.0000   SPGR: P 63/m m c             TEMP:     40.00
  1    775     1.78919     1.79310     0.54019     0.00000    -0.83959    0
   70    0    2
      59.50000      63.70000
      47.20000      48.40000
 2Theta	Yobs	Ycal	Yobs-Ycal	Backg	Bragg	Posr	(hkl)	K
     34.2679	   992.0	  1129.6	 -3176.1	   899.1	     35.3438	       0	(  1  1  0)	  0  1
     34.3065	  1147.0	  1126.6	 -3018.1	   893.5	     35.4225	       0	(  1  1  0)	  0  2
     34.3452	  1219.0	  1124.2	 -2943.7	   888.4	     36.0335	       0	(  0  0  8)	  0  1
     34.3839	  1146.0	  1122.4	 -3014.9	   883.7	     36.1139	       0	(  0  0  8)	  0  2
     34.4225	  1124.0	  1124.3	 -3038.8	   879.3	     36.4963	       0	(  1  1  2)	  0  1
     34.4613	  1135.0	  1124.1	 -3027.6	   875.4	     36.5778	       0	(  1  1  2)	  0  2
     34.5000	  1043.0	  1126.1	 -3121.6	   871.7	     37.5959	       0	(  1  0  7)	  0  1
     34.5387	  1197.0	  1127.6	 -2969.1	   868.5	     37.6801	       0	(  1  0  7)	  0  2
     34.5774	  1092.0	  1130.1	 -3076.6	   865.6	     39.7800	       0	(  1  1  4)	  0  1
     34.6162	  1169.0	  1133.7	 -3003.2	   863.0	     39.8696	       0	(  1  1  4)	  0  2
     34.6550	  1126.0	  1138.5	 -3051.0	   860.8	     40.9640	       0	(  2  0  0)	  0  1
     34.6938	  1184.0	  1144.9	 -2999.4	   858.8	     41.0566	       0	(  2  0  0)	  0  2
     34.7326	  1165.0	  1153.2	 -3026.7	   857.2	     41.2210	       0	(  2  0  1)	  0  1
     34.7714	  1206.0	  1163.9	 -2996.4	   855.9	     41.3142	       0	(  2  0  1)	  0  2
     34.8102	  1254.0	  1178.4	 -2962.9	   854.9	     41.5737	       0	(  1  0  8)	  0  1
     34.8491	  1196.0	  1198.5	 -3041.0	   854.2	     41.6677	       0	(  1  0  8)	  0  2
     34.8880	  1245.0	  1227.6	 -3021.1	   853.7	     41.9843	       0	(  2  0  2)	  0  1
     34.9268	  1255.0	  1270.4	 -3053.9	   853.5	     42.0794	       0	(  2  0  2)	  0  2
     34.9657	  1329.0	  1333.4	 -3042.9	   853.6	     43.2319	       0	(  2  0  3)	  0  1
     35.0046	  1509.0	  1423.0	 -2952.5	   853.9	     43.3302	       0	(  2  0  3)	  0  2
     35.0435	  1460.0	  1545.6	 -3124.1	   854.5	     44.8024	       0	(  1  1  6)	  0  1
     35.0825	  1708.0	  1709.0	 -3039.5	   855.3	     44.9047	       0	(  1  1  6)	  0  2
     35.1214	  1922.0	  1927.8	 -3044.3	   856.3	     44.9317	       0	(  2  0  4)	  0  1
     35.1604	  2190.0	  2214.6	 -3063.1	   857.5	     45.0343	       0	(  2  0  4)	  0  2
     35.1994	  2532.0	  2561.1	 -3067.6	   859.0	     45.3703	       0	(  0  0 10)	  0  1
     35.2384	  3012.0	  2986.5	 -3013.0	   860.7	     45.4740	       0	(  0  0 10)	  0  2
     35.2774	  3834.0	  3678.7	 -2883.2	   862.5	     45.7346	       0	(  1  0  9)	  0  1
     35.3164	  4772.0	  4856.9	 -3123.4	   864.6	     45.8393	       0	(  1  0  9)	  0  2
     35.3554	  6228.0	  6071.9	 -2882.4	   866.8	     47.0458	       0	(  2  0  5)	  0  1
     35.3945	  6352.0	  6415.6	 -3102.1	   869.3	     47.1540	       0	(  2  0  5)	  0  2
     35.4335	  5596.0	  5766.0	 -3208.5	   871.8	     49.5357	       0	(  2  0  6)	  0  1
     35.4726	  4336.0	  4488.0	 -3190.5	   874.6	     49.6504	       0	(  2  0  6)	  0  2
     35.5117	  2965.0	  3152.2	 -3225.7	   877.5	     50.0623	       0	(  1  0 10)	  0  1
     35.5508	  2075.0	  2188.0	 -3151.5	   880.6	     50.1785	       0	(  1  0 10)	  0  2
     35.5899	  1683.0	  1671.9	 -3027.4	   883.8	     51.1731	       0	(  1  1  8)	  0  1
     35.6290	  1607.0	  1473.6	 -2905.1	   887.1	     51.2922	       0	(  1  1  8)	  0  2
     35.6682	  1525.0	  1437.9	 -2951.4	   890.6	     52.3651	       0	(  2  0  7)	  0  1
     35.7073	  1504.0	  1467.0	 -3001.5	   894.2	     52.4875	       0	(  2  0  7)	  0  2
     35.7465	  1458.0	  1515.3	 -3095.8	   898.0	     54.5498	       0	(  1  0 11)	  0  1
     35.7857	  1515.0	  1564.6	 -3088.1	   901.8	     54.6782	       0	(  1  0 11)	  0  2
     35.8249	  1644.0	  1610.4	 -3004.9	   905.8	     55.0133	       0	(  2  1  0)	  0  1
     35.8641	  1668.0	  1657.5	 -3028.0	   909.8	     55.0589	       0	(  0  0 12)	  0  1
     35.9033	  1710.0	  1721.7	 -3050.2	   914.0	     55.1430	       0	(  2  1  0)	  0  2
     35.9426	  1817.0	  1827.9	 -3049.4	   918.2	     55.1888	       0	(  0  0 12)	  0  2
     35.9818	  1953.0	  1994.7	 -3080.2	   922.6	     55.2194	       0	(  2  1  1)	  0  1
     36.0211	  2152.0	  2198.7	 -3085.2	   927.0	     55.3498	       0	(  2  1  1)	  0  2
     36.0603	  2416.0	  2362.8	 -2985.3	   931.5	     55.5032	       0	(  2  0  8)	  0  1
     36.0996	  2460.0	  2416.6	 -2995.1	   936.1	     55.6343	       0	(  2  0  8)	  0  2
     36.1389	  2214.0	  2345.6	 -3170.1	   940.7	     55.8349	       0	(  2  1  2)	  0  1
     36.1783	  2099.0	  2183.7	 -3123.2	   945.4	     55.9670	       0	(  2  1  2)	  0  2
     36.2176	  2006.0	  1991.8	 -3024.3	   950.2	     56.8511	       0	(  2  1  3)	  0  1
     36.2569	  1829.0	  1824.3	 -3033.8	   955.0	     56.9860	       0	(  2  1  3)	  0  2
     36.2963	  1773.0	  1709.5	 -2975.0	   959.9	     58.2546	       0	(  2  1  4)	  0  1
     36.3357	  1644.0	  1651.4	 -3045.9	   964.8	     58.3936	       0	(  2  1  4)	  0  2
     36.3750	  1697.0	  1645.9	 -2987.4	   969.7	     58.6202	       0	(  1  1 10)	  0  1
     36.4144	  1830.0	  1700.3	 -2908.8	   974.7	     58.7602	       0	(  1  1 10)	  0  2
     36.4539	  1859.0	  1829.0	 -3008.5	   979.8	     58.9249	       0	(  2  0  9)	  0  1
     36.4933	  1981.0	  1997.8	 -3055.3	   984.8	     59.0659	       0	(  2  0  9)	  0  2
     36.5327	  2049.0	  2104.6	 -3094.1	   989.9	     59.1973	       0	(  1  0 12)	  0  1
     36.5722	  2007.0	  2091.2	 -3122.7	   995.0	     59.3391	       0	(  1  0 12)	  0  2
     36.6116	  1870.0	  1973.8	 -3142.3	  1000.1	     63.8832	       0	(  3  0  2)	  0  1
     36.6511	  1756.0	  1806.2	 -3088.7	  1005.3	     64.0117	       0	(  1  0 13)	  0  1
     36.6906	  1658.0	  1653.8	 -3034.3	  1010.4	     64.0391	       0	(  3  0  2)	  0  2
     36.7301	  1654.0	  1552.1	 -2936.6	  1015.6	     64.1679	       0	(  1  0 13)	  0  2
     36.7696	  1621.0	  1502.5	 -2920.0	  1020.8	     64.6208	       0	(  2  1  7)	  0  1
     36.8091	  1553.0	  1491.0	 -2976.5	  1026.0	     64.7789	       0	(  2  1  7)	  0  2
     36.8487	  1555.0	  1503.1	 -2986.6	  1031.1	     64.8232	       0	(  3  0  3)	  0  1
     36.8882	  1631.0	  1530.0	 -2937.5	  1036.3	     64.9820	       0	(  3  0  3)	  0  2
     36.9278	  1592.0	  1568.3	 -3014.8	  1041.5	     65.2236	       0	(  0  0 14)	  0  1
     36.9674	  1644.0	  1618.4	 -3012.9	  1046.6	     65.3836	       0	(  0  0 14)	  0  2
     37.0070	  1813.0	  1683.1	 -2908.6	  1051.8
     37.0466	  1660.0	  1766.5	 -3145.0	  1056.9
     37.0862	  1731.0	  1873.1	 -3180.6	  1062.0
     37.1258	  1875.0	  2006.7	 -3170.2	  1067.1
     37.1654	  1894.0	  2169.6	 -3314.1	  1072.2
     37.2051	  2153.0	  2363.0	 -3248.5	  1077.2
     37.2448	  2252.0	  2587.1	 -3373.6	  1082.2
     37.2844	  2470.0	  2842.5	 -3411.0	  1087.2
     37.3241	  2744.0	  3128.3	 -3422.8	  1092.2
     37.3638	  3158.0	  3442.2	 -3322.7	  1097.1
     37.4035	  3682.0	  3790.7	 -3147.2	  1102.0
     37.4433	  4619.0	  4219.0	 -2638.5	  1106.9
     37.4830	  5162.0	  4843.1	 -2719.6	  1111.7
     37.5228	  6069.0	  5818.1	 -2787.6	  1116.5
     37.5625	  7543.0	  7151.8	 -2647.3	  1121.2
     37.6023	  8396.0	  8461.9	 -3104.4	  1125.9
     37.6421	  9063.0	  9154.3	 -3129.8	  1130.6
     37.6819	  8469.0	  8939.4	 -3508.9	  1135.2
     37.7217	  7577.0	  7910.4	 -3371.9	  1139.8
     37.7615	  6001.0	  6422.4	 -3459.9	  1144.3
     37.8014	  4693.0	  4906.4	 -3251.9	  1148.7
     37.8412	  3433.0	  3654.6	 -3260.1	  1153.2
     37.8811	  2965.0	  2764.6	 -2838.1	  1157.5
     37.9210	  2504.0	  2204.3	 -2738.8	  1161.8
     37.9608	  2260.0	  1889.5	 -2668.0	  1166.1
     38.0007	  2001.0	  1733.8	 -2771.3	  1170.3
     38.0406	  1987.0	  1670.7	 -2722.2	  1174.4
     38.0806	  1955.0	  1655.7	 -2739.2	  1178.5
     38.1205	  1963.0	  1661.2	 -2736.7	  1182.6
     38.1604	  1793.0	  1672.0	 -2917.5	  1186.5
     38.2004	  1738.0	  1680.5	 -2981.0	  1190.4
     38.2404	  1832.0	  1683.8	 -2890.3	  1194.3
     38.2803	  1668.0	  1682.1	 -3052.6	  1198.1
     38.3203	  1775.0	  1676.8	 -2940.3	  1201.8
     38.3603	  1709.0	  1669.4	 -2998.9	  1205.5
     38.4003	  1779.0	  1661.3	 -2920.8	  1209.1
     38.4404	  1671.0	  1653.6	 -3021.1	  1212.6
     38.4804	  1717.0	  1646.9	 -2968.4	  1216.1
     38.5205	  1763.0	  1641.8	 -2917.3	  1219.5
     38.5605	  1788.0	  1638.1	 -2888.6	  1222.9
     38.6006	  1784.0	  1636.1	 -2890.6	  1226.2
     38.6407	  1803.0	  1635.6	 -2871.1	  1229.4
     38.6808	  1760.0	  1636.6	 -2915.1	  1232.6
     38.7209	  1735.0	  1639.2	 -2942.7	  1235.7
     38.7610	  1666.0	  1643.3	 -3015.8	  1238.7
     38.8011	  1681.0	  1648.9	 -3006.4	  1241.7
     38.8412	  1522.0	  1656.3	 -3172.8	  1244.6
     38.8814	  1642.0	  1665.4	 -3061.9	  1247.4
     38.9215	  1577.0	  1676.5	 -3138.0	  1250.2
     38.9617	  1602.0	  1690.1	 -3126.6	  1252.9
     39.0019	  1618.0	  1706.5	 -3127.0	  1255.5
     39.0421	  1609.0	  1726.9	 -3156.4	  1258.1
     39.0823	  1654.0	  1752.4	 -3136.9	  1260.6
     39.1225	  1673.0	  1785.4	 -3150.9	  1263.1
     39.1627	  1688.0	  1828.9	 -3179.4	  1265.4
     39.2030	  1682.0	  1887.3	 -3243.8	  1267.8
     39.2432	  1778.0	  1966.0	 -3226.5	  1270.0
     39.2835	  1913.0	  2071.4	 -3196.9	  1272.2
     39.3237	  2043.0	  2209.6	 -3205.1	  1274.3
     39.3640	  2063.0	  2386.6	 -3362.1	  1276.4
     39.4043	  2251.0	  2607.9	 -3395.4	  1278.4
     39.4446	  2537.0	  2880.8	 -3382.3	  1280.3
     39.4849	  2866.0	  3221.1	 -3393.6	  1282.2
     39.5252	  3339.0	  3642.0	 -3341.5	  1284.0
     39.5656	  3706.0	  4153.4	 -3485.9	  1285.7
     39.6059	  4762.0	  4767.7	 -3044.2	  1287.4
     39.6463	  5779.0	  5555.1	 -2814.6	  1289.1
     39.6866	  6755.0	  6693.9	 -2977.4	  1290.6
     39.7270	  8675.0	  8347.9	 -2711.4	  1292.1
     39.7674	 10511.0	 10263.5	 -2791.0	  1293.6
     39.8078	 12154.0	 11600.3	 -2484.8	  1295.0
     39.8482	 11999.0	 11704.2	 -2743.7	  1296.3
     39.8886	 10946.0	 10582.0	 -2674.5	  1297.5
     39.9290	  8657.0	  8630.1	 -3011.6	  1298.8
     39.9695	  6471.0	  6476.2	 -3043.7	  1299.9
     40.0099	  4498.0	  4647.0	 -3187.5	  1301.0
     40.0504	  3493.0	  3355.1	 -2900.6	  1302.0
     40.0908	  2888.0	  2568.1	 -2718.6	  1303.0
     40.1313	  2585.0	  2147.9	 -2601.4	  1303.9
     40.1718	  2383.0	  1951.1	 -2606.6	  1304.8
     40.2123	  2222.0	  1873.1	 -2689.6	  1305.6
     40.2528	  2001.0	  1850.1	 -2887.6	  1306.4
     40.2933	  1972.0	  1847.6	 -2914.1	  1307.1
     40.3338	  1897.0	  1848.6	 -2990.1	  1307.8
     40.3744	  1884.0	  1846.4	 -3000.9	  1308.4
     40.4149	  1769.0	  1839.8	 -3109.3	  1308.9
     40.4555	  1730.0	  1830.4	 -3138.9	  1309.4
     40.4960	  1775.0	  1820.8	 -3084.3	  1309.9
     40.5366	  1676.0	  1813.5	 -3176.0	  1310.3
     40.5772	  1672.0	  1810.6	 -3177.1	  1310.6
     40.6178	  1711.0	  1814.0	 -3141.5	  1310.9
     40.6584	  1795.0	  1826.0	 -3069.5	  1311.2
     40.6990	  1784.0	  1851.5	 -3106.0	  1311.4
     40.7396	  1873.0	  1892.8	 -3058.3	  1311.6
     40.7802	  1918.0	  1954.8	 -3075.3	  1311.7
     40.8209	  1960.0	  2038.6	 -3117.1	  1311.8
     40.8615	  2200.0	  2156.0	 -2994.5	  1311.8
     40.9022	  2320.0	  2329.4	 -3047.9	  1311.8
     40.9428	  2515.0	  2553.1	 -3076.6	  1311.7
     40.9835	  2733.0	  2743.2	 -3048.7	  1311.6
     41.0242	  2916.0	  2814.1	 -2936.6	  1311.5
     41.0649	  2905.0	  2770.6	 -2904.1	  1311.3
     41.1056	  2805.0	  2665.7	 -2899.2	  1311.1
     41.1463	  2569.0	  2582.5	 -3052.0	  1310.8
     41.1870	  2476.0	  2583.2	 -3145.7	  1310.5
     41.2278	  2564.0	  2638.1	 -3112.6	  1310.2
     41.2685	  2681.0	  2661.4	 -3018.9	  1309.8
     41.3092	  2615.0	  2614.2	 -3037.7	  1309.4
     41.3500	  2618.0	  2507.3	 -2927.8	  1309.0
     41.3908	  2307.0	  2381.7	 -3113.2	  1308.5
     41.4315	  2364.0	  2292.8	 -2967.3	  1308.0
     41.4723	  2394.0	  2279.0	 -2923.5	  1307.4
     41.5131	  2492.0	  2347.5	 -2894.0	  1306.8
     41.5539	  2563.0	  2466.8	 -2942.3	  1306.2
     41.5947	  2625.0	  2571.5	 -2985.0	  1305.6
     41.6355	  2623.0	  2605.1	 -3020.6	  1304.9
     41.6764	  2279.0	  2552.6	 -3312.1	  1304.2
     41.7172	  2320.0	  2431.0	 -3149.5	  1303.4
     41.7581	  2139.0	  2277.3	 -3176.8	  1302.6
     41.7989	  2039.0	  2132.1	 -3131.6	  1301.8
     41.8398	  2029.0	  2023.0	 -3032.5	  1301.0
     41.8806	  1961.0	  1964.0	 -3041.5	  1300.2
     41.9215	  1932.0	  1959.0	 -3065.5	  1299.3
     41.9624	  2005.0	  1993.5	 -3027.0	  1298.4
     42.0033	  2084.0	  2028.5	 -2983.0	  1297.4
     42.0442	  2074.0	  2026.4	 -2990.9	  1296.5
     42.0851	  1987.0	  1980.6	 -3032.1	  1295.5
     42.1260	  1961.0	  1902.8	 -2980.3	  1294.5
     42.1669	  1706.0	  1814.5	 -3147.0	  1293.5
     42.2079	  1685.0	  1737.7	 -3091.2	  1292.4
     42.2488	  1603.0	  1683.0	 -3118.5	  1291.4
     42.2898	  1689.0	  1650.1	 -2999.6	  1290.3
     42.3307	  1624.0	  1633.5	 -3048.0	  1289.2
     42.3717	  1562.0	  1627.1	 -3103.6	  1288.0
     42.4127	  1550.0	  1626.7	 -3115.2	  1286.9
     42.4537	  1574.0	  1629.8	 -3094.3	  1285.7
     42.4946	  1639.0	  1635.7	 -3035.2	  1284.6
     42.5356	  1781.0	  1644.4	 -2901.9	  1283.4
     42.5766	  1659.0	  1656.8	 -3036.3	  1282.1
     42.6177	  1709.0	  1674.2	 -3003.7	  1280.9
     42.6587	  1868.0	  1698.7	 -2869.2	  1279.7
     42.6997	  1840.0	  1732.5	 -2931.0	  1278.4
     42.7407	  1733.0	  1778.9	 -3084.4	  1277.2
     42.7818	  1786.0	  1839.3	 -3091.8	  1275.9
     42.8228	  1916.0	  1917.7	 -3040.2	  1274.6
     42.8639	  2066.0	  2018.3	 -2990.8	  1273.3
     42.9050	  2157.0	  2149.8	 -3031.3	  1272.0
     42.9460	  2443.0	  2324.7	 -2920.2	  1270.6
     42.9871	  2598.0	  2555.7	 -2996.2	  1269.3
     43.0282	  2884.0	  2852.1	 -3006.6	  1268.0
     43.0693	  3300.0	  3228.2	 -2966.7	  1266.6
     43.1104	  4062.0	  3725.6	 -2702.1	  1265.2
     43.1515	  4466.0	  4409.2	 -2981.7	  1263.9
     43.1926	  5177.0	  5268.1	 -3129.6	  1262.5
     43.2337	  5725.0	  6062.6	 -3376.1	  1261.1
     43.2749	  6347.0	  6429.4	 -3120.9	  1259.7
     43.3160	  5859.0	  6228.8	 -3408.3	  1258.4
     43.3571	  5322.0	  5549.9	 -3266.4	  1257.0
     43.3983	  4236.0	  4594.1	 -3396.6	  1255.6
     43.4395	  3505.0	  3621.8	 -3155.3	  1254.2
     43.4806	  2808.0	  2829.2	 -3059.7	  1252.8
     43.5218	  2224.0	  2276.7	 -3091.2	  1251.4
     43.5630	  2151.0	  1941.2	 -2828.7	  1250.0
     43.6041	  1927.0	  1759.4	 -2870.9	  1248.6
     43.6453	  1792.0	  1670.0	 -2916.5	  1247.2
     43.6865	  1756.0	  1629.4	 -2911.9	  1245.8
     43.7277	  1758.0	  1611.8	 -2892.3	  1244.4
     43.7690	  1616.0	  1603.3	 -3025.8	  1243.0
     43.8102	  1603.0	  1597.2	 -3032.7	  1241.6
     43.8514	  1692.0	  1590.6	 -2937.1	  1240.2
     43.8926	  1587.0	  1582.9	 -3034.4	  1238.8
     43.9339	  1529.0	  1574.3	 -3083.8	  1237.4
     43.9751	  1537.0	  1565.4	 -3066.9	  1236.0
     44.0163	  1484.0	  1556.9	 -3111.4	  1234.7
     44.0576	  1546.0	  1549.3	 -3041.8	  1233.3
     44.0989	  1464.0	  1543.0	 -3117.5	  1231.9
     44.1401	  1566.0	  1538.1	 -3010.6	  1230.6
     44.1814	  1591.0	  1535.1	 -2982.6	  1229.2
     44.2227	  1639.0	  1534.0	 -2933.5	  1227.9
     44.2640	  1557.0	  1535.1	 -3016.6	  1226.6
     44.3053	  1536.0	  1538.6	 -3041.1	  1225.3
     44.3466	  1605.0	  1544.7	 -2978.2	  1223.9
     44.3879	  1537.0	  1553.8	 -3055.3	  1222.6
     44.4292	  1574.0	  1566.7	 -3031.2	  1221.4
     44.4705	  1582.0	  1584.4	 -3040.9	  1220.1
     44.5118	  1618.0	  1608.1	 -3028.6	  1218.8
     44.5531	  1690.0	  1639.1	 -2987.6	  1217.6
     44.5945	  1697.0	  1678.5	 -3020.0	  1216.3
     44.6358	  1759.0	  1729.2	 -3008.7	  1215.1
     44.6771	  1869.0	  1796.7	 -2966.2	  1213.9
     44.7185	  1867.0	  1886.3	 -3057.8	  1212.7
     44.7598	  1959.0	  1993.1	 -3072.6	  1211.5
     44.8012	  2049.0	  2090.3	 -3079.8	  1210.3
     44.8426	  2168.0	  2140.3	 -3010.8	  1209.2
     44.8839	  2101.0	  2125.7	 -3063.2	  1208.0
     44.9253	  2056.0	  2052.6	 -3035.1	  1206.9
     44.9667	  1847.0	  1940.2	 -3131.7	  1205.8
     45.0081	  1733.0	  1816.3	 -3121.8	  1204.7
     45.0495	  1651.0	  1705.5	 -3093.0	  1203.7
     45.0909	  1594.0	  1620.6	 -3065.1	  1202.6
     45.1323	  1539.0	  1563.3	 -3062.8	  1201.6
     45.1737	  1633.0	  1526.7	 -2932.2	  1200.6
     45.2151	  1457.0	  1510.6	 -3092.1	  1199.6
     45.2565	  1450.0	  1506.6	 -3095.1	  1198.6
     45.2979	  1572.0	  1509.3	 -2975.8	  1197.6
     45.3394	  1560.0	  1517.6	 -2996.1	  1196.7
     45.3808	  1460.0	  1526.0	 -3104.5	  1195.8
     45.4222	  1534.0	  1531.1	 -3035.6	  1194.9
     45.4637	  1548.0	  1531.6	 -3022.1	  1194.1
     45.5051	  1552.0	  1528.3	 -3014.8	  1193.2
     45.5466	  1535.0	  1522.9	 -3026.4	  1192.4
     45.5880	  1541.0	  1518.2	 -3015.7	  1191.6
     45.6295	  1522.0	  1516.6	 -3033.1	  1190.8
     45.6709	  1443.0	  1519.2	 -3114.7	  1190.1
     45.7124	  1587.0	  1524.5	 -2976.0	  1189.3
     45.7539	  1560.0	  1528.5	 -3007.0	  1188.6
     45.7954	  1499.0	  1528.5	 -3068.0	  1188.0
     45.8369	  1557.0	  1523.1	 -3004.6	  1187.3
     45.8783	  1553.0	  1513.2	 -2998.7	  1186.7
     45.9198	  1513.0	  1500.9	 -3026.4	  1186.1
     45.9613	  1445.0	  1488.8	 -3082.3	  1185.5
     46.0028	  1371.0	  1478.8	 -3146.3	  1185.0
     46.0443	  1434.0	  1472.2	 -3076.7	  1184.4
     46.0858	  1412.0	  1468.9	 -3095.4	  1183.9
     46.1274	  1419.0	  1468.8	 -3088.3	  1183.5
     46.1689	  1400.0	  1471.4	 -3109.9	  1183.0
     46.2104	  1366.0	  1476.2	 -3148.7	  1182.6
     46.2519	  1483.0	  1483.7	 -3039.2	  1182.2
     46.2934	  1429.0	  1493.8	 -3103.3	  1181.9
     46.3350	  1489.0	  1507.1	 -3056.6	  1181.5
     46.3765	  1504.0	  1524.6	 -3059.1	  1181.2
     46.4181	  1515.0	  1547.3	 -3070.8	  1181.0
     46.4596	  1503.0	  1576.5	 -3112.0	  1180.7
     46.5011	  1503.0	  1613.6	 -3149.1	  1180.5
     46.5427	  1602.0	  1660.2	 -3096.7	  1180.3
     46.5843	  1746.0	  1718.4	 -3010.9	  1180.1
     46.6258	  1778.0	  1791.4	 -3051.9	  1180.0
     46.6674	  1877.0	  1884.8	 -3046.3	  1179.9
     46.7089	  1974.0	  2006.7	 -3071.2	  1179.8
     46.7505	  2222.0	  2166.8	 -2983.3	  1179.8
     46.7921	  2392.0	  2374.4	 -3020.9	  1179.8
     46.8337	  2545.0	  2638.2	 -3131.7	  1179.8
     46.8752	  3052.0	  2972.3	 -2958.8	  1179.8
     46.9168	  3543.0	  3400.8	 -2896.3	  1179.9
     46.9584	  4064.0	  3944.5	 -2919.0	  1180.0
     47.0000	  4629.0	  4568.3	 -2977.8	  1180.1
     47.0416	  4789.0	  5124.7	 -3374.2	  1180.3
     47.0832	  5471.0	  5412.8	 -2980.3	  1180.5
     47.1248	  5639.0	  5339.4	 -2738.9	  1180.7
     47.1664	  5022.0	  1367.5	   616.0	  1181.0
     47.2080	  4328.0	  1367.8	 -3038.5	  1181.2
     47.2496	  3720.0	  1368.1	 -3038.5	  1181.6
     47.2912	  3093.0	  1368.5	 -3038.5	  1181.9
     47.3328	  2552.0	  1368.8	 -3038.5	  1182.3
     47.3744	  2279.0	  1369.2	 -3038.5	  1182.7
     47.4160	  2035.0	  1369.7	 -3038.5	  1183.1
     47.4577	  1858.0	  1370.1	 -3038.5	  1183.5
     47.4993	  1846.0	  1370.6	 -3038.5	  1184.0
     47.5409	  1853.0	  1371.1	 -3038.5	  1184.5
     47.5826	  1727.0	  1371.6	 -3038.5	  1185.1
     47.6242	  1709.0	  1372.2	 -3038.5	  1185.6
     47.6658	  1723.0	  1372.8	 -3038.5	  1186.2
     47.7075	  1659.0	  1373.4	 -3038.5	  1186.9
     47.7491	  1673.0	  1374.1	 -3038.5	  1187.5
     47.7907	  1647.0	  1374.8	 -3038.5	  1188.2
     47.8324	  1659.0	  1375.5	 -3038.5	  1188.9
     47.8740	  1585.0	  1376.2	 -3038.5	  1189.6
     47.9157	  1589.0	  1376.9	 -3038.5	  1190.4
     47.9573	  1643.0	  1377.7	 -3038.5	  1191.1
     47.9990	  1655.0	  1378.5	 -3038.5	  1192.0
     48.0406	  1812.0	  1379.4	 -3038.5	  1192.8
     48.0823	  1856.0	  1380.2	 -3038.5	  1193.6
