S13 800C 10Kmin    CELL:    5.90246   5.90246  23.16514   90.0000   90.0000  120.0000   SPGR: P 63/m m c             TEMP:     35.00
  1    775     1.78919     1.79310     0.53865     0.00000    -0.83959    0
   70    0    2
      59.50000      63.70000
      47.20000      48.40000
 2Theta	Yobs	Ycal	Yobs-Ycal	Backg	Bragg	Posr	(hkl)	K
     34.2679	   980.0	  1080.4	 -3159.4	   827.8	     35.3446	       0	(  1  1  0)	  0  1
     34.3065	  1077.0	  1082.7	 -3064.7	   827.6	     35.4233	       0	(  1  1  0)	  0  2
     34.3452	  1196.0	  1088.2	 -2951.2	   827.5	     36.0366	       0	(  0  0  8)	  0  1
     34.3839	  1028.0	  1091.2	 -3122.2	   827.4	     36.1170	       0	(  0  0  8)	  0  2
     34.4225	  1089.0	  1096.0	 -3066.0	   827.4	     36.4972	       0	(  1  1  2)	  0  1
     34.4613	  1175.0	  1099.8	 -2983.8	   827.4	     36.5788	       0	(  1  1  2)	  0  2
     34.5000	  1109.0	  1104.1	 -3054.1	   827.5	     37.5986	       0	(  1  0  7)	  0  1
     34.5387	  1070.0	  1109.0	 -3098.0	   827.6	     37.6828	       0	(  1  0  7)	  0  2
     34.5774	  1111.0	  1114.7	 -3062.7	   827.8	     39.7816	       0	(  1  1  4)	  0  1
     34.6162	  1165.0	  1121.2	 -3015.2	   828.1	     39.8712	       0	(  1  1  4)	  0  2
     34.6550	  1126.0	  1128.6	 -3061.6	   828.4	     40.9652	       0	(  2  0  0)	  0  1
     34.6938	  1180.0	  1137.4	 -3016.4	   828.8	     41.0577	       0	(  2  0  0)	  0  2
     34.7326	  1129.0	  1147.9	 -3077.9	   829.3	     41.2222	       0	(  2  0  1)	  0  1
     34.7714	  1130.0	  1160.7	 -3089.7	   829.9	     41.3154	       0	(  2  0  1)	  0  2
     34.8102	  1241.0	  1176.9	 -2994.9	   830.6	     41.5769	       0	(  1  0  8)	  0  1
     34.8491	  1229.0	  1198.8	 -3028.8	   831.4	     41.6710	       0	(  1  0  8)	  0  2
     34.8880	  1225.0	  1229.4	 -3063.4	   832.3	     41.9857	       0	(  2  0  2)	  0  1
     34.9268	  1304.0	  1273.8	 -3028.8	   833.3	     42.0808	       0	(  2  0  2)	  0  2
     34.9657	  1310.0	  1338.1	 -3087.1	   834.4	     43.2335	       0	(  2  0  3)	  0  1
     35.0046	  1521.0	  1428.7	 -2966.7	   835.6	     43.3318	       0	(  2  0  3)	  0  2
     35.0435	  1559.0	  1551.9	 -3051.9	   836.9	     44.8050	       0	(  1  1  6)	  0  1
     35.0825	  1798.0	  1715.3	 -2976.3	   838.3	     44.9073	       0	(  1  1  6)	  0  2
     35.1214	  1876.0	  1933.2	 -3116.2	   839.8	     44.9336	       0	(  2  0  4)	  0  1
     35.1604	  2133.0	  2217.9	 -3143.9	   841.4	     45.0363	       0	(  2  0  4)	  0  2
     35.1994	  2418.0	  2560.5	 -3201.5	   843.2	     45.3748	       0	(  0  0 10)	  0  1
     35.2384	  3073.0	  2980.3	 -2966.3	   845.0	     45.4785	       0	(  0  0 10)	  0  2
     35.2774	  3799.0	  3660.8	 -2920.8	   847.0	     45.7386	       0	(  1  0  9)	  0  1
     35.3164	  4779.0	  4820.5	 -3100.5	   849.0	     45.8433	       0	(  1  0  9)	  0  2
     35.3554	  6155.0	  6032.1	 -2936.1	   851.2	     47.0482	       0	(  2  0  5)	  0  1
     35.3945	  6390.0	  6398.2	 -3067.2	   853.5	     47.1563	       0	(  2  0  5)	  0  2
     35.4335	  5514.0	  5777.4	 -3322.4	   855.8	     49.5385	       0	(  2  0  6)	  0  1
     35.4726	  4445.0	  4520.8	 -3134.8	   858.3	     49.6532	       0	(  2  0  6)	  0  2
     35.5117	  3091.0	  3190.4	 -3158.4	   860.9	     50.0670	       0	(  1  0 10)	  0  1
     35.5508	  2126.0	  2219.4	 -3152.4	   863.6	     50.1831	       0	(  1  0 10)	  0  2
     35.5899	  1741.0	  1692.9	 -3010.9	   866.4	     51.1768	       0	(  1  1  8)	  0  1
     35.6290	  1643.0	  1486.2	 -2902.2	   869.3	     51.2959	       0	(  1  1  8)	  0  2
     35.6682	  1416.0	  1445.7	 -3088.7	   872.3	     52.3685	       0	(  2  0  7)	  0  1
     35.7073	  1445.0	  1472.3	 -3086.3	   875.4	     52.4909	       0	(  2  0  7)	  0  2
     35.7465	  1485.0	  1519.3	 -3093.3	   878.6	     54.5552	       0	(  1  0 11)	  0  1
     35.7857	  1518.0	  1567.6	 -3108.6	   881.9	     54.6836	       0	(  1  0 11)	  0  2
     35.8249	  1568.0	  1612.3	 -3103.3	   885.3	     55.0155	       0	(  2  1  0)	  0  1
     35.8641	  1675.0	  1658.0	 -3042.0	   888.7	     55.0649	       0	(  0  0 12)	  0  1
     35.9033	  1730.0	  1719.7	 -3048.7	   892.3	     55.1453	       0	(  2  1  0)	  0  2
     35.9426	  1826.0	  1821.5	 -3054.5	   895.9	     55.1948	       0	(  0  0 12)	  0  2
     35.9818	  1930.0	  1982.2	 -3111.2	   899.6	     55.2217	       0	(  2  1  1)	  0  1
     36.0211	  2143.0	  2182.6	 -3098.6	   903.4	     55.3521	       0	(  2  1  1)	  0  2
     36.0603	  2454.0	  2351.0	 -2956.0	   907.3	     55.5072	       0	(  2  0  8)	  0  1
     36.0996	  2443.0	  2415.7	 -3031.7	   911.2	     55.6383	       0	(  2  0  8)	  0  2
     36.1389	  2341.0	  2357.7	 -3075.7	   915.2	     55.8373	       0	(  2  1  2)	  0  1
     36.1783	  2093.0	  2206.2	 -3172.2	   919.3	     55.9694	       0	(  2  1  2)	  0  2
     36.2176	  2053.0	  2018.6	 -3024.6	   923.5	     56.8537	       0	(  2  1  3)	  0  1
     36.2569	  1794.0	  1849.7	 -3114.7	   927.7	     56.9887	       0	(  2  1  3)	  0  2
     36.2963	  1738.0	  1730.0	 -3051.0	   931.9	     58.2575	       0	(  2  1  4)	  0  1
     36.3357	  1649.0	  1665.8	 -3075.8	   936.2	     58.3966	       0	(  2  1  4)	  0  2
     36.3750	  1779.0	  1654.8	 -2934.8	   940.6	     58.6252	       0	(  1  1 10)	  0  1
     36.4144	  1830.0	  1705.1	 -2934.1	   945.0	     58.7653	       0	(  1  1 10)	  0  2
     36.4539	  1786.0	  1831.0	 -3104.0	   949.5	     58.9295	       0	(  2  0  9)	  0  1
     36.4933	  2113.0	  1999.8	 -2945.8	   954.0	     59.0705	       0	(  2  0  9)	  0  2
     36.5327	  2058.0	  2109.7	 -3110.7	   958.6	     59.2035	       0	(  1  0 12)	  0  1
     36.5722	  1972.0	  2099.4	 -3186.4	   963.2	     59.3453	       0	(  1  0 12)	  0  2
     36.6116	  1837.0	  1983.3	 -3205.3	   967.8	     63.8863	       0	(  3  0  2)	  0  1
     36.6511	  1739.0	  1814.0	 -3134.0	   972.5	     64.0187	       0	(  1  0 13)	  0  1
     36.6906	  1655.0	  1658.1	 -3062.1	   977.2	     64.0422	       0	(  3  0  2)	  0  2
     36.7301	  1583.0	  1552.1	 -3028.1	   981.9	     64.1750	       0	(  1  0 13)	  0  2
     36.7696	  1673.0	  1499.0	 -2885.0	   986.6	     64.6251	       0	(  2  1  7)	  0  1
     36.8091	  1611.0	  1485.5	 -2933.5	   991.4	     64.7832	       0	(  2  1  7)	  0  2
     36.8487	  1651.0	  1496.8	 -2904.8	   996.2	     64.8265	       0	(  3  0  3)	  0  1
     36.8882	  1523.0	  1523.7	 -3059.7	  1001.0	     64.9853	       0	(  3  0  3)	  0  2
     36.9278	  1678.0	  1562.6	 -2943.6	  1005.8	     65.2313	       0	(  0  0 14)	  0  1
     36.9674	  1663.0	  1613.8	 -3009.8	  1010.7	     65.3914	       0	(  0  0 14)	  0  2
     37.0070	  1716.0	  1679.8	 -3022.8	  1015.5
     37.0466	  1589.0	  1764.7	 -3234.7	  1020.3
     37.0862	  1899.0	  1872.7	 -3032.7	  1025.2
     37.1258	  1849.0	  2007.3	 -3217.3	  1030.0
     37.1654	  1903.0	  2170.7	 -3326.7	  1034.9
     37.2051	  2179.0	  2363.7	 -3243.7	  1039.7
     37.2448	  2237.0	  2586.5	 -3408.5	  1044.5
     37.2844	  2498.0	  2839.1	 -3400.1	  1049.3
     37.3241	  2636.0	  3120.5	 -3543.5	  1054.1
     37.3638	  3177.0	  3428.3	 -3310.3	  1058.9
     37.4035	  3653.0	  3769.2	 -3175.2	  1063.7
     37.4433	  4521.0	  4186.9	 -2724.9	  1068.4
     37.4830	  4934.0	  4792.4	 -2917.4	  1073.2
     37.5228	  6039.0	  5737.0	 -2757.0	  1077.9
     37.5625	  7292.0	  7039.8	 -2806.8	  1082.6
     37.6023	  8402.0	  8352.2	 -3009.2	  1087.2
     37.6421	  9089.0	  9096.5	 -3066.5	  1091.8
     37.6819	  8574.0	  8955.9	 -3440.9	  1096.4
     37.7217	  7650.0	  7999.9	 -3408.9	  1101.0
     37.7615	  6087.0	  6555.3	 -3527.3	  1105.5
     37.8014	  4597.0	  5045.5	 -3507.5	  1110.0
     37.8412	  3638.0	  3772.1	 -3193.1	  1114.5
     37.8811	  3056.0	  2848.3	 -2851.3	  1118.9
     37.9210	  2520.0	  2254.3	 -2793.3	  1123.2
     37.9608	  2320.0	  1912.4	 -2651.4	  1127.5
     38.0007	  2115.0	  1737.9	 -2681.9	  1131.8
     38.0406	  2077.0	  1663.3	 -2645.3	  1136.0
     38.0806	  2035.0	  1642.2	 -2666.2	  1140.2
     38.1205	  1891.0	  1645.5	 -2813.5	  1144.4
     38.1604	  1858.0	  1656.3	 -2857.3	  1148.4
     38.2004	  1811.0	  1665.9	 -2913.9	  1152.5
     38.2404	  1774.0	  1670.8	 -2955.8	  1156.4
     38.2803	  1675.0	  1670.6	 -3054.6	  1160.4
     38.3203	  1775.0	  1666.4	 -2950.4	  1164.2
     38.3603	  1714.0	  1659.8	 -3004.8	  1168.0
     38.4003	  1693.0	  1652.1	 -3018.1	  1171.8
     38.4404	  1693.0	  1644.6	 -3010.6	  1175.5
     38.4804	  1672.0	  1638.2	 -3025.2	  1179.1
     38.5205	  1770.0	  1632.9	 -2921.9	  1182.7
     38.5605	  1764.0	  1629.2	 -2924.2	  1186.2
     38.6006	  1747.0	  1627.1	 -2939.1	  1189.7
     38.6407	  1780.0	  1626.5	 -2905.5	  1193.1
     38.6808	  1676.0	  1627.5	 -3010.5	  1196.4
     38.7209	  1602.0	  1630.1	 -3087.1	  1199.7
     38.7610	  1651.0	  1634.3	 -3042.3	  1202.9
     38.8011	  1675.0	  1640.1	 -3024.1	  1206.0
     38.8412	  1565.0	  1647.6	 -3141.6	  1209.1
     38.8814	  1682.0	  1656.9	 -3033.9	  1212.1
     38.9215	  1511.0	  1668.3	 -3216.3	  1215.0
     38.9617	  1644.0	  1682.2	 -3097.2	  1217.9
     39.0019	  1708.0	  1699.0	 -3050.0	  1220.7
     39.0421	  1605.0	  1719.9	 -3173.9	  1223.5
     39.0823	  1628.0	  1746.2	 -3177.2	  1226.2
     39.1225	  1616.0	  1780.0	 -3223.0	  1228.8
     39.1627	  1676.0	  1824.7	 -3207.7	  1231.3
     39.2030	  1777.0	  1884.6	 -3166.6	  1233.8
     39.2432	  1829.0	  1965.1	 -3195.1	  1236.3
     39.2835	  1751.0	  2072.4	 -3380.4	  1238.6
     39.3237	  1930.0	  2212.6	 -3341.6	  1240.9
     39.3640	  2096.0	  2391.4	 -3354.4	  1243.1
     39.4043	  2290.0	  2614.2	 -3383.2	  1245.3
     39.4446	  2567.0	  2887.7	 -3379.7	  1247.4
     39.4849	  2955.0	  3227.5	 -3331.5	  1249.4
     39.5252	  3289.0	  3645.6	 -3415.6	  1251.4
     39.5656	  3858.0	  4151.5	 -3352.5	  1253.3
     39.6059	  4470.0	  4757.8	 -3346.8	  1255.1
     39.6463	  5845.0	  5533.3	 -2747.3	  1256.9
     39.6866	  6806.0	  6651.8	 -2904.8	  1258.6
     39.7270	  8646.0	  8277.1	 -2690.1	  1260.2
     39.7674	 10384.0	 10178.9	 -2853.9	  1261.8
     39.8078	 12236.0	 11546.4	 -2369.4	  1263.3
     39.8482	 12078.0	 11712.8	 -2693.8	  1264.8
     39.8886	 10829.0	 10656.7	 -2886.7	  1266.2
     39.9290	  8723.0	  8751.0	 -3087.0	  1267.5
     39.9695	  6494.0	  6608.1	 -3173.1	  1268.8
     40.0099	  4623.0	  4760.3	 -3196.3	  1270.0
     40.0504	  3678.0	  3436.1	 -2817.1	  1271.2
     40.0908	  2880.0	  2616.9	 -2795.9	  1272.3
     40.1313	  2517.0	  2172.0	 -2714.0	  1273.3
     40.1718	  2349.0	  1959.4	 -2669.4	  1274.3
     40.2123	  2164.0	  1872.6	 -2767.6	  1275.2
     40.2528	  1948.0	  1845.6	 -2956.6	  1276.1
     40.2933	  1991.0	  1842.1	 -2910.1	  1276.9
     40.3338	  1910.0	  1843.5	 -2992.5	  1277.7
     40.3744	  1919.0	  1842.3	 -2982.3	  1278.4
     40.4149	  1853.0	  1836.8	 -3042.8	  1279.0
     40.4555	  1734.0	  1828.2	 -3153.2	  1279.6
     40.4960	  1646.0	  1819.1	 -3232.1	  1280.2
     40.5366	  1698.0	  1812.0	 -3173.0	  1280.7
     40.5772	  1729.0	  1809.0	 -3139.0	  1281.1
     40.6178	  1744.0	  1812.2	 -3127.2	  1281.5
     40.6584	  1790.0	  1825.0	 -3094.0	  1281.9
     40.6990	  1919.0	  1848.9	 -2988.9	  1282.2
     40.7396	  1774.0	  1890.0	 -3175.0	  1282.5
     40.7802	  1985.0	  1950.4	 -3024.4	  1282.7
     40.8209	  2067.0	  2032.9	 -3024.9	  1282.8
     40.8615	  2102.0	  2148.2	 -3105.2	  1283.0
     40.9022	  2316.0	  2318.2	 -3061.2	  1283.0
     40.9428	  2502.0	  2539.0	 -3096.0	  1283.1
     40.9835	  2753.0	  2731.3	 -3037.3	  1283.1
     41.0242	  2850.0	  2810.7	 -3019.7	  1283.0
     41.0649	  2808.0	  2779.2	 -3030.2	  1282.9
     41.1056	  2814.0	  2687.9	 -2932.9	  1282.8
     41.1463	  2553.0	  2619.0	 -3125.0	  1282.6
     41.1870	  2540.0	  2634.6	 -3153.6	  1282.4
     41.2278	  2670.0	  2704.2	 -3093.2	  1282.2
     41.2685	  2793.0	  2735.5	 -3001.5	  1281.9
     41.3092	  2628.0	  2686.2	 -3117.2	  1281.6
     41.3500	  2648.0	  2568.3	 -2979.3	  1281.3
     41.3908	  2472.0	  2425.9	 -3012.9	  1280.9
     41.4315	  2406.0	  2319.0	 -2972.0	  1280.5
     41.4723	  2443.0	  2289.4	 -2905.4	  1280.1
     41.5131	  2437.0	  2346.3	 -2968.3	  1279.6
     41.5539	  2503.0	  2460.0	 -3016.0	  1279.1
     41.5947	  2667.0	  2566.6	 -2958.6	  1278.5
     41.6355	  2642.0	  2607.9	 -3024.9	  1278.0
     41.6764	  2314.0	  2564.7	 -3309.7	  1277.4
     41.7172	  2348.0	  2451.3	 -3162.3	  1276.8
     41.7581	  2169.0	  2302.4	 -3192.4	  1276.1
     41.7989	  1937.0	  2158.3	 -3280.3	  1275.5
     41.8398	  2057.0	  2047.8	 -3049.8	  1274.8
     41.8806	  1935.0	  1986.8	 -3110.8	  1274.1
     41.9215	  1989.0	  1980.8	 -3050.8	  1273.3
     41.9624	  2035.0	  2016.6	 -3040.6	  1272.6
     42.0033	  2071.0	  2053.8	 -3041.8	  1271.8
     42.0442	  2101.0	  2052.7	 -3010.7	  1271.0
     42.0851	  2091.0	  2005.9	 -2973.9	  1270.2
     42.1260	  1962.0	  1924.5	 -3021.5	  1269.3
     42.1669	  1738.0	  1830.8	 -3151.8	  1268.5
     42.2079	  1699.0	  1748.6	 -3108.6	  1267.6
     42.2488	  1630.0	  1689.4	 -3118.4	  1266.7
     42.2898	  1671.0	  1653.4	 -3041.4	  1265.8
     42.3307	  1593.0	  1635.0	 -3101.0	  1264.9
     42.3717	  1561.0	  1627.7	 -3125.7	  1263.9
     42.4127	  1560.0	  1627.0	 -3126.0	  1263.0
     42.4537	  1605.0	  1630.0	 -3084.0	  1262.0
     42.4946	  1720.0	  1636.0	 -2975.0	  1261.0
     42.5356	  1718.0	  1644.9	 -2985.9	  1260.0
     42.5766	  1705.0	  1657.4	 -3011.4	  1259.0
     42.6177	  1732.0	  1675.0	 -3002.0	  1258.0
     42.6587	  1807.0	  1699.6	 -2951.6	  1257.0
     42.6997	  1846.0	  1734.2	 -2947.2	  1256.0
     42.7407	  1822.0	  1779.8	 -3016.8	  1254.9
     42.7818	  1883.0	  1840.2	 -3016.2	  1253.9
     42.8228	  1858.0	  1917.7	 -3118.7	  1252.8
     42.8639	  1940.0	  2017.2	 -3136.2	  1251.8
     42.9050	  2065.0	  2146.9	 -3140.9	  1250.7
     42.9460	  2421.0	  2318.6	 -2956.6	  1249.6
     42.9871	  2542.0	  2544.5	 -3061.5	  1248.5
     43.0282	  2854.0	  2833.5	 -3038.5	  1247.4
     43.0693	  3183.0	  3199.5	 -3075.5	  1246.3
     43.1104	  3809.0	  3682.7	 -2932.7	  1245.3
     43.1515	  4515.0	  4345.7	 -2889.7	  1244.2
     43.1926	  5053.0	  5182.2	 -3188.2	  1243.1
     43.2337	  5742.0	  5968.5	 -3285.5	  1242.0
     43.2749	  6341.0	  6350.5	 -3068.5	  1240.8
     43.3160	  5857.0	  6179.7	 -3381.7	  1239.7
     43.3571	  5382.0	  5535.1	 -3212.1	  1238.6
     43.3983	  4369.0	  4607.4	 -3297.4	  1237.5
     43.4395	  3479.0	  3652.5	 -3232.5	  1236.4
     43.4806	  2879.0	  2862.2	 -3042.2	  1235.3
     43.5218	  2382.0	  2303.8	 -2980.8	  1234.2
     43.5630	  2108.0	  1961.3	 -2912.3	  1233.1
     43.6041	  1898.0	  1772.1	 -2933.1	  1232.0
     43.6453	  1777.0	  1678.5	 -2960.5	  1230.9
     43.6865	  1763.0	  1635.7	 -2931.7	  1229.8
     43.7277	  1804.0	  1617.1	 -2872.1	  1228.7
     43.7690	  1574.0	  1608.4	 -3093.4	  1227.6
     43.8102	  1641.0	  1602.6	 -3020.6	  1226.6
     43.8514	  1675.0	  1596.5	 -2980.5	  1225.5
     43.8926	  1563.0	  1589.3	 -3085.3	  1224.4
     43.9339	  1557.0	  1581.2	 -3083.2	  1223.3
     43.9751	  1564.0	  1572.7	 -3067.7	  1222.3
     44.0163	  1479.0	  1564.5	 -3144.5	  1221.2
     44.0576	  1613.0	  1557.1	 -3003.1	  1220.2
     44.0989	  1599.0	  1550.8	 -3010.8	  1219.1
     44.1401	  1529.0	  1546.0	 -3076.0	  1218.1
     44.1814	  1574.0	  1542.9	 -3027.9	  1217.1
     44.2227	  1636.0	  1541.7	 -2964.7	  1216.1
     44.2640	  1536.0	  1542.5	 -3065.5	  1215.1
     44.3053	  1519.0	  1545.5	 -3085.5	  1214.1
     44.3466	  1498.0	  1551.0	 -3112.0	  1213.1
     44.3879	  1604.0	  1559.2	 -3014.2	  1212.1
     44.4292	  1590.0	  1570.9	 -3039.9	  1211.1
     44.4705	  1668.0	  1586.8	 -2977.8	  1210.1
     44.5118	  1643.0	  1608.2	 -3024.2	  1209.2
     44.5531	  1672.0	  1636.0	 -3023.0	  1208.2
     44.5945	  1674.0	  1671.4	 -3056.4	  1207.3
     44.6358	  1770.0	  1716.9	 -3005.9	  1206.4
     44.6771	  1671.0	  1777.2	 -3165.2	  1205.5
     44.7185	  1890.0	  1857.3	 -3026.3	  1204.6
     44.7598	  1846.0	  1953.6	 -3166.6	  1203.7
     44.8012	  1940.0	  2043.0	 -3162.0	  1202.8
     44.8426	  2081.0	  2091.9	 -3069.9	  1202.0
     44.8839	  2085.0	  2082.9	 -3056.9	  1201.1
     44.9253	  2140.0	  2020.3	 -2939.3	  1200.3
     44.9667	  1958.0	  1920.7	 -3021.7	  1199.5
     45.0081	  1747.0	  1808.6	 -3120.6	  1198.7
     45.0495	  1635.0	  1706.6	 -3130.6	  1197.9
     45.0909	  1680.0	  1627.1	 -3006.1	  1197.1
     45.1323	  1573.0	  1572.7	 -3058.7	  1196.3
     45.1737	  1640.0	  1539.9	 -2958.9	  1195.6
     45.2151	  1472.0	  1523.5	 -3110.5	  1194.8
     45.2565	  1490.0	  1515.8	 -3084.8	  1194.1
     45.2979	  1507.0	  1518.6	 -3070.6	  1193.4
     45.3394	  1516.0	  1524.2	 -3067.2	  1192.7
     45.3808	  1491.0	  1531.5	 -3099.5	  1192.0
     45.4222	  1525.0	  1535.9	 -3069.9	  1191.4
     45.4637	  1538.0	  1535.9	 -3056.9	  1190.7
     45.5051	  1575.0	  1531.9	 -3015.9	  1190.1
     45.5466	  1509.0	  1525.4	 -3075.4	  1189.5
     45.5880	  1540.0	  1518.7	 -3037.7	  1188.9
     45.6295	  1532.0	  1513.9	 -3040.9	  1188.3
     45.6709	  1585.0	  1512.2	 -2986.2	  1187.7
     45.7124	  1522.0	  1513.0	 -3050.0	  1187.2
     45.7539	  1568.0	  1514.3	 -3005.3	  1186.7
     45.7954	  1505.0	  1513.6	 -3067.6	  1186.2
     45.8369	  1458.0	  1510.6	 -3111.6	  1185.7
     45.8783	  1529.0	  1505.3	 -3035.3	  1185.2
     45.9198	  1454.0	  1498.8	 -3103.8	  1184.7
     45.9613	  1424.0	  1492.5	 -3127.5	  1184.3
     46.0028	  1396.0	  1487.6	 -3150.6	  1183.9
     46.0443	  1441.0	  1484.9	 -3102.9	  1183.5
     46.0858	  1528.0	  1484.4	 -3015.4	  1183.1
     46.1274	  1458.0	  1486.1	 -3087.1	  1182.7
     46.1689	  1465.0	  1489.9	 -3083.9	  1182.4
     46.2104	  1464.0	  1495.7	 -3090.7	  1182.1
     46.2519	  1443.0	  1503.4	 -3119.4	  1181.8
     46.2934	  1474.0	  1513.9	 -3098.9	  1181.5
     46.3350	  1491.0	  1527.7	 -3095.7	  1181.2
     46.3765	  1492.0	  1545.3	 -3112.3	  1181.0
     46.4181	  1430.0	  1568.2	 -3197.2	  1180.7
     46.4596	  1528.0	  1597.5	 -3128.5	  1180.5
     46.5011	  1616.0	  1634.6	 -3077.6	  1180.3
     46.5427	  1586.0	  1681.1	 -3154.1	  1180.2
     46.5843	  1716.0	  1739.0	 -3082.0	  1180.0
     46.6258	  1797.0	  1811.5	 -3073.5	  1179.9
     46.6674	  1819.0	  1903.9	 -3143.9	  1179.8
     46.7089	  2050.0	  2023.9	 -3032.9	  1179.7
     46.7505	  2248.0	  2180.9	 -2991.9	  1179.6
     46.7921	  2392.0	  2383.6	 -3050.6	  1179.6
     46.8337	  2572.0	  2640.8	 -3127.8	  1179.5
     46.8752	  3059.0	  2965.8	 -2965.8	  1179.5
     46.9168	  3513.0	  3382.0	 -2928.0	  1179.5
     46.9584	  3939.0	  3910.3	 -3030.3	  1179.6
     47.0000	  4534.0	  4520.5	 -3045.5	  1179.6
     47.0416	  4800.0	  5074.7	 -3333.7	  1179.7
     47.0832	  5481.0	  5376.8	 -2954.8	  1179.8
     47.1248	  5611.0	  5327.3	 -2775.3	  1179.9
     47.1664	  4962.0	  1388.1	   514.9	  1180.1
     47.2080	  4315.0	  1388.2	 -3059.0	  1180.2
     47.2496	  3840.0	  1388.4	 -3059.0	  1180.4
     47.2912	  2970.0	  1388.6	 -3059.0	  1180.6
     47.3328	  2621.0	  1388.8	 -3059.0	  1180.8
     47.3744	  2463.0	  1389.1	 -3059.0	  1181.1
     47.4160	  2036.0	  1389.3	 -3059.0	  1181.3
     47.4577	  1831.0	  1389.6	 -3059.0	  1181.6
     47.4993	  1844.0	  1389.9	 -3059.0	  1181.9
     47.5409	  1806.0	  1390.2	 -3059.0	  1182.2
     47.5826	  1723.0	  1390.6	 -3059.0	  1182.6
     47.6242	  1780.0	  1390.9	 -3059.0	  1182.9
     47.6658	  1777.0	  1391.3	 -3059.0	  1183.3
     47.7075	  1705.0	  1391.7	 -3059.0	  1183.7
     47.7491	  1710.0	  1392.2	 -3059.0	  1184.2
     47.7907	  1598.0	  1392.6	 -3059.0	  1184.6
     47.8324	  1628.0	  1393.1	 -3059.0	  1185.1
     47.8740	  1546.0	  1393.6	 -3059.0	  1185.6
     47.9157	  1662.0	  1394.1	 -3059.0	  1186.1
     47.9573	  1628.0	  1394.6	 -3059.0	  1186.6
     47.9990	  1604.0	  1395.1	 -3059.0	  1187.1
     48.0406	  1737.0	  1395.7	 -3059.0	  1187.7
     48.0823	  1824.0	  1396.3	 -3059.0	  1188.3
