neutron_powder_diffraction_0008
R_wp: 3.657
Temperature (K): 446.070
Counts: 83558.00
Wavelength (Ã…): 2.52098
COMMENTS
Test file for demonstrating the .xyy file format in Reel1.0
END OF HEADER
   tth       Y_obs     Y_calc      Y_res    Background    Phase_1_Nuc    Phase_1_Mag    Phase_2_Nuc    Phase_2_Mag
  9.970    760.000    739.538     20.462    737.804    738.841    738.501    737.804    737.804
 10.070    734.868    738.460     -3.592    736.636    737.756    737.341    736.636    736.636
 10.170    731.728    737.402     -5.674    735.476    736.689    736.188    735.476    735.476
 10.270    728.000    736.363     -8.363    734.323    735.644    735.042    734.323    734.323
 10.370    730.000    735.348     -5.348    733.177    734.621    733.904    733.177    733.177
 10.470    728.000    734.360     -6.360    732.038    733.625    732.773    732.038    732.038
 10.570    733.000    733.403     -0.403    730.906    732.660    731.649    730.906    730.906
 10.670    747.000    732.483     14.517    729.781    731.731    730.532    729.781    729.781
 10.770    719.000    731.608    -12.608    728.663    730.848    729.422    728.663    728.663
 10.870    714.583    730.789    -16.205    727.552    730.019    728.320    727.552    727.552
 10.970    690.315    730.036    -39.721    726.448    729.258    727.225    726.448    726.448
 11.070    724.000    729.367     -5.367    725.351    728.580    726.136    725.351    725.351
 11.170    747.243    728.809     18.434    724.261    728.013    725.055    724.261    724.261
 11.270    737.000    728.400      8.600    723.178    727.595    723.981    723.178    723.178
 11.370    791.000    728.202     62.798    722.102    727.387    722.914    722.102    722.102
 11.470    679.178    728.339    -49.161    721.032    727.514    721.854    721.032    721.032
 11.570    789.000    729.148     59.852    719.970    728.313    720.801    719.970    719.970
 11.670    769.000    730.957     38.043    718.914    730.110    719.754    718.914    718.914
 11.770    791.000    734.874     56.126    717.865    734.015    718.715    717.865    717.865
 11.870    763.000    742.648     20.352    716.822    741.774    717.683    716.822    716.822
 11.970    721.216    756.334    -35.118    715.787    755.441    716.657    715.787    715.787
 12.070    855.000    777.037     77.963    714.758    776.122    715.639    714.758    714.758
 12.170    817.847    802.538     15.309    713.736    801.597    714.627    713.736    713.736
 12.270    882.000    824.514     57.486    712.721    823.551    713.623    712.721    712.721
 12.370    841.000    830.150     10.850    711.712    829.172    712.625    711.712    711.712
 12.470    787.831    814.311    -26.479    710.710    813.329    711.634    710.710    710.710
 12.570    784.275    787.112     -2.837    709.714    786.134    710.650    709.714    709.714
 12.670    712.000    760.874    -48.874    708.726    759.899    709.672    708.726    708.726
 12.770    753.000    741.122     11.878    707.743    740.146    708.702    707.743    707.743
 12.870    743.000    728.244     14.756    706.767    727.262    707.738    706.767    706.767
 12.970    742.510    720.425     22.085    705.798    719.435    706.781    705.798    705.798
 13.070    706.769    715.646     -8.878    704.836    714.646    705.831    704.836    704.836
 13.170    657.337    712.462    -55.125    703.879    711.450    704.887    703.879    703.879
 13.270    761.000    710.080     50.920    702.930    709.056    703.950    702.930    702.930
 13.370    674.000    708.128    -34.128    701.986    707.091    703.020    701.986    701.986
 13.470    702.000    706.439     -4.439    701.049    705.389    702.097    701.049    701.049
 13.570    668.000    704.928    -36.928    700.119    703.865    701.180    700.119    700.119
 13.670    659.000    703.549    -44.549    699.195    702.472    700.269    699.195    699.195
 13.770    695.000    702.267     -7.267    698.277    701.177    699.366    698.277    698.277
 13.870    752.726    701.062     51.664    697.366    699.957    698.469    697.366    697.366
 13.970    728.000    699.916     28.084    696.460    698.797    697.579    696.460    696.460
 14.070    763.000    698.820     64.180    695.562    697.686    696.695    695.562    695.562
 14.170    686.000    697.764    -11.764    694.669    696.614    695.818    694.669    694.669
 14.270    748.501    696.741     51.760    693.783    695.576    694.947    693.783    693.783
 14.370    727.531    695.747     31.784    692.903    694.566    694.083    692.903    692.903
 14.470    711.785    694.777     17.008    692.029    693.580    693.226    692.029    692.029
 14.570    741.298    693.829     47.469    691.161    692.615    692.375    691.161    691.161
 14.670    736.301    692.904     43.397    690.300    691.674    691.530    690.300    690.300
 14.770    679.000    692.000    -13.000    689.445    690.752    690.692    689.445    689.445
 14.870    676.979    691.104    -14.126    688.595    689.838    689.861    688.595    688.595
 14.970    717.302    690.222     27.081    687.752    688.937    689.036    687.752    687.752
 15.070    640.489    689.352    -48.863    686.915    688.049    688.217    686.915    686.915
 15.170    620.000    688.494    -68.494    686.084    687.173    687.405    686.084    686.084
 15.270    692.000    687.648      4.352    685.259    686.307    686.600    685.259    685.259
 15.370    693.000    686.813      6.187    684.440    685.452    685.801    684.440    684.440
 15.470    683.000    685.989     -2.989    683.627    684.609    685.008    683.627    683.627
 15.570    720.000    685.195     34.805    682.820    683.793    684.222    682.820    682.820
 15.670    679.000    684.402     -5.402    682.019    682.979    683.442    682.019    682.019
 15.770    673.000    683.606    -10.606    681.224    682.162    682.668    681.224    681.224
 15.870    670.000    682.818    -12.818    680.435    681.351    681.901    680.435    680.435
 15.970    707.000    682.038     24.962    679.652    680.549    681.141    679.652    679.652
 16.070    684.000    681.266      2.734    678.875    679.754    680.387    678.875    678.875
 16.170    637.987    680.503    -42.516    678.103    678.967    679.639    678.103    678.103
 16.270    683.000    679.748      3.252    677.337    678.187    678.897    677.337    677.337
 16.370    627.665    679.001    -51.335    676.577    677.415    678.162    676.577    676.577
 16.470    686.000    678.267      7.733    675.823    676.656    677.434    675.823    675.823
 16.570    635.362    677.543    -42.182    675.075    675.906    676.712    675.075    675.075
 16.670    725.291    676.819     48.471    674.332    675.155    675.996    674.332    674.332
 16.770    667.000    676.102     -9.102    673.595    674.410    675.286    673.595    673.595
 16.870    618.000    675.392    -57.392    672.864    673.672    674.583    672.864    672.864
 16.970    661.000    674.689    -13.689    672.138    672.940    673.887    672.138    672.138
 17.070    658.000    673.993    -15.993    671.419    672.215    673.196    671.419    671.419
 17.170    636.000    673.310    -37.310    670.704    671.502    672.513    670.704    670.704
 17.270    634.000    672.686    -38.686    669.996    670.843    671.838    669.996    669.996
 17.370    670.000    672.033     -2.033    669.293    670.157    671.168    669.293    669.293
 17.470    703.524    671.367     32.157    668.595    669.459    670.503    668.595    668.595
 17.570    658.000    670.707    -12.707    667.903    668.765    669.845    667.903    667.903
 17.670    672.000    670.054      1.946    667.217    668.078    669.193    667.217    667.217
 17.770    602.000    669.409    -67.409    666.536    667.396    668.548    666.536    666.536
 17.870    657.000    668.770    -11.770    665.860    666.721    667.909    665.860    665.860
 17.970    637.000    668.138    -31.138    665.190    666.052    667.277    665.190    665.190
 18.070    619.036    667.513    -48.478    664.526    665.388    666.651    664.526    664.526
 18.170    662.494    666.895     -4.401    663.867    664.731    666.032    663.867    663.867
 18.270    682.000    666.284     15.716    663.213    664.079    665.419    663.213    663.213
 18.370    652.000    665.680    -13.680    662.565    663.433    664.812    662.565    662.565
 18.470    699.833    665.084     34.749    661.922    662.794    664.213    661.922    661.922
 18.570    667.000    664.506      2.494    661.284    662.170    663.620    661.284    661.284
 18.670    712.000    663.929     48.071    660.652    661.548    663.033    660.652    660.652
 18.770    701.236    663.354     37.881    660.025    660.926    662.453    660.025    660.025
 18.870    649.020    662.786    -13.765    659.403    660.309    661.880    659.403    659.403
 18.970    608.000    662.224    -54.224    658.787    659.697    661.314    658.787    658.787
 19.070    657.970    661.670     -3.700    658.176    659.092    660.754    658.176    658.176
 19.170    643.000    661.125    -18.125    657.570    658.494    660.202    657.570    657.570
 19.270    617.000    660.607    -43.607    656.969    657.920    659.656    656.969    656.969
 19.370    636.000    660.084    -24.084    656.373    657.339    659.118    656.373    656.373
 19.470    670.000    659.593     10.407    655.783    656.778    658.597    655.783    655.783
 19.570    615.009    659.120    -44.111    655.198    656.231    658.087    655.198    655.198
 19.670    648.000    658.616    -10.616    654.617    655.662    657.571    654.617    654.617
 19.770    665.445    658.116      7.329    654.042    655.098    657.060    654.042    654.042
 19.870    653.102    657.637     -4.535    653.472    654.552    656.558    653.472    653.472
 19.970    650.000    657.158     -7.158    652.907    654.003    656.062    652.907    652.907
 20.070    628.000    656.684    -28.684    652.347    653.456    655.575    652.347    652.347
 20.170    693.583    656.250     37.333    651.792    652.931    655.111    651.792    651.792
 20.270    659.144    655.845      3.299    651.242    652.434    654.653    651.242    651.242
 20.370    635.457    655.441    -19.984    650.697    651.949    654.190    650.697    650.697
 20.470    651.000    655.006     -4.006    650.157    651.431    653.732    650.157    650.157
 20.570    655.000    654.611      0.389    649.622    650.950    653.283    649.622    649.622
 20.670    696.324    654.223     42.101    649.091    650.472    652.843    649.091    649.091
 20.770    639.000    653.818    -14.818    648.566    649.972    652.412    648.566    648.566
 20.870    603.711    653.422    -49.711    648.046    649.475    651.993    648.046    648.046
 20.970    674.353    653.028     21.325    647.530    648.982    651.576    647.530    647.530
 21.070    696.000    652.642     43.358    647.019    648.493    651.168    647.019    647.019
 21.170    669.067    652.265     16.802    646.513    648.008    650.769    646.513    646.513
 21.270    686.487    651.898     34.590    646.012    647.530    650.379    646.012    646.012
 21.370    604.372    651.542    -47.170    645.515    647.059    649.998    645.515    645.515
 21.470    655.000    651.204      3.796    645.023    646.600    649.628    645.023    645.023
 21.570    616.895    650.877    -33.982    644.536    646.147    649.267    644.536    644.536
 21.670    646.000    650.557     -4.557    644.054    645.696    648.915    644.054    644.054
 21.770    636.734    650.248    -13.514    643.576    645.251    648.574    643.576    643.576
 21.870    632.000    649.952    -17.952    643.103    644.812    648.243    643.103    643.103
 21.970    669.000    649.669     19.331    642.635    644.380    647.923    642.635    642.635
 22.070    666.000    649.400     16.600    642.171    643.957    647.615    642.171    642.171
 22.170    637.000    649.148    -12.148    641.712    643.542    647.318    641.712    641.712
 22.270    641.000    648.911     -7.911    641.257    643.135    647.033    641.257    641.257
 22.370    695.758    648.691     47.068    640.807    642.737    646.761    640.807    640.807
 22.470    700.973    648.487     52.486    640.362    642.347    646.502    640.362    640.362
 22.570    616.000    648.303    -32.303    639.921    641.968    646.257    639.921    639.921
 22.670    628.000    648.140    -20.140    639.484    641.599    646.025    639.484    639.484
 22.770    648.000    648.004     -0.004    639.052    641.246    645.810    639.052    639.052
 22.870    640.381    647.890     -7.510    638.624    640.905    645.610    638.624    638.624
 22.970    618.775    647.800    -29.026    638.201    640.577    645.425    638.201    638.201
 23.070    648.000    647.740      0.260    637.783    640.265    645.258    637.783    637.783
 23.170    616.000    647.713    -31.713    637.368    639.972    645.110    637.368    637.368
 23.270    628.000    647.721    -19.721    636.958    639.701    644.979    636.958    636.958
 23.370    662.000    647.771     14.229    636.553    639.456    644.868    636.553    636.553
 23.470    655.000    647.870      7.130    636.151    639.243    644.779    636.151    636.151
 23.570    643.673    648.024     -4.351    635.754    639.068    644.712    635.754    635.754
 23.670    658.000    648.246      9.754    635.362    638.940    644.669    635.362    635.362
 23.770    682.246    648.549     33.697    634.973    638.872    644.652    634.973    634.973
 23.870    640.000    648.953     -8.953    634.589    638.882    644.661    634.589    634.589
 23.970    627.000    649.487    -22.487    634.209    638.997    644.701    634.209    634.209
 24.070    651.000    650.196      0.804    633.833    639.260    644.772    633.833    633.833
 24.170    724.000    651.163     72.837    633.462    639.751    644.877    633.462    633.462
 24.270    651.739    652.561     -0.822    633.095    640.642    645.018    633.095    633.095
 24.370    717.000    654.753     62.247    632.731    642.292    645.198    632.731    632.731
 24.470    685.000    658.418     26.582    632.372    645.376    645.421    632.372    632.372
 24.570    618.270    664.606    -46.336    632.017    650.944    645.691    632.017    632.017
 24.670    651.596    674.506    -22.910    631.667    660.179    646.012    631.667    631.667
 24.770    650.226    688.719    -38.493    631.320    673.679    646.388    631.320    631.320
 24.870    728.000    706.005     21.995    630.977    690.196    646.826    630.977    630.977
 24.970    748.000    721.689     26.311    630.638    705.047    647.331    630.638    630.638
 25.070    726.000    727.990     -1.990    630.304    710.438    647.911    630.304    630.304
 25.170    741.783    720.829     20.954    629.973    702.279    648.573    629.973    629.973
 25.270    737.000    705.571     31.429    629.646    685.928    649.327    629.646    629.646
 25.370    732.200    689.943     42.257    629.323    669.109    650.184    629.323    629.323
 25.470    655.000    677.947    -22.947    629.004    655.812    651.156    629.004    629.004
 25.570    662.000    670.358     -8.358    628.690    646.801    652.257    628.690    628.690
 25.670    645.000    666.390    -21.390    628.379    641.269    653.506    628.379    628.379
 25.770    694.069    664.855     29.215    628.071    638.009    654.921    628.071    628.071
 25.870    645.000    664.790    -19.790    627.768    636.032    656.528    627.768    627.768
 25.970    694.000    665.624     28.376    627.469    634.734    658.360    627.469    627.469
 26.070    655.027    667.059    -12.031    627.173    633.793    660.439    627.173    627.173
 26.170    700.000    669.001     30.999    626.881    633.071    662.811    626.881    626.881
 26.270    651.000    671.434    -20.434    626.593    632.501    665.526    626.593    626.593
 26.370    712.708    674.384     38.324    626.309    632.046    668.646    626.309    626.309
 26.470    654.000    677.906    -23.906    626.028    631.686    672.247    626.028    626.028
 26.570    687.083    682.082      5.002    625.751    631.409    676.422    625.751    625.751
 26.670    671.000    687.024    -16.024    625.478    631.208    681.292    625.478    625.478
 26.770    710.000    692.885     17.115    625.208    631.083    687.008    625.208    625.208
 26.870    705.000    699.865      5.135    624.943    631.036    693.768    624.943    624.943
 26.970    680.984    708.229    -27.245    624.680    631.073    701.832    624.680    624.680
 27.070    705.000    718.337    -13.337    624.422    631.208    711.546    624.422    624.422
 27.170    719.000    730.683    -11.683    624.167    631.458    723.385    624.167    624.167
 27.270    755.000    745.945      9.055    623.915    631.852    738.001    623.915    623.915
 27.370    762.000    765.083     -3.083    623.668    632.427    756.314    623.668    623.668
 27.470    758.290    789.533    -31.243    623.423    633.246    779.698    623.423    623.423
 27.570    810.000    821.593    -11.593    623.182    634.405    810.354    623.182    623.182
 27.670    839.000    865.867    -26.867    622.945    636.098    852.692    622.945    622.945
 27.770    916.000    934.986    -18.986    622.711    638.857    918.807    622.711    622.711
 27.870   1035.000   1068.472    -33.472    622.481    644.338   1046.557    622.481    622.481
 27.970   1391.000   1375.107     15.893    622.254    657.091   1340.145    622.254    622.254
 28.070   2135.928   2077.502     58.426    622.031    686.425   2012.828    622.031    622.031
 28.170   3382.868   3457.502    -74.633    621.811    744.130   3334.627    621.811    621.811
 28.270   5389.000   5584.269   -195.269    621.594    833.127   5371.838    621.594    621.594
 28.370   7827.000   7921.296    -94.296    621.381    931.073   7610.497    621.381    621.381
 28.470   9111.000   9253.875   -142.875    621.171    987.392   8886.726    621.171    621.171
 28.570   8866.000   8663.510    202.490    620.964    964.141   8319.939    620.964    620.964
 28.670   6901.000   6762.742    138.258    620.761    887.850   6495.706    620.761    620.761
 28.770   5001.000   4907.587     93.413    620.561    816.753   4711.595    620.561    620.561
 28.870   3974.000   3977.902     -3.902    620.364    789.229   3809.181    620.364    620.364
 28.970   3981.457   4071.345    -89.888    620.171    809.317   3882.259    620.171    620.171
 29.070   4787.000   4710.538     76.462    619.980    853.185   4477.408    619.980    619.980
 29.170   5205.511   5140.833     64.677    619.793    881.004   4879.839    619.793    619.793
 29.270   4865.800   4812.174     53.625    619.610    863.081   4569.099    619.610    619.610
 29.370   3824.799   3856.496    -31.697    619.429    808.061   3668.320    619.429    619.429
 29.470   2735.000   2771.530    -36.530    619.251    745.271   2645.891    619.251    619.251
 29.570   1894.000   1911.683    -17.683    619.077    695.481   1835.534    619.077    619.077
 29.670   1327.392   1369.363    -41.971    618.906    664.128   1324.285    618.906    618.906
 29.770   1103.000   1077.591     25.409    618.738    647.342   1049.062    618.738    618.738
 29.870    864.215    932.109    -67.894    618.573    639.067    911.653    618.573    618.573
 29.970    814.825    856.626    -41.800    618.411    634.877    840.181    618.411    618.411
 30.070    876.000    811.763     64.237    618.252    632.496    797.532    618.252    618.252
 30.170    797.000    781.169     15.831    618.096    630.993    768.280    618.096    618.096
 30.270    773.000    758.606     14.394    617.943    630.042    746.513    617.943    617.943
 30.370    745.000    741.533      3.467    617.793    629.562    729.768    617.793    617.793
