neutron_powder_diffraction_0048
R_wp: 4.035
Temperature (K): 634.383
Counts: 83102.00
Wavelength (Ã…): 2.52098
COMMENTS
Test file for demonstrating the .xyy file format in Reel1.0
END OF HEADER
   tth       Y_obs     Y_calc      Y_res    Background    Phase_1_Nuc    Phase_1_Mag    Phase_2_Nuc    Phase_2_Mag
  9.970    720.000    666.411     53.589    664.958    666.019    665.349    664.958    664.958
 10.070    698.000    665.951     32.049    664.407    665.555    664.802    664.407    664.407
 10.170    688.000    665.502     22.498    663.856    665.102    664.256    663.856    663.856
 10.270    710.000    665.069     44.931    663.306    664.664    663.710    663.306    663.306
 10.370    670.000    664.652      5.348    662.755    664.243    663.163    662.755    662.755
 10.470    662.000    664.257     -2.257    662.204    663.843    662.617    662.204    662.204
 10.570    713.000    663.887     49.113    661.654    663.469    662.072    661.654    661.654
 10.670    699.000    663.550     35.450    661.104    663.127    661.526    661.104    661.104
 10.770    651.012    663.253    -12.241    660.554    662.826    660.980    660.554    660.554
 10.870    685.000    663.008     21.992    660.004    662.575    660.435    660.004    660.004
 10.970    623.017    662.829    -39.813    659.454    662.391    659.890    659.454    659.454
 11.070    689.000    662.740     26.260    658.905    662.297    659.346    658.905    658.905
 11.170    674.000    662.769     11.231    658.356    662.321    658.802    658.356    658.356
 11.270    686.000    662.957     23.043    657.807    662.503    658.258    657.807    657.807
 11.370    682.000    663.377     18.623    657.258    662.917    657.715    657.258    657.258
 11.470    734.000    664.172     69.828    656.710    663.707    657.171    656.710    656.710
 11.570    679.828    665.661     14.167    656.161    665.188    656.629    656.161    656.161
 11.670    710.876    668.550     42.327    655.614    668.070    656.086    655.614    655.614
 11.770    708.000    674.242     33.758    655.066    673.753    655.545    655.066    655.066
 11.870    715.000    684.926     30.074    654.519    684.425    655.003    654.519    654.519
 11.970    682.984    702.905    -19.921    653.973    702.388    654.462    653.973    653.973
 12.070    673.238    728.657    -55.418    653.427    728.119    653.922    653.427    653.427
 12.170    831.000    757.606     73.394    652.881    757.046    653.382    652.881    652.881
 12.270    764.294    777.593    -13.299    652.336    777.016    652.843    652.336    652.336
 12.370    770.000    775.687     -5.687    651.791    775.104    652.304    651.791    651.791
 12.470    806.315    752.972     53.343    651.247    752.395    651.766    651.247    651.247
 12.570    683.000    722.927    -39.927    650.703    722.361    651.229    650.703    650.703
 12.670    704.994    696.863      8.131    650.160    696.304    650.692    650.160    650.160
 12.770    664.469    678.659    -14.190    649.617    678.103    650.156    649.617    649.617
 12.870    640.566    667.531    -26.965    649.075    666.975    649.621    649.075    649.075
 12.970    659.000    661.137     -2.137    648.533    660.578    649.086    648.533    648.533
 13.070    688.851    657.390     31.460    647.992    656.826    648.552    647.992    647.992
 13.170    629.128    655.039    -25.911    647.452    654.468    648.019    647.452    647.452
 13.270    567.000    653.249    -86.249    646.912    652.671    647.487    646.912    646.912
 13.370    637.000    651.797    -14.797    646.373    651.212    646.955    646.373    646.373
 13.470    635.000    650.560    -15.560    645.835    649.968    646.425    645.835    645.835
 13.570    636.000    649.479    -13.479    645.297    648.880    645.895    645.297    645.297
 13.670    627.000    648.511    -21.511    644.760    647.904    645.366    644.760    644.760
 13.770    631.000    647.628    -16.628    644.224    647.013    644.837    644.224    644.224
 13.870    613.000    646.811    -33.811    643.688    646.188    644.310    643.688    643.688
 13.970    650.000    646.044      3.956    643.154    645.413    643.784    643.154    643.154
 14.070    635.000    645.318    -10.318    642.620    644.678    643.258    642.620    642.620
 14.170    658.000    644.623     13.377    642.086    643.975    642.734    642.086    642.086
 14.270    615.000    643.955    -28.955    641.554    643.298    642.210    641.554    641.554
 14.370    627.000    643.309    -16.309    641.022    642.643    641.688    641.022    641.022
 14.470    588.000    642.680    -54.680    640.492    642.005    641.166    640.492    640.492
 14.570    620.000    642.067    -22.067    639.962    641.383    640.646    639.962    639.962
 14.670    663.000    641.467     21.533    639.433    640.773    640.126    639.433    639.433
 14.770    615.649    640.877    -25.228    638.905    640.173    639.608    638.905    638.905
 14.870    672.000    640.297     31.703    638.378    639.584    639.091    638.378    638.378
 14.970    539.000    639.726   -100.726    637.851    639.002    638.575    637.851    637.851
 15.070    627.250    639.162    -11.912    637.326    638.427    638.060    637.326    637.326
 15.170    588.000    638.605    -50.605    636.801    637.860    637.546    636.801    636.801
 15.270    580.000    638.059    -58.059    636.278    637.303    637.034    636.278    636.278
 15.370    663.000    637.515     25.485    635.756    636.748    636.523    635.756    635.756
 15.470    631.000    636.974     -5.974    635.234    636.195    636.013    635.234    635.234
 15.570    657.686    636.439     21.247    634.714    635.648    635.504    634.714    634.714
 15.670    636.000    635.906      0.094    634.194    635.103    634.997    634.194    634.194
 15.770    614.000    635.377    -21.377    633.676    634.562    634.491    633.676    633.676
 15.870    655.000    634.854     20.146    633.158    634.026    633.986    633.158    633.158
 15.970    580.000    634.336    -54.336    632.642    633.495    633.482    632.642    632.642
 16.070    653.607    633.817     19.789    632.127    632.964    632.980    632.127    632.127
 16.170    597.082    633.302    -36.220    631.613    632.435    632.480    631.613    631.613
 16.270    650.000    632.789     17.211    631.100    631.908    631.980    631.100    631.100
 16.370    609.000    632.280    -23.280    630.588    631.385    631.483    630.588    630.588
 16.470    658.000    631.779     26.221    630.077    630.870    630.986    630.077    630.077
 16.570    620.000    631.299    -11.299    629.567    630.374    630.492    629.567    629.567
 16.670    622.000    630.800     -8.800    629.059    629.860    629.998    629.059    629.059
 16.770    634.000    630.302      3.698    628.551    629.346    629.507    628.551    628.551
 16.870    594.000    629.806    -35.806    628.045    628.834    629.016    628.045    628.045
 16.970    628.000    629.312     -1.312    627.540    628.324    628.528    627.540    627.540
 17.070    628.506    628.820     -0.314    627.036    627.815    628.041    627.036    627.036
 17.170    648.713    628.330     20.383    626.534    627.308    627.556    626.534    626.534
 17.270    637.000    627.843      9.157    626.033    626.803    627.072    626.033    626.033
 17.370    600.069    627.360    -27.291    625.533    626.302    626.591    625.533    625.533
 17.470    630.000    626.902      3.098    625.034    625.824    626.111    625.034    625.034
 17.570    586.000    626.488    -40.488    624.536    625.391    625.633    624.536    624.536
 17.670    606.000    626.019    -20.019    624.040    624.902    625.157    624.040    624.040
 17.770    665.000    625.545     39.455    623.545    624.407    624.682    623.545    623.545
 17.870    642.378    625.072     17.306    623.052    623.914    624.209    623.052    623.052
 17.970    568.000    624.602    -56.602    622.559    623.423    623.739    622.559    622.559
 18.070    665.000    624.134     40.866    622.068    622.933    623.270    622.068    622.068
 18.170    584.000    623.669    -39.669    621.579    622.445    622.803    621.579    621.579
 18.270    597.000    623.207    -26.207    621.090    621.960    622.338    621.090    621.090
 18.370    567.000    622.747    -55.747    620.603    621.476    621.875    620.603    620.603
 18.470    636.000    622.289     13.711    620.118    620.993    621.414    620.118    620.118
 18.570    617.000    621.834     -4.834    619.634    620.513    620.955    619.634    619.634
 18.670    586.737    621.382    -34.645    619.151    620.035    620.498    619.151    619.151
 18.770    605.000    620.933    -15.933    618.670    619.559    620.044    618.670    618.670
 18.870    585.000    620.493    -35.493    618.190    619.090    619.592    618.190    618.190
 18.970    606.000    620.055    -14.055    617.711    618.624    619.142    617.711    617.711
 19.070    585.000    619.614    -34.614    617.234    618.153    618.695    617.234    617.234
 19.170    634.779    619.175     15.603    616.759    617.684    618.250    616.759    616.759
 19.270    583.000    618.744    -35.744    616.284    617.220    617.808    616.284    616.284
 19.370    608.358    618.355     -9.998    615.812    616.791    617.376    615.812    615.812
 19.470    604.000    617.956    -13.956    615.340    616.352    616.944    615.340    615.340
 19.570    604.000    617.532    -13.532    614.871    615.893    616.510    614.871    614.871
 19.670    650.081    617.109     32.971    614.403    615.435    616.077    614.403    614.403
 19.770    566.549    616.690    -50.141    613.936    614.978    615.648    613.936    613.936
 19.870    560.000    616.273    -56.273    613.471    614.523    615.221    613.471    613.471
 19.970    562.000    615.861    -53.861    613.007    614.071    614.797    613.007    613.007
 20.070    604.000    615.454    -11.454    612.545    613.623    614.376    612.545    612.545
 20.170    633.071    615.071     18.000    612.084    613.198    613.958    612.084    612.084
 20.270    566.000    614.673    -48.673    611.625    612.755    613.543    611.625    611.625
 20.370    600.000    614.279    -14.279    611.168    612.315    613.132    611.168    611.168
 20.470    595.000    613.920    -18.920    610.712    611.902    612.730    610.712    610.712
 20.570    563.586    613.544    -49.958    610.258    611.472    612.330    610.258    610.258
 20.670    600.173    613.181    -13.008    609.805    611.057    611.929    609.805    609.805
 20.770    605.000    612.878     -7.878    609.354    610.700    611.531    609.354    609.354
 20.870    564.000    612.515    -48.515    608.904    610.282    611.137    608.904    608.904
 20.970    582.359    612.179    -29.820    608.456    609.890    610.746    608.456    608.456
 21.070    578.000    611.846    -33.846    608.010    609.496    610.360    608.010    608.010
 21.170    586.562    611.489    -24.928    607.566    609.078    609.977    607.566    607.566
 21.270    627.000    611.142     15.858    607.123    608.665    609.599    607.123    607.123
 21.370    661.005    610.800     50.205    606.681    608.255    609.227    606.681    606.681
 21.470    555.000    610.460    -55.460    606.242    607.845    608.857    606.242    606.242
 21.570    583.000    610.136    -27.136    605.804    607.448    608.491    605.804    605.804
 21.670    664.000    609.808     54.192    605.367    607.045    608.130    605.367    605.367
 21.770    593.000    609.488    -16.488    604.932    606.647    607.774    604.932    604.932
 21.870    629.597    609.176     20.421    604.500    606.253    607.423    604.500    604.500
 21.970    583.613    608.871    -25.258    604.068    605.861    607.078    604.068    604.068
 22.070    593.252    608.574    -15.322    603.639    605.475    606.738    603.639    603.639
 22.170    576.000    608.286    -32.286    603.211    605.093    606.404    603.211    603.211
 22.270    632.005    608.009     23.995    602.785    604.718    606.076    602.785    602.785
 22.370    584.261    607.743    -23.482    602.360    604.349    605.755    602.360    602.360
 22.470    597.000    607.489    -10.489    601.937    603.987    605.440    601.937    601.937
 22.570    595.000    607.249    -12.249    601.516    603.633    605.132    601.516    601.516
 22.670    572.000    607.025    -35.025    601.097    603.290    604.832    601.097    601.097
 22.770    635.000    606.823     28.177    600.680    602.961    604.542    600.680    600.680
 22.870    612.565    606.632      5.933    600.264    602.638    604.258    600.264    600.264
 22.970    651.284    606.462     44.821    599.850    602.330    603.982    599.850    599.850
 23.070    630.936    606.314     24.623    599.438    602.036    603.716    599.438    599.438
 23.170    574.574    606.192    -31.618    599.027    601.760    603.460    599.027    599.027
 23.270    640.032    606.101     33.931    598.619    601.506    603.214    598.619    598.619
 23.370    560.429    606.046    -45.617    598.212    601.280    602.979    598.212    598.212
 23.470    603.000    606.035     -3.035    597.806    601.086    602.756    597.806    597.806
 23.570    568.042    606.076    -38.034    597.403    600.935    602.545    597.403    597.403
 23.670    644.729    606.182     38.546    597.002    600.837    602.348    597.002    597.002
 23.770    644.000    606.371     37.629    596.602    600.808    602.166    596.602    596.602
 23.870    575.954    606.666    -30.712    596.204    600.872    601.999    596.204    596.204
 23.970    664.000    607.104     56.896    595.808    601.065    601.849    595.808    595.808
 24.070    573.020    607.751    -34.730    595.414    601.450    601.717    595.414    595.414
 24.170    650.694    608.740     41.954    595.021    602.161    601.604    595.021    595.021
 24.270    634.000    610.364     23.636    594.631    603.487    601.512    594.631    594.631
 24.370    610.967    613.228     -2.261    594.242    606.033    601.443    594.242    594.242
 24.470    654.386    618.382     36.004    593.855    610.848    601.400    593.855    593.855
 24.570    662.282    627.228     35.054    593.470    619.330    601.384    593.470    593.470
 24.670    689.000    640.873     48.127    593.087    632.588    601.398    593.087    593.087
 24.770    690.000    658.840     31.160    592.705    650.139    601.445    592.705    592.705
 24.870    749.000    677.168     71.832    592.326    668.017    601.528    592.326    592.326
 24.970    704.000    687.566     16.434    591.948    677.922    601.652    591.948    591.948
 25.070    666.485    683.377    -16.892    591.572    673.186    601.820    591.572    591.572
 25.170    650.000    667.882    -17.882    591.198    657.088    602.038    591.198    591.198
 25.270    693.565    649.622     43.943    590.826    638.169    602.312    590.826    590.826
 25.370    633.928    634.435     -0.507    590.456    622.264    602.647    590.456    590.456
 25.470    649.000    624.115     24.885    590.088    611.162    603.053    590.088    590.088
 25.570    624.000    618.091      5.909    589.722    604.281    603.539    589.722    589.722
 25.670    641.000    615.013     25.987    589.357    600.261    604.114    589.357    589.357
 25.770    611.000    613.671     -2.671    588.994    597.876    604.792    588.994    588.994
 25.870    577.003    613.295    -36.292    588.634    596.343    605.588    588.634    588.634
 25.970    641.000    613.497     27.503    588.275    595.253    606.521    588.275    588.275
 26.070    621.000    614.111      6.889    587.918    594.419    607.611    587.918    587.918
 26.170    659.000    615.076     43.924    587.563    593.753    608.886    587.563    587.563
 26.270    578.709    616.382    -37.673    587.210    593.214    610.378    587.210    587.210
 26.370    610.244    618.046     -7.802    586.859    592.777    612.127    586.859    586.859
 26.470    584.819    620.108    -35.289    586.509    592.431    614.186    586.509    586.509
 26.570    591.089    622.618    -31.529    586.162    592.168    616.612    586.162    586.162
 26.670    634.000    625.648      8.352    585.817    591.977    619.487    585.817    585.817
 26.770    603.000    629.308    -26.308    585.473    591.865    622.914    585.473    585.473
 26.870    660.000    633.742     26.258    585.132    591.841    627.030    585.132    585.132
 26.970    625.000    639.140    -14.140    584.792    591.916    632.012    584.792    584.792
 27.070    699.133    645.763     53.370    584.454    592.109    638.104    584.454    584.454
 27.170    657.000    653.975      3.025    584.118    592.448    645.641    584.118    584.118
 27.270    618.778    664.286    -45.509    583.785    592.972    655.093    583.785    583.785
 27.370    624.476    677.446    -52.969    583.453    593.741    667.150    583.453    583.453
 27.470    712.832    694.621     18.211    583.123    594.849    682.885    583.123    583.123
 27.570    730.000    717.989     12.011    582.795    596.470    704.300    582.795    582.795
 27.670    808.000    752.950     55.050    582.468    599.034    736.365    582.468    582.468
 27.770    833.736    815.585     18.152    582.144    603.817    793.880    582.144    582.144
 27.870    963.000    950.551     12.449    581.822    614.356    917.952    581.822    581.822
 27.970   1166.000   1254.785    -88.785    581.502    638.323   1197.824    581.502    581.502
 28.070   1826.000   1869.755    -43.755    581.184    686.918   1763.747    581.184    581.184
 28.170   2696.000   2881.309   -185.309    580.867    766.957   2694.782    580.867    580.867
 28.270   4005.000   4129.060   -124.060    580.553    865.820   3843.251    580.553    580.553
 28.370   5024.000   5085.893    -61.893    580.240    941.977   4723.697    580.240    580.240
 28.470   5377.000   5156.439    220.561    579.930    948.705   4787.459    579.930    579.930
 28.570   4427.000   4343.335     83.665    579.621    887.000   4035.962    579.621    579.621
 28.670   3300.000   3285.840     14.160    579.315    808.846   3056.378    579.315    579.315
 28.770   2584.178   2588.145     -3.967    579.010    763.774   2403.412    579.010    579.010
 28.870   2358.000   2451.354    -93.354    578.707    768.390   2261.650    578.707    578.707
 28.970   2803.378   2716.783     86.595    578.407    807.577   2487.588    578.407    578.407
 29.070   3034.000   3014.835     19.165    578.108    844.826   2748.169    578.108    578.108
 29.170   3094.000   2984.086    109.914    577.811    843.169   2718.890    577.811    577.811
 29.270   2666.000   2554.910    111.090    577.516    796.351   2336.289    577.516    577.516
 29.370   1968.000   1959.254      8.746    577.223    730.675   1805.989    577.223    577.223
 29.470   1409.832   1436.697    -26.866    576.932    672.946   1340.812    576.932    576.932
 29.570   1111.000   1082.444     28.556    576.643    633.816   1025.344    576.643    576.643
 29.670    888.480    881.623      6.857    576.356    611.675    846.341    576.356    576.356
 29.770    800.685    779.159     21.526    576.071    600.431    754.817    576.071    576.071
 29.870    852.000    726.808    125.192    575.788    594.747    707.859    575.788    575.788
 29.970    768.000    696.896     71.104    575.507    591.566    680.841    575.507    575.507
 30.070    711.000    677.174     33.826    575.228    589.551    662.854    575.228    575.228
 30.170    717.000    662.910     54.090    574.951    588.207    649.655    574.951    574.951
 30.270    770.000    652.247    117.753    574.675    587.379    639.542    574.675    574.675
 30.370    698.000    644.441     53.559    574.402    587.105    631.736    574.402    574.402
