neutron_powder_diffraction_0027
R_wp: 3.779
Temperature (K): 528.894
Counts: 83693.00
Wavelength (Ã…): 2.52098
COMMENTS
Test file for demonstrating the .xyy file format in Reel1.0
END OF HEADER
   tth       Y_obs     Y_calc      Y_res    Background    Phase_1_Nuc    Phase_1_Mag    Phase_2_Nuc    Phase_2_Mag
  9.970    791.000    712.302     78.698    710.598    711.680    711.219    710.598    710.598
 10.070    701.772    711.375     -9.604    709.578    710.747    710.206    709.578    709.578
 10.170    729.000    710.465     18.535    708.563    709.831    709.197    708.563    708.563
 10.270    699.929    709.575     -9.646    707.552    708.933    708.193    707.552    707.552
 10.370    752.000    708.706     43.294    706.546    708.057    707.194    706.546    706.546
 10.470    756.217    707.863     48.354    705.545    707.207    706.200    705.545    705.545
 10.570    718.179    707.050     11.129    704.548    706.387    705.210    704.548    704.548
 10.670    757.498    706.274     51.224    703.556    705.603    704.225    703.556    703.556
 10.770    700.177    705.541     -5.365    702.568    704.863    703.245    702.568    702.568
 10.870    714.472    704.864      9.608    701.585    704.178    702.269    701.585    701.585
 10.970    749.976    704.256     45.720    700.607    703.562    701.298    700.607    700.607
 11.070    717.000    703.737     13.263    699.633    703.036    700.332    699.633    699.633
 11.170    675.000    703.336    -28.336    698.664    702.626    699.371    698.664    698.664
 11.270    733.000    703.097     29.903    697.699    702.378    698.415    697.699    697.699
 11.370    691.000    703.083    -12.083    696.739    702.356    697.463    696.739    696.739
 11.470    765.000    703.423     61.577    695.783    702.687    696.516    695.783    695.783
 11.570    727.000    704.391     22.609    694.832    703.645    695.573    694.832    694.832
 11.670    703.370    706.591     -3.221    693.886    705.835    694.635    693.886    693.886
 11.770    695.941    711.224    -15.283    692.944    710.456    693.702    692.944    692.944
 11.870    712.949    720.227     -7.278    692.007    719.444    692.774    692.007    692.007
 11.970    810.000    735.818     74.182    691.075    735.017    691.851    691.075    691.075
 12.070    862.000    758.956    103.044    690.147    758.132    690.932    690.147    690.147
 12.170    893.000    786.559    106.441    689.223    785.710    690.018    689.223    689.223
 12.270    860.000    808.706     51.294    688.304    807.834    689.108    688.304    688.304
 12.370    833.000    811.901     21.099    687.390    811.017    688.204    687.390    687.390
 12.470    795.000    792.930      2.070    686.480    792.047    687.304    686.480    686.480
 12.570    757.048    763.642     -6.595    685.574    762.765    686.408    685.574    685.574
 12.670    707.000    736.507    -29.507    684.673    735.634    685.518    684.673    684.673
 12.770    734.997    716.633     18.364    683.777    715.760    684.632    683.777    683.777
 12.870    681.000    703.955    -22.955    682.885    703.078    683.751    682.885    682.885
 12.970    670.117    696.395    -26.278    681.998    695.511    682.874    681.998    681.998
 13.070    680.000    691.808    -11.808    681.115    690.915    682.003    681.115    681.115
 13.170    701.000    688.747     12.253    680.237    687.845    681.136    680.237    680.237
 13.270    662.724    686.451    -23.727    679.363    685.538    680.273    679.363    679.363
 13.370    725.413    684.571     40.842    678.494    683.646    679.416    678.494    678.494
 13.470    713.507    682.947     30.560    677.629    682.011    678.563    677.629    677.629
 13.570    710.639    681.499     29.140    676.769    680.551    677.715    676.769    676.769
 13.670    626.000    680.180    -54.180    675.913    679.220    676.872    675.913    675.913
 13.770    614.000    678.961    -64.961    675.062    677.988    676.033    675.062    675.062
 13.870    722.369    677.836     44.532    674.215    676.851    675.199    674.215    674.215
 13.970    714.684    676.759     37.925    673.373    675.760    674.370    673.373    673.373
 14.070    688.000    675.719     12.281    672.535    674.707    673.546    672.535    672.535
 14.170    700.000    674.717     25.283    671.701    673.691    672.726    671.701    671.701
 14.270    622.129    673.747    -51.618    670.872    672.708    671.911    670.872    670.872
 14.370    672.506    672.804     -0.298    670.048    671.750    671.101    670.048    670.048
 14.470    676.553    671.885      4.668    669.228    670.816    670.295    669.228    669.228
 14.570    720.891    670.985     49.907    668.412    669.901    669.494    668.412    668.412
 14.670    672.000    670.102      1.898    667.600    669.004    668.698    667.600    667.600
 14.770    653.840    669.236    -15.396    666.794    668.122    667.907    666.794    666.794
 14.870    710.231    668.388     41.843    665.991    667.258    667.121    665.991    665.991
 14.970    652.000    667.547    -15.547    665.193    666.401    666.339    665.193    665.193
 15.070    639.000    666.718    -27.718    664.399    665.555    665.562    664.399    664.399
 15.170    659.049    665.899     -6.850    663.610    664.719    664.789    663.610    663.610
 15.270    618.000    665.090    -47.090    662.825    663.893    664.022    662.825    662.825
 15.370    713.467    664.290     49.177    662.045    663.075    663.259    662.045    662.045
 15.470    629.747    663.499    -33.752    661.269    662.266    662.501    661.269    661.269
 15.570    598.000    662.716    -64.716    660.497    661.465    661.748    660.497    660.497
 15.670    688.631    661.940     26.690    659.730    660.670    660.999    659.730    659.730
 15.770    656.000    661.173     -5.173    658.967    659.883    660.256    658.967    658.967
 15.870    662.000    660.412      1.588    658.208    659.103    659.517    658.208    658.208
 15.970    617.000    659.658    -42.658    657.454    658.329    658.783    657.454    657.454
 16.070    658.947    658.911      0.035    656.704    657.561    658.054    656.704    656.704
 16.170    703.352    658.171     45.181    655.958    656.799    657.329    655.958    655.958
 16.270    622.746    657.438    -34.692    655.217    656.044    656.610    655.217    655.217
 16.370    682.000    656.716     25.284    654.479    655.300    655.895    654.479    654.479
 16.470    621.632    655.997    -34.365    653.747    654.558    655.185    653.747    653.747
 16.570    615.000    655.282    -40.282    653.018    653.820    654.480    653.018    653.018
 16.670    706.594    654.572     52.022    652.294    653.086    653.780    652.294    652.294
 16.770    612.000    653.870    -41.870    651.574    652.359    653.085    651.574    651.574
 16.870    618.000    653.186    -35.186    650.859    651.649    652.395    650.859    650.859
 16.970    651.000    652.529     -1.529    650.148    650.966    651.711    650.148    650.148
 17.070    648.000    651.893     -3.893    649.441    650.302    651.032    649.441    649.441
 17.170    586.000    651.218    -65.218    648.738    649.599    650.356    648.738    648.738
 17.270    676.000    650.544     25.456    648.039    648.897    649.686    648.039    648.039
 17.370    635.000    649.878    -14.878    647.345    648.203    649.020    647.345    647.345
 17.470    604.589    649.244    -44.654    646.655    647.539    648.360    646.655    646.655
 17.570    677.989    648.590     29.398    645.969    646.855    647.704    645.969    645.969
 17.670    665.596    647.939     17.657    645.288    646.173    647.054    645.288    645.288
 17.770    621.000    647.293    -26.293    644.611    645.495    646.408    644.611    644.611
 17.870    605.000    646.653    -41.653    643.937    644.822    645.768    643.937    643.937
 17.970    630.685    646.018    -15.333    643.269    644.154    645.133    643.269    643.269
 18.070    642.000    645.389     -3.389    642.604    643.490    644.503    642.604    642.604
 18.170    639.000    644.766     -5.766    641.943    642.831    643.878    641.943    641.943
 18.270    626.501    644.148    -17.647    641.287    642.177    643.258    641.287    641.287
 18.370    671.000    643.537     27.463    640.635    641.528    642.643    640.635    640.635
 18.470    646.000    642.936      3.064    639.987    640.889    642.034    639.987    639.987
 18.570    650.000    642.344      7.656    639.343    640.256    641.430    639.343    639.343
 18.670    639.000    641.750     -2.750    638.703    639.621    640.832    638.703    638.703
 18.770    659.000    641.161     17.839    638.068    638.990    640.239    638.068    638.068
 18.870    642.865    640.578      2.286    637.436    638.363    639.651    637.436    637.436
 18.970    597.400    640.001    -42.601    636.809    637.742    639.068    636.809    636.809
 19.070    610.000    639.430    -29.430    636.186    637.124    638.491    636.186    636.186
 19.170    698.000    638.872     59.128    635.566    636.516    637.922    635.566    635.566
 19.270    679.000    638.380     40.620    634.951    635.957    637.375    634.951    634.951
 19.370    600.266    637.865    -37.599    634.340    635.386    636.819    634.340    634.340
 19.470    622.000    637.322    -15.322    633.734    634.791    636.265    633.734    633.734
 19.570    614.000    636.784    -22.784    633.131    634.198    635.717    633.131    633.131
 19.670    678.744    636.252     42.492    632.532    633.609    635.174    632.532    632.532
 19.770    651.000    635.726     15.274    631.938    633.025    634.638    631.938    631.938
 19.870    596.870    635.221    -38.350    631.347    632.453    634.114    631.347    631.347
 19.970    644.000    634.757      9.243    630.760    631.910    633.607    630.760    630.760
 20.070    667.000    634.281     32.719    630.178    631.367    633.091    630.178    630.178
 20.170    643.525    633.845      9.680    629.599    630.863    632.581    629.599    629.599
 20.270    614.000    633.361    -19.361    629.025    630.310    632.075    629.025    629.025
 20.370    635.000    632.889      2.111    628.454    629.767    631.577    628.454    628.454
 20.470    603.000    632.443    -29.443    627.888    629.246    631.085    627.888    627.888
 20.570    577.000    632.013    -55.013    627.325    628.738    630.600    627.325    627.325
 20.670    611.000    631.555    -20.555    626.767    628.200    630.121    626.767    626.767
 20.770    638.000    631.102      6.898    626.212    627.664    629.649    626.212    626.212
 20.870    631.000    630.662      0.338    625.662    627.137    629.186    625.662    625.662
 20.970    647.000    630.240     16.760    625.115    626.621    628.734    625.115    625.115
 21.070    647.301    629.814     17.487    624.572    626.102    628.284    624.572    624.572
 21.170    675.002    629.402     45.600    624.033    625.593    627.842    624.033    624.033
 21.270    618.000    629.003    -11.003    623.498    625.094    627.408    623.498    623.498
 21.370    673.317    628.603     44.713    622.968    624.590    626.981    622.968    622.968
 21.470    643.492    628.213     15.279    622.440    624.091    626.562    622.440    622.440
 21.570    679.000    627.832     51.168    621.917    623.597    626.152    621.917    621.917
 21.670    663.000    627.463     35.537    621.398    623.110    625.751    621.398    621.398
 21.770    619.360    627.104     -7.745    620.883    622.629    625.358    620.883    620.883
 21.870    638.000    626.759     11.241    620.371    622.155    624.975    620.371    620.371
 21.970    623.000    626.424     -3.424    619.863    621.686    624.601    619.863    619.863
 22.070    649.000    626.102     22.898    619.360    621.225    624.237    619.360    619.360
 22.170    601.511    625.796    -24.284    618.860    620.771    623.884    618.860    618.860
 22.270    663.000    625.504     37.496    618.363    620.326    623.541    618.363    618.363
 22.370    606.751    625.226    -18.475    617.871    619.888    623.209    617.871    617.871
 22.470    629.000    624.964      4.036    617.383    619.458    622.889    617.383    617.383
 22.570    599.000    624.723    -25.723    616.898    619.039    622.581    616.898    616.898
 22.670    599.000    624.505    -25.505    616.417    618.635    622.287    616.417    616.417
 22.770    626.808    624.303      2.505    615.940    618.238    622.005    615.940    615.940
 22.870    656.000    624.123     31.877    615.466    617.853    621.736    615.466    615.466
 22.970    621.000    623.968     -2.968    614.997    617.483    621.482    614.997    614.997
 23.070    630.684    623.842      6.842    614.531    617.129    621.244    614.531    614.531
 23.170    595.000    623.748    -28.748    614.069    616.795    621.022    614.069    614.069
 23.270    605.141    623.689    -18.548    613.610    616.484    620.816    613.610    613.610
 23.370    583.000    623.671    -40.671    613.155    616.199    620.628    613.155    613.155
 23.470    627.000    623.702      3.298    612.704    615.948    620.459    612.704    612.704
 23.570    603.000    623.789    -20.789    612.257    615.736    620.311    612.257    612.257
 23.670    622.000    623.945     -1.945    611.814    615.575    620.184    611.814    611.814
 23.770    639.000    624.184     14.816    611.374    615.479    620.080    611.374    611.374
 23.870    644.000    624.528     19.472    610.937    615.466    620.001    610.937    610.937
 23.970    619.290    625.011     -5.720    610.505    615.569    619.948    610.505    610.505
 24.070    672.058    625.683     46.375    610.076    615.836    619.925    610.076    610.076
 24.170    589.340    626.638    -37.299    609.650    616.360    619.931    609.650    609.650
 24.270    617.000    628.085    -11.085    609.229    617.347    619.971    609.229    609.229
 24.370    629.000    630.466     -1.466    608.811    619.235    620.046    608.811    608.811
 24.470    642.000    634.622      7.378    608.396    622.865    620.161    608.396    608.396
 24.570    625.000    641.848    -16.848    607.985    629.528    620.318    607.985    607.985
 24.670    663.604    653.536     10.068    607.578    640.613    620.522    607.578    607.578
 24.770    669.000    670.149     -1.149    607.174    656.580    620.776    607.174    607.174
 24.870    694.000    689.464      4.536    606.774    675.197    621.087    606.774    606.774
 24.970    683.000    704.881    -21.881    606.378    689.857    621.459    606.378    606.378
 25.070    684.759    707.860    -23.102    605.984    692.004    621.899    605.984    605.984
 25.170    751.483    696.527     54.956    605.595    679.757    622.415    605.595    605.595
 25.270    627.376    678.413    -51.037    605.209    660.642    623.016    605.209    605.209
 25.370    667.000    661.580      5.420    604.826    642.719    623.711    604.826    604.826
 25.470    635.000    649.498    -14.498    604.447    629.447    624.512    604.447    604.447
 25.570    682.904    642.292     40.612    604.072    620.939    625.433    604.072    604.072
 25.670    653.431    638.710     14.721    603.700    615.925    626.489    603.700    603.700
 25.770    674.272    637.372     36.900    603.331    613.007    627.700    603.331    603.331
 25.870    647.000    637.315      9.685    602.966    611.196    629.087    602.966    602.966
 25.970    654.000    638.025     15.975    602.604    609.953    630.678    602.604    602.604
 26.070    648.000    639.286      8.714    602.246    609.025    632.507    602.246    602.246
 26.170    647.000    641.014      5.986    601.891    608.298    634.607    601.891    601.891
 26.270    635.000    643.202     -8.202    601.540    607.714    637.027    601.540    601.540
 26.370    610.000    645.873    -35.873    601.192    607.240    639.824    601.192    601.192
 26.470    631.556    649.085    -17.528    600.847    606.860    643.070    600.847    600.847
 26.570    700.000    652.917     47.083    600.506    606.565    646.855    600.506    600.506
 26.670    645.078    657.479    -12.400    600.168    606.351    651.293    600.168    600.168
 26.770    692.000    662.916     29.084    599.834    606.217    656.529    599.834    599.834
 26.870    618.000    669.423    -51.423    599.503    606.169    662.752    599.503    599.503
 26.970    736.000    677.259     58.741    599.175    606.216    670.212    599.175    599.175
 27.070    666.032    686.774    -20.742    598.850    606.374    679.243    598.850    598.850
 27.170    729.397    698.448     30.948    598.529    606.666    690.303    598.529    598.529
 27.270    677.000    712.957    -35.957    598.211    607.128    704.030    598.211    598.211
 27.370    749.000    731.264     17.736    597.896    607.808    721.340    597.896    597.896
 27.470    803.025    754.802     48.222    597.585    608.782    743.589    597.585    597.585
 27.570    757.000    786.001    -29.001    597.277    610.177    773.080    597.277    597.277
 27.670    820.000    830.073    -10.073    596.972    612.266    814.748    596.972    596.972
 27.770    846.239    901.710    -55.471    596.670    615.816    882.514    596.670    596.670
 27.870   1045.000   1044.731      0.269    596.372    623.103   1017.901    596.372    596.372
 27.970   1421.491   1369.761     51.730    596.077    639.868   1325.759    596.077    596.077
 28.070   1984.000   2079.937    -95.937    595.785    676.654   1998.658    595.785    595.785
 28.170   3183.000   3390.958   -207.958    595.496    744.663   3241.123    595.496    595.496
 28.270   5025.000   5271.345   -246.345    595.211    842.310   5023.389    595.211    595.211
 28.370   7154.000   7137.440     16.560    594.928    939.439   6792.135    594.928    594.928
 28.470   7868.423   7921.693    -53.270    594.649    980.945   7534.925    594.649    594.649
 28.570   7184.000   7053.292    130.708    594.373    937.804   6709.696    594.373    594.373
 28.670   5568.000   5335.661    232.339    594.100    852.858   5076.869    594.100    594.100
 28.770   3992.000   3917.657     74.343    593.830    787.493   3723.946    593.830    593.830
 28.870   3382.000   3366.765     15.235    593.563    772.685   3187.545    593.563    593.563
 28.970   3681.000   3617.002     63.998    593.300    804.250   3405.964    593.300    593.300
 29.070   4211.000   4188.077     22.923    593.039    851.895   3929.259    593.039    593.039
 29.170   4575.000   4429.984    145.016    592.782    872.035   4150.951    592.782    592.782
 29.270   3925.000   3970.458    -45.458    592.527    839.419   3723.877    592.527    592.527
 29.370   3051.151   3073.837    -22.686    592.276    774.235   2892.158    592.276    592.276
 29.470   2099.000   2184.986    -85.986    592.027    709.403   2067.805    592.027    592.027
 29.570   1462.208   1535.507    -73.300    591.782    662.026   1465.376    591.782    591.782
 29.670   1127.000   1148.551    -21.551    591.540    633.853   1106.295    591.540    591.540
 29.770   1011.000    947.107     63.893    591.301    619.260    919.174    591.301    591.301
 29.870    961.000    846.032    114.968    591.064    612.021    825.088    591.064    591.064
 29.970    781.550    790.870     -9.320    590.831    608.159    773.549    590.831    590.831
 30.070    740.214    755.960    -15.747    590.601    605.810    740.755    590.601    590.601
 30.170    759.638    731.176     28.462    590.373    604.259    717.292    590.373    590.373
 30.270    681.142    712.608    -31.466    590.149    603.262    699.495    590.149    590.149
 30.370    672.692    698.575    -25.883    589.927    602.782    685.718    589.927    589.927
