neutron_powder_diffraction_0024
R_wp: 3.668
Temperature (K): 514.740
Counts: 82971.00
Wavelength (Ã…): 2.52098
COMMENTS
Test file for demonstrating the .xyy file format in Reel1.0
END OF HEADER
   tth       Y_obs     Y_calc      Y_res    Background    Phase_1_Nuc    Phase_1_Mag    Phase_2_Nuc    Phase_2_Mag
  9.970    745.000    711.191     33.809    709.518    710.557    710.152    709.518    709.518
 10.070    670.549    710.235    -39.686    708.471    709.594    709.111    708.471    708.471
 10.170    738.351    709.295     29.056    707.430    708.647    708.077    707.430    707.430
 10.270    729.063    708.375     20.688    706.394    707.720    707.048    706.394    706.394
 10.370    730.000    707.476     22.524    705.363    706.814    706.024    705.363    705.363
 10.470    767.000    706.603     60.397    704.338    705.934    705.006    704.338    704.338
 10.570    679.330    705.760    -26.431    703.318    705.084    703.994    703.318    703.318
 10.670    700.982    704.953     -3.972    702.304    704.269    702.987    702.304    702.304
 10.770    651.972    704.190    -52.218    701.295    703.498    701.986    701.295    701.295
 10.870    776.000    703.480     72.520    700.292    702.780    700.990    700.292    700.292
 10.970    699.000    702.837     -3.837    699.294    702.130    700.000    699.294    699.294
 11.070    745.712    702.281     43.431    698.301    701.566    699.015    698.301    698.301
 11.170    692.000    701.839     -9.839    697.314    701.115    698.035    697.314    697.314
 11.270    675.513    701.549    -26.037    696.332    700.817    697.062    696.332    696.332
 11.370    719.000    701.478     17.522    695.355    700.737    696.093    695.355    695.355
 11.470    733.646    701.744     31.903    694.383    700.993    695.130    694.383    694.383
 11.570    781.000    702.607     78.393    693.417    701.847    694.173    693.417    693.417
 11.670    731.142    704.645     26.497    692.457    703.874    693.221    692.457    692.457
 11.770    681.789    709.038    -27.250    691.501    708.256    692.275    691.501    691.501
 11.870    750.000    717.754     32.246    690.551    716.957    691.334    690.551    690.551
 11.970    783.000    733.118     49.882    689.606    732.303    690.398    689.606    689.606
 12.070    887.000    756.266    130.734    688.666    755.429    689.468    688.666    688.666
 12.170    739.447    784.304    -44.857    687.732    783.442    688.543    687.732    687.732
 12.270    836.000    807.263     28.737    686.803    806.379    687.623    686.803    686.803
 12.370    847.716    811.107     36.609    685.879    810.210    686.709    685.879    685.879
 12.470    777.934    792.163    -14.229    684.960    791.266    685.801    684.960    684.960
 12.570    786.000    762.421     23.579    684.046    761.528    684.897    684.046    684.046
 12.670    715.000    734.829    -19.829    683.138    733.941    683.999    683.138    683.138
 12.770    678.975    714.713    -35.739    682.235    713.824    683.107    682.235    682.235
 12.870    741.190    701.992     39.198    681.336    701.099    682.219    681.336    681.336
 12.970    682.243    694.487    -12.244    680.443    693.586    681.338    680.443    680.443
 13.070    650.000    689.972    -39.972    679.556    689.062    680.461    679.556    679.556
 13.170    657.000    686.967    -29.967    678.673    686.047    679.590    678.673    678.673
 13.270    646.706    684.710    -38.004    677.795    683.778    678.724    677.795    677.795
 13.370    706.608    682.857     23.751    676.923    681.914    677.863    676.923    676.923
 13.470    699.465    681.254     18.212    676.055    680.299    677.008    676.055    676.055
 13.570    636.000    679.823    -43.823    675.193    678.856    676.158    675.193    675.193
 13.670    673.809    678.517     -4.708    674.336    677.538    675.313    674.336    674.336
 13.770    683.000    677.307      5.693    673.483    676.315    674.474    673.483    673.483
 13.870    695.000    676.172     18.828    672.636    675.167    673.640    672.636    672.636
 13.970    700.000    675.112     24.888    671.794    674.093    672.812    671.794    671.794
 14.070    691.000    674.090     16.910    670.957    673.058    671.988    670.957    670.957
 14.170    649.000    673.097    -24.097    670.124    672.051    671.170    670.124    670.124
 14.270    711.758    672.135     39.623    669.297    671.074    670.357    669.297    669.297
 14.370    666.739    671.199     -4.460    668.475    670.124    669.550    668.475    668.475
 14.470    695.649    670.286     25.363    667.658    669.196    668.747    667.658    667.658
 14.570    668.000    669.393     -1.393    666.845    668.288    667.950    666.845    666.845
 14.670    621.000    668.518    -47.518    666.038    667.397    667.158    666.038    666.038
 14.770    647.000    667.658    -20.658    665.235    666.521    666.371    665.235    665.235
 14.870    689.000    666.812     22.188    664.438    665.660    665.590    664.438    664.438
 14.970    678.332    665.979     12.353    663.645    664.810    664.814    663.645    663.645
 15.070    654.000    665.158    -11.158    662.857    663.972    664.043    662.857    662.857
 15.170    684.416    664.347     20.069    662.074    663.144    663.277    662.074    662.074
 15.270    639.000    663.547    -24.547    661.296    662.326    662.517    661.296    661.296
 15.370    680.969    662.761     18.208    660.523    661.522    661.762    660.523    660.523
 15.470    611.444    661.980    -50.536    659.754    660.722    661.012    659.754    659.754
 15.570    653.000    661.207     -8.207    658.991    659.930    660.267    658.991    658.991
 15.670    623.441    660.441    -37.001    658.232    659.145    659.528    658.232    658.232
 15.770    636.000    659.684    -23.684    657.478    658.368    658.793    657.478    657.478
 15.870    623.000    658.934    -35.934    656.729    657.598    658.064    656.729    656.729
 15.970    671.000    658.191     12.809    655.984    656.834    657.341    655.984    655.984
 16.070    649.000    657.456     -8.456    655.244    656.078    656.622    655.244    655.244
 16.170    630.000    656.732    -26.732    654.509    655.332    655.909    654.509    654.509
 16.270    574.000    656.013    -82.013    653.779    654.591    655.201    653.779    653.779
 16.370    698.733    655.298     43.435    653.054    653.854    654.498    653.054    653.054
 16.470    650.000    654.590     -4.590    652.333    653.122    653.801    652.333    652.333
 16.570    689.407    653.887     35.520    651.617    652.396    653.108    651.617    651.617
 16.670    679.033    653.192     25.841    650.905    651.675    652.421    650.905    650.905
 16.770    605.000    652.502    -47.502    650.199    650.961    651.740    650.199    650.199
 16.870    697.008    651.819     45.190    649.496    650.252    651.063    649.496    649.496
 16.970    623.895    651.142    -27.247    648.799    649.548    650.392    648.799    648.799
 17.070    683.000    650.470     32.530    648.106    648.850    649.726    648.106    648.106
 17.170    654.000    649.806      4.194    647.418    648.158    649.066    647.418    647.418
 17.270    691.967    649.157     42.810    646.734    647.479    648.412    646.734    646.734
 17.370    648.041    648.537     -0.496    646.055    646.829    647.763    646.055    646.055
 17.470    655.000    647.967      7.033    645.380    646.228    647.120    645.380    645.380
 17.570    616.000    647.342    -31.342    644.711    645.572    646.481    644.711    644.711
 17.670    684.132    646.708     37.423    644.045    644.906    645.847    644.045    644.045
 17.770    684.736    646.079     38.657    643.384    644.245    645.219    643.384    643.384
 17.870    637.000    645.457     -8.457    642.728    643.589    644.596    642.728    642.728
 17.970    613.309    644.840    -31.530    642.076    642.938    643.978    642.076    642.076
 18.070    634.000    644.229    -10.229    641.429    642.292    643.366    641.429    641.429
 18.170    646.000    643.626      2.374    640.786    641.652    642.760    640.786    640.786
 18.270    597.000    643.029    -46.029    640.148    641.018    642.159    640.148    640.148
 18.370    653.000    642.436     10.564    639.514    640.386    641.563    639.514    639.514
 18.470    625.000    641.849    -16.849    638.884    639.760    640.973    638.884    638.884
 18.570    650.000    641.268      8.732    638.259    639.139    640.389    638.259    638.259
 18.670    669.000    640.694     28.306    637.638    638.522    639.810    637.638    637.638
 18.770    611.000    640.125    -29.125    637.022    637.910    639.237    637.022    637.022
 18.870    599.000    639.567    -40.567    636.410    637.308    638.670    636.410    636.410
 18.970    633.000    639.020     -6.020    635.803    636.714    638.108    635.803    635.803
 19.070    650.000    638.470     11.530    635.200    636.117    637.552    635.200    635.200
 19.170    672.000    637.926     34.074    634.601    635.525    637.002    634.601    634.601
 19.270    644.000    637.395      6.605    634.007    634.941    636.460    634.007    634.007
 19.370    657.690    636.921     20.769    633.416    634.399    635.939    633.416    633.416
 19.470    609.448    636.417    -26.969    632.831    633.835    635.413    632.831    632.831
 19.570    657.000    635.901     21.099    632.249    633.263    634.887    632.249    632.249
 19.670    590.000    635.390    -45.390    631.672    632.695    634.367    631.672    631.672
 19.770    680.000    634.888     45.112    631.099    632.133    633.854    631.099    631.099
 19.870    610.000    634.412    -24.412    630.530    631.596    633.347    630.530    630.530
 19.970    601.000    633.930    -32.930    629.966    631.050    632.846    629.966    629.966
 20.070    618.000    633.450    -15.450    629.406    630.505    632.351    629.406    629.406
 20.170    630.111    632.978     -2.867    628.850    629.964    631.864    628.850    628.850
 20.270    636.000    632.546      3.454    628.298    629.449    631.395    628.298    628.298
 20.370    581.000    632.109    -51.109    627.750    628.927    630.933    627.750    627.750
 20.470    622.000    631.677     -9.677    627.207    628.418    630.466    627.207    627.207
 20.570    678.874    631.300     47.574    626.667    627.960    630.007    626.667    626.667
 20.670    632.995    630.898      2.097    626.132    627.477    629.553    626.132    626.132
 20.770    579.000    630.473    -51.473    625.601    626.968    629.107    625.601    625.601
 20.870    633.064    630.057      3.006    625.074    626.464    628.667    625.074    625.074
 20.970    659.382    629.689     29.693    624.552    626.003    628.237    624.552    624.552
 21.070    588.000    629.290    -41.290    624.033    625.510    627.813    624.033    624.033
 21.170    629.753    628.898      0.856    623.518    625.020    627.396    623.518    623.518
 21.270    590.000    628.516    -38.516    623.008    624.535    626.988    623.008    623.008
 21.370    627.000    628.155     -1.155    622.501    624.062    626.595    622.501    622.501
 21.470    587.659    627.806    -40.147    621.999    623.601    626.204    621.999    621.999
 21.570    633.000    627.457      5.543    621.500    623.137    625.821    621.500    621.500
 21.670    584.241    627.114    -42.874    621.006    622.674    625.447    621.006    621.006
 21.770    617.557    626.782     -9.225    620.515    622.216    625.082    620.515    620.515
 21.870    624.179    626.462     -2.283    620.029    621.765    624.726    620.029    620.029
 21.970    663.000    626.154     36.846    619.547    621.320    624.380    619.547    619.547
 22.070    620.000    625.859     -5.859    619.068    620.883    624.044    619.068    619.068
 22.170    603.521    625.580    -22.059    618.594    620.454    623.719    618.594    618.594
 22.270    629.000    625.314      3.686    618.123    620.032    623.405    618.123    618.123
 22.370    647.000    625.063     21.937    617.656    619.618    623.102    617.656    617.656
 22.470    612.431    624.829    -12.399    617.193    619.212    622.811    617.193    617.193
 22.570    627.000    624.614      2.386    616.734    618.817    622.532    616.734    616.734
 22.670    623.000    624.420     -1.420    616.279    618.434    622.266    616.279    616.279
 22.770    599.000    624.253    -25.253    615.828    618.066    622.015    615.828    615.828
 22.870    635.000    624.101     10.899    615.381    617.705    621.777    615.381    615.381
 22.970    622.438    623.974     -1.536    614.937    617.358    621.553    614.937    614.937
 23.070    644.919    623.875     21.044    614.498    617.028    621.345    614.498    614.498
 23.170    570.000    623.807    -53.807    614.062    616.717    621.153    614.062    614.062
 23.270    623.610    623.775     -0.166    613.630    616.427    620.978    613.630    613.630
 23.370    602.000    623.785    -21.785    613.201    616.165    620.822    613.201    613.201
 23.470    602.000    623.843    -21.843    612.777    615.934    620.686    612.777    612.777
 23.570    545.000    623.955    -78.955    612.356    615.742    620.570    612.356    612.356
 23.670    644.895    624.135     20.760    611.939    615.599    620.476    611.939    611.939
 23.770    584.362    624.397    -40.035    611.525    615.518    620.405    611.525    611.525
 23.870    649.000    624.762     24.238    611.116    615.519    620.360    611.116    611.116
 23.970    591.670    625.260    -33.590    610.710    615.631    620.341    610.710    610.710
 24.070    634.915    625.941      8.974    610.307    615.900    620.351    610.307    610.307
 24.170    671.000    626.899     44.101    609.909    616.418    620.393    609.909    609.909
 24.270    645.388    628.331     17.056    609.514    617.380    620.469    609.514    609.514
 24.370    677.182    630.660     46.522    609.123    619.207    620.581    609.123    609.123
 24.470    672.000    634.699     37.301    608.735    622.710    620.732    608.735    608.735
 24.570    661.604    641.709     19.896    608.351    629.146    620.927    608.351    608.351
 24.670    663.000    653.070      9.930    607.970    639.893    621.169    607.970    607.970
 24.770    684.000    669.300     14.700    607.593    655.465    621.462    607.593    607.593
 24.870    672.000    688.377    -16.377    607.220    673.831    621.813    607.220    607.220
 24.970    731.232    704.047     27.184    606.850    688.730    622.226    606.850    606.850
 25.070    688.000    707.817    -19.817    606.484    691.653    622.709    606.484    606.484
 25.170    667.000    697.260    -30.260    606.121    680.165    623.269    606.121    606.121
 25.270    707.852    679.543     28.309    605.762    661.429    623.915    605.762    605.762
 25.370    656.000    662.789     -6.789    605.406    643.565    624.657    605.406    605.406
 25.470    650.000    650.642     -0.642    605.054    630.206    625.506    605.054    605.054
 25.570    646.000    643.356      2.644    604.705    621.593    626.477    604.705    604.705
 25.670    681.000    639.736     41.264    604.360    616.515    627.586    604.360    604.360
 25.770    616.591    638.408    -21.817    604.018    613.578    628.852    604.018    604.018
 25.870    589.530    638.391    -48.861    603.680    611.776    630.297    603.680    603.680
 25.970    683.000    639.156     43.844    603.345    610.554    631.948    603.345    603.345
 26.070    643.000    640.474      2.526    603.013    609.649    633.838    603.013    603.013
 26.170    657.000    642.270     14.730    602.685    608.946    636.009    602.685    602.685
 26.270    607.986    644.534    -36.549    602.360    608.389    638.505    602.360    602.360
 26.370    664.000    647.281     16.719    602.039    607.937    641.381    602.039    602.039
 26.470    624.667    650.573    -25.906    601.720    607.579    644.713    601.720    601.720
 26.570    652.000    654.491     -2.491    601.406    607.303    648.592    601.406    601.406
 26.670    610.000    659.147    -49.147    601.094    607.106    653.132    601.094    601.094
 26.770    682.000    664.686     17.314    600.786    606.988    658.481    600.786    600.786
 26.870    624.220    671.306    -47.085    600.481    606.953    664.830    600.481    600.481
 26.970    666.000    679.266    -13.266    600.179    607.010    672.430    600.179    600.179
 27.070    658.000    688.919    -30.919    599.881    607.175    681.619    599.881    599.881
 27.170    739.916    700.748     39.169    599.586    607.469    692.857    599.586    599.586
 27.270    665.000    715.426    -50.426    599.294    607.926    706.785    599.294    599.294
 27.370    765.394    733.919     31.475    599.005    608.592    724.320    599.005    599.005
 27.470    729.096    757.668    -28.571    598.720    609.542    746.832    598.720    598.720
 27.570    857.000    789.022     67.978    598.437    610.890    776.551    598.437    598.437
 27.670    814.569    832.925    -18.356    598.158    612.886    818.170    598.158    598.158
 27.770    918.000    903.171     14.829    597.882    616.217    884.790    597.882    597.882
 27.870   1051.000   1041.814      9.186    597.609    622.971   1016.357    597.609    597.609
 27.970   1386.000   1358.893     27.107    597.340    638.606   1317.422    597.340    597.340
 28.070   1910.000   2065.030   -155.030    597.073    673.568   1988.134    597.073    597.073
 28.170   3179.000   3398.207   -219.207    596.810    739.668   3254.697    596.810    596.810
 28.270   5306.395   5355.093    -48.699    596.549    836.783   5114.037    596.549    596.549
 28.370   7329.000   7353.982    -24.982    596.292    936.179   7013.359    596.292    596.292
 28.470   8229.000   8257.768    -28.768    596.038    981.728   7871.687    596.038    596.038
 28.570   7560.000   7396.548    163.452    595.787    940.756   7051.507    595.787    595.787
 28.670   5795.000   5588.319    206.681    595.539    854.920   5328.999    595.539    595.539
 28.770   3986.238   4064.357    -78.119    595.293    787.031   3872.671    595.293    595.293
 28.870   3489.000   3452.341     36.659    595.051    769.837   3277.544    595.051    595.051
 28.970   3628.000   3703.536    -75.536    594.812    800.402   3497.898    594.812    594.812
 29.070   4404.000   4321.428     82.572    594.576    849.059   4066.934    594.576    594.576
 29.170   4562.255   4612.850    -50.595    594.343    871.681   4335.630    594.343    594.343
 29.270   4194.748   4158.157     36.590    594.113    841.142   3911.405    594.113    594.113
 29.370   3178.318   3221.191    -42.873    593.885    776.570   3038.845    593.885    593.885
 29.470   2272.000   2278.436     -6.436    593.661    711.380   2161.005    593.661    593.661
 29.570   1621.139   1586.144     34.995    593.439    663.503   1516.275    593.439    593.439
 29.670   1170.469   1174.080     -3.611    593.221    635.062   1132.349    593.221    593.221
 29.770   1055.000    960.789     94.211    593.005    620.419    933.432    593.005    593.005
 29.870    934.000    854.765     79.235    592.792    613.228    834.358    592.792    592.792
 29.970    893.000    797.466     95.534    592.582    609.434    780.629    592.582    592.582
 30.070    769.000    761.436      7.564    592.375    607.147    746.672    592.375    592.375
 30.170    690.350    735.926    -45.577    592.171    605.646    722.457    592.171    592.171
 30.270    787.000    716.823     70.177    591.969    604.684    704.112    591.969    591.969
 30.370    702.000    702.360     -0.360    591.771    604.221    689.911    591.771    591.771
