neutron_powder_diffraction_0036
R_wp: 3.795
Temperature (K): 573.769
Counts: 83285.00
Wavelength (Ã…): 2.52098
COMMENTS
Test file for demonstrating the .xyy file format in Reel1.0
END OF HEADER
   tth       Y_obs     Y_calc      Y_res    Background    Phase_1_Nuc    Phase_1_Mag    Phase_2_Nuc    Phase_2_Mag
  9.970    695.000    692.217      2.783    690.734    691.722    691.228    690.734    690.734
 10.070    702.000    691.427     10.573    689.858    690.926    690.358    689.858    689.858
 10.170    714.000    690.651     23.349    688.986    690.145    689.491    688.986    688.986
 10.270    653.000    689.891    -36.891    688.117    689.380    688.627    688.117    688.117
 10.370    727.000    689.151     37.849    687.251    688.634    687.767    687.251    687.251
 10.470    697.000    688.433      8.567    686.388    687.910    686.910    686.388    686.388
 10.570    658.630    687.742    -29.112    685.529    687.214    686.057    685.529    685.529
 10.670    700.000    687.084     12.916    684.674    686.550    685.207    684.674    684.674
 10.770    675.357    686.467    -11.110    683.821    685.927    684.360    683.821    683.821
 10.870    686.000    685.899      0.101    682.972    685.353    683.517    682.972    682.972
 10.970    739.000    685.395     53.605    682.126    684.843    682.677    682.126    682.126
 11.070    731.679    684.974     46.705    681.284    684.415    681.841    681.284    681.284
 11.170    678.000    684.662     -6.662    680.445    684.096    681.008    680.445    680.445
 11.270    666.000    684.498    -18.498    679.609    683.925    680.179    679.609    679.609
 11.370    698.000    684.546     13.454    678.776    683.967    679.353    678.776    678.776
 11.470    649.465    684.927    -35.462    677.947    684.340    678.530    677.947    677.947
 11.570    695.000    685.905      9.095    677.122    685.311    677.711    677.122    677.122
 11.670    689.000    688.083      0.917    676.299    687.480    676.896    676.299    676.299
 11.770    816.000    692.707    123.293    675.480    692.094    676.084    675.480    675.480
 11.870    712.566    701.840     10.726    674.665    701.214    675.275    674.665    674.665
 11.970    801.000    717.868     83.132    673.852    717.226    674.470    673.852    673.852
 12.070    764.447    741.757     22.690    673.043    741.094    673.669    673.043    673.043
 12.170    822.000    769.940     52.060    672.238    769.253    672.871    672.238    672.238
 12.270    829.000    791.416     37.584    671.436    790.708    672.076    671.436    671.436
 12.370    806.153    792.591     13.562    670.637    791.874    671.285    670.637    670.637
 12.470    764.381    771.885     -7.504    669.841    771.172    670.498    669.841    669.841
 12.570    723.000    742.119    -19.119    669.049    741.414    669.714    669.049    669.049
 12.670    685.000    715.551    -30.551    668.261    714.852    668.933    668.261    668.261
 12.770    715.000    696.817     18.183    667.475    696.120    668.156    667.475    667.475
 12.870    703.000    685.280     17.720    666.693    684.581    667.383    666.693    666.693
 12.970    619.000    678.573    -59.573    665.915    677.868    666.613    665.915    665.915
 13.070    660.000    674.562    -14.562    665.140    673.850    665.847    665.140    665.140
 13.170    672.138    671.884      0.254    664.368    671.164    665.084    664.368    664.368
 13.270    625.000    669.861    -44.861    663.600    669.133    664.325    663.600    663.600
 13.370    676.839    668.196      8.643    662.835    667.459    663.569    662.835    662.835
 13.470    678.000    666.756     11.244    662.073    666.010    662.817    662.073    662.073
 13.570    642.538    665.472    -22.934    661.315    664.716    662.069    661.315    661.315
 13.670    676.000    664.302     11.698    660.560    663.536    661.324    660.560    660.560
 13.770    710.000    663.217     46.783    659.809    662.442    660.582    659.809    659.809
 13.870    664.302    662.200      2.102    659.060    661.414    659.845    659.060    659.060
 13.970    685.000    661.234     23.766    658.316    660.438    659.111    658.316    658.316
 14.070    653.000    660.310     -7.310    657.575    659.503    658.380    657.575    657.575
 14.170    611.846    659.420    -47.574    656.837    658.603    657.653    656.837    656.837
 14.270    641.000    658.562    -17.562    656.102    657.734    656.930    656.102    656.102
 14.370    680.000    657.725     22.275    655.371    656.885    656.210    655.371    655.371
 14.470    700.000    656.906     43.094    654.644    656.055    655.494    654.644    654.644
 14.570    651.000    656.104     -5.104    653.919    655.241    654.782    653.919    653.919
 14.670    608.260    655.318    -47.058    653.199    654.443    654.073    653.199    653.199
 14.770    642.000    654.545    -12.545    652.481    653.658    653.368    652.481    652.481
 14.870    623.000    653.791    -30.791    651.767    652.891    652.667    651.767    651.767
 14.970    607.000    653.064    -46.064    651.056    652.151    651.970    651.056    651.056
 15.070    612.091    652.326    -40.235    650.349    651.399    651.276    650.349    650.349
 15.170    656.000    651.594      4.406    649.645    650.653    650.585    649.645    649.645
 15.270    671.000    650.870     20.130    648.945    649.916    649.899    648.945    648.945
 15.370    695.570    650.154     45.417    648.248    649.185    649.216    648.248    648.248
 15.470    636.000    649.445    -13.445    647.554    648.462    648.537    647.554    647.554
 15.570    609.229    648.742    -39.513    646.864    647.745    647.861    646.864    646.864
 15.670    629.696    648.047    -18.350    646.177    647.034    647.190    646.177    646.177
 15.770    607.000    647.357    -40.357    645.494    646.329    646.522    645.494    645.494
 15.870    661.000    646.674     14.326    644.814    645.630    645.858    644.814    644.814
 15.970    661.000    646.000     15.000    644.137    644.940    645.197    644.137    644.137
 16.070    619.000    645.328    -26.328    643.464    644.252    644.540    643.464    643.464
 16.170    612.747    644.661    -31.914    642.794    643.567    643.888    642.794    642.794
 16.270    617.000    643.999    -26.999    642.128    642.888    643.239    642.128    642.128
 16.370    604.000    643.343    -39.343    641.465    642.214    642.593    641.465    641.465
 16.470    627.000    642.691    -15.691    640.805    641.544    641.952    640.805    640.805
 16.570    651.320    642.044      9.276    640.149    640.878    641.314    640.149    640.149
 16.670    631.000    641.402    -10.402    639.496    640.217    640.681    639.496    639.496
 16.770    612.000    640.765    -28.765    638.846    639.560    640.051    638.846    638.846
 16.870    602.562    640.132    -37.570    638.200    638.907    639.425    638.200    638.200
 16.970    679.733    639.504     40.229    637.558    638.259    638.803    637.558    637.558
 17.070    610.000    638.881    -28.881    636.918    637.615    638.185    636.918    636.918
 17.170    678.000    638.263     39.737    636.282    636.975    637.570    636.282    636.282
 17.270    646.000    637.649      8.351    635.650    636.338    636.960    635.650    635.650
 17.370    689.000    637.041     51.959    635.021    635.708    636.354    635.021    635.021
 17.470    629.443    636.443     -6.999    634.395    635.085    635.752    634.395    634.395
 17.570    621.870    635.844    -13.974    633.772    634.462    635.154    633.772    633.772
 17.670    682.515    635.253     47.262    633.153    633.846    634.560    633.153    633.153
 17.770    589.000    634.714    -45.714    632.538    633.280    633.971    632.538    632.538
 17.870    588.000    634.152    -46.152    631.926    632.692    633.385    631.926    631.926
 17.970    635.000    633.573      1.427    631.317    632.087    632.803    631.317    631.317
 18.070    600.743    633.005    -32.262    630.711    631.490    632.225    630.711    630.711
 18.170    679.301    632.439     46.862    630.109    630.896    631.652    630.109    630.109
 18.270    669.551    631.872     37.679    629.510    630.300    631.082    629.510    629.510
 18.370    619.603    631.309    -11.706    628.915    629.707    630.517    628.915    628.915
 18.470    606.136    630.751    -24.614    628.323    629.117    629.956    628.323    628.323
 18.570    638.000    630.197      7.803    627.734    628.532    629.399    627.734    627.734
 18.670    673.360    629.648     43.712    627.148    627.950    628.846    627.148    627.148
 18.770    623.674    629.106     -5.433    626.566    627.374    628.298    626.566    626.566
 18.870    596.000    628.591    -32.591    625.988    626.824    627.755    625.988    625.988
 18.970    658.000    628.063     29.937    625.412    626.260    627.215    625.412    625.412
 19.070    624.101    627.534     -3.432    624.840    625.694    626.680    624.840    624.840
 19.170    601.000    627.009    -26.009    624.272    625.131    626.150    624.272    624.272
 19.270    660.180    626.490     33.691    623.707    624.572    625.624    623.707    623.707
 19.370    631.000    625.976      5.024    623.145    624.018    625.103    623.145    623.145
 19.470    626.000    625.478      0.522    622.586    623.477    624.587    622.586    622.586
 19.570    604.744    624.994    -20.250    622.031    622.945    624.079    622.031    622.031
 19.670    606.000    624.550    -18.550    621.479    622.442    623.586    621.479    621.479
 19.770    609.495    624.062    -14.567    620.930    621.906    623.085    620.930    620.930
 19.870    622.000    623.574     -1.574    620.385    621.371    622.588    620.385    620.385
 19.970    616.612    623.092     -6.480    619.843    620.839    622.096    619.843    619.843
 20.070    582.095    622.616    -40.521    619.304    620.311    621.608    619.304    619.304
 20.170    617.000    622.145     -5.145    618.769    619.787    621.126    618.769    618.769
 20.270    569.000    621.680    -52.680    618.236    619.267    620.649    618.236    618.236
 20.370    630.858    621.223      9.635    617.708    618.753    620.178    617.708    617.708
 20.470    629.000    620.791      8.209    617.182    618.262    619.712    617.182    617.182
 20.570    580.042    620.366    -40.324    616.660    617.771    619.255    616.660    616.660
 20.670    574.445    619.962    -45.517    616.141    617.291    618.812    616.141    616.141
 20.770    593.000    619.536    -26.536    615.625    616.796    618.366    615.625    615.625
 20.870    628.000    619.128      8.872    615.113    616.319    617.923    615.113    615.113
 20.970    617.850    618.764     -0.914    614.604    615.882    617.485    614.604    614.604
 21.070    570.000    618.399    -48.399    614.098    615.443    617.054    614.098    614.098
 21.170    629.955    618.001     11.954    613.596    614.968    616.629    613.596    613.596
 21.270    628.000    617.605     10.395    613.096    614.491    616.210    613.096    613.096
 21.370    616.000    617.219     -1.219    612.600    614.022    615.797    612.600    612.600
 21.470    637.528    616.869     20.659    612.108    613.584    615.393    612.108    612.108
 21.570    655.703    616.515     39.188    611.618    613.138    614.994    611.618    611.618
 21.670    657.044    616.154     40.891    611.132    612.683    614.602    611.132    611.132
 21.770    597.000    615.808    -18.808    610.649    612.238    614.218    610.649    610.649
 21.870    567.000    615.478    -48.478    610.169    611.802    613.845    610.169    610.169
 21.970    565.000    615.153    -50.153    609.693    611.368    613.478    609.693    609.693
 22.070    599.000    614.835    -15.835    609.219    610.937    613.117    609.219    609.219
 22.170    543.000    614.527    -71.527    608.749    610.512    612.765    608.749    608.749
 22.270    595.494    614.230    -18.736    608.282    610.092    612.421    608.282    608.282
 22.370    641.332    613.945     27.387    607.819    609.678    612.086    607.819    607.819
 22.470    601.000    613.675    -12.675    607.358    609.273    611.760    607.358    607.358
 22.570    585.152    613.422    -28.270    606.901    608.878    611.445    606.901    606.901
 22.670    615.000    613.183      1.817    606.447    608.491    611.140    606.447    606.447
 22.770    602.000    612.962    -10.962    605.996    608.113    610.845    605.996    605.996
 22.870    580.000    612.761    -32.761    605.549    607.748    610.562    605.549    605.549
 22.970    622.000    612.587      9.413    605.104    607.400    610.292    605.104    605.104
 23.070    596.636    612.439    -15.803    604.663    607.068    610.034    604.663    604.663
 23.170    570.000    612.312    -42.312    604.225    606.750    609.788    604.225    604.225
 23.270    627.000    612.217     14.783    603.790    606.452    609.556    603.790    603.790
 23.370    634.000    612.159     21.841    603.358    606.179    609.339    603.358    603.358
 23.470    655.550    612.143     43.407    602.929    605.936    609.137    602.929    602.929
 23.570    605.000    612.179     -7.179    602.504    605.732    608.952    602.504    602.504
 23.670    657.000    612.276     44.724    602.082    605.575    608.784    602.082    602.082
 23.770    620.847    612.450      8.397    601.663    605.479    608.635    601.663    601.663
 23.870    596.000    612.723    -16.723    601.246    605.463    608.507    601.246    601.246
 23.970    638.045    613.123     24.922    600.834    605.557    608.401    600.834    600.834
 24.070    601.676    613.700    -12.024    600.424    605.810    608.317    600.424    600.424
 24.170    650.916    614.552     36.363    600.017    606.315    608.258    600.017    600.017
 24.270    601.000    615.892    -14.892    599.614    607.284    608.226    599.614    599.614
 24.370    648.000    618.192     29.808    599.213    609.187    608.223    599.213    599.213
 24.470    610.878    622.369    -11.491    598.816    612.941    608.252    598.816    598.816
 24.570    610.530    629.839    -19.310    598.421    619.958    608.316    598.421    598.421
 24.670    678.000    642.066     35.934    598.030    631.701    608.418    598.030    598.030
 24.770    692.000    659.329     32.671    597.642    648.444    608.561    597.642    597.642
 24.870    671.000    678.715     -7.715    597.257    667.271    608.749    597.257    597.257
 24.970    703.000    692.562     10.438    596.875    680.506    608.988    596.875    596.875
 25.070    632.000    692.557    -60.557    596.496    679.828    609.283    596.496    596.496
 25.170    683.000    678.986      4.014    596.120    665.515    609.639    596.120    596.120
 25.270    676.000    660.320     15.680    595.748    646.038    610.064    595.748    595.748
 25.370    652.000    644.022      7.978    595.378    628.855    610.566    595.378    595.378
 25.470    680.000    632.837     47.163    595.011    616.706    611.155    595.011    595.011
 25.570    588.282    626.418    -38.136    594.648    609.232    611.841    594.648    594.648
 25.670    651.000    623.303     27.697    594.287    604.956    612.639    594.287    594.287
 25.770    577.000    622.119    -45.119    593.929    602.489    613.562    593.929    593.929
 25.870    646.748    621.990     24.758    593.575    600.937    614.630    593.575    593.575
 25.970    586.634    622.487    -35.852    593.223    599.847    615.864    593.223    593.223
 26.070    594.515    623.432    -28.917    592.874    599.016    617.290    592.874    592.874
 26.170    625.908    624.768      1.140    592.529    598.355    618.941    592.529    592.529
 26.270    653.000    626.489     26.511    592.186    597.819    620.856    592.186    592.186
 26.370    646.000    628.619     17.381    591.846    597.383    623.081    591.846    591.846
 26.470    688.000    631.204     56.796    591.509    597.034    625.678    591.509    591.509
 26.570    640.424    634.316      6.108    591.176    596.767    628.723    591.176    591.176
 26.670    605.943    638.028    -32.086    590.845    596.566    632.304    590.845    590.845
 26.770    676.000    642.473     33.527    590.517    596.440    636.546    590.517    590.517
 26.870    637.000    647.815    -10.815    590.192    596.394    641.610    590.192    590.192
 26.970    698.000    654.276     43.724    589.870    596.438    647.704    589.870    589.870
 27.070    627.225    662.154    -34.929    589.551    596.588    655.112    589.551    589.551
 27.170    704.000    671.861     32.139    589.235    596.867    664.222    589.235    589.235
 27.270    666.000    683.976    -17.976    588.922    597.310    675.579    588.922    588.922
 27.370    727.746    699.335     28.412    588.611    597.966    689.970    588.611    588.611
 27.470    719.526    719.214      0.311    588.304    598.913    708.592    588.304    588.304
 27.570    702.000    745.855    -43.855    587.999    600.287    733.550    587.999    587.999
 27.670    818.000    784.468     33.532    587.697    602.403    769.738    587.697    587.697
 27.770    897.000    850.471     46.529    587.399    606.185    831.643    587.399    587.399
 27.870   1003.057    989.477     13.580    587.103    614.367    962.129    587.103    587.103
 27.970   1347.000   1311.400     35.600    586.809    633.529   1264.497    586.809    586.809
 28.070   1827.000   2003.173   -176.173    586.519    674.862   1914.467    586.519    586.519
 28.170   3079.000   3233.035   -154.035    586.232    748.450   3070.220    586.232    586.232
 28.270   4770.684   4901.842   -131.158    585.947    848.412   4638.615    585.947    585.947
 28.370   6354.000   6408.313    -54.313    585.665    938.900   6054.390    585.665    585.665
 28.470   6757.386   6855.371    -97.985    585.386    966.529   6473.851    585.386    585.386
 28.570   6123.000   5941.613    181.387    585.110    913.909   5612.721    585.110    585.110
 28.670   4519.157   4445.948     73.209    584.837    828.909   4201.890    584.837    584.837
 28.770   3310.000   3314.207     -4.207    584.566    769.947   3128.812    584.566    584.566
 28.870   2963.000   2958.560      4.440    584.298    762.977   2779.806    584.298    584.298
 28.970   3367.000   3250.922    116.078    584.033    798.894   3035.985    584.033    584.033
 29.070   3805.000   3728.558     76.442    583.771    843.797   3468.562    583.771    583.771
 29.170   3899.000   3847.897     51.103    583.512    855.777   3575.817    583.512    583.512
 29.270   3419.000   3374.908     44.092    583.255    816.959   3141.467    583.255    583.255
 29.370   2674.564   2579.856     94.708    583.001    750.689   2412.404    583.001    583.001
 29.470   1710.000   1832.562   -122.562    582.750    688.249   1727.225    582.750    582.750
 29.570   1295.000   1307.957    -12.957    582.501    644.418   1246.132    582.501    582.501
 29.670    979.795   1006.722    -26.928    582.255    619.296    969.726    582.255    582.255
 29.770    902.844    854.570     48.275    582.012    606.669    829.934    582.012    582.012
 29.870    823.000    779.289     43.711    581.772    600.490    760.581    581.772    581.772
 29.970    710.563    737.928    -27.365    581.534    597.170    722.298    581.534    581.534
 30.070    753.000    711.359     41.641    581.299    595.121    697.540    581.299    581.299
 30.170    731.000    692.321     38.679    581.067    593.761    679.628    581.067    581.067
 30.270    696.694    678.036     18.659    580.837    592.897    665.975    580.837    580.837
 30.370    685.000    667.313     17.687    580.610    592.517    655.403    580.610    580.610
