neutron_powder_diffraction_0005
R_wp: 3.529
Temperature (K): 439.250
Counts: 83761.00
Wavelength (Ã…): 2.52098
COMMENTS
Test file for demonstrating the .xyy file format in Reel1.0
END OF HEADER
   tth       Y_obs     Y_calc      Y_res    Background    Phase_1_Nuc    Phase_1_Mag    Phase_2_Nuc    Phase_2_Mag
  9.970    711.000    755.422    -44.422    753.741    754.704    754.458    753.741    753.741
 10.070    814.000    754.313     59.687    752.548    753.587    753.274    752.548    752.548
 10.170    713.000    753.221    -40.221    751.362    752.488    752.095    751.362    751.362
 10.270    782.000    752.149     29.851    750.183    751.408    750.924    750.183    750.183
 10.370    767.000    751.098     15.902    749.010    750.349    749.759    749.010    749.010
 10.470    724.000    750.072    -26.072    747.844    749.315    748.601    747.844    747.844
 10.570    752.000    749.075      2.925    746.685    748.309    747.450    746.685    746.685
 10.670    817.000    748.112     68.888    745.532    747.338    746.306    745.532    745.532
 10.770    766.000    747.190     18.810    744.386    746.407    745.168    744.386    744.386
 10.870    747.497    746.318      1.179    743.246    745.526    744.037    743.246    743.246
 10.970    729.311    745.508    -16.197    742.113    744.707    742.912    742.113    742.113
 11.070    780.640    744.780     35.860    740.986    743.970    741.794    740.986    740.986
 11.170    767.000    744.153     22.847    739.866    743.334    740.683    739.866    739.866
 11.270    783.996    743.665     40.330    738.752    742.836    739.579    738.752    738.752
 11.370    765.000    743.384     21.616    737.645    742.545    738.481    737.645    737.645
 11.470    741.571    743.491     -1.920    736.544    742.641    737.390    736.544    736.544
 11.570    751.345    744.051      7.294    735.450    743.190    736.306    735.450    735.450
 11.670    768.981    745.583     23.398    734.362    744.711    735.228    734.362    734.362
 11.770    754.767    749.202      5.565    733.280    748.318    734.156    733.280    733.280
 11.870    801.000    756.816     44.184    732.205    755.917    733.091    732.205    732.205
 11.970    831.000    770.871     60.129    731.136    769.953    732.033    731.136    731.136
 12.070    851.000    792.913     58.087    730.073    791.972    730.981    730.073    730.073
 12.170    900.000    820.756     79.244    729.017    819.788    729.935    729.017    729.017
 12.270    841.781    845.226     -3.445    727.967    844.233    728.897    727.967    727.967
 12.370    837.216    851.797    -14.581    726.924    850.789    727.864    726.924    726.924
 12.470    878.000    834.427     43.573    725.887    833.416    726.838    725.887    725.887
 12.570    822.000    804.590     17.410    724.856    803.584    725.819    724.856    724.856
 12.670    774.000    776.205     -2.205    723.831    775.201    724.806    723.831    723.831
 12.770    731.775    755.347    -23.572    722.812    754.343    723.800    722.812    722.812
 12.870    689.000    742.190    -53.190    721.800    741.180    722.800    721.800    721.800
 12.970    720.000    734.495    -14.495    720.794    733.476    721.806    720.794    720.794
 13.070    696.000    729.904    -33.904    719.794    728.874    720.819    719.794    719.794
 13.170    759.000    726.857     32.143    718.801    725.815    719.839    718.801    718.801
 13.270    717.000    724.569     -7.569    717.813    723.514    718.865    717.813    717.813
 13.370    688.000    722.656    -34.656    716.832    721.588    717.897    716.832    716.832
 13.470    661.000    720.983    -59.983    715.856    719.902    716.935    715.856    715.856
 13.570    753.354    719.477     33.877    714.887    718.382    715.980    714.887    714.887
 13.670    682.862    718.092    -35.230    713.924    716.983    715.032    713.924    713.924
 13.770    714.000    716.799     -2.799    712.967    715.675    714.089    712.967    712.967
 13.870    677.820    715.577    -37.757    712.016    714.439    713.153    712.016    712.016
 13.970    756.225    714.411     41.814    711.071    713.258    712.224    711.071    711.071
 14.070    761.395    713.291     48.104    710.132    712.122    711.300    710.132    710.132
 14.170    754.000    712.208     41.792    709.199    711.024    710.383    709.199    709.199
 14.270    719.097    711.157      7.940    708.273    709.956    709.472    708.273    708.273
 14.370    691.000    710.132    -19.132    707.352    708.915    708.568    707.352    707.352
 14.470    686.000    709.130    -23.130    706.437    707.897    707.670    706.437    706.437
 14.570    730.000    708.149     21.851    705.528    706.898    706.778    705.528    705.528
 14.670    713.054    707.185      5.869    704.625    705.917    705.892    704.625    704.625
 14.770    688.000    706.238    -18.238    703.727    704.952    705.013    703.727    703.727
 14.870    672.000    705.312    -33.312    702.836    704.007    704.140    702.836    702.836
 14.970    721.000    704.392     16.608    701.951    703.069    703.274    701.951    701.951
 15.070    683.000    703.485    -20.485    701.071    702.142    702.413    701.071    701.071
 15.170    689.000    702.590    -13.590    700.197    701.228    701.559    700.197    700.197
 15.270    721.340    701.707     19.633    699.329    700.326    700.711    699.329    699.329
 15.370    692.000    700.852     -8.852    698.467    699.450    699.869    698.467    698.467
 15.470    731.396    700.004     31.392    697.611    698.581    699.034    697.611    697.611
 15.570    682.000    699.150    -17.150    696.760    697.705    698.205    696.760    696.760
 15.670    676.000    698.303    -22.303    695.916    696.836    697.382    695.916    695.916
 15.770    681.000    697.464    -16.464    695.077    695.976    696.565    695.077    695.077
 15.870    644.000    696.635    -52.635    694.243    695.123    695.755    694.243    694.243
 15.970    716.000    695.813     20.187    693.416    694.278    694.950    693.416    693.416
 16.070    705.188    694.999     10.188    692.594    693.440    694.152    692.594    692.594
 16.170    692.000    694.193     -2.193    691.778    692.610    693.361    691.778    691.778
 16.270    694.000    693.396      0.604    690.967    691.787    692.575    690.967    690.967
 16.370    668.000    692.605    -24.605    690.162    690.971    691.796    690.162    690.162
 16.470    639.959    691.822    -51.863    689.363    690.162    691.023    689.363    689.363
 16.570    675.791    691.046    -15.255    688.569    689.359    690.256    688.569    688.569
 16.670    654.889    690.278    -35.388    687.781    688.563    689.496    687.781    687.781
 16.770    678.000    689.516    -11.516    686.998    687.773    688.741    686.998    686.998
 16.870    657.000    688.762    -31.762    686.221    686.990    687.993    686.221    686.221
 16.970    693.000    688.015      4.985    685.450    686.213    687.252    685.450    685.450
 17.070    637.168    687.274    -50.107    684.684    685.442    686.516    684.684    684.684
 17.170    703.307    686.542     16.765    683.923    684.678    685.787    683.923    683.923
 17.270    670.000    685.821    -15.821    683.168    683.925    685.065    683.168    683.168
 17.370    720.000    685.112     34.888    682.419    683.182    684.348    682.419    682.419
 17.470    690.987    684.401      6.586    681.675    682.437    683.638    681.675    681.675
 17.570    729.034    683.696     45.338    680.936    681.697    682.935    680.936    680.936
 17.670    699.000    682.998     16.002    680.203    680.962    682.238    680.203    680.203
 17.770    701.000    682.311     18.689    679.475    680.239    681.547    679.475    679.475
 17.870    673.611    681.680     -8.069    678.753    679.568    680.864    678.753    678.753
 17.970    704.163    681.025     23.138    678.036    678.874    680.187    678.036    678.036
 18.070    690.000    680.356      9.644    677.324    678.165    679.515    677.324    677.324
 18.170    690.089    679.692     10.397    676.618    677.460    678.850    676.618    676.618
 18.270    691.000    679.035     11.965    675.917    676.761    678.191    675.917    675.917
 18.370    675.000    678.386     -3.386    675.221    676.068    677.538    675.221    675.221
 18.470    700.000    677.743     22.257    674.530    675.381    676.892    674.530    674.530
 18.570    643.289    677.107    -33.817    673.845    674.699    676.253    673.845    673.845
 18.670    736.000    676.478     59.522    673.165    674.023    675.620    673.165    673.165
 18.770    648.000    675.858    -27.858    672.490    673.354    674.994    672.490    672.490
 18.870    721.494    675.246     46.247    671.821    672.692    674.375    671.821    671.821
 18.970    661.111    674.639    -13.528    671.157    672.033    673.762    671.157    671.157
 19.070    650.926    674.039    -23.113    670.497    671.380    673.157    670.497    670.497
 19.170    694.032    673.455     20.577    669.843    670.740    672.558    669.843    669.843
 19.270    683.262    672.876     10.386    669.195    670.104    671.967    669.195    669.195
 19.370    673.000    672.329      0.671    668.551    669.488    671.392    668.551    668.551
 19.470    699.544    671.806     27.737    667.912    668.889    670.830    667.912    667.912
 19.570    724.494    671.248     53.246    667.279    668.266    670.261    667.279    667.279
 19.670    631.000    670.693    -39.693    666.650    667.646    669.697    666.650    666.650
 19.770    630.000    670.145    -40.145    666.027    667.032    669.140    666.027    666.027
 19.870    663.000    669.608     -6.608    665.408    666.425    668.591    665.408    665.408
 19.970    721.767    669.095     52.672    664.795    665.841    668.049    664.795    664.795
 20.070    663.000    668.579     -5.579    664.187    665.251    667.515    664.187    664.187
 20.170    623.305    668.064    -44.759    663.583    664.660    666.988    663.583    663.583
 20.270    657.000    667.558    -10.558    662.985    664.074    666.469    662.985    662.985
 20.370    709.778    667.061     42.717    662.392    663.495    665.957    662.392    662.392
 20.470    667.000    666.586      0.414    661.803    662.935    665.454    661.803    661.803
 20.570    650.276    666.129    -15.853    661.219    662.384    664.965    661.219    661.219
 20.670    636.197    665.700    -29.503    660.641    661.843    664.498    660.641    660.641
 20.770    709.959    665.251     44.708    660.067    661.292    664.026    660.067    660.067
 20.870    660.000    664.836     -4.836    659.498    660.777    663.557    659.498    659.498
 20.970    625.000    664.449    -39.449    658.934    660.287    663.097    658.934    658.934
 21.070    653.000    664.021    -11.021    658.375    659.752    662.644    658.375    658.375
 21.170    620.000    663.600    -43.600    657.820    659.221    662.200    657.820    657.820
 21.270    662.000    663.208     -1.208    657.270    658.713    661.766    657.270    657.270
 21.370    634.000    662.842    -28.842    656.726    658.224    661.344    656.726    656.726
 21.470    656.295    662.473     -6.178    656.185    657.723    660.935    656.185    656.185
 21.570    626.000    662.102    -36.102    655.650    657.221    660.531    655.650    655.650
 21.670    632.404    661.738    -29.334    655.119    656.722    660.136    655.119    655.119
 21.770    655.000    661.386     -6.386    654.593    656.229    659.751    654.593    654.593
 21.870    618.000    661.045    -43.045    654.072    655.741    659.376    654.072    654.072
 21.970    676.428    660.718     15.710    653.556    655.260    659.013    653.556    653.556
 22.070    686.000    660.406     25.594    653.044    654.788    658.662    653.044    653.044
 22.170    634.000    660.109    -26.109    652.536    654.323    658.323    652.536    652.536
 22.270    634.000    659.827    -25.827    652.034    653.865    657.996    652.034    652.034
 22.370    674.000    659.562     14.438    651.536    653.416    657.682    651.536    651.536
 22.470    641.000    659.315    -18.315    651.042    652.977    657.381    651.042    651.042
 22.570    694.000    659.091     34.909    650.553    652.550    657.095    650.553    650.553
 22.670    638.270    658.888    -20.619    650.069    652.133    656.824    650.069    650.069
 22.770    691.806    658.705     33.101    649.589    651.727    656.567    649.589    649.589
 22.870    638.000    658.546    -20.546    649.114    651.333    656.326    649.114    649.114
 22.970    660.000    658.412      1.588    648.643    650.953    656.102    648.643    648.643
 23.070    643.000    658.307    -15.307    648.176    650.588    655.896    648.176    648.176
 23.170    682.000    658.234     23.766    647.714    650.242    655.707    647.714    647.714
 23.270    685.312    658.198     27.115    647.257    649.917    655.539    647.257    647.257
 23.370    613.000    658.202    -45.202    646.804    649.616    655.391    646.804    646.804
 23.470    618.000    658.255    -40.255    646.355    649.346    655.265    646.355    646.355
 23.570    641.000    658.363    -17.363    645.911    649.112    655.163    645.911    645.911
 23.670    698.000    658.536     39.464    645.471    648.923    655.086    645.471    645.471
 23.770    688.000    658.788     29.212    645.036    648.791    655.034    645.036    645.036
 23.870    657.364    659.137     -1.774    644.605    648.733    655.011    644.605    644.605
 23.970    633.000    659.611    -26.611    644.178    648.773    655.018    644.178    644.178
 24.070    678.305    660.251     18.054    643.755    648.952    655.057    643.755    643.755
 24.170    634.999    661.138    -26.140    643.337    649.347    655.131    643.337    643.337
 24.270    696.989    662.440     34.549    642.923    650.123    655.244    642.923    642.923
 24.370    683.167    664.520     18.647    642.513    651.641    655.397    642.513    642.513
 24.470    695.000    668.089     26.911    642.108    654.609    655.595    642.108    642.108
 24.570    714.000    674.285     39.715    641.706    660.162    655.841    641.706    641.706
 24.670    697.466    684.441     13.025    641.309    669.630    656.139    641.309    641.309
 24.770    676.000    699.279    -23.279    640.916    683.730    656.495    640.916    640.916
 24.870    695.934    717.524    -21.589    640.528    701.178    656.915    640.528    640.528
 24.970    760.450    734.234     26.217    640.143    717.026    657.404    640.143    640.143
 25.070    771.455    741.104     30.351    639.762    722.954    657.971    639.762    639.762
 25.170    779.000    733.637     45.363    639.386    714.453    658.623    639.386    639.386
 25.270    673.004    717.456    -44.451    639.014    697.139    659.371    639.014    639.014
 25.370    721.693    700.826     20.866    638.646    679.274    660.225    638.646    638.646
 25.470    700.646    688.109     12.537    638.281    665.209    661.199    638.281    638.281
 25.570    731.759    680.164     51.595    637.921    655.789    662.307    637.921    637.921
 25.670    678.000    676.107      1.893    637.565    650.112    663.568    637.565    637.565
 25.770    719.000    674.614     44.386    637.213    646.830    665.002    637.213    637.213
 25.870    683.000    674.634      8.366    636.865    644.867    666.635    636.865    636.865
 25.970    668.000    675.541     -7.541    636.521    643.570    668.495    636.521    636.521
 26.070    701.000    677.066     23.934    636.181    642.627    670.622    636.181    636.181
 26.170    700.320    679.098     21.222    635.844    641.893    673.050    635.844    635.844
 26.270    680.000    681.627     -1.627    635.512    641.305    675.834    635.512    635.512
 26.370    656.000    684.683    -28.683    635.184    640.828    679.039    635.184    635.184
 26.470    663.000    688.328    -25.328    634.859    640.444    682.742    634.859    634.859
 26.570    660.302    692.647    -32.345    634.538    640.141    687.044    634.538    634.538
 26.670    720.000    697.760     22.240    634.222    639.914    692.066    634.222    634.222
 26.770    687.000    703.824    -16.824    633.909    639.762    697.969    633.909    633.909
 26.870    697.000    711.048    -14.048    633.599    639.688    704.958    633.599    633.599
 26.970    683.198    719.711    -36.512    633.294    639.700    713.302    633.294    633.294
 27.070    746.617    730.188     16.429    632.992    639.810    723.367    632.992    632.992
 27.170    728.000    742.990    -14.990    632.694    640.039    735.640    632.694    632.694
 27.270    729.000    758.813    -29.813    632.400    640.414    750.793    632.400    632.400
 27.370    732.000    778.671    -46.671    632.110    640.976    769.798    632.110    632.110
 27.470    824.000    804.053     19.947    631.823    641.788    794.078    631.823    631.823
 27.570    819.000    837.350    -18.350    631.540    642.951    825.927    631.540    631.540
 27.670    839.797    883.351    -43.554    631.261    644.665    869.930    631.261    631.261
 27.770    935.000    955.096    -20.096    630.985    647.473    938.582    630.985    630.985
 27.870   1089.000   1092.921     -3.921    630.713    653.052   1070.531    630.713    630.713
 27.970   1457.720   1406.643     51.078    630.444    665.959   1371.017    630.444    630.444
 28.070   2082.000   2119.168    -37.168    630.179    695.439   2053.657    630.179    630.179
 28.170   3479.639   3511.557    -31.919    629.918    753.155   3387.826    629.918    629.918
 28.270   5777.162   5654.396    122.765    629.660    842.062   5441.209    629.660    629.660
 28.370   7805.000   8017.660   -212.660    629.406    940.269   7705.860    629.406    629.406
 28.470   9363.000   9388.551    -25.551    629.155    997.698   9019.285    629.155    629.155
 28.570   8875.000   8829.884     45.116    628.908    975.954   8482.636    628.908    628.908
 28.670   6822.032   6928.605   -106.573    628.665    900.336   6657.135    628.665    628.665
 28.770   5057.886   5046.175     11.711    628.424    828.937   4845.967    628.424    628.424
 28.870   4228.000   4088.981    139.019    628.188    801.078   3916.317    628.188    628.188
 28.970   4171.000   4177.327     -6.327    627.954    821.791   3983.637    627.954    627.954
 29.070   4963.000   4836.758    126.242    627.725    867.372   4597.290    627.725    627.725
 29.170   5327.000   5292.692     34.308    627.498    896.931   5023.600    627.498    627.498
 29.270   5038.000   4966.871     71.129    627.275    879.235   4715.434    627.275    627.275
 29.370   3896.373   3982.721    -86.348    627.055    822.516   3787.821    627.055    627.055
 29.470   2833.000   2856.207    -23.207    626.839    757.232   2726.266    626.839    626.839
 29.570   1904.000   1961.724    -57.724    626.626    705.353   1883.294    626.626    626.626
 29.670   1454.527   1398.432     56.096    626.416    672.723   1352.293    626.416    626.416
 29.770   1238.000   1096.573    141.427    626.210    655.304   1067.566    626.210    626.210
 29.870    996.000    946.832     49.168    626.007    646.742    926.143    626.007    626.007
 29.970    930.000    869.448     60.552    625.807    642.402    852.880    625.807    625.807
 30.070    904.000    823.503     80.497    625.610    639.917    809.214    625.610    625.610
 30.170    834.000    792.133     41.867    625.417    638.325    779.239    625.417    625.417
 30.270    737.293    768.953    -31.659    625.227    637.286    756.903    625.227    625.227
 30.370    749.000    751.354     -2.354    625.040    636.712    739.688    625.040    625.040
