neutron_powder_diffraction_0004
R_wp: 3.638
Temperature (K): 437.747
Counts: 83880.00
Wavelength (Ã…): 2.52098
COMMENTS
Test file for demonstrating the .xyy file format in Reel1.0
END OF HEADER
   tth       Y_obs     Y_calc      Y_res    Background    Phase_1_Nuc    Phase_1_Mag    Phase_2_Nuc    Phase_2_Mag
  9.970    729.300    757.546    -28.246    755.812    756.803    756.554    755.812    755.812
 10.070    776.842    756.481     20.361    754.661    755.731    755.410    754.661    754.661
 10.170    747.000    755.433     -8.433    753.515    754.675    754.273    753.515    753.515
 10.270    751.732    754.404     -2.672    752.375    753.638    753.141    752.375    752.375
 10.370    814.000    753.397     60.603    751.242    752.623    752.015    751.242    751.242
 10.470    759.000    752.415      6.585    750.114    751.632    750.896    750.114    750.114
 10.570    757.000    751.461      5.539    748.992    750.670    749.782    748.992    748.992
 10.670    723.690    750.543    -26.852    747.876    749.742    748.675    747.876    747.876
 10.770    810.000    749.665     60.335    746.765    748.856    747.573    746.765    746.765
 10.870    714.000    748.839    -34.839    745.661    748.021    746.478    745.661    745.661
 10.970    800.000    748.076     51.924    744.562    747.249    745.388    744.562    744.562
 11.070    769.000    747.395     21.605    743.469    746.558    744.305    743.469    743.469
 11.170    735.000    746.821    -11.821    742.383    745.974    743.227    742.383    742.383
 11.270    745.000    746.389     -1.389    741.301    745.532    742.156    741.301    741.301
 11.370    732.917    746.167    -13.250    740.226    745.300    741.090    740.226    740.226
 11.470    771.000    746.343     24.657    739.157    745.466    740.031    739.157    739.157
 11.570    771.000    746.994     24.006    738.093    746.105    738.977    738.093    738.093
 11.670    815.000    748.632     66.368    737.035    747.732    737.929    737.035    737.035
 11.770    806.000    752.377     53.623    735.983    751.464    736.888    735.983    735.983
 11.870    850.000    760.123     89.877    734.936    759.194    735.852    734.936    734.936
 11.970    809.000    774.295     34.705    733.895    773.346    734.822    733.895    733.895
 12.070    848.000    796.426     51.574    732.860    795.453    733.798    732.860    732.860
 12.170    837.000    824.370     12.630    731.831    823.369    732.780    731.831    731.831
 12.270    851.025    848.984      2.040    730.807    847.958    731.768    730.807    730.807
 12.370    850.000    855.665     -5.665    729.789    854.623    730.761    729.789    729.789
 12.470    855.264    838.284     16.980    728.777    837.239    729.761    728.777    728.777
 12.570    766.000    808.381    -42.381    727.770    807.341    728.766    727.770    727.770
 12.670    790.000    779.938     10.062    726.769    778.901    727.777    726.769    726.769
 12.770    774.396    759.008     15.388    725.774    757.969    726.794    725.774    725.774
 12.870    739.000    745.754     -6.754    724.784    744.710    725.817    724.784    724.784
 12.970    719.000    737.963    -18.963    723.800    736.910    724.846    723.800    723.800
 13.070    704.000    733.297    -29.297    722.822    732.232    723.881    722.822    722.822
 13.170    750.398    730.194     20.204    721.849    729.117    722.921    721.849    721.849
 13.270    715.000    727.856    -12.856    720.881    726.766    721.968    720.881    720.881
 13.370    732.000    725.924      6.076    719.920    724.821    721.020    719.920    719.920
 13.470    681.303    724.242    -42.939    718.964    723.125    720.078    718.964    718.964
 13.570    691.417    722.732    -31.315    718.013    721.601    719.142    718.013    718.013
 13.670    775.289    721.348     53.941    717.068    720.203    718.212    717.068    717.068
 13.770    704.628    720.059    -15.430    716.128    718.898    717.287    716.128    716.128
 13.870    672.000    718.842    -46.842    715.194    717.667    716.368    715.194    715.194
 13.970    749.000    717.684     31.316    714.265    716.493    715.456    714.265    714.265
 14.070    710.000    716.572     -6.572    713.342    715.365    714.548    713.342    713.342
 14.170    706.887    715.505     -8.618    712.425    714.282    713.647    712.425    712.425
 14.270    684.000    714.486    -30.486    711.513    713.246    712.752    711.513    711.513
 14.370    737.000    713.474     23.526    710.606    712.216    711.863    710.606    710.606
 14.470    714.000    712.482      1.518    709.705    711.207    710.979    709.705    709.705
 14.570    738.000    711.510     26.490    708.809    710.218    710.101    708.809    708.809
 14.670    714.256    710.557      3.699    707.918    709.246    709.228    707.918    707.918
 14.770    722.000    709.619     12.381    707.033    708.290    708.362    707.033    707.033
 14.870    724.845    708.695     16.149    706.154    707.347    707.501    706.154    706.154
 14.970    686.000    707.785    -21.785    705.279    706.418    706.646    705.279    705.279
 15.070    695.019    706.890    -11.871    704.410    705.503    705.797    704.410    704.410
 15.170    706.023    706.005      0.018    703.547    704.598    704.954    703.547    703.547
 15.270    682.000    705.129    -23.129    702.689    703.701    704.116    702.689    702.689
 15.370    723.000    704.262     18.738    701.836    702.813    703.284    701.836    701.836
 15.470    690.000    703.405    -13.405    700.988    701.935    702.458    700.988    700.988
 15.570    687.000    702.557    -15.557    700.146    701.064    701.638    700.146    700.146
 15.670    716.116    701.717     14.399    699.309    700.202    700.823    699.309    699.309
 15.770    670.286    700.886    -30.600    698.477    699.348    700.015    698.477    698.477
 15.870    676.000    700.063    -24.063    697.651    698.501    699.212    697.651    697.651
 15.970    660.509    699.247    -38.738    696.829    697.662    698.415    696.829    696.829
 16.070    708.000    698.439      9.561    696.013    696.829    697.624    696.013    696.013
 16.170    746.480    697.639     48.841    695.203    696.003    696.838    695.203    695.203
 16.270    672.000    696.846    -24.846    694.397    695.184    696.058    694.397    694.397
 16.370    744.129    696.061     48.068    693.597    694.373    695.285    693.597    693.597
 16.470    746.326    695.289     51.037    692.801    693.573    694.517    692.801    692.801
 16.570    726.057    694.518     31.539    692.011    692.774    693.755    692.011    692.011
 16.670    732.836    693.753     39.083    691.227    691.981    692.998    691.227    691.227
 16.770    647.602    692.995    -45.392    690.447    691.194    692.248    690.447    690.447
 16.870    701.000    692.243      8.757    689.672    690.412    691.503    689.672    689.672
 16.970    720.472    691.499     28.973    688.903    689.637    690.765    688.903    688.903
 17.070    704.000    690.761     13.239    688.139    688.867    690.032    688.139    688.139
 17.170    653.000    690.030    -37.030    687.379    688.104    689.305    687.379    687.379
 17.270    638.052    689.311    -51.259    686.625    687.351    688.586    686.625    686.625
 17.370    698.000    688.603      9.397    685.876    686.609    687.871    685.876    685.876
 17.470    670.000    687.900    -17.900    685.132    685.870    687.162    685.132    685.132
 17.570    699.000    687.265     11.735    684.393    685.197    686.461    684.393    684.393
 17.670    672.000    686.606    -14.606    683.659    684.501    685.765    683.659    683.659
 17.770    691.000    685.918      5.082    682.930    683.774    685.074    682.930    682.930
 17.870    704.000    685.233     18.767    682.206    683.051    684.389    682.206    682.206
 17.970    687.381    684.555      2.826    681.487    682.332    683.710    681.487    681.487
 18.070    667.000    683.883    -16.883    680.774    681.619    683.037    680.774    680.774
 18.170    689.000    683.218      5.782    680.065    680.912    682.370    680.065    680.065
 18.270    641.000    682.560    -41.560    679.360    680.211    681.710    679.360    679.360
 18.370    663.000    681.911    -18.911    678.661    679.516    681.056    678.661    678.661
 18.470    682.000    681.266      0.734    677.967    678.826    680.407    677.967    677.967
 18.570    699.000    680.628     18.372    677.278    678.140    679.766    677.278    677.278
 18.670    626.000    679.996    -53.996    676.593    677.459    679.130    676.593    676.593
 18.770    721.980    679.371     42.609    675.914    676.784    678.501    675.914    675.914
 18.870    688.000    678.753      9.247    675.239    676.114    677.878    675.239    675.239
 18.970    643.788    678.141    -34.353    674.570    675.449    677.262    674.570    674.570
 19.070    724.303    677.537     46.765    673.905    674.790    676.652    673.905    673.905
 19.170    658.000    676.951    -18.951    673.244    674.146    676.049    673.244    673.244
 19.270    671.000    676.397     -5.397    672.589    673.522    675.463    672.589    672.589
 19.370    681.542    675.863      5.679    671.939    672.912    674.890    671.939    671.939
 19.470    666.000    675.292     -9.292    671.293    672.277    674.308    671.293    671.293
 19.570    634.000    674.724    -40.724    670.652    671.644    673.732    670.652    670.652
 19.670    647.000    674.163    -27.163    670.016    671.016    673.162    670.016    670.016
 19.770    664.000    673.611     -9.611    669.384    670.396    672.600    669.384    669.384
 19.870    688.000    673.085     14.915    668.758    669.798    672.045    668.758    668.758
 19.970    657.501    672.555    -15.054    668.136    669.194    671.497    668.136    668.136
 20.070    651.000    672.027    -21.027    667.518    668.590    670.956    667.518    667.518
 20.170    666.000    671.520     -5.520    666.906    668.003    670.423    666.906    666.906
 20.270    638.250    671.032    -32.782    666.298    667.428    669.902    666.298    666.298
 20.370    683.000    670.571     12.429    665.695    666.861    669.405    665.695    665.695
 20.470    711.988    670.088     41.900    665.096    666.282    668.901    665.096    665.096
 20.570    672.000    669.621      2.379    664.502    665.724    668.399    664.502    664.502
 20.670    647.326    669.169    -21.843    663.913    665.177    667.905    663.913    663.913
 20.770    674.000    668.750      5.250    663.328    664.658    667.420    663.328    663.328
 20.870    655.000    668.295    -13.295    662.748    664.101    666.942    662.748    662.748
 20.970    699.169    667.846     31.324    662.172    663.546    666.472    662.172    662.172
 21.070    642.000    667.422    -25.422    661.601    663.012    666.011    661.601    661.601
 21.170    679.309    667.022     12.287    661.035    662.497    665.560    661.035    661.035
 21.270    659.000    666.605     -7.605    660.473    661.961    665.117    660.473    660.473
 21.370    667.482    666.207      1.274    659.916    661.439    664.684    659.916    659.916
 21.470    710.672    665.822     44.849    659.363    660.922    664.263    659.363    659.363
 21.570    684.000    665.447     18.553    658.814    660.407    663.855    658.814    658.814
 21.670    689.000    665.073     23.927    658.270    659.893    663.451    658.270    658.270
 21.770    670.000    664.714      5.286    657.731    659.388    663.057    657.731    657.731
 21.870    715.752    664.366     51.385    657.196    658.888    662.674    657.196    657.196
 21.970    611.442    664.030    -52.588    656.665    658.394    662.302    656.665    656.665
 22.070    666.387    663.709      2.678    656.139    657.906    661.942    656.139    656.139
 22.170    705.272    663.402     41.870    655.617    657.427    661.593    655.617    655.617
 22.270    616.000    663.111    -47.111    655.100    656.955    661.257    655.100    655.100
 22.370    634.000    662.838    -28.838    654.587    656.491    660.934    654.587    654.587
 22.470    681.011    662.584     18.428    654.079    656.038    660.625    654.079    654.079
 22.570    634.801    662.353    -27.553    653.574    655.598    660.330    653.574    653.574
 22.670    632.335    662.142    -29.807    653.074    655.166    660.051    653.074    653.074
 22.770    681.840    661.950     19.890    652.579    654.744    659.785    652.579    652.579
 22.870    701.000    661.781     39.219    652.087    654.333    659.536    652.087    652.087
 22.970    662.000    661.639      0.361    651.601    653.937    659.303    651.601    651.601
 23.070    639.000    661.527    -22.527    651.118    653.557    659.089    651.118    651.118
 23.170    706.025    661.447     44.578    650.639    653.194    658.893    650.639    650.639
 23.270    668.050    661.405      6.645    650.165    652.853    658.717    650.165    650.165
 23.370    674.000    661.405     12.595    649.695    652.537    658.563    649.695    649.695
 23.470    699.000    661.452     37.548    649.229    652.251    658.431    649.229    649.229
 23.570    630.771    661.554    -30.783    648.768    652.001    658.322    648.768    648.768
 23.670    677.000    661.723     15.277    648.311    651.797    658.238    648.311    648.311
 23.770    674.000    661.971     12.029    647.857    651.649    658.181    647.857    647.857
 23.870    616.000    662.318    -46.318    647.408    651.576    658.152    647.408    647.408
 23.970    683.000    662.791     20.209    646.963    651.601    658.155    646.963    646.963
 24.070    613.301    663.431    -50.130    646.523    651.765    658.191    646.523    646.523
 24.170    677.000    664.313     12.687    646.086    652.138    658.264    646.086    646.086
 24.270    637.565    665.585    -28.020    645.654    652.868    658.374    645.654    645.654
 24.370    650.366    667.588    -17.222    645.225    654.292    658.526    645.225    645.225
 24.470    681.000    671.014      9.986    644.801    657.098    658.724    644.801    644.801
 24.570    724.000    677.049     46.951    644.381    662.470    658.971    644.381    644.381
 24.670    686.000    687.189     -1.189    643.964    671.899    659.272    643.964    643.964
 24.770    695.594    702.424     -6.830    643.552    686.372    659.633    643.552    643.552
 24.870    739.000    721.666     17.334    643.144    704.794    660.058    643.144    643.144
 24.970    754.000    739.718     14.282    642.740    721.956    660.556    642.740    642.740
 25.070    729.000    747.267    -18.267    642.339    728.534    661.133    642.339    642.339
 25.170    731.000    739.078     -8.078    641.943    719.277    661.797    641.943    641.943
 25.270    739.000    721.600     17.400    641.551    700.632    662.560    641.551    641.551
 25.370    731.000    704.064     26.936    641.163    681.821    663.432    641.163    641.163
 25.470    711.000    691.022     19.978    640.778    667.390    664.427    640.778    640.778
 25.570    688.000    683.132      4.868    640.398    657.980    665.560    640.398    640.398
 25.670    661.490    679.254    -17.764    640.021    652.431    666.850    640.021    640.021
 25.770    683.000    677.918      5.082    639.648    649.252    668.319    639.648    639.648
 25.870    663.000    678.041    -15.041    639.279    647.331    669.993    639.279    639.279
 25.970    697.785    679.023     18.762    638.914    646.036    671.904    638.914    638.914
 26.070    648.000    680.601    -32.601    638.553    645.074    674.081    638.553    638.553
 26.170    683.682    682.694      0.989    638.196    644.319    676.572    638.196    638.196
 26.270    704.000    685.295     18.705    637.842    643.708    679.429    637.842    637.842
 26.370    663.247    688.438    -25.191    637.492    643.211    682.719    637.492    637.492
 26.470    764.000    692.184     71.816    637.146    642.807    686.523    637.146    637.146
 26.570    640.000    696.622    -56.622    636.804    642.485    690.941    636.804    636.804
 26.670    684.000    701.876    -17.876    636.466    642.239    696.101    636.466    636.466
 26.770    690.000    708.108    -18.108    636.131    642.070    702.167    636.131    636.131
 26.870    682.114    715.531    -33.416    635.800    641.979    709.349    635.800    635.800
 26.970    744.489    724.431     20.058    635.472    641.975    717.925    635.472    635.472
 27.070    692.000    735.196    -43.196    635.149    642.072    728.269    635.149    635.149
 27.170    732.000    748.348    -16.348    634.829    642.288    740.883    634.829    634.829
 27.270    759.281    764.602     -5.321    634.512    642.652    756.456    634.512    634.512
 27.370    764.664    785.000    -20.335    634.200    643.206    775.985    634.200    634.200
 27.470    830.000    811.066     18.934    633.891    644.014    800.933    633.891    633.891
 27.570    863.472    845.255     18.218    633.585    645.177    833.650    633.585    633.585
 27.670    898.000    892.468      5.532    633.283    646.898    878.835    633.283    633.283
 27.770    977.000    965.989     11.011    632.985    649.726    949.221    632.985    632.985
 27.870   1138.479   1106.589     31.890    632.690    655.336   1083.890    632.690    632.690
 27.970   1427.000   1424.505      2.495    632.399    668.256   1388.533    632.399    632.399
 28.070   2073.533   2142.238    -68.705    632.111    697.617   2076.474    632.111    632.111
 28.170   3323.000   3539.140   -216.140    631.827    754.890   3415.570    631.827    631.827
 28.270   5428.000   5684.925   -256.925    631.547    842.963   5472.703    631.547    631.547
 28.370   7943.907   8052.534   -108.627    631.269    940.297   7742.540    631.269    631.269
 28.470   9431.000   9432.400     -1.400    630.996    997.467   9065.170    630.996    630.996
 28.570   9082.000   8884.414    197.586    630.726    976.349   8538.556    630.726    630.726
 28.670   6907.059   6989.392    -82.333    630.459    901.684   6718.345    630.459    630.459
 28.770   4969.242   5105.286   -136.044    630.195    830.713   4905.056    630.195    630.195
 28.870   4292.000   4137.116    154.884    629.935    802.161   3965.105    629.935    629.935
 28.970   4201.000   4207.251     -6.251    629.679    821.052   4016.013    629.679    629.679
 29.070   4961.618   4848.087    113.531    629.426    864.439   4613.238    629.426    629.426
 29.170   5355.000   5294.642     60.358    629.176    892.761   5031.380    629.176    629.176
 29.270   5032.000   4973.443     58.557    628.929    875.696   4727.179    628.929    628.929
 29.370   4030.000   4001.021     28.979    628.686    820.889   3809.362    628.686    628.686
 29.470   2798.000   2883.435    -85.435    628.447    757.549   2754.775    628.447    628.447
 29.570   1971.000   1990.404    -19.404    628.210    706.891   1912.017    628.210    628.210
 29.670   1314.000   1422.747   -108.747    627.977    674.721   1376.170    627.977    627.977
 29.770   1212.000   1114.967     97.033    627.747    657.337   1085.464    627.747    627.747
 29.870    973.171    960.507     12.664    627.520    648.684    939.389    627.520    627.520
 29.970    930.000    880.091     49.909    627.297    644.259    863.156    627.297    627.297
 30.070    888.685    832.278     56.406    627.076    641.717    817.656    627.076    627.076
 30.170    802.000    799.682      2.318    626.859    640.091    786.463    626.859    626.859
 30.270    831.000    775.625     55.375    626.646    639.034    763.246    626.646    626.646
 30.370    756.000    757.379     -1.379    626.435    638.460    745.360    626.435    626.435
