neutron_powder_diffraction_0007
R_wp: 3.685
Temperature (K): 444.176
Counts: 83950.00
Wavelength (Ã…): 2.52098
COMMENTS
Test file for demonstrating the .xyy file format in Reel1.0
END OF HEADER
   tth       Y_obs     Y_calc      Y_res    Background    Phase_1_Nuc    Phase_1_Mag    Phase_2_Nuc    Phase_2_Mag
  9.970    748.000    742.926      5.074    741.208    742.208    741.925    741.208    741.208
 10.070    757.000    741.875     15.125    740.069    741.149    740.794    740.069    740.069
 10.170    709.107    740.842    -31.735    738.937    740.108    739.670    738.937    738.937
 10.270    785.019    739.828     45.191    737.811    739.086    738.552    737.811    737.811
 10.370    706.000    738.836    -32.836    736.692    738.087    737.441    736.692    736.692
 10.470    760.000    737.870     22.130    735.579    737.112    736.336    735.579    735.579
 10.570    743.000    736.934      6.066    734.473    736.168    735.238    734.473    734.473
 10.670    730.754    736.033     -5.278    733.373    735.258    734.146    733.373    733.373
 10.770    735.000    735.174     -0.174    732.279    734.391    733.061    732.279    732.279
 10.870    709.331    734.368    -25.037    731.192    733.576    731.982    731.192    731.192
 10.970    739.091    733.626      5.465    730.111    732.825    730.910    730.111    730.111
 11.070    724.000    732.967     -8.967    729.036    732.157    729.844    729.036    729.036
 11.170    805.000    732.416     72.584    727.967    731.597    728.785    727.967    727.967
 11.270    737.000    732.010      4.990    726.905    731.182    727.732    726.905    726.905
 11.370    718.587    731.808    -13.220    725.849    730.969    726.685    725.849    725.849
 11.470    755.000    731.915     23.085    724.800    731.066    725.645    724.800    724.800
 11.570    763.000    732.558     30.442    723.756    731.698    724.611    723.756    723.756
 11.670    767.000    734.257     32.743    722.719    733.387    723.584    722.719    722.719
 11.770    778.000    738.173     39.827    721.688    737.289    722.563    721.688    721.688
 11.870    813.000    745.964     67.036    720.663    745.065    721.549    720.663    720.663
 11.970    897.000    760.000    137.000    719.645    759.082    720.541    719.645    719.645
 12.070    737.600    781.730    -44.129    718.632    780.788    719.539    718.632    718.632
 12.170    841.000    808.984     32.016    717.626    808.016    718.544    717.626    717.626
 12.270    815.184    832.816    -17.631    716.626    831.823    717.555    716.626    716.626
 12.370    892.000    839.105     52.895    715.631    838.097    716.572    715.631    715.631
 12.470    887.000    822.075     64.925    714.643    821.065    715.595    714.643    714.643
 12.570    748.414    792.950    -44.536    713.661    791.944    714.625    713.661    713.661
 12.670    746.000    765.225    -19.225    712.686    764.222    713.661    712.686    712.686
 12.770    730.000    744.749    -14.749    711.716    743.745    712.703    711.716    711.716
 12.870    671.000    731.705    -60.705    710.752    730.695    711.751    710.752    710.752
 12.970    699.000    723.986    -24.986    709.794    722.967    710.806    709.794    709.794
 13.070    741.329    719.341     21.988    708.842    718.312    709.867    708.842    708.842
 13.170    684.000    716.254    -32.254    707.896    715.213    708.934    707.896    707.896
 13.270    673.000    713.935    -40.935    706.956    712.881    708.007    706.956    706.956
 13.370    717.000    712.023      4.977    706.022    710.956    707.087    706.022    706.022
 13.470    658.397    710.364    -51.967    705.094    709.283    706.172    705.094    705.094
 13.570    691.000    708.877    -17.877    704.172    707.784    705.264    704.172    704.172
 13.670    688.228    707.518    -19.290    703.256    706.410    704.362    703.256    703.256
 13.770    677.000    706.254    -29.254    702.345    705.132    703.466    702.345    702.345
 13.870    745.229    705.064     40.165    701.441    703.927    702.577    701.441    701.441
 13.970    714.494    703.933     10.561    700.542    702.781    701.693    700.542    700.542
 14.070    726.000    702.849     23.151    699.649    701.682    700.816    699.649    699.649
 14.170    698.258    701.804     -3.546    698.762    700.621    699.945    698.762    698.762
 14.270    692.000    700.791     -8.791    697.881    699.592    699.079    697.881    697.881
 14.370    729.000    699.808     29.192    697.006    698.592    698.220    697.006    697.006
 14.470    743.741    698.853     44.887    696.136    697.621    697.368    696.136    696.136
 14.570    672.000    697.935    -25.935    695.272    696.685    696.521    695.272    695.272
 14.670    671.000    697.014    -26.014    694.414    695.746    695.681    694.414    694.414
 14.770    630.000    696.107    -66.107    693.561    694.822    694.846    693.561    693.561
 14.870    715.167    695.216     19.951    692.714    693.912    694.017    692.714    692.714
 14.970    703.593    694.340      9.253    691.873    693.018    693.195    691.873    691.873
 15.070    690.000    693.476     -3.476    691.037    692.135    692.378    691.037    691.037
 15.170    708.000    692.622     15.378    690.207    691.261    691.568    690.207    690.207
 15.270    714.600    691.778     22.822    689.383    690.398    690.764    689.383    689.383
 15.370    681.561    690.945     -9.383    688.565    689.544    689.965    688.565    688.565
 15.470    715.000    690.121     24.879    687.751    688.699    689.173    687.751    687.751
 15.570    699.000    689.307      9.693    686.944    687.863    688.387    686.944    686.944
 15.670    703.000    688.501     14.499    686.142    687.036    687.607    686.142    686.142
 15.770    729.133    687.704     41.429    685.346    686.217    686.833    685.346    685.346
 15.870    690.000    686.915      3.085    684.555    685.405    686.065    684.555    684.555
 15.970    689.000    686.135      2.865    683.769    684.601    685.303    683.769    683.769
 16.070    654.358    685.362    -31.004    682.990    683.804    684.547    682.990    682.990
 16.170    643.108    684.597    -41.489    682.215    683.015    683.797    682.215    682.215
 16.270    702.118    683.839     18.279    681.446    682.232    683.053    681.446    681.446
 16.370    711.000    683.089     27.911    680.683    681.457    682.315    680.683    680.683
 16.470    644.000    682.346    -38.346    679.925    680.687    681.583    679.925    679.925
 16.570    697.000    681.611     15.389    679.172    679.925    680.858    679.172    679.172
 16.670    684.000    680.882      3.118    678.425    679.169    680.138    678.425    678.425
 16.770    658.000    680.161    -22.161    677.683    678.419    679.424    677.683    677.683
 16.870    633.000    679.447    -46.447    676.946    677.677    678.717    676.946    676.946
 16.970    658.557    678.746    -20.189    676.215    676.946    678.015    676.215    676.215
 17.070    654.098    678.046    -23.949    675.489    676.215    677.320    675.489    675.489
 17.170    631.000    677.358    -46.358    674.768    675.496    676.631    674.768    674.768
 17.270    659.114    676.682    -17.567    674.053    674.786    675.949    674.053    674.053
 17.370    684.000    676.008      7.992    673.343    674.079    675.272    673.343    673.343
 17.470    705.080    675.391     29.689    672.638    673.426    674.603    672.638    672.638
 17.570    698.392    674.746     23.646    671.939    672.746    673.939    671.939    671.939
 17.670    688.000    674.088     13.912    671.244    672.052    673.280    671.244    671.244
 17.770    641.000    673.435    -32.435    670.555    671.362    672.628    670.555    670.555
 17.870    638.400    672.788    -34.389    669.871    670.678    671.982    669.871    669.871
 17.970    701.792    672.150     29.641    669.193    670.001    671.342    669.193    669.193
 18.070    649.599    671.536    -21.937    668.519    669.347    670.708    668.519    668.519
 18.170    622.031    670.923    -48.892    667.851    668.693    670.080    667.851    667.851
 18.270    610.000    670.305    -60.305    667.187    668.033    669.459    667.187    667.187
 18.370    644.000    669.692    -25.692    666.529    667.377    668.844    666.529    666.529
 18.470    689.002    669.086     19.916    665.876    666.727    668.235    665.876    665.876
 18.570    659.000    668.487     -9.487    665.228    666.082    667.633    665.228    665.228
 18.670    614.187    667.895    -53.707    664.585    665.442    667.037    664.585    664.585
 18.770    659.000    667.309     -8.309    663.947    664.808    666.448    663.947    663.947
 18.870    702.000    666.731     35.269    663.313    664.180    665.865    663.313    663.313
 18.970    671.000    666.160      4.840    662.685    663.557    665.288    662.685    662.685
 19.070    663.461    665.604     -2.143    662.062    662.948    664.719    662.062    662.062
 19.170    646.000    665.051    -19.051    661.444    662.340    664.156    661.444    661.444
 19.270    671.139    664.504      6.635    660.831    661.735    663.600    660.831    660.831
 19.370    696.528    663.994     32.534    660.223    661.156    663.061    660.223    660.223
 19.470    679.000    663.504     15.496    659.620    660.590    662.534    659.620    659.620
 19.570    666.000    662.982      3.018    659.021    660.005    661.999    659.021    659.021
 19.670    696.000    662.483     33.517    658.428    659.440    661.470    658.428    658.428
 19.770    632.000    661.976    -29.976    657.839    658.867    660.949    657.839    657.839
 19.870    676.000    661.471     14.529    657.255    658.293    660.434    657.255    657.255
 19.970    682.751    660.975     21.776    656.676    657.726    659.926    656.676    656.676
 20.070    702.000    660.500     41.500    656.102    657.176    659.426    656.102    656.102
 20.170    650.640    660.043     -9.403    655.533    656.637    658.939    655.533    655.533
 20.270    647.000    659.613    -12.613    654.968    656.108    658.474    654.968    654.968
 20.370    591.000    659.162    -68.162    654.409    655.568    658.003    654.409    654.409
 20.470    650.000    658.730     -8.730    653.853    655.049    657.534    653.853    653.853
 20.570    642.000    658.331    -16.331    653.303    654.561    657.073    653.303    653.303
 20.670    618.000    657.917    -39.917    652.757    654.056    656.619    652.757    652.757
 20.770    699.862    657.495     42.366    652.216    653.540    656.172    652.216    652.216
 20.870    678.115    657.077     21.038    651.680    653.023    655.734    651.680    651.680
 20.970    605.009    656.687    -51.678    651.148    652.530    655.306    651.148    651.148
 21.070    653.000    656.316     -3.316    650.621    652.051    654.886    650.621    650.621
 21.170    675.000    655.928     19.072    650.099    651.553    654.474    650.099    650.099
 21.270    633.061    655.550    -22.489    649.581    651.060    654.071    649.581    649.581
 21.370    601.000    655.187    -54.187    649.068    650.575    653.680    649.068    649.068
 21.470    598.000    654.847    -56.847    648.559    650.105    653.302    648.559    648.559
 21.570    672.000    654.509     17.491    648.055    649.635    652.929    648.055    648.055
 21.670    674.397    654.176     20.221    647.556    649.168    652.564    647.556    647.556
 21.770    658.000    653.854      4.146    647.061    648.705    652.210    647.061    647.061
 21.870    604.000    653.545    -49.545    646.570    648.250    651.866    646.570    646.570
 21.970    637.000    653.248    -16.248    646.084    647.800    651.533    646.084    646.084
 22.070    695.000    652.965     42.035    645.603    647.357    651.212    645.603    645.603
 22.170    655.000    652.697      2.303    645.126    646.921    650.902    645.126    645.126
 22.270    626.000    652.445    -26.445    644.653    646.493    650.605    644.653    644.653
 22.370    641.000    652.211    -11.211    644.185    646.075    650.320    644.185    644.185
 22.470    643.000    651.994     -8.994    643.721    645.667    650.048    643.721    643.721
 22.570    636.000    651.795    -15.795    643.261    645.266    649.791    643.261    643.261
 22.670    654.000    651.616      2.384    642.806    644.876    649.547    642.806    642.806
 22.770    650.000    651.464     -1.464    642.355    644.500    649.320    642.355    642.355
 22.870    631.000    651.335    -20.335    641.909    644.136    649.108    641.909    641.909
 22.970    627.183    651.229    -24.046    641.467    643.784    648.912    641.467    641.467
 23.070    610.000    651.151    -41.151    641.029    643.448    648.733    641.029    641.029
 23.170    675.614    651.105     24.508    640.595    643.129    648.572    640.595    640.595
 23.270    662.184    651.096     11.087    640.166    642.832    648.431    640.166    640.166
 23.370    627.000    651.129    -24.129    639.741    642.559    648.311    639.741    639.741
 23.470    683.321    651.207     32.114    639.320    642.316    648.212    639.320    639.320
 23.570    601.000    651.341    -50.341    638.903    642.109    648.136    638.903    638.903
 23.670    658.000    651.539      6.461    638.491    641.947    648.084    638.491    638.491
 23.770    654.000    651.816      2.184    638.082    641.842    648.059    638.082    638.082
 23.870    601.228    652.191    -50.963    637.678    641.810    648.061    637.678    637.678
 23.970    658.909    652.690      6.219    637.278    641.877    648.093    637.278    637.278
 24.070    663.000    653.354      9.646    636.882    642.081    648.158    636.882    636.882
 24.170    619.000    654.256    -35.256    636.491    642.492    648.258    636.491    636.491
 24.270    639.485    655.544    -16.059    636.103    643.256    648.394    636.103    636.103
 24.370    687.172    657.550     29.622    635.719    644.703    648.571    635.719    635.719
 24.470    677.000    660.964     16.036    635.340    647.519    648.792    635.340    635.340
 24.570    611.908    666.975    -55.067    634.964    652.890    649.061    634.964    634.964
 24.670    738.000    677.106     60.894    634.593    662.334    649.383    634.593    634.593
 24.770    686.000    692.379     -6.379    634.225    676.872    649.761    634.225    634.225
 24.870    727.000    711.708     15.292    633.862    695.410    650.203    633.862    633.862
 24.970    721.499    729.795     -8.296    633.502    712.639    650.714    633.502    633.502
 25.070    729.000    737.196     -8.196    633.146    719.102    651.301    633.146    633.146
 25.170    762.410    728.726     33.684    632.795    709.601    651.974    632.795    632.795
 25.270    703.384    711.065     -7.682    632.447    690.812    652.741    632.447    632.447
 25.370    703.000    693.539      9.461    632.103    672.056    653.614    632.103    632.103
 25.470    694.628    680.637     13.991    631.763    657.811    654.605    631.763    631.763
 25.570    671.000    672.914     -1.914    631.427    648.620    655.731    631.427    631.427
 25.670    675.000    669.163      5.837    631.095    643.256    657.007    631.095    631.095
 25.770    654.000    667.892    -13.892    630.766    640.206    658.456    630.766    630.766
 25.870    676.000    668.026      7.974    630.441    638.368    660.102    630.441    630.441
 25.970    654.596    668.989    -14.394    630.120    637.138    661.974    630.120    630.120
 26.070    634.000    670.546    -36.546    629.803    636.238    664.112    629.803    629.803
 26.170    714.000    672.591     41.409    629.490    635.533    666.549    629.490    629.490
 26.270    606.000    675.128    -69.128    629.180    634.970    669.339    629.180    629.180
 26.370    721.000    678.190     42.810    628.875    634.518    672.546    628.875    628.875
 26.470    698.000    681.835     16.165    628.572    634.158    676.249    628.572    628.572
 26.570    651.308    686.151    -34.843    628.274    633.879    680.545    628.274    628.274
 26.670    722.029    691.254     30.775    627.979    633.675    685.557    627.979    627.979
 26.770    677.518    697.302    -19.784    627.688    633.545    691.444    627.688    627.688
 26.870    750.360    704.502     45.858    627.400    633.492    698.407    627.400    627.400
 26.970    682.948    713.128    -30.180    627.116    633.525    706.717    627.116    627.116
 27.070    701.761    723.552    -21.791    626.836    633.656    716.729    626.836    626.836
 27.170    715.000    736.280    -21.280    626.559    633.904    728.931    626.559    626.559
 27.270    772.891    752.017     20.874    626.286    634.298    744.000    626.286    626.286
 27.370    713.000    771.763    -58.763    626.017    634.879    762.893    626.017    626.017
 27.470    811.000    796.981     14.019    625.751    635.707    787.015    625.751    625.751
 27.570    849.000    830.047     18.953    625.488    636.883    818.640    625.488    625.488
 27.670    836.050    875.692    -39.643    625.229    638.606    862.298    625.229    625.229
 27.770    900.000    946.796    -46.796    624.973    641.415    930.327    624.973    624.973
 27.870   1097.000   1083.349     13.651    624.721    646.975   1061.046    624.721    624.721
 27.970   1462.588   1394.787     67.801    624.473    659.839   1359.310    624.473    624.473
 28.070   2052.000   2104.167    -52.167    624.227    689.284   2038.859    624.227    624.227
 28.170   3609.493   3493.379    116.113    623.986    747.038   3369.830    623.986    623.986
 28.270   5492.316   5632.395   -140.079    623.747    836.038   5419.312    623.747    623.747
 28.370   7750.000   7986.343   -236.343    623.512    934.132   7674.773    623.512    623.512
 28.470   9306.000   9336.441    -30.441    623.280    990.857   8968.125    623.280    623.280
 28.570   8898.758   8753.221    145.537    623.052    968.020   8408.037    623.052    623.052
 28.670   7137.000   6846.004    290.996    622.827    891.867   6577.155    622.827    622.827
 28.770   5108.000   4977.620    130.380    622.605    820.586   4779.935    622.605    622.605
 28.870   3926.000   4035.621   -109.621    622.387    792.659   3865.567    622.387    622.387
 28.970   4181.000   4123.066     57.934    622.172    812.341   3933.033    622.172    622.172
 29.070   4728.000   4763.891    -35.891    621.960    856.019   4529.994    621.960    621.960
 29.170   5209.248   5198.703     10.545    621.751    883.911   4936.859    621.751    621.751
 29.270   4979.519   4869.652    109.867    621.546    866.130   4625.559    621.546    621.546
 29.370   3812.000   3906.053    -94.053    621.344    811.109   3716.819    621.344    621.344
 29.470   2788.000   2809.642    -21.642    621.145    748.173   2683.045    621.145    621.145
 29.570   1810.000   1939.053   -129.053    620.949    698.166   1862.123    620.949    620.949
 29.670   1406.000   1388.548     17.452    620.756    666.589   1342.878    620.756    620.756
 29.770   1116.206   1091.362     24.844    620.567    649.617   1062.397    620.567    620.567
 29.870    947.442    942.596      4.846    620.380    641.210    921.812    620.380    620.380
 29.970    833.376    865.134    -31.759    620.197    636.929    848.429    620.197    620.197
 30.070    861.000    818.997     42.003    620.017    634.483    804.548    620.017    620.017
 30.170    813.000    787.503     25.497    619.840    632.932    774.424    619.840    619.840
 30.270    807.000    764.265     42.735    619.665    631.942    751.997    619.665    619.665
 30.370    725.500    746.665    -21.165    619.494    631.431    734.734    619.494    619.494
