neutron_powder_diffraction_0014
R_wp: 3.780
Temperature (K): 467.569
Counts: 83108.00
Wavelength (Ã…): 2.52098
COMMENTS
Test file for demonstrating the .xyy file format in Reel1.0
END OF HEADER
   tth       Y_obs     Y_calc      Y_res    Background    Phase_1_Nuc    Phase_1_Mag    Phase_2_Nuc    Phase_2_Mag
  9.970    706.000    731.331    -25.331    729.668    730.663    730.335    729.668    729.668
 10.070    764.000    730.307     33.693    728.556    729.632    729.231    728.556    728.556
 10.170    780.000    729.299     50.701    727.451    728.617    728.132    727.451    727.451
 10.270    713.000    728.311    -15.311    726.351    727.621    727.040    726.351    726.351
 10.370    679.000    727.344    -48.344    725.257    726.647    725.954    725.257    725.257
 10.470    713.000    726.402    -13.402    724.170    725.698    724.873    724.170    724.170
 10.570    713.869    725.490    -11.621    723.088    724.778    723.799    723.088    723.088
 10.670    700.000    724.612    -24.612    722.012    723.892    722.731    722.012    722.012
 10.770    768.000    723.777     44.223    720.942    723.049    721.669    720.942    720.942
 10.870    776.000    722.993     53.007    719.877    722.257    720.612    719.877    719.877
 10.970    761.449    722.274     39.175    718.819    721.529    719.562    718.819    718.819
 11.070    782.000    721.637     60.363    717.766    720.884    718.518    717.766    717.766
 11.170    696.731    721.108    -24.377    716.719    720.347    717.479    716.719    716.719
 11.270    673.814    720.725    -46.911    715.678    719.954    716.447    715.678    715.678
 11.370    722.000    720.546      1.454    714.643    719.766    715.421    714.643    714.643
 11.470    717.040    720.680     -3.641    713.614    719.891    714.400    713.614    713.614
 11.570    754.000    721.360     32.640    712.590    720.560    713.385    712.590    712.590
 11.670    762.000    723.111     38.889    711.572    722.300    712.377    711.572    711.572
 11.770    786.000    727.059     58.941    710.560    726.236    711.374    710.560    710.560
 11.870    727.827    735.077     -7.250    709.554    734.240    710.377    709.554    709.554
 11.970    740.493    749.318     -8.825    708.553    748.463    709.386    708.553    708.553
 12.070    776.193    771.196      4.998    707.558    770.317    708.401    707.558    707.558
 12.170    765.550    798.357    -32.806    706.568    797.452    707.422    706.568    706.568
 12.270    886.000    821.640     64.360    705.585    820.712    706.449    705.585    705.585
 12.370    866.000    827.138     38.862    704.607    826.196    705.481    704.607    704.607
 12.470    771.768    809.716    -37.948    703.634    808.772    704.519    703.634    703.634
 12.570    727.228    780.707    -53.479    702.668    779.768    703.563    702.668    702.668
 12.670    724.000    753.313    -29.313    701.706    752.378    702.613    701.706    701.706
 12.770    704.000    733.165    -29.165    700.751    732.229    701.669    700.751    700.751
 12.870    696.000    720.359    -24.359    699.801    719.418    700.730    699.801    699.801
 12.970    693.422    712.784    -19.362    698.857    711.836    699.798    698.857    698.857
 13.070    634.000    708.221    -74.221    697.918    707.263    698.871    697.918    697.918
 13.170    742.000    705.180     36.820    696.985    704.211    697.950    696.985    696.985
 13.270    653.000    702.889    -49.889    696.057    701.909    697.034    696.057    696.057
 13.370    654.000    701.005    -47.005    695.135    700.013    696.125    695.135    695.135
 13.470    663.000    699.367    -36.367    694.218    698.362    695.221    694.218    694.218
 13.570    707.413    697.898      9.515    693.307    696.881    694.323    693.307    693.307
 13.670    705.188    696.554      8.635    692.401    695.523    693.430    692.401    692.401
 13.770    675.629    695.303    -19.675    691.501    694.260    692.544    691.501    691.501
 13.870    706.775    694.126     12.649    690.607    693.068    691.663    690.607    690.607
 13.970    705.000    693.006     11.994    689.717    691.934    690.788    689.717    689.717
 14.070    717.000    691.932     25.068    688.833    690.846    689.918    688.833    688.833
 14.170    710.248    690.898     19.350    687.955    689.798    689.055    687.955    687.955
 14.270    736.449    689.894     46.555    687.082    688.778    688.197    687.082    687.082
 14.370    678.560    688.916    -10.357    686.215    687.786    687.344    686.215    686.215
 14.470    676.000    687.963    -11.963    685.352    686.816    686.498    685.352    685.352
 14.570    653.000    687.039    -34.039    684.495    685.876    685.657    684.495    684.495
 14.670    649.000    686.141    -37.141    683.644    684.962    684.823    683.644    683.644
 14.770    680.000    685.242     -5.242    682.798    684.046    683.993    682.798    682.798
 14.870    659.000    684.355    -25.355    681.957    683.143    683.169    681.957    681.957
 14.970    675.106    683.482     -8.375    681.122    682.252    682.351    681.122    681.122
 15.070    680.000    682.621     -2.621    680.291    681.373    681.539    680.291    680.291
 15.170    617.000    681.775    -64.775    679.466    680.509    680.732    679.466    679.466
 15.270    669.302    680.935    -11.633    678.647    679.651    679.931    678.647    678.647
 15.370    676.000    680.105     -4.105    677.832    678.802    679.136    677.832    677.832
 15.470    653.595    679.284    -25.689    677.023    677.961    678.346    677.023    677.023
 15.570    688.178    678.472      9.707    676.219    677.129    677.562    676.219    676.219
 15.670    691.000    677.668     13.332    675.421    676.305    676.783    675.421    675.421
 15.770    641.000    676.873    -35.873    674.627    675.489    676.011    674.627    674.627
 15.870    661.000    676.085    -15.085    673.839    674.680    675.243    673.839    673.839
 15.970    680.000    675.305      4.695    673.056    673.879    674.482    673.056    673.056
 16.070    630.559    674.533    -43.974    672.278    673.084    673.726    672.278    672.278
 16.170    618.000    673.768    -55.768    671.505    672.296    672.976    671.505    671.505
 16.270    690.000    673.010     16.990    670.737    671.515    672.232    670.737    670.737
 16.370    636.883    672.259    -35.376    669.975    670.740    671.493    669.975    669.975
 16.470    632.871    671.515    -38.644    669.217    669.972    670.760    669.217    669.217
 16.570    662.000    670.778     -8.778    668.465    669.210    670.033    668.465    668.465
 16.670    688.000    670.047     17.953    667.718    668.454    669.311    667.718    667.718
 16.770    682.035    669.324     12.711    666.975    667.704    668.595    666.975    666.975
 16.870    688.667    668.607     20.060    666.238    666.960    667.885    666.238    666.238
 16.970    696.332    667.898     28.433    665.506    666.224    667.181    665.506    665.506
 17.070    710.832    667.200     43.632    664.779    665.496    666.482    664.779    664.779
 17.170    708.659    666.503     42.157    664.057    664.770    665.789    664.057    664.057
 17.270    634.851    665.812    -30.961    663.340    664.050    665.102    663.340    663.340
 17.370    672.000    665.138      6.862    662.628    663.345    664.421    662.628    662.628
 17.470    649.000    664.472    -15.472    661.920    662.646    663.746    661.920    661.920
 17.570    644.000    663.866    -19.866    661.218    662.005    663.079    661.218    661.218
 17.670    627.000    663.213    -36.213    660.521    661.319    662.415    660.521    660.521
 17.770    641.000    662.555    -21.555    659.829    660.626    661.757    659.829    659.829
 17.870    685.000    661.902     23.098    659.141    659.939    661.104    659.141    659.141
 17.970    657.000    661.256     -4.256    658.459    659.257    660.458    658.459    658.459
 18.070    651.000    660.616     -9.616    657.781    658.580    659.817    657.781    657.781
 18.170    608.483    659.986    -51.502    657.108    657.911    659.183    657.108    657.108
 18.270    691.000    659.386     31.614    656.440    657.272    658.554    656.440    656.440
 18.370    665.000    658.769      6.231    655.777    656.615    657.931    655.777    655.777
 18.470    629.000    658.155    -29.155    655.119    655.960    657.314    655.119    655.119
 18.570    676.000    657.548     18.452    654.465    655.310    656.703    654.465    654.465
 18.670    658.000    656.946      1.054    653.816    654.664    656.098    653.816    653.816
 18.770    692.406    656.352     36.054    653.173    654.025    655.500    653.173    653.173
 18.870    700.000    655.763     44.237    652.533    653.390    654.907    652.533    652.533
 18.970    622.757    655.182    -32.425    651.899    652.760    654.321    651.899    651.899
 19.070    694.300    654.608     39.692    651.269    652.137    653.741    651.269    651.269
 19.170    676.782    654.050     22.731    650.644    651.528    653.167    650.644    650.644
 19.270    674.000    653.491     20.509    650.024    650.916    652.599    650.024    650.024
 19.370    643.000    652.937     -9.937    649.409    650.307    652.038    649.409    649.409
 19.470    625.000    652.393    -27.393    648.798    649.706    651.485    648.798    648.798
 19.570    614.000    651.892    -37.892    648.191    649.134    650.949    648.191    648.191
 19.670    619.975    651.397    -31.422    647.590    648.567    650.420    647.590    647.590
 19.770    614.000    650.882    -36.882    646.993    647.989    649.886    646.993    646.993
 19.870    635.000    650.385    -15.385    646.401    647.427    649.358    646.401    646.401
 19.970    697.194    649.876     47.318    645.813    646.852    648.837    645.813    645.813
 20.070    647.000    649.372     -2.372    645.230    646.280    648.322    645.230    645.230
 20.170    691.854    648.878     42.976    644.651    645.715    647.815    644.651    644.651
 20.270    701.000    648.409     52.591    644.077    645.171    647.315    644.077    644.077
 20.370    637.000    647.953    -10.953    643.508    644.631    646.829    643.508    643.508
 20.470    607.000    647.519    -40.519    642.943    644.098    646.363    642.943    642.943
 20.570    621.980    647.067    -25.087    642.382    643.561    645.888    642.382    642.382
 20.670    606.000    646.645    -40.645    641.826    643.053    645.419    641.826    641.826
 20.770    620.000    646.258    -26.258    641.275    642.576    644.956    641.275    641.275
 20.870    667.000    645.828     21.172    640.728    642.055    644.501    640.728    640.728
 20.970    606.903    645.400    -38.497    640.185    641.532    644.054    640.185    640.185
 21.070    611.099    644.985    -33.885    639.647    641.017    643.615    639.647    639.647
 21.170    644.000    644.602     -0.602    639.114    640.530    643.185    639.114    639.114
 21.270    613.793    644.222    -30.429    638.585    640.044    642.763    638.585    638.585
 21.370    596.365    643.834    -47.469    638.060    639.545    642.349    638.060    638.060
 21.470    678.045    643.460     34.585    637.539    639.054    641.945    637.539    637.539
 21.570    674.000    643.108     30.892    637.023    638.577    641.554    637.023    637.023
 21.670    643.000    642.765      0.235    636.511    638.104    641.173    636.511    636.511
 21.770    631.000    642.422    -11.422    636.004    637.630    640.797    636.004    636.004
 21.870    646.000    642.092      3.908    635.501    637.163    640.431    635.501    635.501
 21.970    615.000    641.773    -26.773    635.002    636.701    640.075    635.002    635.002
 22.070    650.000    641.467      8.533    634.508    636.245    639.730    634.508    634.508
 22.170    622.000    641.174    -19.174    634.017    635.797    639.395    634.017    634.017
 22.270    638.090    640.897     -2.807    633.532    635.355    639.073    633.532    633.532
 22.370    648.000    640.635      7.365    633.050    634.923    638.762    633.050    633.050
 22.470    648.285    640.390      7.895    632.572    634.499    638.464    632.572    632.572
 22.570    594.000    640.165    -46.165    632.099    634.086    638.178    632.099    632.099
 22.670    637.777    639.959     -2.182    631.630    633.683    637.907    631.630    631.630
 22.770    683.688    639.774     43.914    631.165    633.290    637.649    631.165    631.165
 22.870    601.197    639.617    -38.420    630.705    632.914    637.408    630.705    630.705
 22.970    622.000    639.482    -17.482    630.248    632.549    637.181    630.248    630.248
 23.070    575.000    639.373    -64.373    629.796    632.199    636.970    629.796    629.796
 23.170    618.000    639.295    -21.295    629.347    631.866    636.776    629.347    629.347
 23.270    609.811    639.252    -29.441    628.903    631.555    636.601    628.903    628.903
 23.370    621.234    639.250    -18.016    628.463    631.268    636.445    628.463    628.463
 23.470    621.000    639.294    -18.294    628.027    631.012    636.310    628.027    628.027
 23.570    661.865    639.391     22.474    627.595    630.791    636.196    627.595    627.595
 23.670    622.020    639.552    -17.532    627.167    630.617    636.104    627.167    627.167
 23.770    596.365    639.792    -43.427    626.744    630.499    636.037    626.744    626.744
 23.870    659.639    640.128     19.510    626.324    630.457    635.996    626.324    626.324
 23.970    653.000    640.589     12.411    625.908    630.515    635.984    625.908    625.908
 24.070    630.000    641.217    -11.217    625.496    630.714    636.001    625.496    625.496
 24.170    681.000    642.090     38.910    625.088    631.129    636.052    625.088    625.088
 24.270    664.422    643.367     21.055    624.684    631.917    636.138    624.684    624.684
 24.370    638.000    645.401     -7.401    624.285    633.429    636.261    624.285    624.285
 24.470    606.071    648.909    -42.839    623.889    636.379    636.426    623.889    623.889
 24.570    685.000    655.091     29.909    623.496    641.963    636.635    623.496    623.496
 24.670    696.256    665.414     30.842    623.108    651.646    636.894    623.108    623.108
 24.770    633.168    680.751    -47.583    622.724    666.298    637.206    622.724    622.724
 24.870    713.000    699.755     13.245    622.344    684.563    637.577    622.344    622.344
 24.970    671.653    716.897    -45.244    621.967    700.905    638.014    621.967    621.967
 25.070    718.000    723.101     -5.101    621.594    706.231    638.522    621.594    621.594
 25.170    683.000    714.052    -31.052    621.225    696.219    639.110    621.225    621.225
 25.270    663.000    696.522    -33.522    620.860    677.634    639.786    620.860    620.860
 25.370    687.000    679.383      7.617    620.499    659.345    640.562    620.499    620.499
 25.470    660.771    666.816     -6.045    620.141    645.524    641.449    620.141    620.141
 25.570    709.000    659.272     49.728    619.787    636.608    642.461    619.787    619.787
 25.670    608.189    655.556    -47.367    619.437    631.383    643.616    619.437    619.437
 25.770    696.804    654.226     42.578    619.091    628.389    644.931    619.091    619.091
 25.870    693.000    654.247     38.753    618.748    626.567    646.431    618.748    618.748
 25.970    665.000    655.066      9.934    618.410    625.334    648.143    618.410    618.410
 26.070    658.000    656.449      1.551    618.074    624.422    650.102    618.074    618.074
 26.170    610.494    658.316    -47.822    617.743    623.710    652.349    617.743    617.743
 26.270    681.000    660.641     20.359    617.415    623.132    654.924    617.415    617.415
 26.370    658.504    663.464     -4.960    617.091    622.664    657.890    617.091    617.091
 26.470    717.376    666.839     50.537    616.770    622.285    661.322    616.770    616.770
 26.570    635.000    670.847    -35.847    616.453    621.987    665.312    616.453    616.453
 26.670    654.000    675.600    -21.600    616.139    621.762    669.975    616.139    616.139
 26.770    670.277    681.245    -10.968    615.830    621.611    675.461    615.830    615.830
 26.870    657.000    687.979    -30.979    615.523    621.537    681.962    615.523    615.523
 26.970    690.007    696.061     -6.054    615.221    621.547    689.730    615.221    615.221
 27.070    675.000    705.842    -30.842    614.921    621.654    699.105    614.921    614.921
 27.170    753.288    717.804     35.484    614.626    621.878    710.546    614.626    614.626
 27.270    696.935    732.612    -35.677    614.333    622.246    724.693    614.333    614.333
 27.370    789.000    751.226     37.774    614.045    622.800    742.461    614.045    614.045
 27.470    761.000    775.041    -14.041    613.759    623.602    765.187    613.759    613.759
 27.570    804.000    806.321     -2.321    613.478    624.751    795.033    613.478    613.478
 27.670    819.791    849.635    -29.844    613.199    626.449    836.364    613.199    613.199
 27.770    942.000    917.612     24.388    612.924    629.251    901.255    612.924    612.924
 27.870   1065.000   1050.004     14.996    612.653    634.897   1027.706    612.653    612.653
 27.970   1397.000   1356.343     40.657    612.384    648.173   1320.437    612.384    612.384
 28.070   2017.000   2059.755    -42.755    612.120    678.829   1992.783    612.120    612.120
 28.170   3259.000   3437.969   -178.969    611.858    739.002   3310.303    611.858    611.858
 28.270   5150.000   5544.719   -394.719    611.600    831.070   5324.408    611.600    611.600
 28.370   7856.000   7819.503     36.497    611.345    930.637   7499.182    611.345    611.345
 28.470   9020.000   9039.518    -19.518    611.094    984.507   8665.265    611.094    611.094
 28.570   8534.000   8340.001    193.999    610.846    955.373   7995.156    610.846    610.846
 28.670   6686.000   6422.645    263.355    610.601    874.834   6158.519    610.601    610.601
 28.770   4714.000   4639.042     74.958    610.359    803.511   4446.120    610.359    610.359
 28.870   3732.325   3802.749    -70.424    610.121    778.545   3634.483    610.121    610.121
 28.970   4061.172   3958.854    102.318    609.886    801.757   3767.049    609.886    609.886
 29.070   4629.000   4609.725     19.275    609.654    847.266   4372.183    609.654    609.654
 29.170   4855.066   5006.615   -151.548    609.425    873.792   4742.450    609.425    609.425
 29.270   4574.000   4633.940    -59.940    609.200    852.312   4391.201    609.200    609.200
 29.370   3549.908   3670.497   -120.589    608.978    794.527   3485.379    608.978    608.978
 29.470   2532.000   2617.043    -85.043    608.758    731.068   2495.093    608.758    608.758
 29.570   1883.606   1802.533     81.074    608.542    681.978   1729.338    608.542    608.542
 29.670   1298.000   1299.318     -1.318    608.329    651.689   1256.095    608.329    608.329
 29.770    977.432   1033.000    -55.568    608.120    635.724   1005.465    608.120    608.120
 29.870    982.000    901.144     80.856    607.913    627.896    881.197    607.913    607.913
 29.970    877.581    832.278     45.303    607.709    623.893    816.114    607.709    607.709
 30.070    826.000    790.759     35.241    607.509    621.573    776.707    607.509    607.509
 30.170    792.000    762.132     29.868    607.311    620.085    749.367    607.311    607.311
 30.270    760.000    740.917     19.083    607.117    619.131    728.908    607.117    607.117
 30.370    763.000    724.854     38.146    606.926    618.648    713.134    606.926    606.926
