neutron_powder_diffraction_0019
R_wp: 3.539
Temperature (K): 490.732
Counts: 83198.00
Wavelength (Ã…): 2.52098
COMMENTS
Test file for demonstrating the .xyy file format in Reel1.0
END OF HEADER
   tth       Y_obs     Y_calc      Y_res    Background    Phase_1_Nuc    Phase_1_Mag    Phase_2_Nuc    Phase_2_Mag
  9.970    668.096    716.388    -48.292    714.623    715.738    715.273    714.623    714.623
 10.070    730.000    715.524     14.476    713.662    714.867    714.318    713.662    713.662
 10.170    685.000    714.676    -29.676    712.705    714.012    713.369    712.705    712.705
 10.270    726.000    713.848     12.152    711.752    713.176    712.423    711.752    711.752
 10.370    771.000    713.041     57.959    710.804    712.363    711.482    710.804    710.804
 10.470    745.388    712.261     33.127    709.861    711.575    710.546    709.861    709.861
 10.570    702.000    711.511     -9.511    708.921    710.817    709.614    708.921    708.921
 10.670    738.000    710.798     27.202    707.986    710.097    708.686    707.986    707.986
 10.770    677.554    710.130    -32.576    707.055    709.421    707.763    707.055    707.055
 10.870    714.000    709.520      4.480    706.129    708.802    706.845    706.129    706.129
 10.970    685.000    708.980    -23.980    705.207    708.254    705.931    705.207    705.207
 11.070    710.962    708.529      2.433    704.289    707.794    705.021    704.289    704.289
 11.170    702.258    708.196     -5.938    703.375    707.453    704.116    703.375    703.375
 11.270    758.000    708.025     49.975    702.466    707.273    703.215    702.466    702.466
 11.370    729.000    708.084     20.916    701.561    707.324    702.318    701.561    701.561
 11.470    676.721    708.503    -31.782    700.660    707.733    701.426    700.660    700.660
 11.570    738.000    709.554     28.446    699.764    708.774    700.539    699.764    699.764
 11.670    738.000    711.816     26.184    698.872    711.026    699.656    698.872    698.872
 11.770    723.690    716.403      7.286    697.984    715.600    698.777    697.984    697.984
 11.870    733.859    725.044      8.815    697.101    724.227    697.903    697.101    697.101
 11.970    835.000    739.694     95.306    696.221    738.858    697.033    696.221    696.221
 12.070    866.000    761.204    104.796    695.346    760.346    696.168    695.346    695.346
 12.170    816.000    786.955     29.045    694.476    786.073    695.307    694.476    694.476
 12.270    826.000    808.298     17.702    693.609    807.392    694.450    693.609    693.609
 12.370    854.451    812.655     41.796    692.747    811.737    693.599    692.747    692.747
 12.470    763.000    796.080    -33.080    691.889    795.160    692.751    691.889    691.889
 12.570    776.758    768.929      7.829    691.036    768.013    691.908    691.036    691.036
 12.670    776.000    743.018     32.982    690.186    742.105    691.069    690.186    690.186
 12.770    735.000    723.518     11.482    689.341    722.605    690.235    689.341    689.341
 12.870    725.332    710.723     14.610    688.500    709.806    689.405    688.500    688.500
 12.970    698.000    702.912     -4.912    687.663    701.988    688.580    687.663    687.663
 13.070    715.000    698.126     16.874    686.831    697.192    687.759    686.831    686.831
 13.170    630.000    694.956    -64.956    686.003    694.012    686.942    686.003    686.003
 13.270    645.560    692.616    -47.056    685.179    691.661    686.130    685.179    685.179
 13.370    734.824    690.739     44.085    684.359    689.772    685.323    684.359    684.359
 13.470    702.000    689.138     12.862    683.543    688.159    684.520    683.543    683.543
 13.570    696.000    687.710      8.290    682.732    686.718    683.721    682.732    682.732
 13.670    667.688    686.415    -18.727    681.925    685.410    682.927    681.925    681.925
 13.770    719.000    685.221     33.779    681.122    684.204    682.137    681.122    681.122
 13.870    645.000    684.107    -39.107    680.323    683.076    681.352    680.323    680.323
 13.970    666.000    683.053    -17.053    679.528    682.009    680.571    679.528    679.528
 14.070    672.000    682.050    -10.050    678.738    680.991    679.795    678.738    678.738
 14.170    701.003    681.086     19.917    677.951    680.013    679.023    677.951    677.951
 14.270    713.604    680.155     33.449    677.169    679.068    678.255    677.169    677.169
 14.370    710.814    679.253     31.561    676.391    678.151    677.492    676.391    676.391
 14.470    635.000    678.376    -43.376    675.617    677.259    676.733    675.617    675.617
 14.570    654.000    677.521    -23.521    674.848    676.388    675.979    674.848    674.848
 14.670    663.000    676.680    -13.680    674.082    675.532    675.230    674.082    674.082
 14.770    646.000    675.855    -29.855    673.321    674.691    674.484    673.321    673.321
 14.870    637.000    675.044    -38.044    672.563    673.863    673.744    672.563    672.563
 14.970    670.000    674.246     -4.246    671.810    673.048    673.007    671.810    671.810
 15.070    674.000    673.459      0.541    671.061    672.244    672.276    671.061    671.061
 15.170    665.957    672.683     -6.726    670.316    671.450    671.548    670.316    670.316
 15.270    672.760    671.916      0.844    669.575    670.665    670.826    669.575    669.575
 15.370    656.263    671.159    -14.896    668.839    669.890    670.107    668.839    668.839
 15.470    628.965    670.410    -41.445    668.106    669.122    669.394    668.106    668.106
 15.570    659.000    669.669    -10.669    667.377    668.362    668.684    667.377    667.377
 15.670    679.486    668.940     10.547    666.653    667.613    667.980    666.653    666.653
 15.770    664.012    668.218     -4.206    665.933    666.871    667.280    665.933    665.933
 15.870    650.000    667.500    -17.500    665.216    666.132    666.584    665.216    665.216
 15.970    661.000    666.788     -5.788    664.504    665.399    665.893    664.504    664.504
 16.070    619.016    666.083    -47.067    663.796    664.672    665.206    663.796    663.796
 16.170    672.000    665.384      6.616    663.092    663.951    664.524    663.092    663.092
 16.270    666.000    664.693      1.307    662.392    663.238    663.847    662.392    662.392
 16.370    673.000    664.020      8.980    661.696    662.541    663.174    661.696    661.696
 16.470    638.000    663.340    -25.340    661.004    661.838    662.506    661.004    661.004
 16.570    630.000    662.667    -32.667    660.316    661.139    661.843    660.316    660.316
 16.670    692.000    662.009     29.991    659.632    660.457    661.184    659.632    659.632
 16.770    703.679    661.367     42.312    658.952    659.789    660.529    658.952    658.952
 16.870    651.167    660.724     -9.557    658.276    659.119    659.880    658.276    658.276
 16.970    662.000    660.139      1.861    657.604    658.506    659.237    657.604    657.604
 17.070    630.000    659.500    -29.500    656.936    657.839    658.597    656.936    656.936
 17.170    707.658    658.860     48.797    656.272    657.170    657.962    656.272    656.272
 17.270    668.000    658.225      9.775    655.612    656.506    657.331    655.612    655.612
 17.370    682.580    657.596     24.984    654.955    655.846    656.705    654.955    654.955
 17.470    632.000    656.972    -24.972    654.303    655.191    656.084    654.303    654.303
 17.570    653.000    656.353     -3.353    653.655    654.541    655.467    653.655    653.655
 17.670    678.147    655.740     22.407    653.011    653.896    654.855    653.011    653.011
 17.770    669.777    655.132     14.645    652.371    653.255    654.248    652.371    652.371
 17.870    642.953    654.529    -11.576    651.734    652.618    653.646    651.734    651.734
 17.970    642.000    653.932    -11.932    651.102    651.986    653.048    651.102    651.102
 18.070    648.373    653.340     -4.967    650.474    651.358    652.456    650.474    650.474
 18.170    659.000    652.756      6.244    649.849    650.737    651.868    649.849    649.849
 18.270    610.000    652.186    -42.186    649.228    650.129    651.286    649.228    649.228
 18.370    641.931    651.612     -9.681    648.612    649.515    650.708    648.612    648.612
 18.470    689.041    651.042     37.999    647.999    648.905    650.136    647.999    647.999
 18.570    609.440    650.479    -41.038    647.390    648.300    649.568    647.390    647.390
 18.670    628.000    649.922    -21.922    646.784    647.700    649.006    646.784    646.784
 18.770    671.000    649.369     21.631    646.183    647.103    648.449    646.183    646.183
 18.870    639.000    648.823     -9.823    645.586    646.512    647.897    645.586    645.586
 18.970    677.268    648.294     28.974    644.992    645.936    647.350    644.992    644.992
 19.070    612.000    647.773    -35.773    644.403    645.366    646.809    644.403    644.403
 19.170    648.579    647.245      1.334    643.817    644.789    646.273    643.817    643.817
 19.270    663.000    646.725     16.275    643.235    644.218    645.742    643.235    643.235
 19.370    617.000    646.207    -29.207    642.656    643.647    645.216    642.656    642.656
 19.470    665.000    645.695     19.305    642.082    643.080    644.697    642.082    642.082
 19.570    610.000    645.194    -35.194    641.511    642.521    644.184    641.511    641.511
 19.670    632.000    644.742    -12.742    640.944    641.996    643.690    640.944    640.944
 19.770    600.000    644.282    -44.282    640.381    641.464    643.199    640.381    640.381
 19.870    656.000    643.832     12.168    639.822    640.936    642.717    639.822    639.822
 19.970    658.738    643.435     15.304    639.267    640.464    642.237    639.267    639.267
 20.070    632.000    643.004    -11.004    638.715    639.962    641.757    638.715    638.715
 20.170    655.419    642.545     12.874    638.167    639.433    641.279    638.167    638.167
 20.270    602.000    642.123    -40.123    637.623    638.938    640.808    637.623    637.623
 20.370    638.000    641.688     -3.688    637.082    638.428    640.342    637.082    637.082
 20.470    597.000    641.249    -44.249    636.545    637.912    639.883    636.545    636.545
 20.570    619.327    640.847    -21.520    636.012    637.425    639.435    636.012    636.012
 20.670    686.328    640.428     45.900    635.483    636.921    638.990    635.483    635.483
 20.770    618.000    640.012    -22.012    634.957    636.418    638.551    634.957    634.957
 20.870    640.000    639.598      0.402    634.435    635.916    638.118    634.435    634.435
 20.970    599.208    639.193    -39.985    633.917    635.418    637.692    633.917    633.917
 21.070    669.865    638.796     31.070    633.403    634.924    637.274    633.403    633.403
 21.170    624.000    638.407    -14.407    632.892    634.436    636.863    632.892    632.892
 21.270    630.000    638.028     -8.028    632.384    633.953    636.459    632.384    632.384
 21.370    632.000    637.659     -5.659    631.881    633.476    636.064    631.881    631.881
 21.470    676.000    637.310     38.690    631.381    633.013    635.677    631.381    631.381
 21.570    640.000    636.962      3.038    630.884    632.549    635.298    630.884    630.884
 21.670    647.000    636.623     10.377    630.392    632.088    634.928    630.392    630.392
 21.770    667.000    636.297     30.703    629.903    631.633    634.566    629.903    629.903
 21.870    612.577    635.981    -23.404    629.417    631.185    634.214    629.417    629.417
 21.970    667.847    635.679     32.168    628.935    630.744    633.871    628.935    628.935
 22.070    598.000    635.388    -37.388    628.457    630.308    633.538    628.457    628.457
 22.170    677.678    635.111     42.567    627.982    629.878    633.215    627.982    627.982
 22.270    624.064    634.848    -10.784    627.511    629.457    632.902    627.511    627.511
 22.370    612.000    634.600    -22.600    627.044    629.043    632.601    627.044    627.044
 22.470    587.000    634.369    -47.369    626.580    628.638    632.311    626.580    626.580
 22.570    624.000    634.156    -10.156    626.119    628.242    632.034    626.119    626.119
 22.670    632.000    633.963     -1.963    625.662    627.856    631.769    625.662    625.662
 22.770    617.000    633.790    -16.790    625.209    627.482    631.517    625.209    625.209
 22.870    622.000    633.642    -11.642    624.759    627.122    631.279    624.759    624.759
 22.970    658.956    633.526     25.431    624.312    626.780    631.058    624.312    624.312
 23.070    664.101    633.433     30.669    623.869    626.451    630.851    623.869    623.869
 23.170    657.000    633.369     23.631    623.430    626.140    630.659    623.430    623.430
 23.270    632.425    633.342     -0.917    622.994    625.852    630.485    622.994    622.994
 23.370    659.825    633.356     26.468    622.562    625.590    630.328    622.562    622.562
 23.470    653.000    633.419     19.581    622.132    625.361    630.191    622.132    622.132
 23.570    624.890    633.538     -8.648    621.707    625.172    630.074    621.707    621.707
 23.670    656.000    633.726     22.274    621.285    625.032    629.979    621.285    621.285
 23.770    638.000    633.997      4.003    620.866    624.957    629.908    620.866    620.866
 23.870    616.000    634.374    -18.374    620.451    624.965    629.862    620.451    620.451
 23.970    601.065    634.888    -33.824    620.039    625.086    629.843    620.039    620.039
 24.070    612.001    635.588    -23.586    619.630    625.368    629.852    619.630    619.630
 24.170    655.000    636.565     18.435    619.225    625.900    629.893    619.225    619.225
 24.270    647.000    638.014      8.986    618.824    626.874    629.967    618.824    618.824
 24.370    632.602    640.333     -7.731    618.425    628.685    630.078    618.425    618.425
 24.470    644.388    644.267      0.121    618.030    632.077    630.229    618.030    618.030
 24.570    625.455    650.954    -25.499    617.639    638.182    630.422    617.639    617.639
 24.670    615.620    661.637    -46.017    617.250    648.244    630.664    617.250    617.250
 24.770    686.505    676.842      9.664    616.865    662.781    630.956    616.865    616.865
 24.870    649.331    694.913    -45.582    616.484    680.133    631.306    616.484    616.484
 24.970    713.126    710.369      2.757    616.105    694.809    631.719    616.105    616.105
 25.070    749.000    715.111     33.889    615.730    698.696    632.202    615.730    615.730
 25.170    713.101    706.025      7.076    615.359    688.672    632.761    615.359    615.359
 25.270    657.109    689.463    -32.354    614.990    671.084    633.407    614.990    614.990
 25.370    626.330    673.300    -46.969    614.625    653.801    634.148    614.625    614.625
 25.470    652.379    661.254     -8.874    614.263    640.535    634.998    614.263    614.263
 25.570    662.232    653.787      8.445    613.905    631.732    635.969    613.905    613.905
 25.670    631.355    649.912    -18.557    613.549    626.388    637.079    613.549    613.549
 25.770    693.000    648.370     44.630    613.197    623.226    638.345    613.197    613.197
 25.870    674.000    648.208     25.792    612.848    621.268    639.790    612.848    612.848
 25.970    668.000    648.879     19.121    612.502    619.940    641.442    612.502    612.502
 26.070    672.000    650.130     21.870    612.160    618.958    643.332    612.160    612.160
 26.170    621.000    651.873    -30.873    611.820    618.192    645.501    611.820    611.820
 26.270    611.982    654.090    -42.108    611.484    617.578    647.996    611.484    611.484
 26.370    655.000    656.804     -1.804    611.151    617.083    650.870    611.151    611.151
 26.470    648.000    660.060    -12.060    610.821    616.682    654.198    610.821    610.821
 26.570    707.479    663.940     43.539    610.494    616.363    658.069    610.494    610.494
 26.670    726.000    668.552     57.448    610.171    616.122    662.597    610.171    610.171
 26.770    664.000    674.042    -10.042    609.850    615.959    667.929    609.850    609.850
 26.870    637.000    680.599    -43.599    609.533    615.877    674.251    609.533    609.533
 26.970    674.644    688.482    -13.837    609.219    615.882    681.812    609.219    609.219
 27.070    675.000    698.033    -23.033    608.908    615.989    690.944    608.908    608.908
 27.170    724.412    709.724     14.688    608.599    616.218    702.098    608.599    608.599
 27.270    683.000    724.213    -41.213    608.294    616.597    715.901    608.294    608.294
 27.370    710.501    742.437    -31.935    607.993    617.169    733.247    607.993    607.993
 27.470    723.133    765.783    -42.650    607.694    618.001    755.460    607.694    607.694
 27.570    846.032    796.497     49.535    607.398    619.197    784.678    607.398    607.398
 27.670    776.000    839.092    -63.092    607.105    620.968    825.204    607.105    607.105
 27.770    929.000    906.169     22.831    606.815    623.900    889.048    606.815    606.815
 27.870   1047.000   1037.542      9.458    606.528    629.841   1014.166    606.528    606.528
 27.970   1334.945   1342.968     -8.023    606.245    643.877   1305.202    606.245    606.245
 28.070   2026.000   2044.905    -18.905    605.964    676.313   1974.264    605.964    605.964
 28.170   3192.000   3415.259   -223.259    605.686    739.746   3280.618    605.686    605.686
 28.270   5303.000   5491.330   -188.330    605.411    835.939   5259.858    605.411    605.411
 28.370   7598.000   7690.299    -92.299    605.139    938.000   7356.256    605.139    605.139
 28.470   8544.000   8786.090   -242.090    604.870    989.391   8400.548    604.870    604.870
 28.570   8076.000   7975.245    100.755    604.604    953.414   7625.949    604.604    604.604
 28.670   6176.000   6053.712    122.288    604.341    867.933   5790.098    604.341    604.341
 28.770   4446.473   4358.828     87.646    604.081    796.508   4166.537    604.081    604.081
 28.870   3605.949   3621.080    -15.131    603.823    774.531   3450.455    603.823    603.823
 28.970   3887.000   3824.560     62.440    603.569    800.915   3627.198    603.569    603.569
 29.070   4435.000   4459.260    -24.260    603.317    847.545   4214.998    603.317    603.317
 29.170   4913.000   4803.622    109.378    603.069    872.055   4534.711    603.069    603.069
 29.270   4465.000   4394.270     70.730    602.823    846.696   4150.640    602.823    602.823
 29.370   3485.967   3450.889     35.078    602.580    786.430   3267.360    602.580    602.580
 29.470   2409.000   2457.634    -48.634    602.340    722.741   2337.516    602.340    602.340
 29.570   1625.000   1705.087    -80.087    602.102    674.466   1632.918    602.102    602.102
 29.670   1252.000   1245.489      6.511    601.868    645.024   1202.444    601.868    601.868
 29.770   1052.000   1003.135     48.865    601.636    629.562    975.265    601.636    601.636
 29.870    945.000    882.316     62.684    601.407    621.929    861.821    601.407    601.407
 29.970    863.000    818.150     44.850    601.181    617.959    801.384    601.181    601.181
 30.070    817.000    778.793     38.207    600.958    615.620    764.138    600.958    600.958
 30.170    813.000    751.393     61.607    600.737    614.106    738.028    600.737    600.737
 30.270    756.000    731.031     24.969    600.519    613.142    718.409    600.519    600.519
 30.370    692.000    715.650    -23.650    600.304    612.677    703.276    600.304    600.304
