neutron_powder_diffraction_0016
R_wp: 3.679
Temperature (K): 477.854
Counts: 83393.00
Wavelength (Ã…): 2.52098
COMMENTS
Test file for demonstrating the .xyy file format in Reel1.0
END OF HEADER
   tth       Y_obs     Y_calc      Y_res    Background    Phase_1_Nuc    Phase_1_Mag    Phase_2_Nuc    Phase_2_Mag
  9.970    763.903    731.324     32.579    729.662    730.645    730.340    729.662    729.662
 10.070    785.000    730.149     54.851    728.401    729.463    729.087    728.401    728.401
 10.170    725.363    728.992     -3.629    727.148    728.299    727.841    727.148    727.148
 10.270    746.000    727.856     18.144    725.903    727.156    726.603    725.903    725.903
 10.370    757.000    726.744     30.256    724.665    726.036    725.373    724.665    724.665
 10.470    730.000    725.658      4.342    723.435    724.942    724.150    723.435    723.435
 10.570    750.000    724.603     25.397    722.212    723.879    722.935    722.212    722.212
 10.670    713.152    723.584    -10.432    720.998    722.852    721.729    720.998    720.998
 10.770    743.000    722.608     20.392    719.790    721.868    720.529    719.790    719.790
 10.870    785.000    721.685     63.315    718.591    720.936    719.338    718.591    718.591
 10.970    709.000    720.828    -11.828    717.399    720.071    718.154    717.399    717.399
 11.070    751.000    720.054     30.946    716.214    719.288    716.978    716.214    716.214
 11.170    736.000    719.388     16.612    715.037    718.614    715.810    715.037    715.037
 11.270    778.000    718.868     59.132    713.867    718.085    714.649    713.867    713.867
 11.370    697.605    718.552    -20.947    712.705    717.759    713.495    712.705    712.705
 11.470    744.000    718.553     25.447    711.551    717.750    712.350    711.551    711.551
 11.570    717.130    719.158     -2.028    710.403    718.345    711.212    710.403    710.403
 11.670    725.000    720.834      4.166    709.263    720.010    710.081    709.263    709.263
 11.770    751.000    724.617     26.383    708.131    723.781    708.958    708.131    708.131
 11.870    783.613    732.516     51.097    707.005    731.665    707.843    707.005    707.005
 11.970    818.000    746.994     71.006    705.888    746.124    706.735    705.888    705.888
 12.070    794.000    769.512     24.488    704.777    768.618    705.634    704.777    704.777
 12.170    810.000    797.601     12.399    703.673    796.680    704.541    703.673    703.673
 12.270    809.000    821.577    -12.577    702.577    820.632    703.456    702.577    702.577
 12.370    877.443    826.875     50.568    701.488    825.916    702.377    701.488    701.488
 12.470    821.000    808.377     12.623    700.407    807.416    701.306    700.407    700.407
 12.570    783.821    778.124      5.697    699.332    777.170    700.243    699.332    699.332
 12.670    771.617    749.852     21.765    698.264    748.901    699.186    698.264    698.264
 12.770    700.000    729.280    -29.280    697.204    728.329    698.137    697.204    697.204
 12.870    676.000    716.352    -40.352    696.151    715.396    697.096    696.151    696.151
 12.970    695.215    708.766    -13.551    695.104    707.802    696.061    695.104    695.104
 13.070    637.000    704.189    -67.189    694.065    703.215    695.034    694.065    694.065
 13.170    723.034    701.106     21.928    693.033    700.121    694.014    693.033    693.033
 13.270    673.460    698.751    -25.291    692.008    697.754    693.001    692.008    692.008
 13.370    693.000    696.787     -3.787    690.990    695.778    691.996    690.990    690.990
 13.470    613.000    695.068    -82.068    689.978    694.046    690.998    689.978    689.978
 13.570    670.751    693.517    -22.766    688.974    692.483    690.007    688.974    688.974
 13.670    638.000    692.091    -54.091    687.976    691.043    689.023    687.976    687.976
 13.770    665.000    690.762    -25.762    686.986    689.701    688.046    686.986    686.986
 13.870    648.367    689.502    -41.136    686.002    688.427    687.076    686.002    686.002
 13.970    692.000    688.300      3.700    685.025    687.210    686.114    685.025    685.025
 14.070    744.000    687.144     56.856    684.055    686.040    685.158    684.055    684.055
 14.170    631.907    686.027    -54.120    683.091    684.908    684.210    683.091    683.091
 14.270    702.755    684.942     17.813    682.135    683.808    683.268    682.135    682.135
 14.370    637.000    683.885    -46.885    681.185    682.735    682.334    681.185    681.185
 14.470    665.000    682.852    -17.852    680.242    681.686    681.407    680.242    680.242
 14.570    676.944    681.840     -4.895    679.305    680.658    680.486    679.305    679.305
 14.670    695.000    680.848     14.152    678.375    679.649    679.573    678.375    678.375
 14.770    683.000    679.884      3.116    677.452    678.668    678.667    677.452    677.452
 14.870    627.055    678.942    -51.887    676.535    677.709    677.768    676.535    676.535
 14.970    668.617    677.997     -9.380    675.625    676.746    676.876    675.625    675.625
 15.070    660.468    677.065    -16.597    674.721    675.796    675.990    674.721    674.721
 15.170    647.505    676.148    -28.643    673.824    674.861    675.112    673.824    673.824
 15.270    639.342    675.239    -35.897    672.934    673.932    674.240    672.934    672.934
 15.370    669.000    674.340     -5.340    672.050    673.014    673.375    672.050    672.050
 15.470    684.000    673.451     10.549    671.172    672.106    672.517    671.172    671.172
 15.570    664.000    672.573     -8.573    670.301    671.208    671.666    670.301    670.301
 15.670    633.000    671.704    -38.704    669.436    670.318    670.822    669.436    669.436
 15.770    703.000    670.845     32.155    668.578    669.438    669.985    668.578    668.578
 15.870    663.000    669.995     -6.995    667.726    668.566    669.155    667.726    667.726
 15.970    682.667    669.153     13.513    666.881    667.702    668.331    666.881    666.881
 16.070    626.000    668.320    -42.320    666.041    666.847    667.515    666.041    666.041
 16.170    665.000    667.496     -2.496    665.208    665.999    666.705    665.208    665.208
 16.270    626.000    666.680    -40.680    664.381    665.159    665.902    664.381    664.381
 16.370    689.000    665.872     23.128    663.561    664.327    665.106    663.561    663.561
 16.470    642.000    665.072    -23.072    662.747    663.502    664.316    662.747    662.747
 16.570    674.461    664.280     10.182    661.939    662.684    663.534    661.939    661.939
 16.670    636.833    663.495    -26.663    661.137    661.874    662.758    661.137    661.137
 16.770    690.620    662.719     27.901    660.341    661.071    661.989    660.341    660.341
 16.870    628.000    661.950    -33.950    659.551    660.274    661.227    659.551    659.551
 16.970    645.000    661.189    -16.189    658.768    659.485    660.471    658.768    658.768
 17.070    608.000    660.435    -52.435    657.990    658.703    659.723    657.990    657.990
 17.170    666.270    659.689      6.581    657.219    657.927    658.981    657.219    657.219
 17.270    636.332    658.954    -22.621    656.454    657.161    658.246    656.454    656.454
 17.370    659.000    658.229      0.771    655.694    656.404    657.519    655.694    655.694
 17.470    601.000    657.525    -56.525    654.941    655.667    656.799    654.941    654.941
 17.570    611.000    656.882    -45.882    654.194    654.989    656.086    654.194    654.194
 17.670    649.000    656.181     -7.181    653.452    654.254    655.379    653.452    653.452
 17.770    639.000    655.480    -16.480    652.717    653.518    654.678    652.717    652.717
 17.870    613.167    654.786    -41.620    651.987    652.789    653.984    651.987    651.987
 17.970    659.000    654.100      4.900    651.263    652.066    653.297    651.263    651.263
 18.070    710.000    653.421     56.579    650.545    651.349    652.617    650.545    650.545
 18.170    643.000    652.749     -9.749    649.833    650.639    651.944    649.833    649.833
 18.270    668.833    652.085     16.748    649.127    649.934    651.277    649.127    649.127
 18.370    666.682    651.428     15.254    648.426    649.236    650.618    648.426    648.426
 18.470    674.451    650.784     23.667    647.732    648.550    649.965    647.732    647.732
 18.570    643.695    650.167     -6.471    647.043    647.890    649.320    647.043    647.043
 18.670    673.000    649.535     23.465    646.359    647.213    648.681    646.359    646.359
 18.770    641.000    648.907     -7.907    645.682    646.539    648.050    645.682    645.682
 18.870    700.000    648.287     51.713    645.010    645.872    647.425    645.010    645.010
 18.970    641.000    647.675     -6.675    644.343    645.210    646.808    644.343    644.343
 19.070    627.444    647.070    -19.626    643.683    644.555    646.197    643.683    643.683
 19.170    657.642    646.474     11.168    643.028    643.907    645.594    643.028    643.028
 19.270    582.000    645.900    -63.900    642.378    643.278    645.000    642.378    642.378
 19.370    651.000    645.364      5.636    641.734    642.672    644.426    641.734    641.734
 19.470    663.163    644.825     18.338    641.096    642.065    643.855    641.096    641.096
 19.570    675.140    644.262     30.878    640.463    641.442    643.283    640.463    640.463
 19.670    644.000    643.704      0.296    639.835    640.823    642.716    639.835    639.835
 19.770    660.000    643.155     16.845    639.213    640.211    642.158    639.213    639.213
 19.870    603.000    642.622    -39.622    638.597    639.612    641.606    638.597    638.597
 19.970    588.000    642.108    -54.108    637.985    639.030    641.063    637.985    637.985
 20.070    604.000    641.589    -37.589    637.380    638.441    640.527    637.380    637.380
 20.170    669.430    641.090     28.340    636.779    637.868    640.000    636.779    636.779
 20.270    647.000    640.608      6.392    636.184    637.303    639.488    636.184    636.184
 20.370    616.000    640.145    -24.145    635.594    636.744    638.996    635.594    635.594
 20.470    601.000    639.659    -38.659    635.010    636.175    638.494    635.010    635.010
 20.570    654.000    639.184     14.816    634.431    635.616    637.999    634.431    634.431
 20.670    601.000    638.775    -37.775    633.857    635.119    637.512    633.857    633.857
 20.770    594.000    638.348    -44.348    633.288    634.601    637.034    633.288    633.288
 20.870    580.000    637.902    -57.902    632.724    634.062    636.564    632.724    632.724
 20.970    642.000    637.460      4.540    632.166    633.523    636.103    632.166    632.166
 21.070    689.352    637.030     52.322    631.613    632.993    635.650    631.613    631.613
 21.170    690.714    636.638     54.076    631.065    632.495    635.208    631.065    631.065
 21.270    603.689    636.246    -32.558    630.522    631.993    634.775    630.522    630.522
 21.370    605.378    635.858    -30.479    629.984    631.491    634.351    629.984    629.984
 21.470    601.000    635.476    -34.476    629.451    630.990    633.937    629.451    629.451
 21.570    622.870    635.107    -12.237    628.924    630.494    633.537    628.924    628.924
 21.670    653.000    634.748     18.252    628.401    630.003    633.146    628.401    628.401
 21.770    661.000    634.398     26.602    627.883    629.520    632.762    627.883    627.883
 21.870    655.000    634.061     20.939    627.371    629.043    632.389    627.371    627.371
 21.970    650.000    633.738     16.262    626.863    628.574    632.027    626.863    626.863
 22.070    590.895    633.426    -42.531    626.360    628.109    631.676    626.360    626.360
 22.170    636.547    633.128      3.418    625.862    627.653    631.338    625.862    625.862
 22.270    593.000    632.847    -39.847    625.369    627.205    631.011    625.369    625.369
 22.370    680.520    632.582     47.938    624.881    626.766    630.698    624.881    624.881
 22.470    657.816    632.338     25.478    624.398    626.339    630.397    624.398    624.398
 22.570    683.094    632.111     50.982    623.920    625.920    630.111    623.920    623.920
 22.670    636.000    631.910      4.090    623.446    625.516    629.840    623.446    623.446
 22.770    594.808    631.727    -36.918    622.977    625.121    629.583    622.977    622.977
 22.870    589.715    631.565    -41.850    622.513    624.737    629.342    622.513    622.513
 22.970    602.000    631.429    -29.429    622.054    624.367    629.116    622.054    622.054
 23.070    600.000    631.322    -31.322    621.599    624.014    628.908    621.599    621.599
 23.170    607.000    631.247    -24.247    621.149    623.678    628.718    621.149    621.149
 23.270    620.000    631.207    -11.207    620.704    623.365    628.547    620.704    620.704
 23.370    597.000    631.209    -34.209    620.263    623.076    628.396    620.263    620.263
 23.470    622.000    631.257     -9.257    619.827    622.818    628.267    619.827    619.827
 23.570    624.000    631.360     -7.360    619.396    622.597    628.160    619.396    619.396
 23.670    577.304    631.527    -54.223    618.969    622.421    628.076    618.969    618.969
 23.770    654.000    631.773     22.227    618.547    622.302    628.019    618.547    618.547
 23.870    644.000    632.116     11.884    618.129    622.259    627.988    618.129    618.129
 23.970    638.000    632.584      5.416    617.716    622.315    627.987    617.716    617.716
 24.070    607.000    633.219    -26.219    617.308    622.512    628.017    617.308    617.308
 24.170    651.000    634.098     16.902    616.903    622.923    628.081    616.903    616.903
 24.270    630.000    635.379     -5.379    616.504    623.705    628.181    616.504    616.504
 24.370    660.000    637.421     22.579    616.108    625.213    628.320    616.108    616.108
 24.470    644.000    640.969      3.031    615.717    628.190    628.502    615.717    615.717
 24.570    675.000    647.297     27.703    615.331    633.909    628.730    615.331    615.331
 24.670    637.052    657.995    -20.943    614.949    643.953    629.009    614.949    614.949
 24.770    694.370    674.020     20.350    614.571    659.277    629.343    614.571    614.571
 24.870    681.000    693.902    -12.902    614.198    678.405    629.738    614.198    614.198
 24.970    761.043    711.659     49.384    613.828    695.343    630.200    613.828    613.828
 25.070    726.000    717.710      8.290    613.464    700.497    630.736    613.464    613.464
 25.170    713.892    707.823      6.069    613.103    689.624    631.354    613.103    613.103
 25.270    653.680    689.364    -35.684    612.747    670.086    632.062    612.747    612.747
 25.370    686.000    671.622     14.378    612.394    651.167    632.873    612.394    612.394
 25.470    684.000    658.842     25.158    612.046    637.105    633.798    612.046    612.046
 25.570    603.922    651.349    -47.426    611.703    628.207    634.852    611.703    611.703
 25.670    630.000    647.780    -17.780    611.363    623.096    636.052    611.363    611.363
 25.770    680.000    646.599     33.401    611.027    620.211    637.418    611.027    611.027
 25.870    695.000    646.747     48.253    610.696    618.471    638.974    610.696    610.696
 25.970    679.657    647.673     31.983    610.369    617.294    640.749    610.369    610.369
 26.070    619.793    649.153    -29.360    610.046    616.421    642.777    610.046    610.046
 26.170    669.000    651.107     17.893    609.726    615.739    645.094    609.726    609.726
 26.270    686.000    653.536     32.464    609.411    615.194    647.752    609.411    609.411
 26.370    631.992    656.472    -24.481    609.100    614.757    650.814    609.100    609.100
 26.470    626.717    659.974    -33.257    608.793    614.411    654.354    608.793    608.793
 26.570    616.000    664.125    -48.125    608.490    614.145    658.467    608.490    608.490
 26.670    660.000    669.041     -9.041    608.190    613.955    663.273    608.190    608.190
 26.770    648.000    674.875    -26.875    607.895    613.841    668.925    607.895    607.895
 26.870    703.276    681.828     21.448    607.604    613.806    675.621    607.604    607.604
 26.970    685.000    690.171     -5.171    607.316    613.859    683.622    607.316    607.316
 27.070    695.000    700.266     -5.266    607.032    614.015    693.277    607.032    607.032
 27.170    695.000    712.617    -17.617    606.752    614.294    705.067    606.752    606.752
 27.270    742.887    727.901     14.986    606.476    614.725    719.643    606.476    606.476
 27.370    735.000    747.104    -12.104    606.204    615.353    737.943    606.204    606.204
 27.470    765.000    771.685     -6.685    605.936    616.245    761.361    605.936    605.936
 27.570    868.000    804.003     63.997    605.671    617.508    792.147    605.671    605.671
 27.670    843.000    848.845     -5.845    605.410    619.359    834.871    605.410    605.410
 27.770    936.000    919.431     16.569    605.153    622.399    902.149    605.153    605.153
 27.870   1025.000   1056.704    -31.704    604.899    628.474   1033.066    604.899    604.899
 27.970   1361.000   1371.115    -10.115    604.649    642.564   1333.068    604.649    604.649
 28.070   2055.277   2082.510    -27.233    604.403    674.574   2012.051    604.403    604.403
 28.170   3362.000   3456.381    -94.381    604.160    736.473   3323.503    604.160    604.160
 28.270   5458.000   5530.186    -72.186    603.921    829.981   5303.218    603.921    603.921
 28.370   7830.556   7741.124     89.432    603.686    929.841   7413.844    603.686    603.686
 28.470   8691.955   8889.446   -197.491    603.454    982.243   8509.701    603.454    603.454
 28.570   8055.299   8154.288    -98.988    603.225    950.713   7806.366    603.225    603.225
 28.670   6431.000   6266.449    164.551    603.001    869.184   6000.276    603.001    603.001
 28.770   4581.000   4546.461     34.539    602.779    798.808   4350.593    602.779    602.779
 28.870   3763.000   3760.373      2.627    602.561    775.731   3587.308    602.561    602.561
 28.970   4061.934   3933.072    128.862    602.347    800.824   3734.606    602.347    602.347
 29.070   4513.000   4570.863    -57.863    602.136    847.391   4325.611    602.136    602.136
 29.170   5078.000   4939.844    138.156    601.929    873.304   4668.593    601.929    601.929
 29.270   4532.000   4546.463    -14.463    601.725    849.677   4298.806    601.725    601.725
 29.370   3542.000   3587.512    -45.512    601.524    789.818   3399.585    601.524    601.524
 29.470   2530.817   2556.851    -26.034    601.327    725.200   2433.294    601.327    601.327
 29.570   1737.000   1766.472    -29.472    601.133    675.628   1692.191    601.133    601.133
 29.670   1335.000   1279.839     55.161    600.942    645.162   1235.742    600.942    600.942
 29.770    979.000   1022.065    -43.065    600.755    629.106    993.775    600.755    600.755
 29.870    869.490    893.660    -24.170    600.571    621.202    873.059    600.571    600.571
 29.970    850.648    825.907     24.741    600.390    617.132    809.180    600.390    600.390
 30.070    824.000    784.670     39.330    600.212    614.760    770.131    600.212    600.212
 30.170    791.714    756.084     35.629    600.038    613.236    742.891    600.038    600.038
 30.270    755.000    734.851     20.149    599.867    612.263    722.458    599.867    599.867
 30.370    713.570    718.764     -5.195    599.699    611.774    706.690    599.699    599.699
