neutron_powder_diffraction_0018
R_wp: 3.602
Temperature (K): 487.604
Counts: 83495.00
Wavelength (Ã…): 2.52098
COMMENTS
Test file for demonstrating the .xyy file format in Reel1.0
END OF HEADER
   tth       Y_obs     Y_calc      Y_res    Background    Phase_1_Nuc    Phase_1_Mag    Phase_2_Nuc    Phase_2_Mag
  9.970    749.000    727.038     21.962    725.255    726.365    725.927    725.255    725.255
 10.070    733.000    726.024      6.976    724.145    725.344    724.824    724.145    724.145
 10.170    721.000    725.028     -4.028    723.040    724.341    723.727    723.040    723.040
 10.270    697.445    724.052    -26.607    721.941    723.358    722.635    721.941    721.941
 10.370    764.000    723.100     40.900    720.847    722.398    721.548    720.847    720.847
 10.470    703.000    722.174    -19.174    719.759    721.464    720.468    719.759    719.759
 10.570    736.000    721.280     14.720    718.676    720.562    719.393    718.676    718.676
 10.670    719.000    720.424     -1.424    717.599    719.698    718.324    717.599    717.599
 10.770    733.000    719.614     13.386    716.528    718.880    717.260    716.528    716.528
 10.870    765.000    718.862     46.138    715.462    718.120    716.203    715.462    715.462
 10.970    714.000    718.181     -4.181    714.401    717.430    715.151    714.401    714.401
 11.070    772.000    717.590     54.410    713.346    716.831    714.104    713.346    713.346
 11.170    765.000    717.118     47.882    712.297    716.350    713.063    712.297    712.297
 11.270    719.000    716.807      2.193    711.253    716.030    712.027    711.253    711.253
 11.370    691.919    716.726    -24.807    710.214    715.939    710.998    710.214    710.214
 11.470    763.000    717.002     45.998    709.181    716.205    709.974    709.181    709.181
 11.570    745.921    717.903     28.018    708.153    717.097    708.955    708.153    708.153
 11.670    759.000    720.008     38.992    707.131    719.190    707.942    707.131    707.131
 11.770    758.000    724.434     33.566    706.114    723.604    706.935    706.114    706.114
 11.870    773.936    732.941     40.996    705.103    732.096    705.933    705.103    705.103
 11.970    694.916    747.538    -52.623    704.097    746.675    704.937    704.097    704.097
 12.070    889.000    769.141    119.859    703.096    768.256    703.946    703.096    703.096
 12.170    855.000    795.142     59.858    702.101    794.232    702.961    702.101    702.101
 12.270    876.000    816.777     59.223    701.111    815.843    701.981    701.111    701.111
 12.370    855.000    821.223     33.777    700.126    820.276    701.007    700.126    700.126
 12.470    839.830    804.338     35.492    699.147    803.389    700.039    699.147    699.147
 12.570    819.000    776.674     42.326    698.174    775.729    699.076    698.174    698.174
 12.670    708.000    750.299    -42.299    697.205    749.357    698.119    697.205    697.205
 12.770    714.000    730.479    -16.479    696.242    729.536    697.167    696.242    696.242
 12.870    685.000    717.488    -32.488    695.284    716.541    696.221    695.284    695.284
 12.970    691.000    709.550    -18.550    694.332    708.594    695.280    694.332    694.332
 13.070    684.833    704.661    -19.828    693.384    703.695    694.344    693.384    693.384
 13.170    685.000    701.392    -16.392    692.442    700.415    693.415    692.442    692.442
 13.270    671.000    698.948    -27.948    691.506    697.960    692.490    691.506    691.506
 13.370    715.342    696.965     18.377    690.574    695.964    691.572    690.574    690.574
 13.470    681.000    695.258    -14.258    689.648    694.245    690.659    689.648    689.648
 13.570    723.885    693.724     30.162    688.727    692.698    689.751    688.727    688.727
 13.670    638.000    692.323    -54.323    687.812    691.284    688.849    687.812    687.812
 13.770    667.000    691.025    -24.025    686.901    689.973    687.952    686.901    686.901
 13.870    674.000    689.806    -15.806    685.996    688.740    687.061    685.996    685.996
 13.970    662.000    688.650    -26.650    685.096    687.569    686.175    685.096    685.096
 14.070    691.000    687.543      3.457    684.201    686.448    685.295    684.201    684.201
 14.170    667.205    686.478    -19.273    683.311    685.368    684.420    683.311    683.311
 14.270    669.000    685.446    -16.446    682.427    684.322    683.551    682.427    682.427
 14.370    661.000    684.444    -23.444    681.548    683.304    682.687    681.548    681.548
 14.470    690.194    683.468      6.726    680.673    682.312    681.828    680.673    680.673
 14.570    690.232    682.515      7.717    679.804    681.343    680.976    679.804    679.804
 14.670    680.000    681.577     -1.577    678.940    680.389    680.128    678.940    678.940
 14.770    658.000    680.656    -22.656    678.082    679.451    679.286    678.082    678.082
 14.870    654.000    679.749    -25.749    677.228    678.527    678.449    677.228    677.228
 14.970    717.848    678.856     38.992    676.379    677.617    677.618    676.379    676.379
 15.070    658.156    677.976    -19.820    675.536    676.719    676.793    675.536    675.536
 15.170    643.000    677.107    -34.107    674.697    675.832    675.972    674.697    674.697
 15.270    675.000    676.249     -1.249    673.864    674.955    675.158    673.864    673.864
 15.370    706.637    675.401     31.236    673.035    674.088    674.348    673.035    673.035
 15.470    687.000    674.562     12.438    672.212    673.229    673.545    672.212    672.212
 15.570    660.000    673.733    -13.733    671.394    672.380    672.746    671.394    671.394
 15.670    679.000    672.912      6.088    670.580    671.539    671.953    670.580    670.580
 15.770    702.731    672.103     30.628    669.772    670.708    671.166    669.772    669.772
 15.870    687.000    671.302     15.698    668.969    669.887    670.384    668.969    668.969
 15.970    677.000    670.506      6.494    668.171    669.068    669.608    668.171    668.171
 16.070    637.000    669.716    -32.716    667.377    668.256    668.837    667.377    667.377
 16.170    622.283    668.934    -46.651    666.589    667.451    668.072    666.589    666.589
 16.270    651.000    668.161    -17.161    665.805    666.654    667.312    665.805    665.805
 16.370    681.801    667.406     14.395    665.027    665.876    666.557    665.027    665.027
 16.470    640.000    666.646    -26.646    664.253    665.091    665.808    664.253    664.253
 16.570    641.949    665.892    -23.943    663.485    664.311    665.065    663.485    663.485
 16.670    639.050    665.146    -26.095    662.721    663.539    664.327    662.721    662.721
 16.770    687.000    664.425     22.575    661.962    662.791    663.595    661.962    661.962
 16.870    615.449    663.781    -48.332    661.208    662.119    662.870    661.208    661.208
 16.970    649.394    663.063    -13.669    660.459    661.372    662.150    660.459    660.459
 17.070    617.625    662.342    -44.718    659.714    660.622    661.435    659.714    659.714
 17.170    723.000    661.628     61.372    658.975    659.878    660.725    658.975    658.975
 17.270    598.000    660.919    -62.919    658.240    659.139    660.020    658.240    658.240
 17.370    631.000    660.217    -29.217    657.510    658.406    659.321    657.510    657.510
 17.470    708.000    659.521     48.479    656.785    657.678    658.628    656.785    656.785
 17.570    695.887    658.831     37.056    656.065    656.956    657.940    656.065    656.065
 17.670    644.000    658.148    -14.148    655.350    656.240    657.258    655.350    655.350
 17.770    654.809    657.471     -2.662    654.639    655.528    656.582    654.639    654.639
 17.870    662.000    656.800      5.200    653.933    654.822    655.911    653.933    653.933
 17.970    692.200    656.136     36.064    653.232    654.121    655.246    653.232    653.232
 18.070    634.000    655.478    -21.478    652.535    653.426    654.587    652.535    652.535
 18.170    599.000    654.827    -55.827    651.844    652.737    653.934    651.844    651.844
 18.270    690.000    654.193     35.807    651.157    652.063    653.286    651.157    651.157
 18.370    680.000    653.555     26.445    650.474    651.385    652.645    650.474    650.474
 18.470    622.563    652.922    -30.359    649.797    650.710    652.009    649.797    649.797
 18.570    657.402    652.295      5.106    649.124    650.040    651.379    649.124    649.124
 18.670    625.143    651.676    -26.533    648.455    649.376    650.755    648.455    648.455
 18.770    670.000    651.064     18.936    647.792    648.719    650.137    647.792    647.792
 18.870    664.721    650.458     14.263    647.133    648.066    649.525    647.133    647.133
 18.970    660.000    649.869     10.131    646.478    647.428    648.919    646.478    646.478
 19.070    629.000    649.290    -20.290    645.829    646.799    648.319    645.829    645.829
 19.170    669.069    648.705     20.364    645.183    646.163    647.726    645.183    645.183
 19.270    685.573    648.129     37.444    644.543    645.533    647.138    644.543    644.543
 19.370    617.000    647.560    -30.560    643.907    644.908    646.558    643.907    643.907
 19.470    624.000    647.040    -23.040    643.275    644.317    645.998    643.275    643.275
 19.570    620.350    646.510    -26.161    642.648    643.719    645.439    642.648    642.648
 19.670    604.000    645.960    -41.960    642.026    643.108    644.878    642.026    642.026
 19.770    619.000    645.418    -26.418    641.408    642.501    644.325    641.408    641.408
 19.870    600.955    644.912    -43.957    640.795    641.915    643.791    640.795    640.795
 19.970    608.000    644.463    -36.463    640.186    641.389    643.260    640.186    640.186
 20.070    633.000    643.985    -10.985    639.581    640.836    642.730    639.581    639.581
 20.170    648.730    643.478      5.253    638.982    640.257    642.202    638.982    638.982
 20.270    606.000    643.005    -37.005    638.386    639.709    641.683    638.386    638.386
 20.370    641.000    642.525     -1.525    637.795    639.151    641.169    637.795    637.795
 20.470    627.000    642.064    -15.064    637.209    638.610    640.663    637.209    637.209
 20.570    623.564    641.594    -18.030    636.626    638.052    640.168    636.626    636.626
 20.670    618.000    641.127    -23.127    636.049    637.497    639.679    636.049    636.049
 20.770    635.000    640.666     -5.666    635.475    636.947    639.195    635.475    635.475
 20.870    660.118    640.210     19.909    634.906    636.398    638.718    634.906    634.906
 20.970    633.000    639.761     -6.761    634.342    635.854    638.249    634.342    634.342
 21.070    665.000    639.322     25.678    633.782    635.315    637.789    633.782    633.782
 21.170    608.000    638.893    -30.893    633.226    634.782    637.336    633.226    633.226
 21.270    615.000    638.473    -23.473    632.674    634.255    636.892    632.674    632.674
 21.370    599.104    638.065    -38.960    632.127    633.735    636.457    632.127    632.127
 21.470    620.000    637.677    -17.677    631.584    633.229    636.031    631.584    631.584
 21.570    629.000    637.292     -8.292    631.045    632.723    635.614    631.045    631.045
 21.670    621.443    636.916    -15.472    630.511    632.220    635.206    630.511    630.511
 21.770    589.000    636.553    -47.553    629.981    631.725    634.808    629.981    629.981
 21.870    665.000    636.202     28.798    629.455    631.237    634.420    629.455    629.455
 21.970    594.367    635.865    -41.498    628.933    630.756    634.043    628.933    628.933
 22.070    667.000    635.541     31.459    628.416    630.281    633.676    628.416    628.416
 22.170    615.354    635.231    -19.877    627.903    629.814    633.320    627.903    627.903
 22.270    671.019    634.936     36.083    627.394    629.354    632.975    627.394    627.394
 22.370    603.000    634.657    -31.657    626.889    628.904    632.643    626.889    626.889
 22.470    629.000    634.396     -5.396    626.389    628.462    632.323    626.389    626.389
 22.570    613.482    634.154    -20.672    625.892    628.031    632.016    625.892    625.892
 22.670    631.000    633.932     -2.932    625.400    627.610    631.722    625.400    625.400
 22.770    660.000    633.733     26.267    624.912    627.202    631.443    624.912    624.912
 22.870    620.000    633.564    -13.564    624.428    626.811    631.180    624.428    624.428
 22.970    632.000    633.418     -1.418    623.948    626.433    630.933    623.948    623.948
 23.070    630.000    633.299     -3.299    623.472    626.070    630.701    623.472    623.472
 23.170    613.268    633.212    -19.944    623.000    625.727    630.486    623.000    623.000
 23.270    670.813    633.162     37.651    622.532    625.406    630.289    622.532    622.532
 23.370    597.694    633.155    -35.461    622.069    625.113    630.111    622.069    622.069
 23.470    619.844    633.197    -13.353    621.609    624.853    629.954    621.609    621.609
 23.570    635.000    633.297      1.703    621.154    624.634    629.818    621.154    621.154
 23.670    644.000    633.467     10.533    620.702    624.464    629.706    620.702    620.702
 23.770    625.508    633.721     -8.213    620.254    624.359    629.618    620.254    620.254
 23.870    604.000    634.081    -30.081    619.811    624.337    629.557    619.811    619.811
 23.970    610.000    634.580    -24.580    619.371    624.429    629.524    619.371    619.371
 24.070    651.000    635.263     15.737    618.936    624.680    629.522    618.936    618.936
 24.170    595.000    636.224    -41.224    618.504    625.179    629.552    618.504    618.504
 24.270    651.000    637.652     13.348    618.076    626.115    629.617    618.076    618.076
 24.370    627.987    639.945    -11.958    617.652    627.882    629.721    617.652    617.652
 24.470    653.000    643.852      9.148    617.232    631.226    629.866    617.232    617.232
 24.570    673.000    650.531     22.469    616.816    637.303    630.057    616.816    616.816
 24.670    625.000    661.269    -36.269    616.404    647.396    630.297    616.404    616.404
 24.770    706.000    676.641     29.359    615.996    662.077    630.591    615.996    615.996
 24.870    692.000    695.016     -3.016    615.591    679.707    630.945    615.591    615.591
 24.970    730.122    710.853     19.269    615.191    694.735    631.364    615.191    615.191
 25.070    698.168    715.838    -17.670    614.794    698.835    631.856    614.794    614.794
 25.170    785.000    706.674     78.326    614.401    688.698    632.428    614.401    614.401
 25.270    710.554    689.830     20.724    614.011    670.791    633.090    614.011    614.011
 25.370    630.321    673.389    -43.068    613.626    653.190    633.851    613.626    613.626
 25.470    630.000    661.167    -31.167    613.244    639.703    634.725    613.244    613.244
 25.570    618.000    653.631    -35.631    612.866    630.782    635.726    612.866    612.866
 25.670    636.763    649.757    -12.994    612.492    625.386    636.870    612.492    612.492
 25.770    654.000    648.253      5.747    612.122    622.202    638.177    612.122    612.122
 25.870    630.218    648.143    -17.925    611.755    620.230    639.670    611.755    611.755
 25.970    618.502    648.874    -30.372    611.392    618.891    641.377    611.392    611.392
 26.070    658.000    650.196      7.804    611.033    617.898    643.332    611.033    611.033
 26.170    641.000    652.021    -11.021    610.677    617.122    645.577    610.677    610.677
 26.270    683.367    654.338     29.029    610.325    616.502    648.161    610.325    610.325
 26.370    676.000    657.157     18.843    609.976    615.996    651.137    609.976    609.976
 26.470    621.000    660.538    -39.538    609.632    615.586    654.583    609.632    609.632
 26.570    668.730    664.566      4.164    609.291    615.261    658.594    609.291    609.291
 26.670    672.000    669.353      2.647    608.953    615.017    663.287    608.953    608.953
 26.770    675.000    675.048     -0.048    608.619    614.852    668.813    608.619    608.619
 26.870    680.000    681.850     -1.850    608.289    614.770    675.366    608.289    608.289
 26.970    625.000    690.025    -65.025    607.962    614.778    683.204    607.962    607.962
 27.070    681.000    699.929    -18.929    607.638    614.892    692.671    607.638    607.638
 27.170    715.254    712.052      3.202    607.319    615.131    704.234    607.319    607.319
 27.270    717.961    727.074     -9.113    607.002    615.526    718.544    607.002    607.002
 27.370    763.000    745.968     17.032    606.689    616.121    736.527    606.689    606.689
 27.470    786.000    770.177     15.823    606.380    616.986    759.560    606.380    606.380
 27.570    792.000    802.008    -10.008    606.074    618.226    789.842    606.074    606.074
 27.670    870.710    846.150     24.560    605.772    620.061    831.843    605.772    605.772
 27.770    919.000    915.545      3.455    605.473    623.092    897.897    605.473    605.473
 27.870   1039.596   1050.586    -10.990    605.178    629.192   1026.520    605.178    605.178
 27.970   1388.258   1361.356     26.902    604.885    643.452   1322.677    604.885    604.885
 28.070   1985.000   2068.859    -83.859    604.597    676.092   1997.113    604.597    604.597
 28.170   3299.000   3441.254   -142.254    604.311    739.516   3305.553    604.311    604.311
 28.270   5560.553   5514.709     45.844    604.029    835.430   5282.513    604.029    604.029
 28.370   7564.000   7714.146   -150.146    603.751    937.356   7379.578    603.751    603.751
 28.470   8747.000   8822.910    -75.910    603.476    989.297   8436.319    603.476    603.476
 28.570   8201.000   8033.073    167.927    603.204    954.435   7681.581    603.204    603.204
 28.670   6214.105   6124.936     89.169    602.935    869.878   5858.134    602.935    602.935
 28.770   4429.000   4428.199      0.801    602.670    798.766   4232.352    602.670    602.670
 28.870   3782.000   3677.544    104.456    602.408    776.661   3503.464    602.408    602.408
 28.970   3792.000   3867.250    -75.250    602.149    802.948   3666.531    602.149    602.149
 29.070   4555.730   4495.221     60.509    601.894    849.820   4247.376    601.894    601.894
 29.170   4923.613   4840.995     82.618    601.641    874.769   4568.070    601.641    601.641
 29.270   4527.000   4435.673     91.327    601.392    849.573   4187.851    601.392    601.392
 29.370   3498.000   3491.863      6.137    601.147    788.892   3304.527    601.147    601.147
 29.470   2335.000   2492.717   -157.717    600.904    724.391   2369.572    600.904    600.904
 29.570   1629.000   1731.611   -102.611    600.665    675.235   1657.271    600.665    600.665
 29.670   1322.000   1263.744     58.256    600.428    645.060   1219.245    600.428    600.428
 29.770   1078.000   1015.207     62.793    600.195    629.098    986.373    600.195    600.195
 29.870    946.366    890.492     55.874    599.965    621.168    869.325    599.965    599.965
 29.970    838.000    824.030     13.970    599.738    617.029    806.760    599.738    599.738
 30.070    786.911    783.259      3.652    599.515    614.586    768.200    599.515    599.515
 30.170    773.000    754.894     18.106    599.294    613.003    741.193    599.294    599.294
 30.270    745.000    733.814     11.186    599.077    611.987    720.910    599.077    599.077
 30.370    781.000    717.875     63.125    598.862    611.479    705.261    598.862    598.862
