neutron_powder_diffraction_0011
R_wp: 3.634
Temperature (K): 455.606
Counts: 83591.00
Wavelength (Ã…): 2.52098
COMMENTS
Test file for demonstrating the .xyy file format in Reel1.0
END OF HEADER
   tth       Y_obs     Y_calc      Y_res    Background    Phase_1_Nuc    Phase_1_Mag    Phase_2_Nuc    Phase_2_Mag
  9.970    730.000    741.954    -11.954    740.206    741.256    740.903    740.206    740.206
 10.070    756.895    740.832     16.063    738.992    740.126    739.697    738.992    738.992
 10.170    773.000    739.728     33.272    737.785    739.015    738.498    737.785    737.785
 10.270    755.000    738.646     16.354    736.585    737.925    737.306    736.585    736.585
 10.370    757.437    737.586     19.850    735.392    736.857    736.120    735.392    735.392
 10.470    714.000    736.554    -22.554    734.206    735.817    734.942    734.206    734.206
 10.570    786.000    735.552     50.448    733.026    734.808    733.770    733.026    733.026
 10.670    735.818    734.588      1.230    731.853    733.835    732.605    731.853    731.853
 10.770    774.164    733.668     40.495    730.686    732.907    731.447    730.686    730.686
 10.870    757.000    732.804     24.196    729.527    732.034    730.295    729.527    729.527
 10.970    776.000    732.007     43.993    728.373    731.228    729.151    728.373    728.373
 11.070    763.000    731.298     31.702    727.227    730.510    728.013    727.227    727.227
 11.170    763.000    730.702     32.298    726.087    729.905    726.882    726.087    726.087
 11.270    677.699    730.258    -52.559    724.954    729.452    725.757    724.954    724.954
 11.370    703.466    730.032    -26.566    723.827    729.216    724.640    723.827    723.827
 11.470    744.000    730.155     13.845    722.707    729.329    723.529    722.707    722.707
 11.570    776.000    730.964     45.036    721.593    730.128    722.425    721.593    721.593
 11.670    756.000    732.767     23.233    720.486    731.919    721.328    720.486    720.486
 11.770    799.000    736.752     62.248    719.385    735.891    720.237    719.385    719.385
 11.870    881.000    744.729    136.271    718.291    743.853    719.153    718.291    718.291
 11.970    830.000    758.861     71.139    717.204    757.967    718.075    717.204    717.204
 12.070    815.209    780.332     34.877    716.123    779.416    717.005    716.123    716.123
 12.170    800.000    806.820     -6.820    715.048    805.878    715.940    715.048    715.048
 12.270    877.000    829.565     47.435    713.979    828.600    714.883    713.979    713.979
 12.370    845.000    835.159      9.841    712.918    834.179    713.832    712.918    712.918
 12.470    890.000    818.410     71.590    711.862    817.427    712.787    711.862    711.862
 12.570    770.000    790.046    -20.046    710.813    789.067    711.749    710.813    710.813
 12.670    735.000    762.893    -27.893    709.770    761.917    710.718    709.770    709.770
 12.770    691.000    742.584    -51.584    708.734    741.607    709.693    708.734    708.734
 12.870    721.000    729.410     -8.410    707.703    728.427    708.675    707.703    707.703
 12.970    772.139    721.451     50.688    706.680    720.459    707.663    706.680    706.680
 13.070    691.000    716.583    -25.583    705.662    715.582    706.658    705.662    705.662
 13.170    663.000    713.322    -50.322    704.651    712.309    705.660    704.651    704.651
 13.270    744.042    710.865     33.177    703.646    709.840    704.667    703.646    703.646
 13.370    667.000    708.842    -41.842    702.647    707.804    703.682    702.647    702.647
 13.470    683.000    707.084    -24.084    701.654    706.033    702.703    701.654    701.654
 13.570    751.000    705.507     45.493    700.668    704.443    701.730    700.668    700.668
 13.670    675.000    704.063    -29.063    699.688    702.986    700.763    699.688    699.688
 13.770    678.597    702.727    -24.129    698.714    701.635    699.804    698.714    698.714
 13.870    719.000    701.480     17.520    697.746    700.374    698.851    697.746    697.746
 13.970    676.310    700.276    -23.965    696.784    699.155    697.904    696.784    696.784
 14.070    723.431    699.119     24.313    695.828    697.983    696.963    695.828    695.828
 14.170    693.000    698.002     -5.002    694.879    696.851    696.029    694.879    694.879
 14.270    682.540    696.920    -14.379    693.935    695.753    695.101    693.935    693.935
 14.370    646.205    695.866    -49.661    692.998    694.683    694.180    692.998    692.998
 14.470    701.000    694.837      6.163    692.067    693.638    693.265    692.067    692.067
 14.570    722.604    693.833     28.771    691.141    692.618    692.356    691.141    691.141
 14.670    638.515    692.846    -54.331    690.222    691.613    691.454    690.222    690.222
 14.770    656.000    691.875    -35.875    689.309    690.625    690.558    689.309    689.309
 14.870    720.000    690.918     29.082    688.401    689.651    689.668    688.401    688.401
 14.970    731.000    689.976     41.024    687.500    688.690    688.785    687.500    687.500
 15.070    645.000    689.047    -44.047    686.604    687.743    687.908    686.604    686.604
 15.170    735.090    688.130     46.960    685.715    686.807    687.038    685.715    685.715
 15.270    710.189    687.225     22.964    684.831    685.882    686.173    684.831    684.831
 15.370    650.000    686.330    -36.330    683.953    684.967    685.316    683.953    683.953
 15.470    674.000    685.445    -11.445    683.081    684.062    684.464    683.081    683.081
 15.570    704.000    684.570     19.430    682.215    683.166    683.619    682.215    682.215
 15.670    633.588    683.704    -50.115    681.355    682.279    682.780    681.355    681.355
 15.770    686.453    682.847      3.607    680.501    681.401    681.947    680.501    680.501
 15.870    702.000    681.999     20.001    679.652    680.530    681.120    679.652    679.652
 15.970    680.000    681.161     -1.161    678.809    679.670    680.300    678.809    678.809
 16.070    652.000    680.335    -28.335    677.972    678.821    679.487    677.972    677.972
 16.170    731.474    679.512     51.962    677.141    677.974    678.679    677.141    677.141
 16.270    658.000    678.697    -20.697    676.316    677.134    677.878    676.316    676.316
 16.370    681.000    677.889      3.111    675.496    676.301    677.083    675.496    675.496
 16.470    683.000    677.089      5.911    674.682    675.475    676.294    674.682    674.682
 16.570    676.000    676.296     -0.296    673.873    674.657    675.512    673.873    673.873
 16.670    681.000    675.511      5.489    673.070    673.845    674.736    673.070    673.070
 16.770    635.203    674.741    -39.538    672.273    673.048    673.967    672.273    672.273
 16.870    620.539    673.978    -53.439    671.482    672.256    673.204    671.482    671.482
 16.970    638.765    673.215    -34.450    670.696    671.464    672.446    670.696    670.696
 17.070    650.567    672.461    -21.894    669.915    670.680    671.696    669.915    669.915
 17.170    684.750    671.742     13.009    669.140    669.929    670.953    669.140    669.140
 17.270    690.227    671.070     19.157    668.371    669.224    670.217    668.371    668.371
 17.370    691.000    670.353     20.647    667.607    668.474    669.486    667.607    667.607
 17.470    675.892    669.626      6.266    666.849    667.715    668.761    666.849    666.849
 17.570    704.508    668.905     35.603    666.097    666.960    668.042    666.097    666.097
 17.670    673.039    668.192      4.848    665.349    666.212    667.329    665.349    665.349
 17.770    708.534    667.485     41.049    664.608    665.470    666.623    664.608    664.608
 17.870    630.000    666.785    -36.785    663.871    664.733    665.923    663.871    663.871
 17.970    704.430    666.092     38.338    663.141    664.003    665.230    663.141    663.141
 18.070    617.315    665.406    -48.092    662.415    663.278    664.543    662.415    662.415
 18.170    657.890    664.729     -6.839    661.695    662.561    663.863    661.695    661.695
 18.270    703.000    664.058     38.942    660.980    661.849    663.189    660.980    660.980
 18.370    669.000    663.394      5.606    660.271    661.143    662.522    660.271    660.271
 18.470    694.714    662.736     31.978    659.567    660.442    661.861    659.567    659.567
 18.570    647.000    662.085    -15.085    658.868    659.747    661.207    658.868    658.868
 18.670    631.000    661.443    -30.443    658.175    659.058    660.559    658.175    658.175
 18.770    667.000    660.816      6.184    657.487    658.384    659.919    657.487    657.487
 18.870    665.042    660.189      4.853    656.804    657.709    659.285    656.804    656.804
 18.970    674.788    659.567     15.220    656.127    657.036    658.658    656.127    656.127
 19.070    626.000    658.952    -32.952    655.454    656.370    658.037    655.454    655.454
 19.170    659.000    658.344      0.656    654.787    655.708    657.423    654.787    654.787
 19.270    637.195    657.749    -20.555    654.125    655.057    656.817    654.125    654.125
 19.370    610.987    657.217    -46.230    653.469    654.456    656.230    653.469    653.469
 19.470    675.393    656.676     18.717    652.817    653.843    655.651    652.817    652.817
 19.570    613.945    656.103    -42.158    652.171    653.208    655.066    652.171    652.171
 19.670    615.359    655.536    -40.177    651.529    652.578    654.488    651.529    651.529
 19.770    621.943    654.978    -33.034    650.893    651.955    653.916    650.893    650.893
 19.870    631.000    654.439    -23.439    650.262    651.349    653.352    650.262    650.262
 19.970    626.954    653.900    -26.947    649.636    650.739    652.797    649.636    649.636
 20.070    621.000    653.397    -32.397    649.015    650.146    652.266    649.015    649.015
 20.170    593.000    652.899    -59.899    648.399    649.562    651.737    648.399    648.399
 20.270    683.000    652.406     30.594    647.788    648.990    651.205    647.788    647.788
 20.370    633.000    651.939    -18.939    647.183    648.441    650.680    647.183    647.183
 20.470    666.000    651.462     14.538    646.582    647.882    650.162    646.582    646.582
 20.570    612.000    650.977    -38.977    645.986    647.310    649.652    645.986    645.986
 20.670    660.000    650.514      9.486    645.395    646.759    649.150    645.395    645.395
 20.770    670.510    650.064     20.446    644.809    646.215    648.657    644.809    644.809
 20.870    645.000    649.603     -4.603    644.228    645.658    648.172    644.228    644.228
 20.970    610.214    649.155    -38.941    643.651    645.108    647.699    643.651    643.651
 21.070    626.000    648.717    -22.717    643.080    644.562    647.235    643.080    643.080
 21.170    672.870    648.282     24.588    642.513    644.019    646.777    642.513    642.513
 21.270    626.465    647.858    -21.393    641.952    643.484    646.326    641.952    641.952
 21.370    633.000    647.450    -14.450    641.395    642.959    645.886    641.395    641.395
 21.470    691.259    647.050     44.208    640.843    642.438    645.455    640.843    640.843
 21.570    609.000    646.658    -37.658    640.296    641.920    645.034    640.296    640.296
 21.670    641.000    646.278     -5.278    639.753    641.409    644.622    639.753    639.753
 21.770    647.000    645.909      1.091    639.215    640.904    644.221    639.215    639.215
 21.870    633.000    645.554    -12.554    638.682    640.405    643.831    638.682    638.682
 21.970    623.000    645.211    -22.211    638.154    639.914    643.452    638.154    638.154
 22.070    669.000    644.885     24.115    637.631    639.432    643.084    637.631    637.631
 22.170    639.000    644.573     -5.573    637.112    638.958    642.728    637.112    637.112
 22.270    674.595    644.277     30.319    636.597    638.491    642.384    636.597    636.597
 22.370    666.000    643.997     22.003    636.088    638.033    642.052    636.088    636.088
 22.470    616.000    643.735    -27.735    635.583    637.584    641.734    635.583    635.583
 22.570    678.602    643.493     35.109    635.082    637.146    641.430    635.082    635.082
 22.670    636.000    643.276     -7.276    634.587    636.722    641.141    634.587    634.587
 22.770    635.000    643.080     -8.080    634.096    636.309    640.867    634.096    634.096
 22.870    598.000    642.905    -44.905    633.609    635.907    640.608    633.609    633.609
 22.970    623.000    642.758    -19.758    633.127    635.520    640.365    633.127    633.127
 23.070    612.910    642.640    -29.729    632.649    635.149    640.140    632.649    632.649
 23.170    635.000    642.554     -7.554    632.176    634.798    639.933    632.176    632.176
 23.270    651.000    642.505      8.495    631.708    634.469    639.744    631.708    631.708
 23.370    638.723    642.498     -3.775    631.243    634.167    639.576    631.243    631.243
 23.470    602.233    642.540    -40.307    630.784    633.896    639.428    630.784    630.784
 23.570    610.919    642.638    -31.720    630.328    633.664    639.304    630.328    630.328
 23.670    612.367    642.805    -30.437    629.878    633.480    639.204    629.878    629.878
 23.770    710.000    643.053     66.947    629.431    633.356    639.129    629.431    629.431
 23.870    688.781    643.404     45.377    628.989    633.312    639.083    628.989    628.989
 23.970    679.721    643.886     35.835    628.551    633.373    639.066    628.551    628.551
 24.070    660.223    644.542     15.681    628.118    633.582    639.080    628.118    628.118
 24.170    615.000    645.454    -30.454    627.689    634.018    639.128    627.689    627.689
 24.270    649.000    646.792      2.208    627.264    634.847    639.213    627.264    627.264
 24.370    637.000    648.917    -11.917    626.844    636.428    639.338    626.844    626.844
 24.470    672.000    652.533     19.467    626.428    639.462    639.506    626.428    626.428
 24.570    649.000    658.781     -9.781    626.016    645.088    639.720    626.016    626.016
 24.670    644.316    669.012    -24.696    625.608    654.653    639.986    625.608    625.608
 24.770    725.000    683.995     41.005    625.204    668.921    640.308    625.204    625.204
 24.870    716.000    702.454     13.546    624.805    686.610    640.692    624.805    624.805
 24.970    710.000    719.233     -9.233    624.410    702.555    641.143    624.410    624.410
 25.070    737.785    725.688     12.097    624.019    708.097    641.669    624.019    624.019
 25.170    721.000    717.434      3.566    623.632    698.841    642.279    623.632    623.632
 25.270    760.000    700.673     59.327    623.249    680.983    642.980    623.249    623.249
 25.370    671.870    683.926    -12.056    622.871    663.039    643.785    622.871    622.871
 25.470    641.000    671.371    -30.371    622.496    649.179    644.705    622.496    622.496
 25.570    702.000    663.626     38.374    622.126    640.006    645.756    622.126    622.126
 25.670    684.000    659.678     24.322    621.760    634.489    646.955    621.760    621.760
 25.770    699.814    658.186     41.628    621.397    631.266    648.321    621.397    621.397
 25.870    674.000    658.134     15.866    621.039    629.296    649.880    621.039    621.039
 25.970    677.000    658.950     18.050    620.685    627.972    651.665    620.685    620.685
 26.070    649.000    660.352    -11.352    620.334    626.990    653.698    620.334    620.334
 26.170    671.000    662.258      8.742    619.988    626.221    656.026    619.988    619.988
 26.270    686.134    664.655     21.480    619.646    625.602    658.699    619.646    619.646
 26.370    685.294    667.570     17.723    619.307    625.099    661.779    619.307    619.307
 26.470    663.000    671.061     -8.061    618.972    624.691    665.342    618.972    618.972
 26.570    681.000    675.209      5.791    618.642    624.367    669.482    618.642    618.642
 26.670    707.000    680.128     26.872    618.315    624.121    674.321    618.315    618.315
 26.770    676.000    685.972     -9.972    617.992    623.951    680.012    617.992    617.992
 26.870    704.000    692.942     11.058    617.673    623.860    686.752    617.673    617.673
 26.970    692.000    701.306     -9.306    617.358    623.855    694.805    617.358    617.358
 27.070    762.430    711.426     51.004    617.046    623.950    704.519    617.046    617.046
 27.170    696.327    723.802    -27.475    616.738    624.163    716.372    616.738    616.738
 27.270    733.000    739.115     -6.115    616.434    624.524    731.019    616.434    616.434
 27.370    743.000    758.337    -15.337    616.134    625.071    749.392    616.134    616.134
 27.470    755.000    782.917    -27.917    615.838    625.868    772.876    615.838    615.838
 27.570    837.000    815.183     21.817    615.545    627.016    803.698    615.545    615.545
 27.670    880.000    859.815     20.185    615.256    628.715    846.338    615.256    615.256
 27.770    888.000    929.688    -41.688    614.971    631.518    913.112    614.971    614.971
 27.870   1069.000   1064.959      4.041    614.689    637.140   1042.455    614.689    614.689
 27.970   1396.885   1375.475     21.410    614.411    650.269   1339.501    614.411    614.411
 28.070   2075.804   2084.101     -8.298    614.136    680.410   2017.568    614.136    614.136
 28.170   3327.000   3468.975   -141.975    613.866    739.431   3342.896    613.866    613.866
 28.270   5462.000   5589.697   -127.697    613.598    829.902   5372.570    613.598    613.598
 28.370   8046.459   7899.122    147.337    613.335    928.583   7582.876    613.335    613.335
 28.470   9053.000   9182.056   -129.056    613.075    983.874   8810.457    613.075    613.075
 28.570   8646.000   8546.217     99.783    612.818    958.195   8200.561    612.818    612.818
 28.670   6857.000   6642.395    214.605    612.565    880.235   6374.864    612.565    612.565
 28.770   4893.000   4821.009     71.991    612.315    809.127   4624.454    612.315    612.315
 28.870   3986.037   3930.140     55.897    612.069    782.605   3759.790    612.069    612.069
 28.970   4001.000   4044.987    -43.987    611.827    803.759   3853.157    611.827    611.827
 29.070   4787.000   4682.110    104.890    611.587    847.988   4445.828    611.587    611.587
 29.170   4945.834   5092.921   -147.087    611.352    875.005   4829.529    611.352    611.352
 29.270   4849.151   4744.592    104.559    611.119    855.514   4500.630    611.119    611.119
 29.370   3755.000   3787.698    -32.698    610.891    799.373   3599.696    610.891    610.891
 29.470   2609.000   2717.723   -108.723    610.665    736.293   2592.491    610.665    610.665
 29.570   1834.000   1876.119    -42.119    610.443    686.643   1800.183    610.443    610.443
 29.670   1367.541   1347.400     20.142    610.224    655.489   1302.286    610.224    610.224
 29.770   1043.000   1063.193    -20.193    610.008    638.807   1034.473    610.008    610.008
 29.870    943.000    921.067     21.933    609.796    630.542    900.362    609.796    609.796
 29.970    914.000    846.853     67.147    609.587    626.313    830.150    609.587    609.587
 30.070    823.511    802.451     21.061    609.382    623.880    787.968    609.382    609.382
 30.170    810.000    772.047     37.953    609.179    622.326    758.911    609.179    609.179
 30.270    761.628    749.588     12.040    608.980    621.332    737.244    608.980    608.980
 30.370    772.000    732.592     39.408    608.784    620.821    720.560    608.784    608.784
