neutron_powder_diffraction_0032
R_wp: 3.845
Temperature (K): 553.383
Counts: 83917.00
Wavelength (Ã…): 2.52098
COMMENTS
Test file for demonstrating the .xyy file format in Reel1.0
END OF HEADER
   tth       Y_obs     Y_calc      Y_res    Background    Phase_1_Nuc    Phase_1_Mag    Phase_2_Nuc    Phase_2_Mag
  9.970    673.491    702.683    -29.191    701.057    702.125    701.614    701.057    701.057
 10.070    752.000    701.853     50.147    700.136    701.289    700.698    700.136    700.136
 10.170    705.470    701.039      4.431    699.218    700.469    699.786    699.218    699.218
 10.270    702.378    700.243      2.135    698.303    699.667    698.878    698.303    698.303
 10.370    708.000    699.468      8.532    697.393    698.886    697.974    697.393    697.393
 10.470    737.000    698.717     38.283    696.486    698.129    697.074    696.486    696.486
 10.570    690.000    697.996     -7.996    695.584    697.401    696.177    695.584    695.584
 10.670    687.644    697.310     -9.666    694.685    696.709    695.285    694.685    694.685
 10.770    695.000    696.668     -1.668    693.789    696.060    694.396    693.789    693.789
 10.870    671.633    696.079    -24.446    692.898    695.464    693.511    692.898    692.898
 10.970    747.967    695.559     52.409    692.010    694.937    692.631    692.010    692.010
 11.070    713.000    695.126     17.874    691.126    694.497    691.754    691.126    691.126
 11.170    713.000    694.810     18.190    690.246    694.174    690.881    690.246    690.246
 11.270    717.000    694.653     22.347    689.370    694.009    690.011    689.370    689.370
 11.370    717.000    694.722     22.278    688.497    694.071    689.146    688.497    688.497
 11.470    726.264    695.152     31.112    687.629    694.492    688.285    687.629    687.629
 11.570    649.839    696.217    -46.378    686.764    695.548    687.428    686.764    686.764
 11.670    761.000    698.537     62.463    685.902    697.859    686.574    685.902    685.902
 11.770    739.000    703.332     35.668    685.045    702.643    685.725    685.045    685.045
 11.870    735.691    712.542     23.150    684.191    711.839    684.879    684.191    684.191
 11.970    691.224    728.332    -37.109    683.341    727.612    684.037    683.341    683.341
 12.070    815.000    751.521     63.479    682.495    750.780    683.200    682.495    682.495
 12.170    818.251    778.780     39.471    681.653    778.014    682.366    681.653    681.653
 12.270    824.559    799.919     24.641    680.814    799.132    681.536    680.814    680.814
 12.370    819.305    801.976     17.329    679.980    801.180    680.709    679.980    679.980
 12.470    802.000    782.778     19.222    679.149    781.983    679.887    679.149    679.149
 12.570    771.156    753.965     17.192    678.321    753.176    679.069    678.321    678.321
 12.670    740.000    727.577     12.423    677.498    726.793    678.255    677.498    677.498
 12.770    720.000    708.382     11.618    676.678    707.599    677.444    676.678    676.678
 12.870    643.658    696.199    -52.540    675.862    695.412    676.638    675.862    675.862
 12.970    689.000    688.960      0.040    675.050    688.167    675.835    675.050    675.050
 13.070    692.338    684.579      7.759    674.241    683.778    675.037    674.241    674.241
 13.170    668.647    681.663    -13.016    673.436    680.853    674.242    673.436    673.436
 13.270    671.000    679.483     -8.483    672.635    678.664    673.451    672.635    672.635
 13.370    669.000    677.702     -8.702    671.838    676.873    672.665    671.838    671.838
 13.470    639.000    676.169    -37.169    671.044    675.329    671.882    671.044    671.044
 13.570    627.602    674.806    -47.204    670.255    673.956    671.103    670.255    670.255
 13.670    688.894    673.568     15.326    669.469    672.707    670.328    669.469    669.469
 13.770    714.000    672.423     41.577    668.686    671.551    669.557    668.686    668.686
 13.870    669.387    671.353     -1.966    667.908    670.469    668.790    667.908    667.908
 13.970    664.000    670.363     -6.363    667.133    669.467    668.027    667.133    667.133
 14.070    696.000    669.397     26.603    666.361    668.489    667.268    666.361    666.361
 14.170    667.000    668.464     -1.464    665.594    667.544    666.513    665.594    665.594
 14.270    707.123    667.562     39.561    664.830    666.629    665.762    664.830    664.830
 14.370    709.000    666.685     42.315    664.070    665.739    665.015    664.070    664.070
 14.470    687.000    665.830     21.170    663.314    664.871    664.272    663.314    663.314
 14.570    649.000    664.994    -15.994    662.561    664.022    663.532    662.561    662.561
 14.670    636.000    664.174    -28.174    661.812    663.188    662.797    661.812    661.812
 14.770    619.445    663.368    -43.923    661.067    662.369    662.066    661.067    661.067
 14.870    651.000    662.576    -11.576    660.326    661.562    661.339    660.326    660.326
 14.970    636.645    661.795    -25.150    659.588    660.767    660.615    659.588    659.588
 15.070    686.202    661.028     25.174    658.854    659.985    659.896    658.854    658.854
 15.170    632.000    660.270    -28.270    658.123    659.212    659.181    658.123    658.123
 15.270    659.000    659.518     -0.518    657.397    658.444    658.470    657.397    657.397
 15.370    626.000    658.775    -32.775    656.674    657.685    657.763    656.674    656.674
 15.470    645.000    658.039    -13.039    655.954    656.933    657.060    655.954    655.954
 15.570    600.000    657.310    -57.310    655.238    656.188    656.360    655.238    655.238
 15.670    702.365    656.589     45.776    654.526    655.450    655.665    654.526    654.526
 15.770    650.865    655.874     -5.009    653.818    654.718    654.974    653.818    653.818
 15.870    612.880    655.166    -42.286    653.113    653.992    654.287    653.113    653.113
 15.970    646.000    654.464     -8.464    652.412    653.271    653.605    652.412    652.412
 16.070    655.604    653.768      1.836    651.715    652.557    652.926    651.715    651.715
 16.170    644.000    653.078     -9.078    651.021    651.848    652.251    651.021    651.021
 16.270    623.827    652.400    -28.573    650.331    651.150    651.581    650.331    650.331
 16.370    700.254    651.722     48.532    649.644    650.452    650.914    649.644    649.644
 16.470    664.880    651.048     13.832    648.962    649.758    650.252    648.962    648.962
 16.570    686.255    650.380     35.875    648.282    649.069    649.594    648.282    648.282
 16.670    664.000    649.717     14.283    647.607    648.384    648.940    647.607    647.607
 16.770    664.544    649.059     15.485    646.935    647.704    648.290    646.935    646.935
 16.870    655.291    648.406      6.884    646.266    647.028    647.644    646.266    646.266
 16.970    585.000    647.759    -62.759    645.602    646.358    647.002    645.602    645.602
 17.070    654.425    647.124      7.301    644.941    645.699    646.365    644.941    644.941
 17.170    681.798    646.540     35.258    644.283    645.089    645.734    644.283    644.283
 17.270    630.008    645.944    -15.937    643.629    644.467    645.106    643.629    643.629
 17.370    661.000    645.321     15.679    642.979    643.818    644.481    642.979    642.979
 17.470    599.074    644.713    -45.639    642.332    643.184    643.861    642.332    642.332
 17.570    635.000    644.112     -9.112    641.689    642.556    643.245    641.689    641.689
 17.670    590.801    643.501    -52.700    641.049    641.917    642.633    641.049    641.049
 17.770    691.301    642.893     48.408    640.413    641.280    642.026    640.413    640.413
 17.870    620.017    642.290    -22.273    639.781    640.648    641.423    639.781    639.781
 17.970    620.000    641.692    -21.692    639.152    640.020    640.824    639.152    639.152
 18.070    671.421    641.099     30.322    638.527    639.396    640.230    638.527    638.527
 18.170    600.000    640.511    -40.511    637.905    638.776    639.640    637.905    637.905
 18.270    606.000    639.928    -33.928    637.287    638.160    639.055    637.287    637.287
 18.370    621.000    639.350    -18.350    636.672    637.547    638.474    636.672    636.672
 18.470    631.000    638.776     -7.776    636.061    636.939    637.898    636.061    636.061
 18.570    629.000    638.209     -9.209    635.453    636.336    637.326    635.453    635.453
 18.670    662.237    637.656     24.581    634.849    635.746    636.759    634.849    634.849
 18.770    649.000    637.103     11.897    634.249    635.155    636.197    634.249    634.249
 18.870    639.643    636.551      3.092    633.652    634.564    635.639    633.652    633.652
 18.970    569.000    636.003    -67.003    633.058    633.975    635.086    633.058    633.058
 19.070    656.329    635.460     20.868    632.468    633.391    634.537    632.468    632.468
 19.170    650.000    634.923     15.077    631.882    632.811    633.994    631.882    631.882
 19.270    624.977    634.391     -9.414    631.299    632.235    633.455    631.299    631.299
 19.370    612.176    633.875    -21.699    630.719    631.671    632.924    630.719    630.719
 19.470    588.000    633.421    -45.421    630.143    631.151    632.413    630.143    630.143
 19.570    610.000    632.925    -22.925    629.571    630.605    631.891    629.571    629.571
 19.670    593.000    632.430    -39.430    629.002    630.058    631.373    629.002    629.002
 19.770    624.680    631.927     -7.248    628.436    629.504    630.859    628.436    628.436
 19.870    617.886    631.430    -13.544    627.874    628.953    630.351    627.874    627.874
 19.970    572.000    630.944    -58.944    627.315    628.410    629.849    627.315    627.315
 20.070    607.000    630.478    -23.478    626.760    627.877    629.361    626.760    626.760
 20.170    602.656    630.036    -27.380    626.208    627.364    628.881    626.208    626.208
 20.270    595.679    629.593    -33.914    625.660    626.857    628.396    625.660    625.660
 20.370    606.098    629.186    -23.088    625.115    626.384    627.916    625.115    625.115
 20.470    587.848    628.734    -40.886    624.573    625.866    627.442    624.573    624.573
 20.570    607.000    628.299    -21.299    624.035    625.362    626.973    624.035    624.035
 20.670    606.411    627.888    -21.477    623.501    624.878    626.510    623.501    623.501
 20.770    598.000    627.477    -29.477    622.969    624.392    626.054    622.969    622.969
 20.870    646.000    627.048     18.952    622.442    623.886    625.603    622.442    622.442
 20.970    597.000    626.625    -29.625    621.917    623.383    625.159    621.917    621.917
 21.070    609.000    626.218    -17.218    621.396    622.890    624.724    621.396    621.396
 21.170    674.212    625.817     48.395    620.878    622.400    624.296    620.878    620.878
 21.270    582.000    625.423    -43.423    620.364    621.915    623.872    620.364    620.364
 21.370    627.000    625.039      1.961    619.853    621.437    623.455    619.853    619.853
 21.470    636.000    624.664     11.336    619.345    620.965    623.045    619.345    619.345
 21.570    618.000    624.292     -6.292    618.841    620.491    622.642    618.841    618.841
 21.670    645.000    623.928     21.072    618.340    620.021    622.247    618.340    618.340
 21.770    627.000    623.574      3.426    617.843    619.557    621.860    617.843    617.843
 21.870    600.000    623.231    -23.231    617.348    619.099    621.481    617.348    617.348
 21.970    596.000    622.901    -26.901    616.857    618.648    621.111    616.857    616.857
 22.070    615.000    622.582     -7.582    616.370    618.203    620.749    616.370    616.370
 22.170    601.805    622.274    -20.469    615.885    617.764    620.396    615.885    615.885
 22.270    595.000    621.980    -26.980    615.404    617.332    620.053    615.404    615.404
 22.370    639.000    621.703     17.297    614.927    616.910    619.720    614.927    614.927
 22.470    648.067    621.439     26.627    614.452    616.495    619.397    614.452    614.452
 22.570    590.000    621.192    -31.192    613.981    616.089    619.084    613.981    613.981
 22.670    603.000    620.965    -17.965    613.513    615.694    618.784    613.513    613.513
 22.770    599.000    620.760    -21.760    613.049    615.313    618.496    613.049    613.049
 22.870    623.000    620.572      2.428    612.588    614.941    618.219    612.588    612.588
 22.970    637.000    620.407     16.593    612.130    614.582    617.955    612.130    612.130
 23.070    656.080    620.269     35.811    611.675    614.240    617.704    611.675    611.675
 23.170    591.523    620.161    -28.638    611.223    613.917    617.468    611.223    611.223
 23.270    621.000    620.089      0.911    610.775    613.616    617.248    610.775    610.775
 23.370    657.000    620.055     36.945    610.330    613.342    617.043    610.330    610.330
 23.470    611.380    620.068     -8.688    609.888    613.101    616.855    609.888    609.888
 23.570    605.402    620.136    -14.733    609.449    612.900    616.686    609.449    609.449
 23.670    609.000    620.270    -11.270    609.014    612.750    616.535    609.014    609.014
 23.770    641.000    620.488     20.512    608.581    612.665    616.406    608.581    608.581
 23.870    621.000    620.809      0.191    608.152    612.665    616.298    608.152    608.152
 23.970    590.264    621.268    -31.005    607.726    612.782    616.214    607.726    607.726
 24.070    668.000    621.918     46.082    607.304    613.068    616.156    607.304    607.304
 24.170    617.000    622.865     -5.865    606.884    613.626    616.126    606.884    606.884
 24.270    651.000    624.329     26.671    606.468    614.675    616.126    606.468    606.468
 24.370    653.000    626.778     26.222    606.054    616.681    616.157    606.054    606.054
 24.470    630.000    631.082     -1.082    605.644    620.511    616.224    605.644    605.644
 24.570    690.106    638.522     51.583    605.237    627.444    616.329    605.237    605.237
 24.670    685.715    650.385     35.330    604.833    638.765    616.476    604.833    604.833
 24.770    672.000    666.912      5.088    604.433    654.710    616.669    604.433    604.433
 24.870    671.400    685.557    -14.158    604.035    672.728    616.912    604.035    604.035
 24.970    746.000    699.519     46.481    603.640    686.005    617.211    603.640    603.640
 25.070    706.000    700.883      5.117    603.249    686.618    617.572    603.249    603.249
 25.170    676.631    688.946    -12.315    602.860    673.855    618.001    602.860    602.860
 25.270    644.000    671.246    -27.246    602.475    655.250    618.506    602.475    602.475
 25.370    667.732    655.142     12.590    602.093    638.161    619.097    602.093    602.093
 25.470    665.000    643.662     21.338    601.714    625.606    619.784    601.714    601.714
 25.570    663.000    636.799     26.201    601.338    617.566    620.579    601.338    601.338
 25.670    630.000    633.334     -3.334    600.965    612.807    621.497    600.965    600.965
 25.770    659.000    631.968     27.032    600.594    610.011    622.555    600.594    600.594
 25.870    609.000    631.802    -22.802    600.227    608.259    623.773    600.227    600.227
 25.970    597.000    632.356    -35.356    599.863    607.045    625.175    599.863    599.863
 26.070    590.093    633.421    -43.328    599.502    606.132    626.792    599.502    599.502
 26.170    677.000    634.928     42.072    599.144    605.413    628.660    599.144    599.144
 26.270    630.000    636.861     -6.861    598.789    604.834    630.816    598.789    598.789
 26.370    663.787    639.242     24.546    598.437    604.362    633.316    598.437    598.437
 26.470    646.000    642.118      3.882    598.088    603.981    636.225    598.088    598.088
 26.570    692.000    645.566     46.434    597.742    603.681    639.625    597.742    597.742
 26.670    618.000    649.685    -31.685    597.399    603.461    643.621    597.399    597.399
 26.770    667.000    654.610     12.390    597.059    603.319    648.347    597.059    597.059
 26.870    696.000    660.520     35.480    596.722    603.262    653.977    596.722    596.722
 26.970    663.000    667.655     -4.655    596.388    603.298    660.740    596.388    596.388
 27.070    652.000    676.339    -24.339    596.056    603.445    668.946    596.056    596.056
 27.170    689.099    687.020      2.079    595.728    603.724    679.017    595.728    595.728
 27.270    679.000    700.325    -21.325    595.402    604.171    691.548    595.402    595.402
 27.370    698.359    717.160    -18.801    595.080    604.838    707.391    595.080    595.080
 27.470    759.584    738.886     20.697    594.760    605.800    727.833    594.760    594.760
 27.570    801.000    767.859     33.141    594.443    607.190    755.095    594.443    594.443
 27.670    823.000    809.390     13.610    594.129    609.310    794.185    594.129    594.129
 27.770    920.000    878.827     41.173    593.818    613.021    859.582    593.818    593.818
 27.870   1056.038   1021.379     34.658    593.509    620.859    993.944    593.509    593.509
 27.970   1305.000   1347.377    -42.377    593.204    639.001   1301.393    593.204    593.204
 28.070   1847.000   2049.763   -202.763    592.901    678.253   1964.045    592.901    592.901
 28.170   3407.774   3315.128     92.646    592.602    749.076   3158.060    592.602    592.602
 28.270   5186.324   5072.409    113.915    592.305    847.542   4816.424    592.305    592.305
 28.370   6631.000   6730.259    -99.259    592.010    940.683   6380.930    592.010    592.010
 28.470   7404.000   7322.614     81.386    591.719    974.714   6939.284    591.719    591.719
 28.570   6706.000   6433.399    272.601    591.430    926.974   6097.803    591.430    591.430
 28.670   4866.000   4847.935     18.065    591.145    842.648   4596.476    591.145    591.145
 28.770   3553.000   3594.943    -41.943    590.862    781.121   3404.692    590.862    590.862
 28.870   3139.000   3152.359    -13.359    590.581    770.529   2972.359    590.581    590.581
 28.970   3315.601   3420.678   -105.077    590.304    804.150   3206.787    590.304    590.304
 29.070   3944.000   3932.863     11.137    590.029    849.998   3672.969    590.029    590.029
 29.170   4193.685   4102.864     90.822    589.757    865.644   3827.221    589.757    589.757
 29.270   3555.127   3637.896    -82.769    589.488    829.855   3397.849    589.488    589.488
 29.370   2824.017   2802.536     21.481    589.221    764.299   2627.739    589.221    589.221
 29.470   1931.609   1995.815    -64.206    588.957    700.808   1884.158    588.957    588.957
 29.570   1398.000   1416.521    -18.521    588.696    655.211   1350.117    588.696    588.696
 29.670   1051.000   1076.307    -25.307    588.437    628.479   1036.323    588.437    588.437
 29.770    965.000    901.044     63.956    588.182    614.770    874.483    588.182    588.182
 29.870    837.000    813.411     23.589    587.928    607.986    793.367    587.928    587.928
 29.970    824.000    765.371     58.629    587.678    604.344    748.713    587.678    587.678
 30.070    817.000    734.755     82.245    587.430    602.110    720.080    587.430    587.430
 30.170    669.311    712.928    -43.617    587.185    600.626    699.490    587.185    587.185
 30.270    705.537    696.564      8.974    586.942    599.673    683.834    586.942    586.942
 30.370    694.522    684.240     10.283    586.702    599.227    671.714    586.702    586.702
