MSG Master    CELL:    5.91897   5.91897  23.27271   90.0000   90.0000  120.0000   SPGR: P 63/m m c             TEMP:   1074.85
  1   1280     2.52000     0.00000    -0.13312     0.00000     0.00000    0
    99     0     2
       0.00000      10.00000
     125.00000     130.00000
 2Theta	Yobs	Ycal	Yobs-Ycal	Backg	Posr	(hkl)	K
      0.7700	    0.00	  579.37	-1740.50	  459.84
      0.8700	    0.00	  579.71	-1740.50	  460.18
      0.9700	   47.00	  580.04	-1740.50	  460.51
      1.0700	   42.00	  580.37	-1740.50	  460.83
      1.1700	   36.00	  580.68	-1740.50	  461.15
      1.2700	   43.00	  580.99	-1740.50	  461.46
      1.3700	   36.00	  581.29	-1740.50	  461.76
      1.4700	   76.00	  581.58	-1740.50	  462.05
      1.5700	  322.00	  581.87	-1740.50	  462.34
      1.6700	  444.00	  582.15	-1740.50	  462.61
      1.7700	  537.00	  582.42	-1740.50	  462.88
      1.8700	  652.00	  582.68	-1740.50	  463.15
      1.9700	  740.00	  582.93	-1740.50	  463.40
      2.0700	  822.00	  583.18	-1740.50	  463.65
      2.1700	  782.00	  583.42	-1740.50	  463.89
      2.2700	  773.00	  583.66	-1740.50	  464.13
      2.3700	  785.00	  583.88	-1740.50	  464.35
      2.4700	  648.00	  584.10	-1740.50	  464.57
      2.5700	  667.00	  584.32	-1740.50	  464.78
      2.6700	  670.00	  584.52	-1740.50	  464.99
      2.7700	  681.00	  584.72	-1740.50	  465.19
      2.8700	  603.00	  584.91	-1740.50	  465.38
      2.9700	  639.00	  585.10	-1740.50	  465.56
      3.0700	  567.00	  585.27	-1740.50	  465.74
      3.1700	  576.00	  585.44	-1740.50	  465.91
      3.2700	  660.00	  585.61	-1740.50	  466.08
      3.3700	  685.00	  585.77	-1740.50	  466.24
      3.4700	  799.00	  585.92	-1740.50	  466.39
      3.5700	  811.00	  586.06	-1740.50	  466.53
      3.6700	  874.00	  586.20	-1740.50	  466.67
      3.7700	  888.00	  586.33	-1740.50	  466.80
      3.8700	 1022.00	  586.46	-1740.50	  466.93
      3.9700	 1039.00	  586.58	-1740.50	  467.05
      4.0700	 1049.00	  586.69	-1740.50	  467.16
      4.1700	 1040.00	  586.80	-1740.50	  467.27
      4.2700	 1134.00	  586.90	-1740.50	  467.37
      4.3700	 1116.00	  587.00	-1740.50	  467.46
      4.4700	 1084.00	  587.08	-1740.50	  467.55
      4.5700	  980.00	  587.17	-1740.50	  467.64
      4.6700	 1012.00	  587.24	-1740.50	  467.71
      4.7700	 1008.00	  587.31	-1740.50	  467.78
      4.8700	  920.00	  587.38	-1740.50	  467.85
      4.9700	  979.00	  587.44	-1740.50	  467.91
      5.0700	  937.00	  587.49	-1740.50	  467.96
      5.1700	  917.00	  587.54	-1740.50	  468.01
      5.2700	  952.00	  587.58	-1740.50	  468.05
      5.3700	  898.00	  587.62	-1740.50	  468.09
      5.4700	  850.00	  587.65	-1740.50	  468.12
      5.5700	  806.00	  587.68	-1740.50	  468.14
      5.6700	  874.00	  587.70	-1740.50	  468.16
      5.7700	  821.00	  587.71	-1740.50	  468.18
      5.8700	  792.00	  587.72	-1740.50	  468.19
      5.9700	  813.00	  587.73	-1740.50	  468.19
      6.0700	  757.00	  587.72	-1740.50	  468.19
      6.1700	  808.00	  587.72	-1740.50	  468.19
      6.2700	  798.00	  587.71	-1740.50	  468.17
      6.3700	  765.00	  587.69	-1740.50	  468.16
      6.4700	  800.00	  587.67	-1740.50	  468.14
      6.5700	  714.00	  587.64	-1740.50	  468.11
      6.6700	  721.00	  587.61	-1740.50	  468.08
      6.7700	  705.00	  587.57	-1740.50	  468.04
      6.8700	  762.00	  587.53	-1740.50	  468.00
      6.9700	  708.00	  587.49	-1740.50	  467.95
      7.0700	  651.00	  587.44	-1740.50	  467.90
      7.1700	  728.00	  587.38	-1740.50	  467.85
      7.2700	  686.00	  587.32	-1740.50	  467.79
      7.3700	  656.00	  587.25	-1740.50	  467.72
      7.4700	  670.00	  587.19	-1740.50	  467.65
      7.5700	  671.00	  587.11	-1740.50	  467.58
      7.6700	  653.00	  587.03	-1740.50	  467.50
      7.7700	  675.00	  586.95	-1740.50	  467.42
      7.8700	  666.00	  586.86	-1740.50	  467.33
      7.9700	  636.00	  586.77	-1740.50	  467.24
      8.0700	  640.00	  586.67	-1740.50	  467.14
      8.1700	  626.00	  586.57	-1740.50	  467.04
      8.2700	  630.00	  586.47	-1740.50	  466.94
      8.3700	  615.00	  586.36	-1740.50	  466.83
      8.4700	  696.00	  586.25	-1740.50	  466.71
      8.5700	  639.00	  586.13	-1740.50	  466.60
      8.6700	  589.00	  586.01	-1740.50	  466.48
      8.7700	  684.00	  585.88	-1740.50	  466.35
      8.8700	  609.00	  585.75	-1740.50	  466.22
      8.9700	  597.00	  585.62	-1740.50	  466.09
      9.0700	  650.00	  585.48	-1740.50	  465.95
      9.1700	  630.00	  585.34	-1740.50	  465.81
      9.2700	  592.00	  585.20	-1740.50	  465.66
      9.3700	  661.00	  585.05	-1740.50	  465.52
      9.4700	  620.00	  584.90	-1740.50	  465.36
      9.5700	  634.00	  584.74	-1740.50	  465.21
      9.6700	  575.00	  584.58	-1740.50	  465.05
      9.7700	  640.00	  584.42	-1740.50	  464.88
      9.8700	  625.00	  584.25	-1740.50	  464.72
      9.9700	  614.00	  584.08	-1740.50	  464.55
     10.0700	  596.00	  584.77	-1729.27	  464.37
     10.1700	  573.00	  584.69	-1752.19	  464.20
     10.2700	  600.00	  584.63	-1725.13	  464.01
     10.3700	  610.00	  584.60	-1715.10	  463.83
     10.4700	  556.00	  584.63	-1769.13	  463.64
     10.5700	  604.00	  584.79	-1721.29	  463.45
     10.6700	  598.00	  585.17	-1727.67	  463.26
     10.7700	  639.00	  585.88	-1687.38	  463.06
     10.8700	  584.00	  586.99	-1743.49	  462.86
     10.9700	  593.00	  588.50	-1736.00	  462.66
     11.0700	  597.00	  590.36	-1733.86	  462.45
     11.1700	  585.00	  592.57	-1748.07	  462.24
     11.2700	  605.00	  595.18	-1730.68	  462.03
     11.3700	  619.00	  598.27	-1719.77	  461.81
     11.4700	  636.00	  601.98	-1706.48	  461.59
     11.5700	  617.00	  606.52	-1730.02	  461.37
     11.6700	  640.00	  612.28	-1712.78	  461.15
     11.7700	  632.00	  619.88	-1728.38	  460.92
     11.8700	  654.00	  630.25	-1716.75	  460.69
     11.9700	  696.00	  643.85	-1688.35	  460.45
     12.0700	  682.00	  658.75	-1717.25	  460.22
     12.1700	  665.00	  668.45	-1743.95	  459.98
     12.2700	  694.00	  663.45	-1709.95	  459.74
     12.3700	  670.00	  641.99	-1712.49	  459.50
     12.4700	  709.00	  617.03	-1648.53	  459.25
     12.5700	  599.00	  599.00	-1740.50	  459.00
     12.6700	  601.00	  589.10	-1728.60	  458.75
     12.7700	  583.00	  584.46	-1741.96	  458.49
     12.8700	  581.00	  582.24	-1741.74	  458.24
     12.9700	  533.00	  580.94	-1788.44	  457.98
     13.0700	  571.00	  580.01	-1749.51	  457.72
     13.1700	  547.00	  579.28	-1772.78	  457.46
     13.2700	  538.00	  578.65	-1781.15	  457.19
     13.3700	  578.00	  578.11	-1740.61	  456.92
     13.4700	  563.00	  577.63	-1755.13	  456.65
     13.5700	  582.00	  577.18	-1735.68	  456.38
     13.6700	  533.00	  576.77	-1784.27	  456.10
     13.7700	  564.00	  576.38	-1752.88	  455.83
     13.8700	  563.00	  576.00	-1753.50	  455.55
     13.9700	  541.00	  575.64	-1775.14	  455.27
     14.0700	  547.00	  575.29	-1768.79	  454.98
     14.1700	  547.00	  574.95	-1768.45	  454.70
     14.2700	  567.00	  574.61	-1748.11	  454.41
     14.3700	  553.00	  574.28	-1761.78	  454.12
     14.4700	  567.00	  573.95	-1747.45	  453.83
     14.5700	  572.00	  573.62	-1742.12	  453.54
     14.6700	  552.00	  573.29	-1761.79	  453.24
     14.7700	  599.00	  572.97	-1714.47	  452.95
     14.8700	  601.00	  572.65	-1712.15	  452.65
     14.9700	  537.00	  572.33	-1775.83	  452.35
     15.0700	  512.00	  572.01	-1800.51	  452.05
     15.1700	  557.00	  571.69	-1755.19	  451.74
     15.2700	  602.00	  571.37	-1709.87	  451.44
     15.3700	  594.00	  571.04	-1717.54	  451.13
     15.4700	  581.00	  570.72	-1730.22	  450.82
     15.5700	  579.00	  570.40	-1731.90	  450.51
     15.6700	  548.00	  570.08	-1762.58	  450.20
     15.7700	  556.00	  569.76	-1754.26	  449.89
     15.8700	  577.00	  569.43	-1732.93	  449.58
     15.9700	  580.00	  569.13	-1729.63	  449.26
     16.0700	  539.00	  568.81	-1770.31	  448.94
     16.1700	  556.00	  568.48	-1752.98	  448.62
     16.2700	  570.00	  568.16	-1738.66	  448.30
     16.3700	  513.00	  567.83	-1795.33	  447.98
     16.4700	  541.00	  567.50	-1767.00	  447.66
     16.5700	  559.00	  567.17	-1748.67	  447.34
     16.6700	  542.00	  566.85	-1765.35	  447.01
     16.7700	  577.00	  566.52	-1730.02	  446.68
     16.8700	  553.00	  566.18	-1753.68	  446.36
     16.9700	  573.00	  565.85	-1733.35	  446.03
     17.0700	  576.00	  565.52	-1730.02	  445.70
     17.1700	  572.00	  565.19	-1733.69	  445.37
     17.2700	  578.00	  564.85	-1727.35	  445.04
     17.3700	  554.00	  564.52	-1751.02	  444.70
     17.4700	  578.00	  564.18	-1726.68	  444.37
     17.5700	  547.00	  563.84	-1757.34	  444.03
     17.6700	  548.00	  563.50	-1756.00	  443.70
     17.7700	  554.00	  563.17	-1749.67	  443.36
     17.8700	  554.00	  562.83	-1749.33	  443.02
     17.9700	  507.00	  562.49	-1795.99	  442.68
     18.0700	  606.00	  562.26	-1696.76	  442.34
     18.1700	  554.00	  561.92	-1748.42	  442.00
     18.2700	  553.00	  561.58	-1749.08	  441.66
     18.3700	  538.00	  561.24	-1763.74	  441.32
     18.4700	  548.00	  560.90	-1753.40	  440.98
     18.5700	  575.00	  560.56	-1726.06	  440.63
     18.6700	  560.00	  560.22	-1740.72	  440.29
     18.7700	  516.00	  559.87	-1784.37	  439.94
     18.8700	  555.00	  559.53	-1745.03	  439.60
     18.9700	  549.00	  559.27	-1750.77	  439.25
     19.0700	  507.00	  558.93	-1792.43	  438.90
     19.1700	  539.00	  558.59	-1760.09	  438.56
     19.2700	  547.00	  558.25	-1751.75	  438.21
     19.3700	  548.00	  557.90	-1750.40	  437.86
     19.4700	  559.00	  557.56	-1739.06	  437.51
     19.5700	  527.00	  557.22	-1770.72	  437.16
     19.6700	  551.00	  556.88	-1746.38	  436.81
     19.7700	  573.00	  556.53	-1724.03	  436.46
     19.8700	  567.00	  556.19	-1729.69	  436.11
     19.9700	  561.00	  555.85	-1735.35	  435.76
     20.0700	  587.00	  555.51	-1709.01	  435.41
     20.1700	  515.00	  555.16	-1780.66	  435.06
     20.2700	  544.00	  554.82	-1751.32	  434.70
     20.3700	  596.00	  554.48	-1698.98	  434.35
     20.4700	  559.00	  554.14	-1735.64	  434.00
     20.5700	  529.00	  553.80	-1765.30	  433.64
     20.6700	  459.00	  553.43	-1834.93	  433.29
     20.7700	  511.00	  553.09	-1782.59	  432.94
     20.8700	  544.00	  552.78	-1749.28	  432.58
     20.9700	  559.00	  552.45	-1733.95	  432.23
     21.0700	  543.00	  552.11	-1749.61	  431.88
     21.1700	  588.00	  551.77	-1704.27	  431.52
     21.2700	  523.00	  551.44	-1768.94	  431.17
     21.3700	  562.00	  551.11	-1729.61	  430.81
     21.4700	  550.00	  550.78	-1741.28	  430.46
     21.5700	  508.00	  550.45	-1782.95	  430.10
     21.6700	  587.00	  550.12	-1703.62	  429.75
     21.7700	  570.00	  549.79	-1720.29	  429.39
     21.8700	  579.00	  549.47	-1710.97	  429.04
     21.9700	  540.00	  549.14	-1749.64	  428.69
     22.0700	  541.00	  548.83	-1748.33	  428.33
     22.1700	  568.00	  548.51	-1721.01	  427.98
     22.2700	  549.00	  548.20	-1739.70	  427.62
     22.3700	  544.00	  547.89	-1744.39	  427.27
     22.4700	  559.00	  547.59	-1729.09	  426.92
     22.5700	  549.00	  547.29	-1738.79	  426.56
     22.6700	  535.00	  547.00	-1752.50	  426.21
     22.7700	  552.00	  546.71	-1735.21	  425.85
     22.8700	  602.00	  546.44	-1684.94	  425.50
     22.9700	  548.00	  546.18	-1738.68	  425.15
     23.0700	  522.00	  545.93	-1764.43	  424.80
     23.1700	  543.00	  545.69	-1743.19	  424.44
     23.2700	  562.00	  545.48	-1723.98	  424.09
     23.3700	  566.00	  545.30	-1719.80	  423.74
     23.4700	  581.00	  545.15	-1704.65	  423.39
     23.5700	  512.00	  545.06	-1773.56	  423.04
     23.6700	  540.00	  545.16	-1745.66	  422.69
     23.7700	  549.00	  545.26	-1736.76	  422.34
     23.8700	  497.00	  545.58	-1789.08	  421.99
     23.9700	  634.00	  546.36	-1652.86	  421.64
     24.0700	  560.00	  548.01	-1728.51	  421.29
     24.1700	  592.00	  551.18	-1699.68	  420.94
     24.2700	  589.00	  556.68	-1708.18	  420.59
     24.3700	  575.00	  565.41	-1730.91	  420.24
     24.4700	  598.00	  578.26	-1720.76	  419.90
     24.5700	  619.00	  595.24	-1716.74	  419.55
     24.6700	  628.00	  613.35	-1725.85	  419.20
     24.7700	  609.00	  625.03	-1756.53	  418.86
     24.8700	  628.00	  620.80	-1733.30	  418.51
     24.9700	  642.00	  600.54	-1699.04	  418.17
     25.0700	  629.00	  577.00	-1688.50	  417.83
     25.1700	  578.00	  559.58	-1722.08	  417.48
     25.2700	  535.00	  549.69	-1755.19	  417.14
     25.3700	  587.00	  544.94	-1698.44	  416.80
     25.4700	  567.00	  542.71	-1716.21	  416.46
     25.5700	  558.00	  541.51	-1724.01	  416.12
     25.6700	  599.00	  540.72	-1682.22	  415.78
     25.7700	  563.00	  540.14	-1717.64	  415.44
     25.8700	  567.00	  539.69	-1713.19	  415.10
     25.9700	  518.00	  539.36	-1761.86	  414.76
     26.0700	  538.00	  539.12	-1741.62	  414.43
     26.1700	  564.00	  538.95	-1715.45	  414.09
     26.2700	  533.00	  538.87	-1746.37	  413.75
     26.3700	  571.00	  538.86	-1708.36	  413.42
     26.4700	  587.00	  538.95	-1692.45	  413.09
     26.5700	  556.00	  539.13	-1723.63	  412.75
     26.6700	  529.00	  539.44	-1750.94	  412.42
     26.7700	  521.00	  539.89	-1759.39	  412.09
     26.8700	  546.00	  540.52	-1735.02	  411.76
     26.9700	  567.00	  541.40	-1714.90	  411.43
     27.0700	  553.00	  542.59	-1730.09	  411.10
     27.1700	  574.00	  544.27	-1710.77	  410.78
     27.2700	  518.00	  546.68	-1769.18	  410.45
     27.3700	  537.00	  550.40	-1753.90	  410.12
     27.4700	  554.00	  556.53	-1743.03	  409.80
     27.5700	  548.00	  567.04	-1759.54	  409.47
     27.6700	  539.00	  585.04	-1786.54	  409.15
     27.7700	  593.00	  614.52	-1762.02	  408.83
     27.8700	  631.00	  658.87	-1768.37	  408.51
     27.9700	  660.00	  718.05	-1798.55	  408.19
     28.0700	  803.00	  784.82	-1722.32	  407.87
     28.1700	  913.00	  841.57	-1669.07	  407.55
     28.2700	  960.00	  862.49	-1642.99	  407.24
     28.3700	  904.00	  834.04	-1670.54	  406.92
     28.4700	  757.00	  782.12	-1765.62	  406.61
     28.5700	  726.00	  745.34	-1759.84	  406.29
     28.6700	  660.00	  740.11	-1820.61	  405.98
     28.7700	  709.00	  760.70	-1792.20	  405.67
     28.8700	  793.00	  786.03	-1733.53	  405.36
     28.9700	  796.00	  787.72	-1732.22	  405.05
     29.0700	  762.00	  749.34	-1727.84	  404.74
     29.1700	  751.00	  687.73	-1677.23	  404.44
     29.2700	  646.00	  630.37	-1724.87	  404.13
     29.3700	  604.00	  589.60	-1726.10	  403.83
     29.4700	  582.00	  565.24	-1723.74	  403.53
     29.5700	  573.00	  552.14	-1719.64	  403.22
     29.6700	  572.00	  545.21	-1713.71	  402.92
     29.7700	  606.00	  541.24	-1675.74	  402.62
     29.8700	  609.00	  538.74	-1670.24	  402.33
     29.9700	  604.00	  537.15	-1673.65	  402.03
     30.0700	  579.00	  536.33	-1697.83	  401.73
     30.1700	  561.00	  536.47	-1715.97	  401.44
     30.2700	  534.00	  538.08	-1744.58	  401.15
     30.3700	  551.00	  542.20	-1731.70	  400.85
     30.4700	  573.00	  550.37	-1717.87	  400.56
     30.5700	  604.00	  564.14	-1700.64	  400.27
     30.6700	  559.00	  583.83	-1765.33	  399.99
     30.7700	  574.00	  606.82	-1773.32	  399.70
     30.8700	  631.00	  626.32	-1735.82	  399.41
     30.9700	  627.00	  632.34	-1745.84	  399.13
     31.0700	  579.00	  618.56	-1780.06	  398.85
     31.1700	  589.00	  592.44	-1743.94	  398.57
     31.2700	  589.00	  566.82	-1718.32	  398.29
     31.3700	  524.00	  548.14	-1764.64	  398.01
     31.4700	  556.00	  536.86	-1721.36	  397.73
     31.5700	  530.00	  530.85	-1741.35	  397.46
     31.6700	  516.00	  527.75	-1752.25	  397.18
     31.7700	  524.00	  526.03	-1742.53	  396.91
     31.8700	  524.00	  524.93	-1741.43	  396.64
     31.9700	  491.00	  524.17	-1773.67	  396.37
     32.0700	  532.00	  523.64	-1732.14	  396.10
     32.1700	  544.00	  523.28	-1719.78	  395.83
     32.2700	  557.00	  523.08	-1706.58	  395.57
     32.3700	  559.00	  523.03	-1704.53	  395.30
     32.4700	  593.00	  523.13	-1670.63	  395.04
     32.5700	  528.00	  523.40	-1735.90	  394.78
     32.6700	  587.00	  523.88	-1677.38	  394.52
     32.7700	  566.00	  524.60	-1699.10	  394.26
     32.8700	  555.00	  525.64	-1711.14	  394.00
     32.9700	  531.00	  527.12	-1736.62	  393.75
     33.0700	  590.00	  529.27	-1679.77	  393.49
     33.1700	  565.00	  532.57	-1708.07	  393.24
     33.2700	  530.00	  538.13	-1748.63	  392.99
     33.3700	  557.00	  548.34	-1731.84	  392.74
     33.4700	  557.00	  567.70	-1751.20	  392.49
     33.5700	  584.00	  603.22	-1759.72	  392.24
     33.6700	  573.00	  662.67	-1830.17	  392.00
     33.7700	  749.00	  749.01	-1740.51	  391.76
     33.8700	  887.00	  851.98	-1705.48	  391.51
     33.9700	  988.00	  943.15	-1695.65	  391.27
     34.0700	 1053.00	  980.08	-1667.58	  391.03
     34.1700	 1013.00	  933.79	-1661.29	  390.80
     34.2700	  920.00	  828.92	-1649.42	  390.56
     34.3700	  777.00	  718.54	-1682.04	  390.33
     34.4700	  613.00	  633.90	-1761.40	  390.09
     34.5700	  615.00	  580.90	-1706.40	  389.86
     34.6700	  562.00	  552.20	-1730.70	  389.63
     34.7700	  572.00	  537.71	-1706.21	  389.41
     34.8700	  530.00	  530.10	-1740.60	  389.18
     34.9700	  536.00	  525.52	-1730.02	  388.96
     35.0700	  538.00	  522.35	-1724.85	  388.73
     35.1700	  512.00	  519.97	-1748.47	  388.51
     35.2700	  540.00	  518.08	-1718.58	  388.29
     35.3700	  499.00	  516.54	-1758.04	  388.07
     35.4700	  504.00	  515.26	-1751.76	  387.86
     35.5700	  505.00	  514.18	-1749.68	  387.64
     35.6700	  532.00	  513.26	-1721.76	  387.43
     35.7700	  502.00	  512.45	-1750.95	  387.22
     35.8700	  535.00	  511.75	-1717.25	  387.01
     35.9700	  526.00	  511.12	-1725.62	  386.80
     36.0700	  517.00	  511.03	-1734.53	  386.59
     36.1700	  473.00	  510.53	-1778.03	  386.39
     36.2700	  516.00	  510.08	-1734.58	  386.18
     36.3700	  514.00	  509.67	-1736.17	  385.98
     36.4700	  503.00	  509.31	-1746.81	  385.78
     36.5700	  435.00	  508.98	-1814.48	  385.58
     36.6700	  457.00	  508.69	-1792.19	  385.39
     36.7700	  523.00	  508.45	-1725.95	  385.19
     36.8700	  451.00	  508.27	-1797.77	  385.00
     36.9700	  482.00	  508.22	-1766.72	  384.81
     37.0700	  485.00	  508.41	-1763.91	  384.62
     37.1700	  540.00	  509.06	-1709.56	  384.43
     37.2700	  525.00	  510.49	-1725.99	  384.24
     37.3700	  504.00	  512.98	-1749.48	  384.06
     37.4700	  478.00	  516.46	-1778.96	  383.87
     37.5700	  547.00	  520.27	-1713.77	  383.69
     37.6700	  531.00	  523.09	-1732.59	  383.51
     37.7700	  524.00	  523.51	-1740.01	  383.33
     37.8700	  514.00	  521.33	-1747.83	  383.16
     37.9700	  513.00	  517.87	-1745.37	  382.98
     38.0700	  510.00	  514.33	-1744.83	  382.81
     38.1700	  485.00	  511.19	-1766.69	  382.64
     38.2700	  512.00	  508.68	-1737.18	  382.47
     38.3700	  546.00	  506.86	-1701.36	  382.30
     38.4700	  484.00	  505.64	-1762.14	  382.13
     38.5700	  507.00	  504.83	-1738.33	  381.97
     38.6700	  504.00	  504.21	-1740.71	  381.80
     38.7700	  513.00	  503.84	-1731.34	  381.64
     38.8700	  555.00	  503.56	-1689.06	  381.48
     38.9700	  511.00	  503.33	-1732.83	  381.32
     39.0700	  466.00	  503.12	-1777.62	  381.17
     39.1700	  497.00	  502.86	-1746.36	  381.01
     39.2700	  494.00	  502.69	-1749.19	  380.86
     39.3700	  490.00	  502.53	-1753.03	  380.71
     39.4700	  521.00	  502.51	-1722.01	  380.56
     39.5700	  500.00	  502.37	-1742.87	  380.41
     39.6700	  493.00	  502.25	-1749.75	  380.27
     39.7700	  504.00	  502.13	-1738.63	  380.12
     39.8700	  505.00	  502.02	-1737.52	  379.98
     39.9700	  500.00	  501.92	-1742.42	  379.84
     40.0700	  487.00	  501.83	-1755.33	  379.70
     40.1700	  481.00	  501.75	-1761.25	  379.56
     40.2700	  467.00	  501.68	-1775.18	  379.43
     40.3700	  468.00	  501.63	-1774.13	  379.29
     40.4700	  489.00	  501.59	-1753.09	  379.16
     40.5700	  497.00	  501.56	-1745.06	  379.03
     40.6700	  490.00	  501.55	-1752.05	  378.90
     40.7700	  518.00	  501.56	-1724.06	  378.77
