MSG Master    CELL:    5.91903   5.91903  23.26888   90.0000   90.0000  120.0000   SPGR: P 63/m m c             TEMP:   1074.85
  1   1280     2.52000     0.00000    -0.13058     0.00000     0.00000    0
    99     0     2
       0.00000      10.00000
     125.00000     130.00000
 2Theta	Yobs	Ycal	Yobs-Ycal	Backg	Posr	(hkl)	K
      0.7700	    0.00	  532.01	-1770.50	  413.20
      0.8700	    0.00	  532.96	-1770.50	  414.16
      0.9700	   44.00	  533.91	-1770.50	  415.10
      1.0700	   40.00	  534.84	-1770.50	  416.03
      1.1700	   42.00	  535.76	-1770.50	  416.95
      1.2700	   41.00	  536.67	-1770.50	  417.86
      1.3700	   52.00	  537.56	-1770.50	  418.75
      1.4700	  102.00	  538.44	-1770.50	  419.63
      1.5700	  287.00	  539.31	-1770.50	  420.50
      1.6700	  470.00	  540.17	-1770.50	  421.36
      1.7700	  601.00	  541.01	-1770.50	  422.20
      1.8700	  691.00	  541.84	-1770.50	  423.03
      1.9700	  707.00	  542.66	-1770.50	  423.85
      2.0700	  804.00	  543.47	-1770.50	  424.66
      2.1700	  791.00	  544.26	-1770.50	  425.45
      2.2700	  771.00	  545.05	-1770.50	  426.24
      2.3700	  734.00	  545.82	-1770.50	  427.01
      2.4700	  692.00	  546.58	-1770.50	  427.77
      2.5700	  701.00	  547.32	-1770.50	  428.51
      2.6700	  691.00	  548.06	-1770.50	  429.25
      2.7700	  687.00	  548.78	-1770.50	  429.97
      2.8700	  626.00	  549.50	-1770.50	  430.69
      2.9700	  580.00	  550.20	-1770.50	  431.39
      3.0700	  618.00	  550.89	-1770.50	  432.08
      3.1700	  584.00	  551.57	-1770.50	  432.76
      3.2700	  529.00	  552.23	-1770.50	  433.42
      3.3700	  656.00	  552.89	-1770.50	  434.08
      3.4700	  692.00	  553.53	-1770.50	  434.73
      3.5700	  847.00	  554.17	-1770.50	  435.36
      3.6700	  857.00	  554.79	-1770.50	  435.98
      3.7700	  884.00	  555.41	-1770.50	  436.60
      3.8700	  962.00	  556.01	-1770.50	  437.20
      3.9700	  946.00	  556.60	-1770.50	  437.79
      4.0700	 1041.00	  557.18	-1770.50	  438.37
      4.1700	 1123.00	  557.75	-1770.50	  438.94
      4.2700	 1169.00	  558.31	-1770.50	  439.50
      4.3700	 1093.00	  558.86	-1770.50	  440.05
      4.4700	 1054.00	  559.40	-1770.50	  440.59
      4.5700	 1055.00	  559.93	-1770.50	  441.12
      4.6700	 1030.00	  560.45	-1770.50	  441.64
      4.7700	  998.00	  560.96	-1770.50	  442.15
      4.8700	  950.00	  561.46	-1770.50	  442.65
      4.9700	  943.00	  561.95	-1770.50	  443.14
      5.0700	  935.00	  562.43	-1770.50	  443.62
      5.1700	  875.00	  562.90	-1770.50	  444.09
      5.2700	  903.00	  563.36	-1770.50	  444.55
      5.3700	  917.00	  563.81	-1770.50	  445.00
      5.4700	  859.00	  564.25	-1770.50	  445.44
      5.5700	  855.00	  564.68	-1770.50	  445.87
      5.6700	  842.00	  565.10	-1770.50	  446.29
      5.7700	  839.00	  565.51	-1770.50	  446.71
      5.8700	  832.00	  565.92	-1770.50	  447.11
      5.9700	  869.00	  566.31	-1770.50	  447.50
      6.0700	  844.00	  566.70	-1770.50	  447.89
      6.1700	  789.00	  567.08	-1770.50	  448.27
      6.2700	  779.00	  567.44	-1770.50	  448.63
      6.3700	  818.00	  567.80	-1770.50	  448.99
      6.4700	  768.00	  568.15	-1770.50	  449.34
      6.5700	  712.00	  568.49	-1770.50	  449.68
      6.6700	  735.00	  568.83	-1770.50	  450.02
      6.7700	  687.00	  569.15	-1770.50	  450.34
      6.8700	  713.00	  569.46	-1770.50	  450.66
      6.9700	  703.00	  569.77	-1770.50	  450.96
      7.0700	  703.00	  570.07	-1770.50	  451.26
      7.1700	  669.00	  570.36	-1770.50	  451.55
      7.2700	  677.00	  570.64	-1770.50	  451.83
      7.3700	  671.00	  570.92	-1770.50	  452.11
      7.4700	  686.00	  571.18	-1770.50	  452.37
      7.5700	  617.00	  571.44	-1770.50	  452.63
      7.6700	  649.00	  571.69	-1770.50	  452.88
      7.7700	  661.00	  571.93	-1770.50	  453.12
      7.8700	  663.00	  572.16	-1770.50	  453.36
      7.9700	  622.00	  572.39	-1770.50	  453.58
      8.0700	  642.00	  572.61	-1770.50	  453.80
      8.1700	  595.00	  572.82	-1770.50	  454.01
      8.2700	  633.00	  573.02	-1770.50	  454.21
      8.3700	  659.00	  573.22	-1770.50	  454.41
      8.4700	  668.00	  573.41	-1770.50	  454.60
      8.5700	  632.00	  573.59	-1770.50	  454.78
      8.6700	  619.00	  573.76	-1770.50	  454.95
      8.7700	  621.00	  573.93	-1770.50	  455.12
      8.8700	  619.00	  574.09	-1770.50	  455.28
      8.9700	  615.00	  574.24	-1770.50	  455.43
      9.0700	  609.00	  574.38	-1770.50	  455.57
      9.1700	  623.00	  574.52	-1770.50	  455.71
      9.2700	  604.00	  574.65	-1770.50	  455.84
      9.3700	  651.00	  574.77	-1770.50	  455.97
      9.4700	  597.00	  574.89	-1770.50	  456.08
      9.5700	  628.00	  575.00	-1770.50	  456.19
      9.6700	  580.00	  575.10	-1770.50	  456.30
      9.7700	  562.00	  575.20	-1770.50	  456.39
      9.8700	  612.00	  575.29	-1770.50	  456.48
      9.9700	  620.00	  575.37	-1770.50	  456.57
     10.0700	  590.00	  576.21	-1756.71	  456.64
     10.1700	  603.00	  576.36	-1743.86	  456.71
     10.2700	  586.00	  576.52	-1761.02	  456.78
     10.3700	  623.00	  576.71	-1724.21	  456.84
     10.4700	  607.00	  576.94	-1740.44	  456.89
     10.5700	  566.00	  577.28	-1781.78	  456.93
     10.6700	  597.00	  577.81	-1751.31	  456.97
     10.7700	  613.00	  578.63	-1736.13	  457.01
     10.8700	  584.00	  579.80	-1766.30	  457.04
     10.9700	  629.00	  581.32	-1722.82	  457.06
     11.0700	  620.00	  583.16	-1733.66	  457.07
     11.1700	  570.00	  585.31	-1785.81	  457.08
     11.2700	  582.00	  587.81	-1776.31	  457.09
     11.3700	  554.00	  590.72	-1807.22	  457.09
     11.4700	  591.00	  594.18	-1773.68	  457.08
     11.5700	  599.00	  598.36	-1769.86	  457.07
     11.6700	  633.00	  603.60	-1741.10	  457.05
     11.7700	  611.00	  610.46	-1769.96	  457.02
     11.8700	  658.00	  619.79	-1732.29	  456.99
     11.9700	  628.00	  632.17	-1774.67	  456.96
     12.0700	  695.00	  646.05	-1721.55	  456.92
     12.1700	  657.00	  655.67	-1769.17	  456.87
     12.2700	  679.00	  652.13	-1743.63	  456.82
     12.3700	  670.00	  633.11	-1733.61	  456.77
     12.4700	  575.00	  610.31	-1805.81	  456.71
     12.5700	  588.00	  593.80	-1776.30	  456.64
     12.6700	  568.00	  584.90	-1787.40	  456.57
     12.7700	  588.00	  580.89	-1763.39	  456.49
     12.8700	  536.00	  579.08	-1813.58	  456.41
     12.9700	  532.00	  578.10	-1816.60	  456.33
     13.0700	  626.00	  577.43	-1721.93	  456.24
     13.1700	  560.00	  576.93	-1787.43	  456.14
     13.2700	  540.00	  576.53	-1807.03	  456.04
     13.3700	  535.00	  576.19	-1811.69	  455.94
     13.4700	  555.00	  575.90	-1791.40	  455.83
     13.5700	  538.00	  575.64	-1808.14	  455.72
     13.6700	  618.00	  575.40	-1727.90	  455.60
     13.7700	  528.00	  575.18	-1817.68	  455.48
     13.8700	  557.00	  574.97	-1788.47	  455.35
     13.9700	  610.00	  574.77	-1735.27	  455.22
     14.0700	  548.00	  574.58	-1797.08	  455.08
     14.1700	  605.00	  574.39	-1739.89	  454.94
     14.2700	  514.00	  574.20	-1830.70	  454.80
     14.3700	  551.00	  574.01	-1793.51	  454.65
     14.4700	  577.00	  573.83	-1767.33	  454.50
     14.5700	  586.00	  573.65	-1758.15	  454.35
     14.6700	  555.00	  573.46	-1788.96	  454.19
     14.7700	  540.00	  573.27	-1803.77	  454.02
     14.8700	  553.00	  573.09	-1790.59	  453.85
     14.9700	  532.00	  572.90	-1811.40	  453.68
     15.0700	  551.00	  572.70	-1792.20	  453.51
     15.1700	  588.00	  572.51	-1755.01	  453.33
     15.2700	  604.00	  572.31	-1738.81	  453.15
     15.3700	  535.00	  572.12	-1807.62	  452.96
     15.4700	  528.00	  571.91	-1814.41	  452.77
     15.5700	  566.00	  571.71	-1776.21	  452.58
     15.6700	  572.00	  571.50	-1770.00	  452.38
     15.7700	  560.00	  571.30	-1781.80	  452.18
     15.8700	  552.00	  571.08	-1789.58	  451.97
     15.9700	  568.00	  570.87	-1773.37	  451.77
     16.0700	  548.00	  570.65	-1793.15	  451.56
     16.1700	  540.00	  570.46	-1800.96	  451.34
     16.2700	  577.00	  570.24	-1763.74	  451.13
     16.3700	  594.00	  570.01	-1746.51	  450.90
     16.4700	  567.00	  569.78	-1773.28	  450.68
     16.5700	  549.00	  569.55	-1791.05	  450.45
     16.6700	  595.00	  569.32	-1744.82	  450.23
     16.7700	  565.00	  569.08	-1774.58	  449.99
     16.8700	  599.00	  568.85	-1740.35	  449.76
     16.9700	  590.00	  568.61	-1749.11	  449.52
     17.0700	  577.00	  568.36	-1761.86	  449.28
     17.1700	  567.00	  568.11	-1771.61	  449.03
     17.2700	  535.00	  567.87	-1803.37	  448.79
     17.3700	  533.00	  567.61	-1805.11	  448.54
     17.4700	  603.00	  567.36	-1734.86	  448.28
     17.5700	  577.00	  567.10	-1760.60	  448.03
     17.6700	  521.00	  566.84	-1816.34	  447.77
     17.7700	  584.00	  566.58	-1753.08	  447.51
     17.8700	  567.00	  566.32	-1769.82	  447.25
     17.9700	  591.00	  566.05	-1745.55	  446.98
     18.0700	  573.00	  565.89	-1763.39	  446.71
     18.1700	  576.00	  565.62	-1760.12	  446.44
     18.2700	  586.00	  565.35	-1749.85	  446.17
     18.3700	  540.00	  565.07	-1795.57	  445.90
     18.4700	  552.00	  564.80	-1783.30	  445.62
     18.5700	  570.00	  564.52	-1765.02	  445.34
     18.6700	  563.00	  564.24	-1771.74	  445.06
     18.7700	  577.00	  563.96	-1757.46	  444.77
     18.8700	  593.00	  563.68	-1741.18	  444.49
     18.9700	  561.00	  563.47	-1772.97	  444.20
     19.0700	  593.00	  563.19	-1740.69	  443.91
     19.1700	  536.00	  562.90	-1797.40	  443.61
     19.2700	  556.00	  562.61	-1777.11	  443.32
     19.3700	  556.00	  562.32	-1776.82	  443.02
     19.4700	  520.00	  562.03	-1812.53	  442.73
     19.5700	  561.00	  561.74	-1771.24	  442.43
     19.6700	  539.00	  561.45	-1792.95	  442.12
     19.7700	  526.00	  561.15	-1805.65	  441.82
     19.8700	  503.00	  560.85	-1828.35	  441.51
     19.9700	  552.00	  560.55	-1779.05	  441.21
     20.0700	  564.00	  560.25	-1766.75	  440.90
     20.1700	  566.00	  559.95	-1764.45	  440.59
     20.2700	  583.00	  559.65	-1747.15	  440.27
     20.3700	  582.00	  559.35	-1747.85	  439.96
     20.4700	  519.00	  559.04	-1810.54	  439.64
     20.5700	  563.00	  558.71	-1766.21	  439.33
     20.6700	  555.00	  558.40	-1773.90	  439.01
     20.7700	  523.00	  558.10	-1805.60	  438.69
     20.8700	  554.00	  557.79	-1774.29	  438.37
     20.9700	  587.00	  557.52	-1741.02	  438.05
     21.0700	  574.00	  557.21	-1753.71	  437.72
     21.1700	  544.00	  556.90	-1783.40	  437.40
     21.2700	  558.00	  556.59	-1769.09	  437.07
     21.3700	  554.00	  556.29	-1772.79	  436.74
     21.4700	  578.00	  555.98	-1748.48	  436.41
     21.5700	  559.00	  555.67	-1767.17	  436.08
     21.6700	  527.00	  555.37	-1798.87	  435.75
     21.7700	  574.00	  555.06	-1751.56	  435.42
     21.8700	  562.00	  554.76	-1763.26	  435.08
     21.9700	  532.00	  554.46	-1792.96	  434.75
     22.0700	  526.00	  554.15	-1798.65	  434.41
     22.1700	  572.00	  553.85	-1752.35	  434.08
     22.2700	  534.00	  553.56	-1790.06	  433.74
     22.3700	  545.00	  553.26	-1778.76	  433.40
     22.4700	  554.00	  552.97	-1769.47	  433.06
     22.5700	  530.00	  552.69	-1793.19	  432.72
     22.6700	  567.00	  552.41	-1755.91	  432.38
     22.7700	  545.00	  552.13	-1777.63	  432.04
     22.8700	  576.00	  551.87	-1746.37	  431.70
     22.9700	  565.00	  551.61	-1757.11	  431.35
     23.0700	  577.00	  551.37	-1744.87	  431.01
     23.1700	  603.00	  551.14	-1718.64	  430.66
     23.2700	  575.00	  550.93	-1746.43	  430.32
     23.3700	  538.00	  550.75	-1783.25	  429.97
     23.4700	  578.00	  550.60	-1743.10	  429.63
     23.5700	  548.00	  550.51	-1773.01	  429.28
     23.6700	  553.00	  550.48	-1767.98	  428.93
     23.7700	  584.00	  550.69	-1737.19	  428.58
     23.8700	  563.00	  550.99	-1758.49	  428.23
     23.9700	  570.00	  551.74	-1752.24	  427.88
     24.0700	  571.00	  553.37	-1752.87	  427.54
     24.1700	  556.00	  556.55	-1771.05	  427.19
     24.2700	  550.00	  562.12	-1782.62	  426.84
     24.3700	  559.00	  571.07	-1782.57	  426.48
     24.4700	  605.00	  584.42	-1749.92	  426.13
     24.5700	  624.00	  602.41	-1748.91	  425.78
     24.6700	  602.00	  622.16	-1790.66	  425.43
     24.7700	  618.00	  635.77	-1788.27	  425.08
     24.8700	  614.00	  632.59	-1789.09	  424.73
     24.9700	  599.00	  611.38	-1782.88	  424.38
     25.0700	  597.00	  585.71	-1759.21	  424.02
     25.1700	  606.00	  566.48	-1730.98	  423.67
     25.2700	  594.00	  555.60	-1732.10	  423.32
     25.3700	  576.00	  550.45	-1744.95	  422.97
     25.4700	  521.00	  548.09	-1797.59	  422.61
     25.5700	  543.00	  546.82	-1774.32	  422.26
     25.6700	  562.00	  545.99	-1754.49	  421.91
     25.7700	  563.00	  545.37	-1752.87	  421.56
     25.8700	  578.00	  544.90	-1737.40	  421.21
     25.9700	  536.00	  544.52	-1779.02	  420.85
     26.0700	  551.00	  544.24	-1763.74	  420.50
     26.1700	  592.00	  544.04	-1722.54	  420.15
     26.2700	  572.00	  543.91	-1742.41	  419.80
     26.3700	  540.00	  543.86	-1774.36	  419.45
     26.4700	  544.00	  543.89	-1770.39	  419.09
     26.5700	  549.00	  544.01	-1765.51	  418.74
     26.6700	  584.00	  544.25	-1730.75	  418.39
     26.7700	  564.00	  544.62	-1751.12	  418.04
     26.8700	  564.00	  545.16	-1751.66	  417.69
     26.9700	  550.00	  545.93	-1766.43	  417.34
     27.0700	  518.00	  546.99	-1799.49	  416.99
     27.1700	  541.00	  548.48	-1777.98	  416.64
     27.2700	  560.00	  550.66	-1761.16	  416.29
     27.3700	  550.00	  554.04	-1774.54	  415.95
     27.4700	  590.00	  559.61	-1740.10	  415.60
     27.5700	  556.00	  569.16	-1783.66	  415.25
     27.6700	  534.00	  585.55	-1822.05	  414.90
     27.7700	  545.00	  612.42	-1837.92	  414.56
     27.8700	  631.00	  652.89	-1792.39	  414.21
     27.9700	  697.00	  707.03	-1780.53	  413.86
     28.0700	  786.00	  768.37	-1752.87	  413.52
     28.1700	  915.00	  821.05	-1676.55	  413.17
     28.2700	  907.00	  841.55	-1705.05	  412.83
     28.3700	  894.00	  817.04	-1693.54	  412.49
     28.4700	  775.00	  770.74	-1766.24	  412.15
     28.5700	  726.00	  738.44	-1782.94	  411.80
     28.6700	  684.00	  735.75	-1822.25	  411.46
     28.7700	  743.00	  757.47	-1784.97	  411.12
     28.8700	  836.00	  783.57	-1718.07	  410.78
     28.9700	  792.00	  786.58	-1765.08	  410.44
     29.0700	  772.00	  749.99	-1748.49	  410.10
     29.1700	  696.00	  689.77	-1764.27	  409.77
     29.2700	  615.00	  633.20	-1788.70	  409.43
     29.3700	  606.00	  592.82	-1757.32	  409.09
     29.4700	  561.00	  568.64	-1778.14	  408.76
     29.5700	  596.00	  555.63	-1730.13	  408.43
     29.6700	  637.00	  548.74	-1682.24	  408.09
     29.7700	  566.00	  544.78	-1749.28	  407.76
     29.8700	  621.00	  542.27	-1691.77	  407.43
     29.9700	  578.00	  540.61	-1733.11	  407.10
     30.0700	  637.00	  539.68	-1673.18	  406.77
     30.1700	  568.00	  539.62	-1742.12	  406.44
     30.2700	  540.00	  540.87	-1771.37	  406.11
     30.3700	  525.00	  544.34	-1789.84	  405.79
     30.4700	  565.00	  551.42	-1756.92	  405.46
     30.5700	  597.00	  563.54	-1737.04	  405.14
     30.6700	  592.00	  581.07	-1759.57	  404.81
     30.7700	  570.00	  601.76	-1802.26	  404.49
     30.8700	  595.00	  619.59	-1795.09	  404.17
     30.9700	  616.00	  625.46	-1779.96	  403.85
     31.0700	  603.00	  613.47	-1780.97	  403.53
     31.1700	  589.00	  589.89	-1771.39	  403.21
     31.2700	  576.00	  566.52	-1761.02	  402.89
     31.3700	  532.00	  549.39	-1787.89	  402.58
     31.4700	  549.00	  539.02	-1760.52	  402.26
     31.5700	  558.00	  533.49	-1745.99	  401.95
     31.6700	  515.00	  530.62	-1786.12	  401.64
     31.7700	  562.00	  529.01	-1737.51	  401.33
     31.8700	  543.00	  527.97	-1755.47	  401.02
     31.9700	  513.00	  527.23	-1784.73	  400.71
     32.0700	  498.00	  526.70	-1799.20	  400.40
     32.1700	  546.00	  526.33	-1750.83	  400.09
     32.2700	  559.00	  526.11	-1737.61	  399.79
     32.3700	  568.00	  526.02	-1728.52	  399.49
     32.4700	  584.00	  526.08	-1712.58	  399.18
     32.5700	  528.00	  526.30	-1768.80	  398.88
     32.6700	  592.00	  526.70	-1705.20	  398.58
     32.7700	  521.00	  527.34	-1776.84	  398.29
     32.8700	  526.00	  528.29	-1772.79	  397.99
     32.9700	  561.00	  529.64	-1739.14	  397.69
     33.0700	  563.00	  531.62	-1739.12	  397.40
     33.1700	  530.00	  534.69	-1775.19	  397.11
     33.2700	  548.00	  539.86	-1762.36	  396.82
     33.3700	  580.00	  549.42	-1739.92	  396.53
     33.4700	  585.00	  567.65	-1753.15	  396.24
     33.5700	  565.00	  601.49	-1806.99	  395.95
     33.6700	  661.00	  658.78	-1768.28	  395.66
     33.7700	  748.00	  742.99	-1765.49	  395.38
     33.8700	  840.00	  844.77	-1775.27	  395.10
     33.9700	 1037.00	  936.56	-1670.06	  394.82
     34.0700	 1066.00	  976.27	-1680.77	  394.54
     34.1700	  986.00	  933.48	-1717.98	  394.26
     34.2700	  884.00	  830.55	-1717.05	  393.98
     34.3700	  746.00	  720.50	-1745.00	  393.71
     34.4700	  659.00	  635.65	-1747.15	  393.44
     34.5700	  560.00	  582.48	-1792.98	  393.16
     34.6700	  554.00	  553.79	-1770.29	  392.89
     34.7700	  554.00	  539.39	-1755.89	  392.63
     34.8700	  527.00	  531.88	-1775.38	  392.36
     34.9700	  498.00	  527.37	-1799.87	  392.09
     35.0700	  551.00	  524.24	-1743.74	  391.83
     35.1700	  513.00	  521.87	-1779.37	  391.57
     35.2700	  498.00	  520.01	-1792.51	  391.31
     35.3700	  485.00	  518.47	-1803.97	  391.05
     35.4700	  509.00	  517.19	-1778.69	  390.79
     35.5700	  506.00	  516.10	-1780.60	  390.53
     35.6700	  545.00	  515.16	-1740.66	  390.28
     35.7700	  499.00	  514.33	-1785.83	  390.03
     35.8700	  516.00	  513.61	-1768.11	  389.78
     35.9700	  514.00	  512.96	-1769.46	  389.53
     36.0700	  541.00	  512.85	-1742.35	  389.28
     36.1700	  543.00	  512.32	-1739.82	  389.04
     36.2700	  521.00	  511.85	-1761.35	  388.79
     36.3700	  542.00	  511.41	-1739.91	  388.55
     36.4700	  512.00	  511.01	-1769.51	  388.31
     36.5700	  525.00	  510.65	-1756.15	  388.07
     36.6700	  470.00	  510.33	-1810.83	  387.83
     36.7700	  516.00	  510.06	-1764.56	  387.60
     36.8700	  507.00	  509.85	-1773.35	  387.37
     36.9700	  494.00	  509.76	-1786.26	  387.13
     37.0700	  502.00	  509.91	-1778.41	  386.91
     37.1700	  520.00	  510.53	-1761.03	  386.68
     37.2700	  559.00	  511.96	-1723.46	  386.45
     37.3700	  510.00	  514.55	-1775.05	  386.23
     37.4700	  539.00	  518.31	-1749.81	  386.00
     37.5700	  535.00	  522.61	-1758.11	  385.78
     37.6700	  540.00	  526.05	-1756.55	  385.56
     37.7700	  517.00	  527.04	-1780.54	  385.35
     37.8700	  502.00	  525.13	-1793.63	  385.13
     37.9700	  541.00	  521.62	-1751.12	  384.92
     38.0700	  480.00	  517.77	-1808.27	  384.71
     38.1700	  529.00	  514.13	-1755.63	  384.50
     38.2700	  532.00	  511.04	-1749.54	  384.29
     38.3700	  503.00	  508.71	-1776.21	  384.08
     38.4700	  533.00	  507.10	-1744.60	  383.88
     38.5700	  508.00	  506.05	-1768.55	  383.68
     38.6700	  510.00	  505.27	-1765.77	  383.48
     38.7700	  490.00	  504.82	-1785.32	  383.28
     38.8700	  498.00	  504.47	-1776.97	  383.08
     38.9700	  519.00	  504.19	-1755.69	  382.88
     39.0700	  493.00	  503.93	-1781.43	  382.69
     39.1700	  461.00	  503.62	-1813.12	  382.50
     39.2700	  488.00	  503.41	-1785.91	  382.31
     39.3700	  467.00	  503.21	-1806.71	  382.12
     39.4700	  543.00	  503.02	-1730.52	  381.94
     39.5700	  515.00	  502.96	-1758.46	  381.76
     39.6700	  456.00	  502.80	-1817.30	  381.57
     39.7700	  457.00	  502.64	-1816.14	  381.39
     39.8700	  456.00	  502.49	-1816.99	  381.22
     39.9700	  465.00	  502.35	-1807.85	  381.04
     40.0700	  516.00	  502.22	-1756.72	  380.87
     40.1700	  507.00	  502.11	-1765.61	  380.69
     40.2700	  504.00	  502.00	-1768.50	  380.52
     40.3700	  488.00	  501.90	-1784.40	  380.36
     40.4700	  495.00	  501.82	-1777.32	  380.19
     40.5700	  463.00	  501.76	-1809.26	  380.03
     40.6700	  519.00	  501.71	-1753.21	  379.86
     40.7700	  531.00	  501.68	-1741.18	  379.70
