MSG Master    CELL:    5.91934   5.91934  23.27388   90.0000   90.0000  120.0000   SPGR: P 63/m m c             TEMP:   1074.85
  1   1280     2.52000     0.00000    -0.12972     0.00000     0.00000    0
    99     0     2
       0.00000      10.00000
     125.00000     130.00000
 2Theta	Yobs	Ycal	Yobs-Ycal	Backg	Posr	(hkl)	K
      0.7700	    0.00	  563.84	-1759.75	  444.58
      0.8700	    0.00	  564.32	-1759.75	  445.06
      0.9700	   33.00	  564.79	-1759.75	  445.54
      1.0700	   38.00	  565.25	-1759.75	  446.00
      1.1700	   40.00	  565.71	-1759.75	  446.45
      1.2700	   53.00	  566.15	-1759.75	  446.90
      1.3700	   39.00	  566.59	-1759.75	  447.34
      1.4700	   95.00	  567.02	-1759.75	  447.77
      1.5700	  290.00	  567.44	-1759.75	  448.19
      1.6700	  424.00	  567.86	-1759.75	  448.60
      1.7700	  583.00	  568.26	-1759.75	  449.01
      1.8700	  667.00	  568.66	-1759.75	  449.40
      1.9700	  716.00	  569.05	-1759.75	  449.79
      2.0700	  770.00	  569.43	-1759.75	  450.17
      2.1700	  771.00	  569.80	-1759.75	  450.54
      2.2700	  780.00	  570.16	-1759.75	  450.91
      2.3700	  738.00	  570.52	-1759.75	  451.27
      2.4700	  686.00	  570.87	-1759.75	  451.61
      2.5700	  732.00	  571.21	-1759.75	  451.96
      2.6700	  695.00	  571.55	-1759.75	  452.29
      2.7700	  703.00	  571.87	-1759.75	  452.62
      2.8700	  643.00	  572.19	-1759.75	  452.94
      2.9700	  643.00	  572.50	-1759.75	  453.25
      3.0700	  586.00	  572.81	-1759.75	  453.55
      3.1700	  586.00	  573.10	-1759.75	  453.85
      3.2700	  573.00	  573.39	-1759.75	  454.14
      3.3700	  654.00	  573.67	-1759.75	  454.42
      3.4700	  733.00	  573.95	-1759.75	  454.69
      3.5700	  831.00	  574.22	-1759.75	  454.96
      3.6700	  864.00	  574.48	-1759.75	  455.22
      3.7700	  892.00	  574.73	-1759.75	  455.47
      3.8700	  969.00	  574.98	-1759.75	  455.72
      3.9700	  995.00	  575.22	-1759.75	  455.96
      4.0700	 1025.00	  575.45	-1759.75	  456.19
      4.1700	 1063.00	  575.67	-1759.75	  456.42
      4.2700	 1104.00	  575.89	-1759.75	  456.64
      4.3700	 1110.00	  576.11	-1759.75	  456.85
      4.4700	  997.00	  576.31	-1759.75	  457.06
      4.5700	 1068.00	  576.51	-1759.75	  457.26
      4.6700	  999.00	  576.70	-1759.75	  457.45
      4.7700	 1044.00	  576.89	-1759.75	  457.64
      4.8700	  990.00	  577.07	-1759.75	  457.81
      4.9700	  908.00	  577.24	-1759.75	  457.99
      5.0700	  943.00	  577.41	-1759.75	  458.16
      5.1700	  987.00	  577.57	-1759.75	  458.32
      5.2700	  866.00	  577.73	-1759.75	  458.47
      5.3700	  916.00	  577.87	-1759.75	  458.62
      5.4700	  908.00	  578.02	-1759.75	  458.76
      5.5700	  843.00	  578.15	-1759.75	  458.90
      5.6700	  822.00	  578.28	-1759.75	  459.03
      5.7700	  818.00	  578.41	-1759.75	  459.15
      5.8700	  802.00	  578.52	-1759.75	  459.27
      5.9700	  798.00	  578.64	-1759.75	  459.38
      6.0700	  810.00	  578.74	-1759.75	  459.49
      6.1700	  727.00	  578.84	-1759.75	  459.59
      6.2700	  811.00	  578.94	-1759.75	  459.68
      6.3700	  760.00	  579.03	-1759.75	  459.77
      6.4700	  780.00	  579.11	-1759.75	  459.86
      6.5700	  798.00	  579.19	-1759.75	  459.93
      6.6700	  754.00	  579.26	-1759.75	  460.01
      6.7700	  780.00	  579.33	-1759.75	  460.07
      6.8700	  718.00	  579.39	-1759.75	  460.14
      6.9700	  698.00	  579.45	-1759.75	  460.19
      7.0700	  681.00	  579.50	-1759.75	  460.24
      7.1700	  714.00	  579.54	-1759.75	  460.29
      7.2700	  672.00	  579.58	-1759.75	  460.33
      7.3700	  698.00	  579.62	-1759.75	  460.36
      7.4700	  638.00	  579.65	-1759.75	  460.39
      7.5700	  650.00	  579.67	-1759.75	  460.42
      7.6700	  612.00	  579.69	-1759.75	  460.44
      7.7700	  649.00	  579.71	-1759.75	  460.45
      7.8700	  672.00	  579.72	-1759.75	  460.46
      7.9700	  629.00	  579.72	-1759.75	  460.47
      8.0700	  657.00	  579.72	-1759.75	  460.47
      8.1700	  632.00	  579.72	-1759.75	  460.46
      8.2700	  668.00	  579.71	-1759.75	  460.45
      8.3700	  671.00	  579.70	-1759.75	  460.44
      8.4700	  645.00	  579.68	-1759.75	  460.42
      8.5700	  644.00	  579.65	-1759.75	  460.40
      8.6700	  649.00	  579.62	-1759.75	  460.37
      8.7700	  632.00	  579.59	-1759.75	  460.34
      8.8700	  653.00	  579.55	-1759.75	  460.30
      8.9700	  635.00	  579.51	-1759.75	  460.26
      9.0700	  622.00	  579.47	-1759.75	  460.21
      9.1700	  635.00	  579.42	-1759.75	  460.16
      9.2700	  622.00	  579.36	-1759.75	  460.11
      9.3700	  622.00	  579.30	-1759.75	  460.05
      9.4700	  619.00	  579.24	-1759.75	  459.98
      9.5700	  669.00	  579.17	-1759.75	  459.92
      9.6700	  634.00	  579.10	-1759.75	  459.84
      9.7700	  597.00	  579.02	-1759.75	  459.77
      9.8700	  637.00	  578.94	-1759.75	  459.69
      9.9700	  628.00	  578.86	-1759.75	  459.60
     10.0700	  612.00	  579.71	-1727.46	  459.51
     10.1700	  620.00	  579.72	-1719.47	  459.42
     10.2700	  596.00	  579.76	-1743.51	  459.33
     10.3700	  558.00	  579.82	-1781.57	  459.23
     10.4700	  605.00	  579.96	-1734.71	  459.12
     10.5700	  570.00	  580.23	-1769.98	  459.02
     10.6700	  634.00	  580.74	-1706.49	  458.90
     10.7700	  606.00	  581.61	-1735.36	  458.79
     10.8700	  521.00	  582.90	-1821.65	  458.67
     10.9700	  577.00	  584.61	-1767.36	  458.55
     11.0700	  615.00	  586.72	-1731.47	  458.42
     11.1700	  594.00	  589.20	-1754.95	  458.29
     11.2700	  588.00	  592.12	-1763.87	  458.16
     11.3700	  609.00	  595.55	-1746.30	  458.02
     11.4700	  619.00	  599.64	-1740.39	  457.88
     11.5700	  672.00	  604.63	-1692.39	  457.74
     11.6700	  596.00	  610.92	-1774.67	  457.60
     11.7700	  610.00	  619.18	-1768.93	  457.45
     11.8700	  644.00	  630.37	-1746.12	  457.29
     11.9700	  656.00	  644.97	-1748.72	  457.14
     12.0700	  701.00	  660.95	-1719.70	  456.98
     12.1700	  662.00	  671.58	-1769.33	  456.81
     12.2700	  689.00	  666.81	-1737.56	  456.65
     12.3700	  640.00	  644.38	-1764.13	  456.48
     12.4700	  637.00	  617.74	-1740.49	  456.31
     12.5700	  614.00	  598.22	-1743.97	  456.13
     12.6700	  600.00	  587.37	-1747.12	  455.95
     12.7700	  584.00	  582.25	-1758.00	  455.77
     12.8700	  552.00	  579.84	-1787.59	  455.59
     12.9700	  557.00	  578.47	-1781.22	  455.40
     13.0700	  552.00	  577.54	-1785.29	  455.21
     13.1700	  587.00	  576.81	-1749.56	  455.02
     13.2700	  563.00	  576.22	-1772.97	  454.83
     13.3700	  563.00	  575.71	-1772.46	  454.63
     13.4700	  601.00	  575.27	-1734.02	  454.43
     13.5700	  604.00	  574.88	-1730.63	  454.23
     13.6700	  576.00	  574.52	-1758.27	  454.02
     13.7700	  552.00	  574.18	-1781.93	  453.81
     13.8700	  568.00	  573.86	-1765.61	  453.60
     13.9700	  558.00	  573.56	-1775.31	  453.39
     14.0700	  565.00	  573.27	-1768.02	  453.17
     14.1700	  535.00	  572.98	-1797.73	  452.95
     14.2700	  560.00	  572.70	-1772.45	  452.73
     14.3700	  555.00	  572.43	-1777.18	  452.51
     14.4700	  546.00	  572.16	-1785.91	  452.28
     14.5700	  553.00	  571.90	-1778.65	  452.06
     14.6700	  545.00	  571.64	-1786.39	  451.83
     14.7700	  588.00	  571.37	-1743.12	  451.59
     14.8700	  580.00	  571.11	-1750.86	  451.36
     14.9700	  558.00	  570.85	-1772.60	  451.12
     15.0700	  569.00	  570.59	-1761.34	  450.89
     15.1700	  536.00	  570.33	-1794.08	  450.64
     15.2700	  518.00	  570.07	-1811.82	  450.40
     15.3700	  540.00	  569.81	-1789.56	  450.16
     15.4700	  605.00	  569.55	-1724.30	  449.91
     15.5700	  577.00	  569.29	-1752.04	  449.66
     15.6700	  577.00	  569.02	-1751.77	  449.41
     15.7700	  512.00	  568.76	-1816.51	  449.16
     15.8700	  554.00	  568.50	-1774.25	  448.90
     15.9700	  528.00	  568.26	-1800.01	  448.65
     16.0700	  566.00	  567.99	-1761.74	  448.39
     16.1700	  592.00	  567.72	-1735.47	  448.13
     16.2700	  544.00	  567.45	-1783.20	  447.87
     16.3700	  575.00	  567.18	-1751.93	  447.60
     16.4700	  545.00	  566.91	-1781.66	  447.34
     16.5700	  531.00	  566.64	-1795.39	  447.07
     16.6700	  586.00	  566.37	-1740.12	  446.80
     16.7700	  566.00	  566.09	-1759.84	  446.53
     16.8700	  580.00	  565.82	-1745.57	  446.26
     16.9700	  560.00	  565.54	-1765.29	  445.99
     17.0700	  581.00	  565.26	-1744.01	  445.71
     17.1700	  554.00	  564.98	-1770.73	  445.44
     17.2700	  539.00	  564.70	-1785.45	  445.16
     17.3700	  565.00	  564.42	-1759.17	  444.88
     17.4700	  539.00	  564.14	-1784.89	  444.60
     17.5700	  527.00	  563.85	-1796.60	  444.32
     17.6700	  571.00	  563.57	-1752.32	  444.04
     17.7700	  575.00	  563.28	-1748.03	  443.75
     17.8700	  556.00	  563.00	-1766.75	  443.47
     17.9700	  570.00	  562.71	-1752.46	  443.18
     18.0700	  597.00	  562.52	-1725.27	  442.89
     18.1700	  620.00	  562.23	-1701.98	  442.60
     18.2700	  573.00	  561.94	-1748.69	  442.31
     18.3700	  565.00	  561.65	-1756.40	  442.02
     18.4700	  564.00	  561.36	-1757.11	  441.73
     18.5700	  575.00	  561.07	-1745.82	  441.43
     18.6700	  532.00	  560.78	-1788.53	  441.14
     18.7700	  554.00	  560.48	-1766.23	  440.84
     18.8700	  558.00	  560.27	-1762.02	  440.55
     18.9700	  516.00	  559.98	-1803.73	  440.25
     19.0700	  578.00	  559.69	-1741.44	  439.95
     19.1700	  522.00	  559.39	-1797.14	  439.65
     19.2700	  535.00	  559.10	-1783.85	  439.35
     19.3700	  558.00	  558.80	-1760.55	  439.05
     19.4700	  564.00	  558.51	-1754.26	  438.74
     19.5700	  540.00	  558.21	-1777.96	  438.44
     19.6700	  512.00	  557.91	-1805.66	  438.14
     19.7700	  521.00	  557.62	-1796.37	  437.83
     19.8700	  573.00	  557.32	-1744.07	  437.53
     19.9700	  621.00	  557.02	-1695.77	  437.22
     20.0700	  532.00	  556.72	-1784.47	  436.91
     20.1700	  585.00	  556.43	-1731.18	  436.60
     20.2700	  565.00	  556.13	-1750.88	  436.30
     20.3700	  520.00	  555.83	-1795.58	  435.99
     20.4700	  568.00	  555.53	-1747.28	  435.68
     20.5700	  558.00	  555.23	-1756.98	  435.37
     20.6700	  520.00	  554.94	-1794.69	  435.06
     20.7700	  578.00	  554.60	-1736.35	  434.75
     20.8700	  586.00	  554.34	-1728.09	  434.43
     20.9700	  563.00	  554.04	-1750.79	  434.12
     21.0700	  517.00	  553.75	-1796.50	  433.81
     21.1700	  559.00	  553.45	-1754.20	  433.50
     21.2700	  580.00	  553.16	-1732.91	  433.18
     21.3700	  587.00	  552.87	-1725.62	  432.87
     21.4700	  538.00	  552.58	-1774.33	  432.55
     21.5700	  553.00	  552.29	-1759.04	  432.24
     21.6700	  557.00	  552.00	-1754.75	  431.92
     21.7700	  544.00	  551.71	-1767.46	  431.61
     21.8700	  617.00	  551.42	-1694.18	  431.29
     21.9700	  547.00	  551.14	-1763.89	  430.98
     22.0700	  545.00	  550.86	-1765.61	  430.66
     22.1700	  570.00	  550.58	-1740.33	  430.34
     22.2700	  534.00	  550.31	-1776.06	  430.03
     22.3700	  518.00	  550.04	-1791.79	  429.71
     22.4700	  540.00	  549.77	-1769.52	  429.39
     22.5700	  599.00	  549.51	-1710.26	  429.08
     22.6700	  581.00	  549.26	-1728.01	  428.76
     22.7700	  520.00	  549.01	-1788.76	  428.44
     22.8700	  569.00	  548.77	-1739.52	  428.12
     22.9700	  578.00	  548.54	-1730.29	  427.81
     23.0700	  593.00	  548.33	-1715.08	  427.49
     23.1700	  572.00	  548.13	-1735.88	  427.17
     23.2700	  537.00	  547.96	-1770.71	  426.86
     23.3700	  542.00	  547.81	-1765.56	  426.54
     23.4700	  515.00	  547.70	-1792.45	  426.22
     23.5700	  547.00	  547.64	-1760.39	  425.90
     23.6700	  549.00	  547.80	-1758.55	  425.59
     23.7700	  557.00	  547.94	-1750.69	  425.27
     23.8700	  559.00	  548.30	-1749.05	  424.95
     23.9700	  535.00	  549.12	-1773.87	  424.64
     24.0700	  540.00	  550.82	-1770.57	  424.32
     24.1700	  564.00	  554.02	-1749.77	  424.00
     24.2700	  606.00	  559.53	-1713.28	  423.69
     24.3700	  568.00	  568.25	-1760.00	  423.37
     24.4700	  560.00	  581.04	-1780.79	  423.05
     24.5700	  621.00	  597.85	-1736.60	  422.74
     24.6700	  620.00	  615.75	-1755.50	  422.42
     24.7700	  616.00	  627.40	-1771.15	  422.11
     24.8700	  578.00	  623.51	-1805.26	  421.79
     24.9700	  642.00	  603.76	-1721.51	  421.48
     25.0700	  581.00	  580.50	-1759.25	  421.16
     25.1700	  536.00	  563.10	-1786.85	  420.85
     25.2700	  581.00	  553.09	-1731.84	  420.54
     25.3700	  510.00	  548.23	-1797.98	  420.22
     25.4700	  559.00	  545.94	-1746.69	  419.91
     25.5700	  570.00	  544.71	-1734.46	  419.60
     25.6700	  546.00	  543.92	-1757.67	  419.29
     25.7700	  539.00	  543.34	-1764.09	  418.98
     25.8700	  599.00	  542.90	-1703.65	  418.67
     25.9700	  542.00	  542.57	-1760.32	  418.36
     26.0700	  562.00	  542.33	-1740.08	  418.05
     26.1700	  536.00	  542.17	-1765.92	  417.74
     26.2700	  562.00	  542.08	-1739.83	  417.43
     26.3700	  534.00	  542.07	-1767.82	  417.12
     26.4700	  495.00	  542.15	-1806.90	  416.81
     26.5700	  564.00	  542.32	-1738.07	  416.51
     26.6700	  523.00	  542.60	-1779.35	  416.20
     26.7700	  534.00	  543.02	-1768.77	  415.89
     26.8700	  564.00	  543.60	-1739.35	  415.59
     26.9700	  536.00	  544.41	-1768.16	  415.29
     27.0700	  552.00	  545.51	-1753.26	  414.98
     27.1700	  541.00	  547.04	-1765.79	  414.68
     27.2700	  544.00	  549.24	-1764.99	  414.38
     27.3700	  532.00	  552.60	-1780.35	  414.07
     27.4700	  562.00	  558.11	-1755.86	  413.77
     27.5700	  576.00	  567.50	-1751.25	  413.47
     27.6700	  577.00	  583.49	-1766.24	  413.17
     27.7700	  577.00	  609.58	-1792.33	  412.88
     27.8700	  593.00	  648.76	-1815.51	  412.58
     27.9700	  652.00	  701.03	-1808.78	  412.28
     28.0700	  853.00	  760.19	-1666.94	  411.98
     28.1700	  843.00	  811.12	-1727.87	  411.69
     28.2700	  982.00	  831.56	-1609.31	  411.39
     28.3700	  868.00	  809.75	-1701.50	  411.10
     28.4700	  793.00	  768.41	-1735.16	  410.81
     28.5700	  768.00	  741.96	-1733.71	  410.51
     28.6700	  669.00	  745.09	-1835.84	  410.22
     28.7700	  723.00	  771.98	-1808.73	  409.93
     28.8700	  800.00	  801.68	-1761.43	  409.64
     28.9700	  828.00	  805.45	-1737.20	  409.35
     29.0700	  826.00	  766.29	-1700.04	  409.07
     29.1700	  713.00	  701.77	-1748.52	  408.78
     29.2700	  629.00	  641.12	-1771.87	  408.49
     29.3700	  549.00	  597.72	-1808.47	  408.21
     29.4700	  610.00	  571.64	-1721.39	  407.93
     29.5700	  554.00	  557.60	-1763.35	  407.64
     29.6700	  575.00	  550.19	-1734.94	  407.36
     29.7700	  590.00	  545.99	-1715.74	  407.08
     29.8700	  564.00	  543.37	-1739.12	  406.80
     29.9700	  594.00	  541.71	-1707.46	  406.52
     30.0700	  578.00	  540.86	-1722.61	  406.24
     30.1700	  595.00	  540.99	-1705.74	  405.97
     30.2700	  522.00	  542.60	-1780.35	  405.69
     30.3700	  540.00	  546.71	-1766.46	  405.42
     30.4700	  565.00	  554.84	-1749.59	  405.14
     30.5700	  550.00	  568.51	-1778.26	  404.87
     30.6700	  599.00	  588.04	-1748.79	  404.60
     30.7700	  549.00	  610.84	-1821.59	  404.33
     30.8700	  583.00	  630.28	-1807.03	  404.06
     30.9700	  633.00	  636.49	-1763.24	  403.79
     31.0700	  627.00	  623.14	-1755.89	  403.53
     31.1700	  636.00	  597.37	-1721.12	  403.26
     31.2700	  537.00	  571.89	-1794.64	  403.00
     31.3700	  562.00	  553.16	-1750.91	  402.73
     31.4700	  526.00	  541.78	-1775.53	  402.47
     31.5700	  541.00	  535.67	-1754.42	  402.21
     31.6700	  526.00	  532.52	-1766.27	  401.95
     31.7700	  541.00	  530.77	-1749.52	  401.69
     31.8700	  533.00	  529.68	-1756.43	  401.44
     31.9700	  547.00	  528.93	-1741.68	  401.18
     32.0700	  553.00	  528.42	-1735.17	  400.92
     32.1700	  510.00	  528.08	-1777.83	  400.67
     32.2700	  560.00	  527.91	-1727.66	  400.42
     32.3700	  564.00	  527.89	-1723.64	  400.17
     32.4700	  581.00	  528.04	-1706.79	  399.92
     32.5700	  592.00	  528.36	-1696.11	  399.67
     32.6700	  547.00	  528.89	-1741.64	  399.42
     32.7700	  567.00	  529.68	-1722.43	  399.18
     32.8700	  589.00	  530.81	-1701.56	  398.93
     32.9700	  531.00	  532.39	-1761.14	  398.69
     33.0700	  547.00	  534.68	-1747.43	  398.45
     33.1700	  557.00	  538.17	-1740.92	  398.21
     33.2700	  568.00	  544.02	-1735.77	  397.97
     33.3700	  605.00	  554.67	-1709.42	  397.73
     33.4700	  567.00	  574.73	-1767.48	  397.49
     33.5700	  587.00	  611.35	-1784.10	  397.26
     33.6700	  640.00	  672.36	-1792.11	  397.02
     33.7700	  789.00	  760.75	-1731.50	  396.79
     33.8700	  917.00	  866.13	-1708.88	  396.56
     33.9700	 1047.00	  959.69	-1672.44	  396.33
     34.0700	 1059.00	  998.37	-1699.12	  396.10
     34.1700	 1010.00	  952.21	-1701.96	  395.88
     34.2700	  877.00	  845.51	-1728.26	  395.65
     34.3700	  758.00	  732.31	-1734.06	  395.43
     34.4700	  640.00	  644.90	-1764.65	  395.20
     34.5700	  593.00	  589.71	-1756.46	  394.98
     34.6700	  568.00	  559.56	-1751.31	  394.76
     34.7700	  525.00	  544.22	-1778.97	  394.54
     34.8700	  533.00	  536.15	-1762.90	  394.33
     34.9700	  558.00	  531.31	-1733.06	  394.11
     35.0700	  529.00	  527.99	-1758.74	  393.90
     35.1700	  561.00	  525.48	-1724.23	  393.68
     35.2700	  486.00	  523.50	-1797.25	  393.47
     35.3700	  503.00	  521.90	-1778.65	  393.26
     35.4700	  547.00	  520.57	-1733.32	  393.05
     35.5700	  535.00	  519.45	-1744.20	  392.85
     35.6700	  509.00	  518.49	-1769.24	  392.64
     35.7700	  495.00	  517.67	-1782.42	  392.44
     35.8700	  497.00	  516.94	-1779.69	  392.24
     35.9700	  507.00	  516.30	-1769.05	  392.04
     36.0700	  531.00	  516.20	-1744.95	  391.84
     36.1700	  488.00	  515.70	-1787.45	  391.64
     36.2700	  515.00	  515.24	-1759.99	  391.44
     36.3700	  530.00	  514.84	-1744.59	  391.25
     36.4700	  530.00	  514.47	-1744.22	  391.05
     36.5700	  536.00	  514.15	-1737.90	  390.86
     36.6700	  493.00	  513.87	-1780.62	  390.67
     36.7700	  528.00	  513.64	-1745.39	  390.48
     36.8700	  503.00	  513.50	-1770.25	  390.29
     36.9700	  543.00	  513.49	-1730.24	  390.11
     37.0700	  527.00	  513.77	-1746.52	  389.92
     37.1700	  493.00	  514.58	-1781.33	  389.74
     37.2700	  488.00	  516.30	-1788.05	  389.56
     37.3700	  515.00	  519.22	-1763.97	  389.38
     37.4700	  484.00	  523.29	-1799.04	  389.20
     37.5700	  508.00	  527.73	-1779.48	  389.03
     37.6700	  562.00	  531.02	-1728.77	  388.85
     37.7700	  560.00	  531.52	-1731.27	  388.68
     37.8700	  492.00	  528.98	-1796.73	  388.51
     37.9700	  537.00	  524.93	-1747.68	  388.33
     38.0700	  510.00	  520.82	-1770.57	  388.17
     38.1700	  506.00	  517.22	-1770.97	  388.00
     38.2700	  549.00	  514.38	-1725.13	  387.83
     38.3700	  509.00	  512.35	-1763.10	  387.67
     38.4700	  513.00	  510.99	-1757.74	  387.51
     38.5700	  513.00	  510.11	-1756.86	  387.35
     38.6700	  519.00	  509.45	-1750.20	  387.19
     38.7700	  492.00	  509.06	-1776.81	  387.03
     38.8700	  546.00	  508.76	-1722.51	  386.87
     38.9700	  507.00	  508.51	-1761.26	  386.72
     39.0700	  480.00	  508.29	-1788.04	  386.56
     39.1700	  497.00	  508.10	-1770.85	  386.41
     39.2700	  532.00	  507.83	-1735.58	  386.26
     39.3700	  526.00	  507.80	-1741.55	  386.11
     39.4700	  496.00	  507.65	-1771.40	  385.97
     39.5700	  464.00	  507.51	-1803.26	  385.82
     39.6700	  523.00	  507.37	-1744.12	  385.68
     39.7700	  522.00	  507.25	-1745.00	  385.54
     39.8700	  498.00	  507.14	-1768.89	  385.40
     39.9700	  512.00	  507.03	-1754.78	  385.26
     40.0700	  487.00	  506.94	-1779.69	  385.12
     40.1700	  512.00	  506.85	-1754.60	  384.99
     40.2700	  522.00	  506.78	-1744.53	  384.85
     40.3700	  503.00	  506.71	-1763.46	  384.72
     40.4700	  514.00	  506.66	-1752.41	  384.59
     40.5700	  502.00	  506.63	-1764.38	  384.46
     40.6700	  526.00	  506.61	-1740.36	  384.33
     40.7700	  503.00	  506.61	-1763.36	  384.20
