MSG Master    CELL:    5.91952   5.91952  23.28351   90.0000   90.0000  120.0000   SPGR: P 63/m m c             TEMP:   1074.85
  1   1280     2.52000     0.00000    -0.12125     0.00000     0.00000    0
    99     0     2
       0.00000      10.00000
     125.00000     130.00000
 2Theta	Yobs	Ycal	Yobs-Ycal	Backg	Posr	(hkl)	K
      0.7700	    0.00	  532.17	-1733.50	  412.76
      0.8700	    0.00	  533.07	-1733.50	  413.67
      0.9700	   42.00	  533.96	-1733.50	  414.56
      1.0700	   38.00	  534.84	-1733.50	  415.44
      1.1700	   54.00	  535.71	-1733.50	  416.30
      1.2700	   54.00	  536.56	-1733.50	  417.16
      1.3700	   53.00	  537.41	-1733.50	  418.00
      1.4700	  100.00	  538.24	-1733.50	  418.83
      1.5700	  289.00	  539.06	-1733.50	  419.65
      1.6700	  453.00	  539.86	-1733.50	  420.46
      1.7700	  544.00	  540.66	-1733.50	  421.25
      1.8700	  670.00	  541.44	-1733.50	  422.04
      1.9700	  744.00	  542.21	-1733.50	  422.81
      2.0700	  759.00	  542.98	-1733.50	  423.57
      2.1700	  810.00	  543.72	-1733.50	  424.32
      2.2700	  795.00	  544.46	-1733.50	  425.06
      2.3700	  734.00	  545.19	-1733.50	  425.78
      2.4700	  762.00	  545.90	-1733.50	  426.50
      2.5700	  618.00	  546.61	-1733.50	  427.20
      2.6700	  703.00	  547.30	-1733.50	  427.90
      2.7700	  639.00	  547.98	-1733.50	  428.58
      2.8700	  591.00	  548.66	-1733.50	  429.25
      2.9700	  654.00	  549.32	-1733.50	  429.91
      3.0700	  614.00	  549.97	-1733.50	  430.56
      3.1700	  637.00	  550.60	-1733.50	  431.20
      3.2700	  611.00	  551.23	-1733.50	  431.83
      3.3700	  715.00	  551.85	-1733.50	  432.45
      3.4700	  742.00	  552.46	-1733.50	  433.05
      3.5700	  761.00	  553.06	-1733.50	  433.65
      3.6700	  876.00	  553.64	-1733.50	  434.24
      3.7700	  926.00	  554.22	-1733.50	  434.82
      3.8700	  949.00	  554.79	-1733.50	  435.38
      3.9700	  997.00	  555.35	-1733.50	  435.94
      4.0700	 1003.00	  555.89	-1733.50	  436.49
      4.1700	 1114.00	  556.43	-1733.50	  437.02
      4.2700	 1137.00	  556.96	-1733.50	  437.55
      4.3700	 1092.00	  557.47	-1733.50	  438.07
      4.4700	 1053.00	  557.98	-1733.50	  438.58
      4.5700	 1074.00	  558.48	-1733.50	  439.07
      4.6700	 1044.00	  558.97	-1733.50	  439.56
      4.7700	 1008.00	  559.45	-1733.50	  440.04
      4.8700	  994.00	  559.92	-1733.50	  440.51
      4.9700	  991.00	  560.38	-1733.50	  440.97
      5.0700	  957.00	  560.83	-1733.50	  441.42
      5.1700	  917.00	  561.27	-1733.50	  441.86
      5.2700	  895.00	  561.70	-1733.50	  442.30
      5.3700	  877.00	  562.13	-1733.50	  442.72
      5.4700	  874.00	  562.54	-1733.50	  443.14
      5.5700	  884.00	  562.95	-1733.50	  443.54
      5.6700	  833.00	  563.34	-1733.50	  443.94
      5.7700	  805.00	  563.73	-1733.50	  444.33
      5.8700	  807.00	  564.11	-1733.50	  444.71
      5.9700	  823.00	  564.48	-1733.50	  445.08
      6.0700	  768.00	  564.85	-1733.50	  445.44
      6.1700	  763.00	  565.20	-1733.50	  445.79
      6.2700	  808.00	  565.54	-1733.50	  446.14
      6.3700	  719.00	  565.88	-1733.50	  446.48
      6.4700	  709.00	  566.21	-1733.50	  446.80
      6.5700	  746.00	  566.53	-1733.50	  447.13
      6.6700	  781.00	  566.84	-1733.50	  447.44
      6.7700	  686.00	  567.15	-1733.50	  447.74
      6.8700	  761.00	  567.44	-1733.50	  448.04
      6.9700	  732.00	  567.73	-1733.50	  448.33
      7.0700	  714.00	  568.01	-1733.50	  448.61
      7.1700	  663.00	  568.28	-1733.50	  448.88
      7.2700	  710.00	  568.55	-1733.50	  449.14
      7.3700	  655.00	  568.81	-1733.50	  449.40
      7.4700	  635.00	  569.05	-1733.50	  449.65
      7.5700	  659.00	  569.30	-1733.50	  449.89
      7.6700	  608.00	  569.53	-1733.50	  450.13
      7.7700	  658.00	  569.76	-1733.50	  450.35
      7.8700	  625.00	  569.98	-1733.50	  450.57
      7.9700	  646.00	  570.19	-1733.50	  450.78
      8.0700	  640.00	  570.39	-1733.50	  450.99
      8.1700	  628.00	  570.59	-1733.50	  451.18
      8.2700	  675.00	  570.78	-1733.50	  451.38
      8.3700	  636.00	  570.96	-1733.50	  451.56
      8.4700	  609.00	  571.14	-1733.50	  451.73
      8.5700	  635.00	  571.31	-1733.50	  451.90
      8.6700	  624.00	  571.47	-1733.50	  452.07
      8.7700	  617.00	  571.63	-1733.50	  452.22
      8.8700	  555.00	  571.78	-1733.50	  452.37
      8.9700	  612.00	  571.92	-1733.50	  452.51
      9.0700	  636.00	  572.05	-1733.50	  452.65
      9.1700	  569.00	  572.18	-1733.50	  452.78
      9.2700	  610.00	  572.30	-1733.50	  452.90
      9.3700	  588.00	  572.42	-1733.50	  453.01
      9.4700	  622.00	  572.53	-1733.50	  453.12
      9.5700	  635.00	  572.63	-1733.50	  453.23
      9.6700	  586.00	  572.73	-1733.50	  453.32
      9.7700	  589.00	  572.82	-1733.50	  453.41
      9.8700	  586.00	  572.90	-1733.50	  453.50
      9.9700	  578.00	  572.98	-1733.50	  453.57
     10.0700	  572.00	  573.82	-1735.32	  453.65
     10.1700	  566.00	  573.97	-1741.47	  453.71
     10.2700	  609.00	  574.13	-1698.63	  453.77
     10.3700	  617.00	  574.32	-1690.82	  453.82
     10.4700	  568.00	  574.56	-1740.06	  453.87
     10.5700	  605.00	  574.91	-1703.41	  453.92
     10.6700	  593.00	  575.47	-1715.97	  453.95
     10.7700	  587.00	  576.35	-1722.85	  453.98
     10.8700	  570.00	  577.63	-1741.13	  454.01
     10.9700	  639.00	  579.29	-1673.79	  454.03
     11.0700	  628.00	  581.31	-1686.81	  454.04
     11.1700	  604.00	  583.66	-1713.16	  454.05
     11.2700	  579.00	  586.40	-1740.90	  454.05
     11.3700	  604.00	  589.59	-1719.09	  454.05
     11.4700	  598.00	  593.38	-1728.88	  454.04
     11.5700	  633.00	  597.97	-1698.47	  454.03
     11.6700	  586.00	  603.71	-1751.21	  454.01
     11.7700	  600.00	  611.23	-1744.73	  453.99
     11.8700	  611.00	  621.51	-1744.01	  453.96
     11.9700	  675.00	  635.27	-1693.77	  453.93
     12.0700	  662.00	  650.94	-1722.44	  453.89
     12.1700	  678.00	  662.07	-1717.57	  453.85
     12.2700	  667.00	  658.46	-1724.96	  453.80
     12.3700	  690.00	  637.20	-1680.70	  453.74
     12.4700	  632.00	  611.50	-1713.00	  453.69
     12.5700	  603.00	  592.97	-1723.47	  453.62
     12.6700	  607.00	  583.12	-1709.62	  453.56
     12.7700	  574.00	  578.78	-1738.28	  453.48
     12.8700	  573.00	  576.87	-1737.37	  453.41
     12.9700	  534.00	  575.83	-1775.33	  453.33
     13.0700	  550.00	  575.14	-1758.64	  453.24
     13.1700	  546.00	  574.62	-1762.12	  453.15
     13.2700	  564.00	  574.20	-1743.70	  453.06
     13.3700	  581.00	  573.85	-1726.35	  452.96
     13.4700	  530.00	  573.56	-1777.06	  452.86
     13.5700	  574.00	  573.30	-1732.80	  452.75
     13.6700	  541.00	  573.06	-1765.56	  452.64
     13.7700	  561.00	  572.84	-1745.34	  452.52
     13.8700	  543.00	  572.63	-1763.13	  452.40
     13.9700	  574.00	  572.44	-1731.94	  452.28
     14.0700	  561.00	  572.25	-1744.75	  452.15
     14.1700	  501.00	  572.06	-1804.56	  452.02
     14.2700	  578.00	  571.88	-1727.38	  451.88
     14.3700	  576.00	  571.70	-1729.20	  451.74
     14.4700	  558.00	  571.53	-1747.03	  451.60
     14.5700	  542.00	  571.35	-1762.85	  451.45
     14.6700	  552.00	  571.17	-1752.67	  451.30
     14.7700	  561.00	  570.99	-1743.49	  451.15
     14.8700	  574.00	  570.81	-1730.31	  450.99
     14.9700	  539.00	  570.63	-1765.13	  450.83
     15.0700	  550.00	  570.45	-1753.95	  450.66
     15.1700	  546.00	  570.26	-1757.76	  450.49
     15.2700	  586.00	  570.08	-1717.58	  450.32
     15.3700	  582.00	  569.89	-1721.39	  450.15
     15.4700	  591.00	  569.70	-1712.20	  449.97
     15.5700	  546.00	  569.51	-1757.01	  449.79
     15.6700	  598.00	  569.31	-1704.81	  449.60
     15.7700	  562.00	  569.11	-1740.61	  449.41
     15.8700	  567.00	  568.91	-1735.41	  449.22
     15.9700	  536.00	  568.71	-1766.21	  449.02
     16.0700	  520.00	  568.51	-1782.01	  448.83
     16.1700	  603.00	  568.30	-1698.80	  448.63
     16.2700	  560.00	  568.11	-1741.61	  448.42
     16.3700	  583.00	  567.90	-1718.40	  448.21
     16.4700	  597.00	  567.69	-1704.19	  448.00
     16.5700	  577.00	  567.47	-1723.97	  447.79
     16.6700	  553.00	  567.25	-1747.75	  447.57
     16.7700	  558.00	  567.03	-1742.53	  447.36
     16.8700	  578.00	  566.80	-1722.30	  447.13
     16.9700	  532.00	  566.58	-1768.08	  446.91
     17.0700	  562.00	  566.35	-1737.85	  446.68
     17.1700	  566.00	  566.11	-1733.61	  446.45
     17.2700	  586.00	  565.88	-1713.38	  446.22
     17.3700	  526.00	  565.64	-1773.14	  445.99
     17.4700	  572.00	  565.41	-1726.91	  445.75
     17.5700	  565.00	  565.16	-1733.66	  445.51
     17.6700	  518.00	  564.92	-1780.42	  445.27
     17.7700	  589.00	  564.67	-1709.17	  445.02
     17.8700	  557.00	  564.43	-1740.93	  444.78
     17.9700	  544.00	  564.18	-1753.68	  444.53
     18.0700	  565.00	  564.03	-1732.53	  444.28
     18.1700	  555.00	  563.77	-1742.27	  444.02
     18.2700	  534.00	  563.52	-1763.02	  443.77
     18.3700	  584.00	  563.26	-1712.76	  443.51
     18.4700	  593.00	  563.01	-1703.51	  443.25
     18.5700	  560.00	  562.75	-1736.25	  442.99
     18.6700	  539.00	  562.48	-1756.98	  442.72
     18.7700	  576.00	  562.22	-1719.72	  442.46
     18.8700	  560.00	  561.96	-1735.46	  442.19
     18.9700	  545.00	  561.77	-1750.27	  441.92
     19.0700	  567.00	  561.50	-1728.00	  441.64
     19.1700	  525.00	  561.23	-1769.73	  441.37
     19.2700	  549.00	  560.96	-1745.46	  441.09
     19.3700	  550.00	  560.69	-1744.19	  440.82
     19.4700	  571.00	  560.42	-1722.92	  440.54
     19.5700	  534.00	  560.14	-1759.64	  440.26
     19.6700	  545.00	  559.87	-1748.37	  439.97
     19.7700	  521.00	  559.59	-1772.09	  439.69
     19.8700	  540.00	  559.31	-1752.81	  439.40
     19.9700	  556.00	  559.03	-1736.53	  439.11
     20.0700	  521.00	  558.75	-1771.25	  438.82
     20.1700	  560.00	  558.47	-1731.97	  438.53
     20.2700	  570.00	  558.19	-1721.69	  438.24
     20.3700	  556.00	  557.90	-1735.40	  437.95
     20.4700	  547.00	  557.62	-1744.12	  437.65
     20.5700	  562.00	  557.30	-1728.80	  437.35
     20.6700	  571.00	  557.02	-1719.52	  437.06
     20.7700	  527.00	  556.73	-1763.23	  436.76
     20.8700	  548.00	  556.44	-1741.94	  436.46
     20.9700	  559.00	  556.19	-1730.69	  436.15
     21.0700	  532.00	  555.90	-1757.40	  435.85
     21.1700	  547.00	  555.62	-1742.11	  435.55
     21.2700	  608.00	  555.33	-1680.83	  435.24
     21.3700	  580.00	  555.04	-1708.54	  434.93
     21.4700	  558.00	  554.75	-1730.25	  434.63
     21.5700	  565.00	  554.47	-1722.97	  434.32
     21.6700	  586.00	  554.18	-1701.68	  434.01
     21.7700	  588.00	  553.90	-1699.40	  433.70
     21.8700	  547.00	  553.61	-1740.11	  433.38
     21.9700	  527.00	  553.33	-1759.83	  433.07
     22.0700	  521.00	  553.05	-1765.55	  432.76
     22.1700	  513.00	  552.77	-1773.27	  432.44
     22.2700	  559.00	  552.50	-1727.00	  432.13
     22.3700	  588.00	  552.22	-1697.72	  431.81
     22.4700	  570.00	  551.95	-1715.45	  431.49
     22.5700	  533.00	  551.69	-1752.19	  431.18
     22.6700	  542.00	  551.43	-1742.93	  430.86
     22.7700	  574.00	  551.17	-1710.67	  430.54
     22.8700	  549.00	  550.92	-1735.42	  430.22
     22.9700	  559.00	  550.69	-1725.19	  429.90
     23.0700	  561.00	  550.46	-1722.96	  429.58
     23.1700	  568.00	  550.25	-1715.75	  429.25
     23.2700	  516.00	  550.06	-1767.56	  428.93
     23.3700	  529.00	  549.90	-1754.40	  428.61
     23.4700	  583.00	  549.76	-1700.26	  428.28
     23.5700	  584.00	  549.68	-1699.18	  427.96
     23.6700	  534.00	  549.66	-1749.16	  427.64
     23.7700	  572.00	  549.75	-1711.25	  427.31
     23.8700	  566.00	  550.19	-1717.69	  426.99
     23.9700	  560.00	  550.94	-1724.44	  426.66
     24.0700	  552.00	  552.59	-1734.09	  426.33
     24.1700	  540.00	  555.81	-1749.31	  426.01
     24.2700	  573.00	  561.44	-1721.94	  425.68
     24.3700	  558.00	  570.47	-1745.97	  425.35
     24.4700	  564.00	  583.93	-1753.43	  425.03
     24.5700	  569.00	  602.02	-1766.52	  424.70
     24.6700	  641.00	  621.64	-1714.14	  424.37
     24.7700	  657.00	  634.46	-1710.96	  424.04
     24.8700	  679.00	  629.91	-1684.41	  423.72
     24.9700	  607.00	  607.88	-1734.38	  423.39
     25.0700	  625.00	  582.53	-1691.03	  423.06
     25.1700	  589.00	  564.17	-1708.67	  422.73
     25.2700	  558.00	  554.11	-1729.61	  422.40
     25.3700	  602.00	  549.50	-1681.00	  422.08
     25.4700	  546.00	  547.40	-1734.90	  421.75
     25.5700	  534.00	  546.28	-1745.78	  421.42
     25.6700	  542.00	  545.52	-1737.02	  421.09
     25.7700	  535.00	  544.97	-1743.47	  420.76
     25.8700	  611.00	  544.54	-1667.04	  420.43
     25.9700	  538.00	  544.22	-1739.72	  420.11
     26.0700	  552.00	  543.97	-1725.47	  419.78
     26.1700	  541.00	  543.80	-1736.30	  419.45
     26.2700	  542.00	  543.70	-1735.20	  419.12
     26.3700	  529.00	  543.67	-1748.17	  418.80
     26.4700	  541.00	  543.73	-1736.23	  418.47
     26.5700	  553.00	  543.88	-1724.38	  418.14
     26.6700	  548.00	  544.13	-1729.63	  417.82
     26.7700	  545.00	  544.52	-1733.02	  417.49
     26.8700	  530.00	  545.08	-1748.58	  417.16
     26.9700	  507.00	  545.85	-1772.35	  416.84
     27.0700	  550.00	  546.91	-1730.41	  416.51
     27.1700	  554.00	  548.39	-1727.89	  416.19
     27.2700	  552.00	  550.53	-1732.03	  415.87
     27.3700	  527.00	  553.81	-1760.31	  415.54
     27.4700	  568.00	  559.20	-1724.70	  415.22
     27.5700	  560.00	  568.42	-1741.92	  414.90
     27.6700	  582.00	  584.26	-1735.76	  414.57
     27.7700	  591.00	  610.35	-1752.85	  414.25
     27.8700	  612.00	  649.97	-1771.47	  413.93
     27.9700	  676.00	  703.50	-1761.00	  413.61
     28.0700	  802.00	  765.03	-1696.53	  413.29
     28.1700	  858.00	  819.28	-1694.78	  412.97
     28.2700	  930.00	  842.80	-1646.30	  412.65
     28.3700	  912.00	  820.87	-1642.37	  412.33
     28.4700	  808.00	  774.40	-1699.90	  412.01
     28.5700	  765.00	  740.03	-1708.53	  411.70
     28.6700	  689.00	  735.10	-1779.60	  411.38
     28.7700	  747.00	  755.61	-1742.11	  411.06
     28.8700	  781.00	  782.22	-1734.72	  410.75
     28.9700	  758.00	  787.41	-1762.91	  410.43
     29.0700	  779.00	  753.08	-1707.58	  410.12
     29.1700	  696.00	  693.38	-1730.88	  409.81
     29.2700	  634.00	  636.11	-1735.61	  409.49
     29.3700	  563.00	  594.81	-1765.31	  409.18
     29.4700	  566.00	  569.95	-1737.45	  408.87
     29.5700	  599.00	  556.60	-1691.10	  408.56
     29.6700	  593.00	  549.57	-1690.07	  408.25
     29.7700	  579.00	  545.58	-1700.08	  407.95
     29.8700	  633.00	  543.07	-1643.57	  407.64
     29.9700	  626.00	  541.43	-1648.93	  407.33
     30.0700	  569.00	  540.52	-1705.02	  407.03
     30.1700	  568.00	  540.46	-1705.96	  406.72
     30.2700	  564.00	  541.72	-1711.22	  406.42
     30.3700	  559.00	  545.22	-1719.72	  406.12
     30.4700	  562.00	  552.36	-1723.86	  405.82
     30.5700	  524.00	  564.69	-1774.19	  405.52
     30.6700	  577.00	  582.69	-1739.19	  405.22
     30.7700	  602.00	  604.19	-1735.69	  404.92
     30.8700	  638.00	  623.07	-1718.57	  404.62
     30.9700	  619.00	  629.89	-1744.39	  404.33
     31.0700	  567.00	  618.09	-1784.59	  404.03
     31.1700	  600.00	  593.87	-1727.37	  403.74
     31.2700	  543.00	  569.49	-1759.99	  403.44
     31.3700	  538.00	  551.54	-1747.04	  403.15
     31.4700	  520.00	  540.70	-1754.20	  402.86
     31.5700	  562.00	  534.94	-1706.44	  402.57
     31.6700	  602.00	  532.00	-1663.50	  402.28
     31.7700	  560.00	  530.36	-1703.86	  402.00
     31.8700	  513.00	  529.33	-1749.83	  401.71
     31.9700	  495.00	  528.61	-1767.11	  401.42
     32.0700	  517.00	  528.10	-1744.60	  401.14
     32.1700	  517.00	  527.75	-1744.25	  400.86
     32.2700	  522.00	  527.55	-1739.05	  400.58
     32.3700	  571.00	  527.49	-1689.99	  400.30
     32.4700	  529.00	  527.58	-1732.08	  400.02
     32.5700	  576.00	  527.83	-1685.33	  399.74
     32.6700	  580.00	  528.28	-1681.78	  399.47
     32.7700	  538.00	  528.96	-1724.46	  399.19
     32.8700	  583.00	  529.94	-1680.44	  398.92
     32.9700	  562.00	  531.35	-1702.85	  398.65
     33.0700	  564.00	  533.40	-1702.90	  398.37
     33.1700	  578.00	  536.53	-1692.03	  398.10
     33.2700	  533.00	  541.82	-1742.32	  397.84
     33.3700	  574.00	  551.60	-1711.10	  397.57
     33.4700	  597.00	  570.36	-1706.86	  397.30
     33.5700	  627.00	  605.33	-1711.83	  397.04
     33.6700	  626.00	  664.99	-1772.49	  396.78
     33.7700	  735.00	  753.18	-1751.68	  396.52
     33.8700	  872.00	  860.35	-1721.85	  396.26
     33.9700	  974.00	  957.47	-1716.97	  396.00
     34.0700	 1129.00	  999.93	-1604.43	  395.74
     34.1700	 1020.00	  955.23	-1668.73	  395.49
     34.2700	  937.00	  846.79	-1643.29	  395.23
     34.3700	  778.00	  730.84	-1686.34	  394.98
     34.4700	  625.00	  641.73	-1750.23	  394.73
     34.5700	  577.00	  586.25	-1742.75	  394.48
     34.6700	  558.00	  556.57	-1732.07	  394.23
     34.7700	  542.00	  541.83	-1733.33	  393.98
     34.8700	  547.00	  534.19	-1720.69	  393.74
     34.9700	  546.00	  529.62	-1717.12	  393.50
     35.0700	  499.00	  526.46	-1760.96	  393.25
     35.1700	  510.00	  524.07	-1747.57	  393.01
     35.2700	  534.00	  522.19	-1721.69	  392.77
     35.3700	  508.00	  520.65	-1746.15	  392.54
     35.4700	  537.00	  519.37	-1715.87	  392.30
     35.5700	  528.00	  518.28	-1723.78	  392.07
     35.6700	  565.00	  517.35	-1685.85	  391.84
     35.7700	  495.00	  516.54	-1755.04	  391.60
     35.8700	  536.00	  515.82	-1713.32	  391.37
     35.9700	  549.00	  515.18	-1699.68	  391.15
     36.0700	  499.00	  515.07	-1749.57	  390.92
     36.1700	  551.00	  514.56	-1697.06	  390.70
     36.2700	  492.00	  514.09	-1755.59	  390.47
     36.3700	  457.00	  513.67	-1790.17	  390.25
     36.4700	  528.00	  513.29	-1718.79	  390.03
     36.5700	  532.00	  512.94	-1714.44	  389.81
     36.6700	  472.00	  512.63	-1774.13	  389.60
     36.7700	  517.00	  512.37	-1728.87	  389.38
     36.8700	  505.00	  512.18	-1740.68	  389.17
     36.9700	  510.00	  512.12	-1735.62	  388.96
     37.0700	  503.00	  512.33	-1742.83	  388.75
     37.1700	  528.00	  513.06	-1718.56	  388.54
     37.2700	  500.00	  514.69	-1748.19	  388.34
     37.3700	  534.00	  517.54	-1717.04	  388.13
     37.4700	  515.00	  521.52	-1740.02	  387.93
     37.5700	  544.00	  525.75	-1715.25	  387.73
     37.6700	  511.00	  528.61	-1751.11	  387.53
     37.7700	  535.00	  528.45	-1726.95	  387.33
     37.8700	  584.00	  525.27	-1674.77	  387.13
     37.9700	  556.00	  520.86	-1698.36	  386.94
     38.0700	  511.00	  516.77	-1739.27	  386.75
     38.1700	  506.00	  513.57	-1741.07	  386.56
     38.2700	  482.00	  511.31	-1762.81	  386.37
     38.3700	  475.00	  509.81	-1768.31	  386.18
     38.4700	  507.00	  508.84	-1735.33	  386.00
     38.5700	  513.00	  508.19	-1728.69	  385.81
     38.6700	  522.00	  507.65	-1719.15	  385.63
     38.7700	  488.00	  507.32	-1752.82	  385.45
     38.8700	  507.00	  507.05	-1733.55	  385.27
     38.9700	  468.00	  506.81	-1772.31	  385.10
     39.0700	  537.00	  506.59	-1703.09	  384.92
     39.1700	  519.00	  506.31	-1720.81	  384.75
     39.2700	  500.00	  506.13	-1739.63	  384.58
     39.3700	  519.00	  505.95	-1720.45	  384.41
     39.4700	  504.00	  505.78	-1735.28	  384.24
     39.5700	  505.00	  505.62	-1734.12	  384.07
     39.6700	  513.00	  505.60	-1726.10	  383.91
     39.7700	  448.00	  505.46	-1790.96	  383.75
     39.8700	  504.00	  505.33	-1734.83	  383.59
     39.9700	  488.00	  505.21	-1750.71	  383.43
     40.0700	  479.00	  505.09	-1759.59	  383.27
     40.1700	  503.00	  504.99	-1735.49	  383.12
     40.2700	  505.00	  504.89	-1733.39	  382.96
     40.3700	  478.00	  504.81	-1760.31	  382.81
     40.4700	  516.00	  504.74	-1722.24	  382.66
     40.5700	  531.00	  504.68	-1707.18	  382.51
     40.6700	  534.00	  504.64	-1704.14	  382.37
     40.7700	  543.00	  504.62	-1695.12	  382.22
