MSG Master    CELL:    5.91969   5.91969  23.27712   90.0000   90.0000  120.0000   SPGR: P 63/m m c             TEMP:   1074.85
  1   1280     2.52000     0.00000    -0.12132     0.00000     0.00000    0
    99     0     2
       0.00000      10.00000
     125.00000     130.00000
 2Theta	Yobs	Ycal	Yobs-Ycal	Backg	Posr	(hkl)	K
      0.7700	    1.00	  559.67	-1750.25	  439.50
      0.8700	    0.00	  560.20	-1750.25	  440.02
      0.9700	   31.00	  560.71	-1750.25	  440.54
      1.0700	   37.00	  561.22	-1750.25	  441.04
      1.1700	   40.00	  561.71	-1750.25	  441.54
      1.2700	   39.00	  562.20	-1750.25	  442.02
      1.3700	   39.00	  562.68	-1750.25	  442.50
      1.4700	  102.00	  563.15	-1750.25	  442.97
      1.5700	  294.00	  563.61	-1750.25	  443.43
      1.6700	  443.00	  564.06	-1750.25	  443.88
      1.7700	  588.00	  564.50	-1750.25	  444.33
      1.8700	  598.00	  564.94	-1750.25	  444.76
      1.9700	  696.00	  565.36	-1750.25	  445.19
      2.0700	  754.00	  565.78	-1750.25	  445.61
      2.1700	  825.00	  566.19	-1750.25	  446.02
      2.2700	  726.00	  566.59	-1750.25	  446.42
      2.3700	  756.00	  566.99	-1750.25	  446.81
      2.4700	  745.00	  567.37	-1750.25	  447.20
      2.5700	  700.00	  567.75	-1750.25	  447.58
      2.6700	  687.00	  568.12	-1750.25	  447.95
      2.7700	  644.00	  568.48	-1750.25	  448.31
      2.8700	  651.00	  568.84	-1750.25	  448.66
      2.9700	  600.00	  569.18	-1750.25	  449.01
      3.0700	  608.00	  569.52	-1750.25	  449.34
      3.1700	  581.00	  569.85	-1750.25	  449.68
      3.2700	  625.00	  570.17	-1750.25	  450.00
      3.3700	  700.00	  570.49	-1750.25	  450.31
      3.4700	  772.00	  570.80	-1750.25	  450.62
      3.5700	  780.00	  571.10	-1750.25	  450.92
      3.6700	  911.00	  571.39	-1750.25	  451.21
      3.7700	  890.00	  571.67	-1750.25	  451.50
      3.8700	  958.00	  571.95	-1750.25	  451.78
      3.9700	 1010.00	  572.22	-1750.25	  452.05
      4.0700	 1055.00	  572.49	-1750.25	  452.31
      4.1700	 1098.00	  572.74	-1750.25	  452.57
      4.2700	 1066.00	  572.99	-1750.25	  452.82
      4.3700	 1100.00	  573.24	-1750.25	  453.06
      4.4700	 1079.00	  573.47	-1750.25	  453.30
      4.5700	 1060.00	  573.70	-1750.25	  453.52
      4.6700	 1016.00	  573.92	-1750.25	  453.75
      4.7700	 1006.00	  574.14	-1750.25	  453.96
      4.8700	  985.00	  574.35	-1750.25	  454.17
      4.9700	  910.00	  574.55	-1750.25	  454.37
      5.0700	  890.00	  574.74	-1750.25	  454.57
      5.1700	  914.00	  574.93	-1750.25	  454.75
      5.2700	  899.00	  575.11	-1750.25	  454.94
      5.3700	  879.00	  575.29	-1750.25	  455.11
      5.4700	  857.00	  575.46	-1750.25	  455.28
      5.5700	  903.00	  575.62	-1750.25	  455.44
      5.6700	  876.00	  575.77	-1750.25	  455.60
      5.7700	  875.00	  575.92	-1750.25	  455.75
      5.8700	  844.00	  576.07	-1750.25	  455.89
      5.9700	  813.00	  576.21	-1750.25	  456.03
      6.0700	  827.00	  576.34	-1750.25	  456.16
      6.1700	  722.00	  576.46	-1750.25	  456.29
      6.2700	  802.00	  576.58	-1750.25	  456.41
      6.3700	  751.00	  576.69	-1750.25	  456.52
      6.4700	  715.00	  576.80	-1750.25	  456.63
      6.5700	  757.00	  576.90	-1750.25	  456.73
      6.6700	  708.00	  577.00	-1750.25	  456.82
      6.7700	  698.00	  577.09	-1750.25	  456.91
      6.8700	  723.00	  577.17	-1750.25	  457.00
      6.9700	  722.00	  577.25	-1750.25	  457.08
      7.0700	  659.00	  577.33	-1750.25	  457.15
      7.1700	  708.00	  577.39	-1750.25	  457.22
      7.2700	  708.00	  577.45	-1750.25	  457.28
      7.3700	  674.00	  577.51	-1750.25	  457.34
      7.4700	  665.00	  577.56	-1750.25	  457.39
      7.5700	  623.00	  577.61	-1750.25	  457.43
      7.6700	  663.00	  577.65	-1750.25	  457.47
      7.7700	  667.00	  577.68	-1750.25	  457.51
      7.8700	  670.00	  577.71	-1750.25	  457.54
      7.9700	  625.00	  577.74	-1750.25	  457.56
      8.0700	  633.00	  577.76	-1750.25	  457.58
      8.1700	  657.00	  577.77	-1750.25	  457.60
      8.2700	  652.00	  577.78	-1750.25	  457.61
      8.3700	  637.00	  577.79	-1750.25	  457.61
      8.4700	  640.00	  577.79	-1750.25	  457.61
      8.5700	  654.00	  577.78	-1750.25	  457.61
      8.6700	  641.00	  577.77	-1750.25	  457.60
      8.7700	  636.00	  577.76	-1750.25	  457.58
      8.8700	  563.00	  577.74	-1750.25	  457.56
      8.9700	  637.00	  577.71	-1750.25	  457.54
      9.0700	  626.00	  577.68	-1750.25	  457.51
      9.1700	  636.00	  577.65	-1750.25	  457.47
      9.2700	  590.00	  577.61	-1750.25	  457.44
      9.3700	  609.00	  577.57	-1750.25	  457.39
      9.4700	  622.00	  577.52	-1750.25	  457.35
      9.5700	  607.00	  577.47	-1750.25	  457.29
      9.6700	  615.00	  577.41	-1750.25	  457.24
      9.7700	  669.00	  577.35	-1750.25	  457.18
      9.8700	  608.00	  577.29	-1750.25	  457.11
      9.9700	  560.00	  577.22	-1750.25	  457.04
     10.0700	  573.00	  578.06	-1755.31	  456.97
     10.1700	  646.00	  578.08	-1682.33	  456.89
     10.2700	  635.00	  578.12	-1693.37	  456.81
     10.3700	  593.00	  578.20	-1735.45	  456.73
     10.4700	  545.00	  578.34	-1783.59	  456.64
     10.5700	  612.00	  578.61	-1716.86	  456.54
     10.6700	  598.00	  579.09	-1731.34	  456.45
     10.7700	  629.00	  579.93	-1701.18	  456.34
     10.8700	  606.00	  581.18	-1725.43	  456.24
     10.9700	  578.00	  582.84	-1755.09	  456.13
     11.0700	  568.00	  584.89	-1767.14	  456.02
     11.1700	  584.00	  587.32	-1753.57	  455.90
     11.2700	  591.00	  590.16	-1749.41	  455.78
     11.3700	  559.00	  593.50	-1784.75	  455.66
     11.4700	  614.00	  597.49	-1733.74	  455.53
     11.5700	  624.00	  602.33	-1728.58	  455.40
     11.6700	  549.00	  608.42	-1809.67	  455.26
     11.7700	  636.00	  616.38	-1730.63	  455.12
     11.8700	  605.00	  627.17	-1772.42	  454.98
     11.9700	  693.00	  641.33	-1698.58	  454.84
     12.0700	  702.00	  657.12	-1705.37	  454.69
     12.1700	  698.00	  668.23	-1720.48	  454.54
     12.2700	  691.00	  664.79	-1724.04	  454.38
     12.3700	  694.00	  643.58	-1699.83	  454.22
     12.4700	  624.00	  617.21	-1743.46	  454.06
     12.5700	  620.00	  597.44	-1727.69	  453.89
     12.6700	  609.00	  586.30	-1727.55	  453.73
     12.7700	  571.00	  581.02	-1760.27	  453.56
     12.8700	  572.00	  578.55	-1756.80	  453.38
     12.9700	  566.00	  577.18	-1761.43	  453.20
     13.0700	  541.00	  576.24	-1785.49	  453.02
     13.1700	  568.00	  575.53	-1757.78	  452.84
     13.2700	  586.00	  574.94	-1739.19	  452.65
     13.3700	  554.00	  574.45	-1770.70	  452.46
     13.4700	  581.00	  574.02	-1743.27	  452.27
     13.5700	  525.00	  573.63	-1798.88	  452.08
     13.6700	  549.00	  573.28	-1774.53	  451.88
     13.7700	  531.00	  572.95	-1792.20	  451.68
     13.8700	  527.00	  572.64	-1795.89	  451.48
     13.9700	  596.00	  572.35	-1726.60	  451.27
     14.0700	  541.00	  572.06	-1781.31	  451.06
     14.1700	  538.00	  571.79	-1784.04	  450.85
     14.2700	  531.00	  571.52	-1790.77	  450.64
     14.3700	  535.00	  571.25	-1786.50	  450.42
     14.4700	  535.00	  570.99	-1786.24	  450.20
     14.5700	  565.00	  570.74	-1755.99	  449.98
     14.6700	  591.00	  570.48	-1729.73	  449.76
     14.7700	  542.00	  570.22	-1778.47	  449.54
     14.8700	  576.00	  569.97	-1744.22	  449.31
     14.9700	  539.00	  569.72	-1780.97	  449.08
     15.0700	  589.00	  569.46	-1730.71	  448.84
     15.1700	  547.00	  569.21	-1772.46	  448.61
     15.2700	  588.00	  568.95	-1731.20	  448.37
     15.3700	  547.00	  568.70	-1771.95	  448.13
     15.4700	  585.00	  568.44	-1733.69	  447.89
     15.5700	  533.00	  568.19	-1785.44	  447.65
     15.6700	  559.00	  567.93	-1759.18	  447.40
     15.7700	  583.00	  567.67	-1734.92	  447.15
     15.8700	  555.00	  567.41	-1762.66	  446.91
     15.9700	  560.00	  567.17	-1757.42	  446.65
     16.0700	  594.00	  566.91	-1723.16	  446.40
     16.1700	  549.00	  566.65	-1767.90	  446.14
     16.2700	  573.00	  566.39	-1743.64	  445.89
     16.3700	  606.00	  566.12	-1710.37	  445.63
     16.4700	  572.00	  565.85	-1744.10	  445.37
     16.5700	  505.00	  565.59	-1810.84	  445.10
     16.6700	  592.00	  565.32	-1723.57	  444.84
     16.7700	  555.00	  565.04	-1760.29	  444.57
     16.8700	  559.00	  564.77	-1756.02	  444.31
     16.9700	  572.00	  564.50	-1742.75	  444.04
     17.0700	  557.00	  564.22	-1757.47	  443.76
     17.1700	  567.00	  563.95	-1747.20	  443.49
     17.2700	  568.00	  563.67	-1745.92	  443.22
     17.3700	  565.00	  563.39	-1748.64	  442.94
     17.4700	  552.00	  563.11	-1761.36	  442.66
     17.5700	  564.00	  562.83	-1749.08	  442.38
     17.6700	  524.00	  562.55	-1788.80	  442.10
     17.7700	  570.00	  562.27	-1742.52	  441.82
     17.8700	  584.00	  561.98	-1728.23	  441.54
     17.9700	  551.00	  561.70	-1760.95	  441.25
     18.0700	  536.00	  561.41	-1775.66	  440.97
     18.1700	  584.00	  561.22	-1727.47	  440.68
     18.2700	  527.00	  560.94	-1784.19	  440.39
     18.3700	  544.00	  560.65	-1766.90	  440.10
     18.4700	  595.00	  560.36	-1715.61	  439.81
     18.5700	  531.00	  560.07	-1779.32	  439.52
     18.6700	  524.00	  559.78	-1786.03	  439.23
     18.7700	  524.00	  559.49	-1785.74	  438.93
     18.8700	  586.00	  559.19	-1723.44	  438.64
     18.9700	  575.00	  558.98	-1734.23	  438.34
     19.0700	  545.00	  558.69	-1763.94	  438.04
     19.1700	  577.00	  558.39	-1731.64	  437.74
     19.2700	  580.00	  558.10	-1728.35	  437.44
     19.3700	  561.00	  557.81	-1747.06	  437.14
     19.4700	  573.00	  557.51	-1734.76	  436.84
     19.5700	  566.00	  557.21	-1741.46	  436.54
     19.6700	  545.00	  556.92	-1762.17	  436.23
     19.7700	  560.00	  556.62	-1746.87	  435.93
     19.8700	  548.00	  556.32	-1758.57	  435.62
     19.9700	  582.00	  556.03	-1724.28	  435.32
     20.0700	  536.00	  555.73	-1769.98	  435.01
     20.1700	  566.00	  555.43	-1739.68	  434.70
     20.2700	  549.00	  555.13	-1756.38	  434.40
     20.3700	  595.00	  554.83	-1710.08	  434.09
     20.4700	  551.00	  554.54	-1753.79	  433.78
     20.5700	  511.00	  554.24	-1793.49	  433.47
     20.6700	  554.00	  553.90	-1750.15	  433.16
     20.7700	  534.00	  553.60	-1769.85	  432.84
     20.8700	  591.00	  553.34	-1712.59	  432.53
     20.9700	  564.00	  553.05	-1739.30	  432.22
     21.0700	  566.00	  552.75	-1737.00	  431.91
     21.1700	  510.00	  552.45	-1792.70	  431.59
     21.2700	  515.00	  552.16	-1787.41	  431.28
     21.3700	  523.00	  551.87	-1779.12	  430.96
     21.4700	  587.00	  551.57	-1714.82	  430.65
     21.5700	  553.00	  551.28	-1748.53	  430.33
     21.6700	  578.00	  550.99	-1723.24	  430.02
     21.7700	  533.00	  550.70	-1767.95	  429.70
     21.8700	  531.00	  550.41	-1769.66	  429.38
     21.9700	  500.00	  550.13	-1800.38	  429.07
     22.0700	  561.00	  549.84	-1739.09	  428.75
     22.1700	  529.00	  549.56	-1770.81	  428.43
     22.2700	  579.00	  549.29	-1720.54	  428.11
     22.3700	  544.00	  549.01	-1755.26	  427.79
     22.4700	  595.00	  548.74	-1703.99	  427.48
     22.5700	  571.00	  548.48	-1727.73	  427.16
     22.6700	  554.00	  548.22	-1744.47	  426.84
     22.7700	  578.00	  547.97	-1720.22	  426.52
     22.8700	  577.00	  547.73	-1720.98	  426.20
     22.9700	  542.00	  547.50	-1755.75	  425.88
     23.0700	  529.00	  547.28	-1768.53	  425.56
     23.1700	  600.00	  547.08	-1697.33	  425.24
     23.2700	  512.00	  546.89	-1785.14	  424.92
     23.3700	  523.00	  546.74	-1773.99	  424.60
     23.4700	  566.00	  546.62	-1730.87	  424.28
     23.5700	  556.00	  546.55	-1740.80	  423.96
     23.6700	  560.00	  546.69	-1736.94	  423.64
     23.7700	  583.00	  546.80	-1714.05	  423.32
     23.8700	  554.00	  547.13	-1743.38	  423.01
     23.9700	  561.00	  547.89	-1737.14	  422.69
     24.0700	  500.00	  549.46	-1799.71	  422.37
     24.1700	  576.00	  552.47	-1726.72	  422.05
     24.2700	  574.00	  557.67	-1733.92	  421.73
     24.3700	  562.00	  565.95	-1754.20	  421.41
     24.4700	  589.00	  578.16	-1739.41	  421.09
     24.5700	  587.00	  594.35	-1757.60	  420.77
     24.6700	  621.00	  611.89	-1741.14	  420.46
     24.7700	  585.00	  623.81	-1789.06	  420.14
     24.8700	  682.00	  620.96	-1689.21	  419.82
     24.9700	  609.00	  602.24	-1743.49	  419.50
     25.0700	  592.00	  579.44	-1737.69	  419.19
     25.1700	  538.00	  562.10	-1774.35	  418.87
     25.2700	  539.00	  552.02	-1763.27	  418.55
     25.3700	  549.00	  547.09	-1748.34	  418.24
     25.4700	  558.00	  544.78	-1737.03	  417.92
     25.5700	  527.00	  543.55	-1766.80	  417.61
     25.6700	  521.00	  542.75	-1772.00	  417.29
     25.7700	  547.00	  542.17	-1745.42	  416.98
     25.8700	  577.00	  541.74	-1714.99	  416.66
     25.9700	  552.00	  541.40	-1739.65	  416.35
     26.0700	  551.00	  541.16	-1740.41	  416.04
     26.1700	  532.00	  541.00	-1759.25	  415.73
     26.2700	  506.00	  540.90	-1785.15	  415.41
     26.3700	  579.00	  540.89	-1712.14	  415.10
     26.4700	  547.00	  540.96	-1744.21	  414.79
     26.5700	  561.00	  541.12	-1730.37	  414.48
     26.6700	  501.00	  541.40	-1790.65	  414.17
     26.7700	  514.00	  541.80	-1778.05	  413.86
     26.8700	  557.00	  542.38	-1735.63	  413.55
     26.9700	  589.00	  543.18	-1704.43	  413.25
     27.0700	  559.00	  544.26	-1735.51	  412.94
     27.1700	  577.00	  545.78	-1719.03	  412.63
     27.2700	  578.00	  547.95	-1720.20	  412.33
     27.3700	  520.00	  551.27	-1781.52	  412.02
     27.4700	  554.00	  556.72	-1752.97	  411.72
     27.5700	  557.00	  566.05	-1759.30	  411.41
     27.6700	  551.00	  582.07	-1781.32	  411.11
     27.7700	  615.00	  608.46	-1743.71	  410.81
     27.8700	  612.00	  648.54	-1786.79	  410.50
     27.9700	  683.00	  702.70	-1769.95	  410.20
     28.0700	  781.00	  764.93	-1734.18	  409.90
     28.1700	  895.00	  819.69	-1674.94	  409.60
     28.2700	  934.00	  843.20	-1659.45	  409.30
     28.3700	  895.00	  820.69	-1675.94	  409.01
     28.4700	  806.00	  773.63	-1717.88	  408.71
     28.5700	  738.00	  738.96	-1751.21	  408.41
     28.6700	  738.00	  733.97	-1746.22	  408.12
     28.7700	  737.00	  754.43	-1767.68	  407.82
     28.8700	  769.00	  780.89	-1762.14	  407.53
     28.9700	  782.00	  785.88	-1754.13	  407.24
     29.0700	  745.00	  751.49	-1756.74	  406.95
     29.1700	  687.00	  691.93	-1755.18	  406.66
     29.2700	  633.00	  634.77	-1752.02	  406.37
     29.3700	  579.00	  593.46	-1764.71	  406.08
     29.4700	  616.00	  568.51	-1702.76	  405.79
     29.5700	  576.00	  555.06	-1729.31	  405.50
     29.6700	  619.00	  547.99	-1679.24	  405.22
     29.7700	  609.00	  544.01	-1685.26	  404.93
     29.8700	  575.00	  541.54	-1716.79	  404.65
     29.9700	  558.00	  540.00	-1732.25	  404.37
     30.0700	  539.00	  539.23	-1750.48	  404.08
     30.1700	  576.00	  539.41	-1713.66	  403.80
     30.2700	  607.00	  541.05	-1684.30	  403.52
     30.3700	  577.00	  545.20	-1718.45	  403.24
     30.4700	  592.00	  553.41	-1711.66	  402.97
     30.5700	  559.00	  567.33	-1758.58	  402.69
     30.6700	  567.00	  587.45	-1770.70	  402.42
     30.7700	  596.00	  611.32	-1765.57	  402.14
     30.8700	  606.00	  632.24	-1776.49	  401.87
     30.9700	  651.00	  639.93	-1739.18	  401.60
     31.0700	  583.00	  627.14	-1794.39	  401.33
     31.1700	  615.00	  600.53	-1735.78	  401.06
     31.2700	  559.00	  573.59	-1764.84	  400.79
     31.3700	  530.00	  553.58	-1773.83	  400.52
     31.4700	  573.00	  541.35	-1718.60	  400.25
     31.5700	  559.00	  534.80	-1726.05	  399.99
     31.6700	  580.00	  531.44	-1701.69	  399.73
     31.7700	  546.00	  529.59	-1733.84	  399.46
     31.8700	  529.00	  528.45	-1749.70	  399.20
     31.9700	  538.00	  527.67	-1739.92	  398.94
     32.0700	  555.00	  527.14	-1722.39	  398.68
     32.1700	  517.00	  526.79	-1760.04	  398.42
     32.2700	  553.00	  526.60	-1723.85	  398.17
     32.3700	  610.00	  526.57	-1666.82	  397.91
     32.4700	  528.00	  526.70	-1748.95	  397.66
     32.5700	  556.00	  527.01	-1721.26	  397.41
     32.6700	  554.00	  527.53	-1723.78	  397.16
     32.7700	  557.00	  528.31	-1721.56	  396.91
     32.8700	  532.00	  529.42	-1747.67	  396.66
     32.9700	  512.00	  530.99	-1769.24	  396.41
     33.0700	  507.00	  533.24	-1776.49	  396.16
     33.1700	  527.00	  536.67	-1759.92	  395.92
     33.2700	  545.00	  542.39	-1747.64	  395.68
     33.3700	  527.00	  552.78	-1776.03	  395.43
     33.4700	  598.00	  572.42	-1724.67	  395.19
     33.5700	  640.00	  608.46	-1718.71	  394.95
     33.6700	  675.00	  669.14	-1744.39	  394.72
     33.7700	  742.00	  758.00	-1766.25	  394.48
     33.8700	  941.00	  865.46	-1674.71	  394.24
     33.9700	  977.00	  963.00	-1736.25	  394.01
     34.0700	 1080.00	 1006.80	-1677.05	  393.78
     34.1700	  972.00	  964.11	-1742.36	  393.55
     34.2700	  902.00	  856.71	-1704.96	  393.32
     34.3700	  775.00	  740.11	-1715.36	  393.09
     34.4700	  644.00	  649.10	-1755.35	  392.86
     34.5700	  577.00	  591.28	-1764.53	  392.64
     34.6700	  582.00	  559.62	-1727.87	  392.41
     34.7700	  525.00	  543.56	-1768.81	  392.19
     34.8700	  546.00	  535.17	-1739.42	  391.97
     34.9700	  516.00	  530.18	-1764.43	  391.75
     35.0700	  525.00	  526.78	-1752.03	  391.53
     35.1700	  545.00	  524.21	-1729.46	  391.32
     35.2700	  504.00	  522.19	-1768.44	  391.10
     35.3700	  551.00	  520.55	-1719.80	  390.89
     35.4700	  505.00	  519.20	-1764.45	  390.68
     35.5700	  530.00	  518.06	-1738.31	  390.47
     35.6700	  502.00	  517.08	-1765.33	  390.26
     35.7700	  537.00	  516.24	-1729.49	  390.05
     35.8700	  502.00	  515.51	-1763.76	  389.84
     35.9700	  544.00	  514.85	-1721.10	  389.64
     36.0700	  515.00	  514.73	-1749.98	  389.44
     36.1700	  476.00	  514.21	-1788.46	  389.23
     36.2700	  523.00	  513.75	-1741.00	  389.03
     36.3700	  518.00	  513.33	-1745.58	  388.84
     36.4700	  481.00	  512.96	-1782.21	  388.64
     36.5700	  501.00	  512.62	-1761.87	  388.44
     36.6700	  501.00	  512.33	-1761.58	  388.25
     36.7700	  484.00	  512.08	-1778.33	  388.06
     36.8700	  500.00	  511.91	-1762.16	  387.87
     36.9700	  496.00	  511.87	-1766.12	  387.68
     37.0700	  551.00	  512.07	-1711.32	  387.49
     37.1700	  517.00	  512.74	-1745.99	  387.30
     37.2700	  501.00	  514.21	-1763.46	  387.12
     37.3700	  453.00	  516.75	-1814.00	  386.94
     37.4700	  540.00	  520.34	-1730.59	  386.75
     37.5700	  522.00	  524.34	-1752.59	  386.57
     37.6700	  535.00	  527.43	-1742.68	  386.40
     37.7700	  504.00	  528.17	-1774.42	  386.22
     37.8700	  512.00	  526.24	-1764.49	  386.04
     37.9700	  504.00	  522.91	-1769.16	  385.87
     38.0700	  514.00	  519.33	-1755.58	  385.70
     38.1700	  519.00	  515.98	-1747.23	  385.53
     38.2700	  496.00	  513.16	-1767.41	  385.36
     38.3700	  518.00	  511.03	-1743.28	  385.19
     38.4700	  482.00	  509.56	-1777.81	  385.03
     38.5700	  447.00	  508.60	-1811.85	  384.86
     38.6700	  521.00	  507.89	-1737.14	  384.70
     38.7700	  504.00	  507.47	-1753.72	  384.54
     38.8700	  472.00	  507.17	-1785.42	  384.38
     38.9700	  502.00	  506.91	-1755.17	  384.22
     39.0700	  517.00	  506.70	-1739.95	  384.07
     39.1700	  451.00	  506.42	-1805.67	  383.91
     39.2700	  538.00	  506.24	-1718.49	  383.76
     39.3700	  491.00	  506.20	-1765.45	  383.61
     39.4700	  539.00	  506.05	-1717.30	  383.46
     39.5700	  479.00	  505.90	-1777.15	  383.31
     39.6700	  518.00	  505.77	-1738.02	  383.17
     39.7700	  483.00	  505.65	-1772.90	  383.02
     39.8700	  475.00	  505.53	-1780.78	  382.88
     39.9700	  534.00	  505.42	-1721.67	  382.74
     40.0700	  510.00	  505.33	-1745.58	  382.60
     40.1700	  478.00	  505.24	-1777.49	  382.46
     40.2700	  519.00	  505.17	-1736.42	  382.32
     40.3700	  515.00	  505.10	-1740.35	  382.19
     40.4700	  499.00	  505.05	-1756.30	  382.05
     40.5700	  532.00	  505.02	-1723.27	  381.92
     40.6700	  490.00	  505.00	-1765.25	  381.79
     40.7700	  493.00	  505.00	-1762.25	  381.66
