MSG Master    CELL:    5.89969   5.89969  23.17011   90.0000   90.0000  120.0000   SPGR: P 63/m m c             TEMP:    776.45
  1   1280     2.52000     0.00000    -0.12744     0.00000     0.00000    0
    97     0     2
       0.00000      10.00000
     125.00000     130.00000
 2Theta	Yobs	Ycal	Yobs-Ycal	Backg	Posr	(hkl)	K
      0.7700	    0.00	  468.80	-1773.50	  365.81
      0.8700	    0.00	  471.07	-1773.50	  368.08
      0.9700	   46.00	  473.31	-1773.50	  370.32
      1.0700	   39.00	  475.53	-1773.50	  372.54
      1.1700	   42.00	  477.73	-1773.50	  374.74
      1.2700	   40.00	  479.91	-1773.50	  376.92
      1.3700	   44.00	  482.06	-1773.50	  379.07
      1.4700	  103.00	  484.19	-1773.50	  381.20
      1.5700	  282.00	  486.30	-1773.50	  383.31
      1.6700	  440.00	  488.39	-1773.50	  385.40
      1.7700	  568.00	  490.45	-1773.50	  387.46
      1.8700	  641.00	  492.49	-1773.50	  389.50
      1.9700	  735.00	  494.51	-1773.50	  391.52
      2.0700	  763.00	  496.51	-1773.50	  393.52
      2.1700	  773.00	  498.48	-1773.50	  395.49
      2.2700	  722.00	  500.44	-1773.50	  397.45
      2.3700	  720.00	  502.37	-1773.50	  399.38
      2.4700	  762.00	  504.28	-1773.50	  401.29
      2.5700	  663.00	  506.17	-1773.50	  403.18
      2.6700	  720.00	  508.04	-1773.50	  405.05
      2.7700	  624.00	  509.88	-1773.50	  406.89
      2.8700	  629.00	  511.71	-1773.50	  408.72
      2.9700	  643.00	  513.51	-1773.50	  410.52
      3.0700	  598.00	  515.30	-1773.50	  412.31
      3.1700	  572.00	  517.06	-1773.50	  414.07
      3.2700	  730.00	  518.80	-1773.50	  415.81
      3.3700	  845.00	  520.53	-1773.50	  417.54
      3.4700	  949.00	  522.23	-1773.50	  419.24
      3.5700	 1066.00	  523.91	-1773.50	  420.92
      3.6700	 1191.00	  525.57	-1773.50	  422.58
      3.7700	 1233.00	  527.22	-1773.50	  424.23
      3.8700	 1394.00	  528.84	-1773.50	  425.85
      3.9700	 1432.00	  530.44	-1773.50	  427.45
      4.0700	 1438.00	  532.03	-1773.50	  429.04
      4.1700	 1486.00	  533.59	-1773.50	  430.60
      4.2700	 1528.00	  535.14	-1773.50	  432.15
      4.3700	 1507.00	  536.66	-1773.50	  433.68
      4.4700	 1410.00	  538.17	-1773.50	  435.18
      4.5700	 1427.00	  539.66	-1773.50	  436.67
      4.6700	 1316.00	  541.13	-1773.50	  438.14
      4.7700	 1286.00	  542.58	-1773.50	  439.59
      4.8700	 1265.00	  544.02	-1773.50	  441.03
      4.9700	 1213.00	  545.43	-1773.50	  442.44
      5.0700	 1130.00	  546.83	-1773.50	  443.84
      5.1700	 1184.00	  548.20	-1773.50	  445.21
      5.2700	 1085.00	  549.56	-1773.50	  446.57
      5.3700	 1101.00	  550.91	-1773.50	  447.92
      5.4700	 1075.00	  552.23	-1773.50	  449.24
      5.5700	 1037.00	  553.54	-1773.50	  450.55
      5.6700	  998.00	  554.83	-1773.50	  451.84
      5.7700	  948.00	  556.10	-1773.50	  453.11
      5.8700	  957.00	  557.35	-1773.50	  454.36
      5.9700	  884.00	  558.59	-1773.50	  455.60
      6.0700	  961.00	  559.81	-1773.50	  456.82
      6.1700	  918.00	  561.01	-1773.50	  458.02
      6.2700	  863.00	  562.20	-1773.50	  459.21
      6.3700	  899.00	  563.37	-1773.50	  460.38
      6.4700	  873.00	  564.52	-1773.50	  461.53
      6.5700	  861.00	  565.66	-1773.50	  462.67
      6.6700	  818.00	  566.78	-1773.50	  463.79
      6.7700	  813.00	  567.88	-1773.50	  464.89
      6.8700	  898.00	  568.97	-1773.50	  465.98
      6.9700	  798.00	  570.04	-1773.50	  467.05
      7.0700	  820.00	  571.10	-1773.50	  468.11
      7.1700	  728.00	  572.14	-1773.50	  469.15
      7.2700	  768.00	  573.16	-1773.50	  470.17
      7.3700	  728.00	  574.17	-1773.50	  471.18
      7.4700	  707.00	  575.16	-1773.50	  472.17
      7.5700	  777.00	  576.14	-1773.50	  473.15
      7.6700	  767.00	  577.10	-1773.50	  474.11
      7.7700	  703.00	  578.05	-1773.50	  475.06
      7.8700	  728.00	  578.98	-1773.50	  475.99
      7.9700	  705.00	  579.90	-1773.50	  476.91
      8.0700	  668.00	  580.80	-1773.50	  477.81
      8.1700	  676.00	  581.68	-1773.50	  478.69
      8.2700	  665.00	  582.56	-1773.50	  479.57
      8.3700	  692.00	  583.41	-1773.50	  480.42
      8.4700	  713.00	  584.26	-1773.50	  481.27
      8.5700	  682.00	  585.09	-1773.50	  482.10
      8.6700	  674.00	  585.90	-1773.50	  482.91
      8.7700	  661.00	  586.70	-1773.50	  483.71
      8.8700	  678.00	  587.49	-1773.50	  484.50
      8.9700	  679.00	  588.26	-1773.50	  485.27
      9.0700	  706.00	  589.02	-1773.50	  486.03
      9.1700	  656.00	  589.76	-1773.50	  486.77
      9.2700	  620.00	  590.49	-1773.50	  487.51
      9.3700	  689.00	  591.21	-1773.50	  488.22
      9.4700	  673.00	  591.92	-1773.50	  488.93
      9.5700	  677.00	  592.61	-1773.50	  489.62
      9.6700	  664.00	  593.29	-1773.50	  490.30
      9.7700	  694.00	  593.95	-1773.50	  490.96
      9.8700	  683.00	  594.60	-1773.50	  491.61
      9.9700	  646.00	  595.24	-1773.50	  492.25
     10.0700	  676.00	  599.36	-1696.86	  492.87
     10.1700	  620.00	  600.18	-1753.68	  493.49
     10.2700	  647.00	  601.03	-1727.53	  494.09
     10.3700	  660.00	  601.94	-1715.44	  494.68
     10.4700	  628.00	  602.93	-1748.43	  495.25
     10.5700	  609.00	  604.05	-1768.55	  495.81
     10.6700	  666.00	  605.40	-1712.90	  496.36
     10.7700	  650.00	  607.05	-1730.55	  496.90
     10.8700	  638.00	  609.10	-1744.60	  497.43
     10.9700	  598.00	  611.61	-1787.11	  497.94
     11.0700	  615.00	  614.58	-1773.08	  498.44
     11.1700	  654.00	  618.02	-1737.52	  498.93
     11.2700	  651.00	  621.97	-1744.47	  499.41
     11.3700	  640.00	  626.48	-1759.98	  499.88
     11.4700	  636.00	  631.70	-1769.20	  500.34
     11.5700	  662.00	  637.83	-1749.33	  500.78
     11.6700	  655.00	  645.16	-1763.66	  501.21
     11.7700	  670.00	  654.09	-1757.59	  501.63
     11.8700	  689.00	  664.95	-1749.45	  502.05
     11.9700	  713.00	  677.60	-1738.10	  502.44
     12.0700	  722.00	  690.74	-1742.24	  502.83
     12.1700	  762.00	  701.20	-1712.70	  503.21
     12.2700	  753.00	  703.67	-1724.17	  503.58
     12.3700	  732.00	  693.66	-1735.16	  503.93
     12.4700	  662.00	  674.41	-1785.91	  504.28
     12.5700	  660.00	  654.70	-1768.20	  504.61
     12.6700	  641.00	  639.56	-1772.06	  504.94
     12.7700	  596.00	  629.62	-1807.12	  505.25
     12.8700	  654.00	  623.71	-1743.21	  505.56
     12.9700	  587.00	  620.36	-1806.86	  505.85
     13.0700	  636.00	  618.42	-1755.92	  506.13
     13.1700	  592.00	  617.24	-1798.74	  506.41
     13.2700	  589.00	  616.47	-1800.97	  506.67
     13.3700	  619.00	  615.95	-1770.45	  506.92
     13.4700	  560.00	  615.59	-1829.09	  507.17
     13.5700	  605.00	  615.37	-1783.87	  507.40
     13.6700	  591.00	  615.21	-1797.71	  507.63
     13.7700	  627.00	  615.11	-1761.61	  507.84
     13.8700	  574.00	  615.05	-1814.55	  508.05
     13.9700	  546.00	  615.03	-1842.53	  508.24
     14.0700	  580.00	  615.03	-1808.53	  508.43
     14.1700	  566.00	  615.05	-1822.55	  508.61
     14.2700	  604.00	  615.08	-1784.58	  508.78
     14.3700	  571.00	  615.12	-1817.62	  508.94
     14.4700	  604.00	  615.17	-1784.67	  509.09
     14.5700	  624.00	  615.22	-1764.72	  509.23
     14.6700	  591.00	  615.28	-1797.78	  509.36
     14.7700	  592.00	  615.34	-1796.84	  509.49
     14.8700	  604.00	  615.39	-1784.89	  509.60
     14.9700	  543.00	  615.44	-1845.94	  509.71
     15.0700	  576.00	  615.49	-1812.99	  509.81
     15.1700	  627.00	  615.54	-1762.04	  509.90
     15.2700	  600.00	  615.58	-1789.08	  509.98
     15.3700	  588.00	  615.62	-1801.12	  510.06
     15.4700	  619.00	  615.66	-1770.16	  510.12
     15.5700	  585.00	  615.69	-1804.19	  510.18
     15.6700	  626.00	  615.71	-1763.21	  510.23
     15.7700	  639.00	  615.73	-1750.23	  510.27
     15.8700	  598.00	  615.74	-1791.24	  510.31
     15.9700	  573.00	  615.75	-1816.25	  510.33
     16.0700	  611.00	  615.75	-1778.25	  510.35
     16.1700	  587.00	  615.75	-1802.25	  510.36
     16.2700	  609.00	  615.74	-1780.24	  510.37
     16.3700	  653.00	  615.72	-1736.22	  510.36
     16.4700	  598.00	  615.70	-1791.20	  510.35
     16.5700	  601.00	  615.67	-1788.17	  510.33
     16.6700	  602.00	  615.63	-1787.13	  510.31
     16.7700	  574.00	  615.59	-1815.09	  510.28
     16.8700	  602.00	  615.54	-1787.04	  510.24
     16.9700	  618.00	  615.49	-1770.99	  510.19
     17.0700	  618.00	  615.43	-1770.93	  510.14
     17.1700	  582.00	  615.36	-1806.86	  510.07
     17.2700	  622.00	  615.29	-1766.79	  510.01
     17.3700	  589.00	  615.21	-1799.71	  509.93
     17.4700	  594.00	  615.24	-1794.74	  509.85
     17.5700	  543.00	  615.16	-1845.66	  509.76
     17.6700	  646.00	  615.06	-1742.56	  509.67
     17.7700	  581.00	  614.96	-1807.46	  509.57
     17.8700	  558.00	  614.99	-1830.49	  509.46
     17.9700	  612.00	  614.88	-1776.38	  509.35
     18.0700	  612.00	  614.77	-1776.27	  509.23
     18.1700	  626.00	  614.65	-1762.15	  509.11
     18.2700	  599.00	  614.52	-1789.02	  508.97
     18.3700	  586.00	  614.39	-1801.89	  508.84
     18.4700	  611.00	  614.25	-1776.75	  508.69
     18.5700	  603.00	  614.11	-1784.61	  508.54
     18.6700	  634.00	  613.96	-1753.46	  508.39
     18.7700	  612.00	  613.81	-1775.31	  508.23
     18.8700	  584.00	  613.65	-1803.15	  508.06
     18.9700	  601.00	  613.49	-1785.99	  507.89
     19.0700	  598.00	  613.32	-1788.82	  507.71
     19.1700	  615.00	  613.15	-1771.65	  507.53
     19.2700	  548.00	  612.97	-1838.47	  507.34
     19.3700	  570.00	  612.79	-1816.29	  507.14
     19.4700	  587.00	  612.60	-1799.10	  506.94
     19.5700	  585.00	  612.45	-1800.95	  506.74
     19.6700	  588.00	  612.26	-1797.76	  506.53
     19.7700	  595.00	  612.06	-1790.56	  506.31
     19.8700	  589.00	  611.86	-1796.36	  506.09
     19.9700	  552.00	  611.65	-1833.15	  505.87
     20.0700	  617.00	  611.44	-1767.94	  505.64
     20.1700	  546.00	  611.22	-1838.72	  505.40
     20.2700	  605.00	  611.00	-1779.50	  505.16
     20.3700	  591.00	  610.78	-1793.28	  504.92
     20.4700	  602.00	  610.55	-1782.05	  504.67
     20.5700	  560.00	  610.32	-1823.82	  504.42
     20.6700	  587.00	  610.09	-1796.59	  504.16
     20.7700	  584.00	  609.85	-1799.35	  503.90
     20.8700	  625.00	  609.61	-1758.11	  503.63
     20.9700	  601.00	  609.37	-1781.87	  503.36
     21.0700	  645.00	  609.12	-1737.62	  503.08
     21.1700	  597.00	  608.88	-1785.38	  502.80
     21.2700	  571.00	  608.63	-1811.13	  502.52
     21.3700	  591.00	  608.37	-1790.88	  502.23
     21.4700	  584.00	  608.12	-1797.62	  501.93
     21.5700	  581.00	  607.87	-1800.37	  501.64
     21.6700	  614.00	  607.61	-1767.11	  501.34
     21.7700	  580.00	  607.36	-1800.86	  501.03
     21.8700	  617.00	  607.10	-1763.60	  500.72
     21.9700	  598.00	  606.84	-1782.34	  500.41
     22.0700	  589.00	  606.74	-1791.24	  500.09
     22.1700	  599.00	  606.49	-1780.99	  499.78
     22.2700	  625.00	  606.24	-1754.74	  499.45
     22.3700	  633.00	  606.00	-1746.50	  499.12
     22.4700	  584.00	  605.75	-1795.25	  498.79
     22.5700	  591.00	  605.52	-1788.02	  498.46
     22.6700	  588.00	  605.29	-1790.79	  498.12
     22.7700	  617.00	  605.07	-1761.57	  497.78
     22.8700	  617.00	  604.86	-1761.36	  497.44
     22.9700	  608.00	  604.67	-1770.17	  497.09
     23.0700	  580.00	  604.49	-1797.99	  496.74
     23.1700	  573.00	  604.34	-1804.84	  496.39
     23.2700	  662.00	  604.16	-1715.66	  496.03
     23.3700	  645.00	  604.08	-1732.58	  495.67
     23.4700	  624.00	  604.04	-1753.54	  495.31
     23.5700	  599.00	  604.07	-1778.57	  494.94
     23.6700	  560.00	  604.19	-1817.69	  494.57
     23.7700	  565.00	  604.45	-1812.95	  494.20
     23.8700	  608.00	  604.92	-1770.42	  493.82
     23.9700	  569.00	  605.74	-1810.24	  493.45
     24.0700	  626.00	  607.13	-1754.63	  493.07
     24.1700	  619.00	  609.47	-1763.97	  492.68
     24.2700	  658.00	  613.27	-1728.77	  492.30
     24.3700	  598.00	  619.11	-1794.61	  491.91
     24.4700	  617.00	  627.49	-1783.99	  491.52
     24.5700	  649.00	  638.46	-1762.96	  491.13
     24.6700	  705.00	  651.25	-1719.75	  490.73
     24.7700	  656.00	  663.69	-1781.19	  490.34
     24.8700	  658.00	  671.72	-1787.22	  489.94
     24.9700	  700.00	  670.33	-1743.83	  489.53
     25.0700	  689.00	  658.54	-1743.04	  489.13
     25.1700	  647.00	  642.20	-1768.70	  488.72
     25.2700	  662.00	  627.46	-1738.96	  488.31
     25.3700	  623.00	  616.60	-1767.10	  487.90
     25.4700	  649.00	  609.49	-1733.99	  487.49
     25.5700	  628.00	  605.15	-1750.65	  487.08
     25.6700	  685.00	  602.53	-1691.03	  486.66
     25.7700	  651.00	  600.88	-1723.38	  486.24
     25.8700	  632.00	  599.75	-1741.25	  485.82
     25.9700	  662.00	  598.93	-1710.43	  485.40
     26.0700	  594.00	  598.33	-1777.83	  484.97
     26.1700	  622.00	  597.89	-1749.39	  484.55
     26.2700	  656.00	  597.58	-1715.08	  484.12
     26.3700	  627.00	  597.41	-1743.91	  483.69
     26.4700	  622.00	  597.35	-1748.85	  483.26
     26.5700	  621.00	  597.43	-1749.93	  482.83
     26.6700	  647.00	  597.64	-1724.14	  482.39
     26.7700	  670.00	  598.02	-1701.52	  481.96
     26.8700	  690.00	  598.60	-1682.10	  481.52
     26.9700	  620.00	  599.41	-1752.91	  481.08
     27.0700	  658.00	  600.53	-1716.03	  480.65
     27.1700	  668.00	  602.07	-1707.57	  480.20
     27.2700	  617.00	  604.20	-1760.70	  479.76
     27.3700	  677.00	  607.24	-1703.74	  479.32
     27.4700	  687.00	  611.82	-1698.32	  478.87
     27.5700	  704.00	  619.08	-1688.58	  478.43
     27.6700	  670.00	  630.91	-1734.41	  477.98
     27.7700	  708.00	  650.15	-1715.65	  477.53
     27.8700	  690.00	  680.14	-1763.64	  477.09
     27.9700	  754.00	  723.27	-1742.77	  476.64
     28.0700	  789.00	  778.69	-1763.19	  476.19
     28.1700	  867.00	  839.80	-1746.30	  475.73
     28.2700	  965.00	  892.29	-1700.79	  475.28
     28.3700	  991.00	  916.16	-1698.66	  474.83
     28.4700	  995.00	  902.07	-1680.57	  474.37
     28.5700	  923.00	  871.71	-1722.21	  473.92
     28.6700	  858.00	  856.63	-1772.13	  473.46
     28.7700	  892.00	  869.67	-1751.17	  473.01
     28.8700	  848.00	  903.92	-1829.42	  472.55
     28.9700	  983.00	  937.75	-1728.25	  472.09
     29.0700	  951.00	  941.39	-1763.89	  471.63
     29.1700	  867.00	  896.83	-1803.33	  471.18
     29.2700	  853.00	  821.48	-1741.98	  470.72
     29.3700	  817.00	  746.85	-1703.35	  470.26
     29.4700	  728.00	  689.29	-1734.79	  469.80
     29.5700	  688.00	  650.98	-1736.48	  469.34
     29.6700	  692.00	  627.85	-1709.35	  468.88
     29.7700	  687.00	  614.46	-1700.96	  468.41
     29.8700	  687.00	  606.57	-1693.07	  467.95
     29.9700	  691.00	  601.65	-1684.15	  467.49
     30.0700	  691.00	  598.51	-1681.01	  467.03
     30.1700	  596.00	  596.71	-1774.21	  466.57
     30.2700	  690.00	  596.31	-1679.81	  466.10
     30.3700	  650.00	  597.72	-1721.22	  465.64
     30.4700	  695.00	  601.79	-1680.29	  465.18
     30.5700	  626.00	  609.59	-1757.09	  464.72
     30.6700	  671.00	  622.03	-1724.53	  464.25
     30.7700	  689.00	  638.92	-1723.42	  463.79
     30.8700	  739.00	  658.00	-1692.50	  463.33
     30.9700	  711.00	  674.34	-1736.84	  462.86
     31.0700	  680.00	  680.64	-1774.14	  462.40
     31.1700	  687.00	  671.54	-1758.04	  461.94
     31.2700	  636.00	  650.81	-1788.31	  461.48
     31.3700	  642.00	  627.97	-1759.47	  461.01
     31.4700	  633.00	  609.14	-1749.64	  460.55
     31.5700	  568.00	  595.89	-1801.39	  460.09
     31.6700	  647.00	  587.49	-1713.99	  459.63
     31.7700	  610.00	  582.46	-1745.96	  459.17
     31.8700	  599.00	  579.42	-1753.92	  458.71
     31.9700	  546.00	  577.49	-1804.99	  458.25
     32.0700	  576.00	  576.17	-1773.67	  457.79
     32.1700	  613.00	  575.24	-1735.74	  457.33
     32.2700	  628.00	  574.59	-1720.09	  456.87
     32.3700	  584.00	  574.17	-1763.67	  456.41
     32.4700	  564.00	  573.99	-1783.49	  455.95
     32.5700	  566.00	  574.03	-1781.53	  455.49
     32.6700	  559.00	  574.32	-1788.82	  455.03
     32.7700	  544.00	  574.90	-1804.40	  454.58
     32.8700	  597.00	  575.83	-1752.33	  454.12
     32.9700	  599.00	  577.21	-1751.71	  453.66
     33.0700	  610.00	  579.21	-1742.71	  453.21
     33.1700	  622.00	  582.15	-1733.65	  452.75
     33.2700	  608.00	  586.58	-1752.08	  452.30
     33.3700	  587.00	  593.65	-1780.15	  451.85
     33.4700	  618.00	  605.43	-1760.93	  451.39
     33.5700	  593.00	  625.22	-1805.72	  450.94
     33.6700	  649.00	  657.44	-1781.94	  450.49
     33.7700	  674.00	  706.30	-1805.80	  450.04
     33.8700	  791.00	  772.81	-1755.31	  449.59
     33.9700	  876.00	  850.73	-1748.23	  449.14
     34.0700	 1010.00	  923.62	-1687.12	  448.70
     34.1700	 1034.00	  965.36	-1704.86	  448.25
     34.2700	 1012.00	  951.64	-1713.14	  447.81
     34.3700	  918.00	  886.02	-1741.52	  447.36
     34.4700	  876.00	  800.52	-1698.02	  446.92
     34.5700	  709.00	  723.06	-1787.56	  446.47
     34.6700	  686.00	  664.71	-1752.21	  446.03
     34.7700	  588.00	  625.75	-1811.25	  445.59
     34.8700	  587.00	  601.75	-1788.25	  445.15
     34.9700	  605.00	  587.44	-1755.94	  444.71
     35.0700	  601.00	  578.66	-1751.16	  444.28
     35.1700	  537.00	  572.84	-1809.34	  443.84
     35.2700	  571.00	  568.63	-1771.13	  443.41
     35.3700	  536.00	  565.37	-1802.87	  442.97
     35.4700	  577.00	  563.23	-1759.73	  442.54
     35.5700	  540.00	  561.04	-1794.54	  442.11
     35.6700	  514.00	  559.19	-1818.69	  441.68
     35.7700	  552.00	  557.60	-1779.10	  441.25
     35.8700	  570.00	  556.21	-1759.71	  440.82
     35.9700	  517.00	  554.98	-1811.48	  440.39
     36.0700	  505.00	  553.88	-1822.38	  439.97
     36.1700	  546.00	  552.89	-1780.39	  439.54
     36.2700	  534.00	  552.00	-1791.50	  439.12
     36.3700	  560.00	  551.15	-1764.65	  438.70
     36.4700	  549.00	  550.41	-1774.91	  438.28
     36.5700	  543.00	  549.73	-1780.23	  437.86
     36.6700	  504.00	  549.12	-1818.62	  437.45
     36.7700	  547.00	  548.58	-1775.08	  437.03
     36.8700	  587.00	  548.11	-1734.61	  436.62
     36.9700	  542.00	  547.75	-1779.25	  436.20
     37.0700	  528.00	  547.56	-1793.06	  435.79
     37.1700	  537.00	  547.62	-1784.12	  435.38
     37.2700	  530.00	  548.09	-1791.59	  434.97
     37.3700	  533.00	  549.32	-1789.82	  434.57
     37.4700	  530.00	  551.12	-1794.62	  434.16
     37.5700	  528.00	  553.67	-1799.17	  433.76
     37.6700	  579.00	  556.70	-1751.20	  433.36
     37.7700	  607.00	  559.51	-1726.01	  432.96
     37.8700	  532.00	  561.04	-1802.54	  432.56
     37.9700	  550.00	  560.36	-1783.86	  432.16
     38.0700	  551.00	  557.65	-1780.15	  431.77
     38.1700	  505.00	  553.96	-1822.46	  431.37
     38.2700	  535.00	  550.23	-1788.73	  430.98
     38.3700	  494.00	  546.93	-1826.43	  430.59
     38.4700	  509.00	  544.29	-1808.79	  430.20
     38.5700	  548.00	  542.31	-1767.81	  429.81
     38.6700	  521.00	  540.87	-1793.37	  429.43
     38.7700	  487.00	  539.81	-1826.31	  429.04
     38.8700	  535.00	  539.00	-1777.50	  428.66
     38.9700	  485.00	  538.34	-1826.84	  428.28
     39.0700	  522.00	  537.77	-1789.27	  427.90
     39.1700	  507.00	  537.26	-1803.76	  427.53
     39.2700	  526.00	  536.79	-1784.29	  427.15
     39.3700	  517.00	  536.35	-1792.85	  426.78
     39.4700	  477.00	  535.93	-1832.43	  426.41
     39.5700	  526.00	  535.48	-1782.98	  426.04
     39.6700	  521.00	  535.10	-1787.60	  425.67
     39.7700	  532.00	  534.74	-1776.24	  425.31
     39.8700	  549.00	  534.39	-1758.89	  424.94
     39.9700	  532.00	  534.06	-1775.56	  424.58
     40.0700	  493.00	  533.74	-1814.24	  424.22
     40.1700	  537.00	  533.98	-1770.48	  423.86
     40.2700	  530.00	  533.69	-1777.19	  423.51
     40.3700	  489.00	  533.42	-1817.92	  423.15
     40.4700	  545.00	  533.04	-1761.54	  422.80
     40.5700	  512.00	  532.81	-1794.31	  422.45
     40.6700	  466.00	  532.59	-1840.09	  422.10
     40.7700	  534.00	  532.40	-1771.90	  421.75
