MSG Master    CELL:    5.91907   5.91907  23.26737   90.0000   90.0000  120.0000   SPGR: P 63/m m c             TEMP:   1074.85
  1   1280     2.52000     0.00000    -0.13102     0.00000     0.00000    0
    99     0     2
       0.00000      10.00000
     125.00000     130.00000
 2Theta	Yobs	Ycal	Yobs-Ycal	Backg	Posr	(hkl)	K
      0.7700	    0.00	  566.50	-1771.00	  448.19
      0.8700	    0.00	  566.98	-1771.00	  448.67
      0.9700	   43.00	  567.45	-1771.00	  449.14
      1.0700	   41.00	  567.91	-1771.00	  449.60
      1.1700	   34.00	  568.36	-1771.00	  450.05
      1.2700	   36.00	  568.80	-1771.00	  450.49
      1.3700	   47.00	  569.23	-1771.00	  450.92
      1.4700	   88.00	  569.66	-1771.00	  451.35
      1.5700	  308.00	  570.07	-1771.00	  451.76
      1.6700	  436.00	  570.48	-1771.00	  452.17
      1.7700	  576.00	  570.88	-1771.00	  452.57
      1.8700	  684.00	  571.27	-1771.00	  452.96
      1.9700	  732.00	  571.65	-1771.00	  453.34
      2.0700	  765.00	  572.02	-1771.00	  453.71
      2.1700	  813.00	  572.39	-1771.00	  454.08
      2.2700	  751.00	  572.74	-1771.00	  454.43
      2.3700	  754.00	  573.09	-1771.00	  454.78
      2.4700	  719.00	  573.43	-1771.00	  455.12
      2.5700	  675.00	  573.76	-1771.00	  455.45
      2.6700	  657.00	  574.08	-1771.00	  455.77
      2.7700	  653.00	  574.40	-1771.00	  456.09
      2.8700	  636.00	  574.70	-1771.00	  456.39
      2.9700	  613.00	  575.00	-1771.00	  456.69
      3.0700	  608.00	  575.29	-1771.00	  456.98
      3.1700	  615.00	  575.58	-1771.00	  457.27
      3.2700	  594.00	  575.85	-1771.00	  457.54
      3.3700	  692.00	  576.12	-1771.00	  457.81
      3.4700	  723.00	  576.38	-1771.00	  458.07
      3.5700	  777.00	  576.64	-1771.00	  458.33
      3.6700	  866.00	  576.88	-1771.00	  458.57
      3.7700	  872.00	  577.12	-1771.00	  458.81
      3.8700	  939.00	  577.35	-1771.00	  459.04
      3.9700	 1017.00	  577.57	-1771.00	  459.26
      4.0700	 1077.00	  577.79	-1771.00	  459.48
      4.1700	 1067.00	  578.00	-1771.00	  459.69
      4.2700	 1077.00	  578.20	-1771.00	  459.89
      4.3700	 1023.00	  578.39	-1771.00	  460.09
      4.4700	 1130.00	  578.58	-1771.00	  460.27
      4.5700	 1068.00	  578.76	-1771.00	  460.45
      4.6700	 1042.00	  578.94	-1771.00	  460.63
      4.7700	  995.00	  579.10	-1771.00	  460.79
      4.8700	  955.00	  579.26	-1771.00	  460.96
      4.9700	 1036.00	  579.42	-1771.00	  461.11
      5.0700	  931.00	  579.57	-1771.00	  461.26
      5.1700	  932.00	  579.71	-1771.00	  461.40
      5.2700	  842.00	  579.84	-1771.00	  461.53
      5.3700	  900.00	  579.97	-1771.00	  461.66
      5.4700	  911.00	  580.09	-1771.00	  461.78
      5.5700	  901.00	  580.20	-1771.00	  461.89
      5.6700	  864.00	  580.31	-1771.00	  462.00
      5.7700	  852.00	  580.41	-1771.00	  462.10
      5.8700	  787.00	  580.51	-1771.00	  462.20
      5.9700	  791.00	  580.60	-1771.00	  462.29
      6.0700	  792.00	  580.68	-1771.00	  462.37
      6.1700	  803.00	  580.76	-1771.00	  462.45
      6.2700	  751.00	  580.83	-1771.00	  462.52
      6.3700	  720.00	  580.89	-1771.00	  462.58
      6.4700	  747.00	  580.95	-1771.00	  462.64
      6.5700	  748.00	  581.01	-1771.00	  462.70
      6.6700	  725.00	  581.05	-1771.00	  462.74
      6.7700	  693.00	  581.10	-1771.00	  462.79
      6.8700	  730.00	  581.13	-1771.00	  462.82
      6.9700	  744.00	  581.16	-1771.00	  462.85
      7.0700	  650.00	  581.19	-1771.00	  462.88
      7.1700	  704.00	  581.21	-1771.00	  462.90
      7.2700	  704.00	  581.22	-1771.00	  462.91
      7.3700	  663.00	  581.23	-1771.00	  462.92
      7.4700	  683.00	  581.23	-1771.00	  462.92
      7.5700	  656.00	  581.23	-1771.00	  462.92
      7.6700	  657.00	  581.22	-1771.00	  462.91
      7.7700	  690.00	  581.21	-1771.00	  462.90
      7.8700	  673.00	  581.19	-1771.00	  462.88
      7.9700	  657.00	  581.17	-1771.00	  462.86
      8.0700	  616.00	  581.14	-1771.00	  462.83
      8.1700	  588.00	  581.11	-1771.00	  462.80
      8.2700	  658.00	  581.07	-1771.00	  462.76
      8.3700	  620.00	  581.03	-1771.00	  462.72
      8.4700	  581.00	  580.98	-1771.00	  462.67
      8.5700	  618.00	  580.93	-1771.00	  462.62
      8.6700	  651.00	  580.87	-1771.00	  462.56
      8.7700	  620.00	  580.81	-1771.00	  462.50
      8.8700	  574.00	  580.74	-1771.00	  462.43
      8.9700	  632.00	  580.67	-1771.00	  462.36
      9.0700	  634.00	  580.59	-1771.00	  462.28
      9.1700	  607.00	  580.51	-1771.00	  462.20
      9.2700	  624.00	  580.43	-1771.00	  462.12
      9.3700	  596.00	  580.34	-1771.00	  462.03
      9.4700	  622.00	  580.24	-1771.00	  461.93
      9.5700	  606.00	  580.14	-1771.00	  461.83
      9.6700	  639.00	  580.04	-1771.00	  461.73
      9.7700	  591.00	  579.93	-1771.00	  461.62
      9.8700	  598.00	  579.82	-1771.00	  461.51
      9.9700	  596.00	  579.71	-1771.00	  461.40
     10.0700	  588.00	  580.33	-1763.33	  461.28
     10.1700	  606.00	  580.29	-1745.29	  461.15
     10.2700	  621.00	  580.26	-1730.26	  461.03
     10.3700	  612.00	  580.25	-1739.25	  460.89
     10.4700	  573.00	  580.29	-1778.29	  460.76
     10.5700	  636.00	  580.45	-1715.45	  460.62
     10.6700	  580.00	  580.79	-1771.79	  460.48
     10.7700	  566.00	  581.45	-1786.45	  460.33
     10.8700	  582.00	  582.48	-1771.48	  460.18
     10.9700	  604.00	  583.87	-1750.87	  460.02
     11.0700	  623.00	  585.59	-1733.59	  459.87
     11.1700	  576.00	  587.63	-1782.63	  459.70
     11.2700	  617.00	  590.03	-1744.03	  459.54
     11.3700	  586.00	  592.86	-1777.86	  459.37
     11.4700	  588.00	  596.26	-1779.26	  459.20
     11.5700	  614.00	  600.40	-1757.40	  459.02
     11.6700	  619.00	  605.63	-1757.63	  458.84
     11.7700	  593.00	  612.55	-1790.55	  458.66
     11.8700	  624.00	  622.06	-1769.06	  458.47
     11.9700	  647.00	  634.85	-1758.85	  458.28
     12.0700	  675.00	  649.42	-1745.42	  458.09
     12.1700	  653.00	  659.66	-1777.66	  457.89
     12.2700	  663.00	  655.97	-1763.97	  457.69
     12.3700	  631.00	  635.73	-1775.73	  457.49
     12.4700	  636.00	  611.45	-1746.45	  457.28
     12.5700	  637.00	  593.98	-1727.98	  457.08
     12.6700	  577.00	  584.65	-1778.65	  456.86
     12.7700	  552.00	  580.47	-1799.47	  456.65
     12.8700	  617.00	  578.55	-1732.55	  456.43
     12.9700	  532.00	  577.44	-1816.44	  456.21
     13.0700	  560.00	  576.65	-1787.65	  455.99
     13.1700	  553.00	  576.02	-1794.02	  455.76
     13.2700	  575.00	  575.49	-1771.49	  455.53
     13.3700	  593.00	  575.03	-1753.03	  455.30
     13.4700	  530.00	  574.62	-1815.62	  455.07
     13.5700	  555.00	  574.23	-1790.23	  454.83
     13.6700	  560.00	  573.88	-1784.88	  454.59
     13.7700	  543.00	  573.54	-1801.54	  454.35
     13.8700	  594.00	  573.21	-1750.21	  454.10
     13.9700	  520.00	  572.90	-1823.90	  453.85
     14.0700	  541.00	  572.59	-1802.59	  453.61
     14.1700	  553.00	  572.29	-1790.29	  453.35
     14.2700	  568.00	  571.99	-1774.99	  453.10
     14.3700	  557.00	  571.70	-1785.70	  452.84
     14.4700	  519.00	  571.41	-1823.41	  452.58
     14.5700	  549.00	  571.12	-1793.12	  452.32
     14.6700	  537.00	  570.83	-1804.83	  452.06
     14.7700	  526.00	  570.54	-1815.54	  451.79
     14.8700	  564.00	  570.25	-1777.25	  451.52
     14.9700	  593.00	  569.96	-1747.96	  451.25
     15.0700	  540.00	  569.67	-1800.67	  450.98
     15.1700	  570.00	  569.38	-1770.38	  450.70
     15.2700	  546.00	  569.09	-1794.09	  450.43
     15.3700	  575.00	  568.80	-1764.80	  450.15
     15.4700	  586.00	  568.51	-1753.51	  449.87
     15.5700	  588.00	  568.22	-1751.22	  449.58
     15.6700	  534.00	  567.93	-1804.93	  449.30
     15.7700	  562.00	  567.63	-1776.63	  449.01
     15.8700	  553.00	  567.33	-1785.33	  448.73
     15.9700	  497.00	  567.04	-1841.04	  448.44
     16.0700	  560.00	  566.74	-1777.74	  448.14
     16.1700	  556.00	  566.44	-1781.44	  447.85
     16.2700	  581.00	  566.16	-1756.16	  447.55
     16.3700	  575.00	  565.86	-1761.86	  447.26
     16.4700	  576.00	  565.56	-1760.56	  446.96
     16.5700	  551.00	  565.26	-1785.26	  446.66
     16.6700	  559.00	  564.95	-1776.95	  446.36
     16.7700	  556.00	  564.64	-1779.64	  446.05
     16.8700	  556.00	  564.34	-1779.34	  445.75
     16.9700	  596.00	  564.03	-1739.03	  445.44
     17.0700	  515.00	  563.72	-1819.72	  445.13
     17.1700	  522.00	  563.40	-1812.40	  444.83
     17.2700	  646.00	  563.09	-1688.09	  444.51
     17.3700	  574.00	  562.78	-1759.78	  444.20
     17.4700	  556.00	  562.46	-1777.46	  443.89
     17.5700	  544.00	  562.15	-1789.15	  443.58
     17.6700	  549.00	  561.83	-1783.83	  443.26
     17.7700	  527.00	  561.51	-1805.51	  442.94
     17.8700	  584.00	  561.19	-1748.19	  442.62
     17.9700	  536.00	  560.97	-1795.97	  442.30
     18.0700	  576.00	  560.65	-1755.65	  441.98
     18.1700	  586.00	  560.33	-1745.33	  441.66
     18.2700	  574.00	  560.01	-1757.01	  441.34
     18.3700	  542.00	  559.69	-1788.69	  441.02
     18.4700	  541.00	  559.37	-1789.37	  440.69
     18.5700	  557.00	  559.04	-1773.04	  440.37
     18.6700	  561.00	  558.72	-1768.72	  440.04
     18.7700	  595.00	  558.39	-1734.39	  439.71
     18.8700	  559.00	  558.16	-1770.16	  439.38
     18.9700	  537.00	  557.83	-1791.83	  439.05
     19.0700	  596.00	  557.51	-1732.51	  438.72
     19.1700	  535.00	  557.18	-1793.18	  438.39
     19.2700	  517.00	  556.86	-1810.86	  438.06
     19.3700	  563.00	  556.53	-1764.53	  437.73
     19.4700	  539.00	  556.20	-1788.20	  437.39
     19.5700	  571.00	  555.88	-1755.88	  437.06
     19.6700	  548.00	  555.55	-1778.55	  436.72
     19.7700	  528.00	  555.22	-1798.22	  436.39
     19.8700	  570.00	  554.89	-1755.89	  436.05
     19.9700	  570.00	  554.57	-1755.57	  435.72
     20.0700	  577.00	  554.24	-1748.24	  435.38
     20.1700	  541.00	  553.91	-1783.91	  435.04
     20.2700	  503.00	  553.58	-1821.58	  434.70
     20.3700	  534.00	  553.25	-1790.25	  434.36
     20.4700	  565.00	  552.90	-1758.90	  434.02
     20.5700	  563.00	  552.57	-1760.57	  433.68
     20.6700	  555.00	  552.24	-1768.24	  433.34
     20.7700	  539.00	  551.91	-1783.91	  433.00
     20.8700	  587.00	  551.62	-1735.62	  432.66
     20.9700	  573.00	  551.30	-1749.30	  432.32
     21.0700	  561.00	  550.97	-1760.97	  431.98
     21.1700	  562.00	  550.65	-1759.65	  431.64
     21.2700	  550.00	  550.33	-1771.33	  431.30
     21.3700	  542.00	  550.00	-1779.00	  430.95
     21.4700	  542.00	  549.68	-1778.68	  430.61
     21.5700	  551.00	  549.36	-1769.36	  430.27
     21.6700	  532.00	  549.04	-1788.04	  429.92
     21.7700	  539.00	  548.73	-1780.73	  429.58
     21.8700	  534.00	  548.41	-1785.41	  429.24
     21.9700	  529.00	  548.10	-1790.10	  428.89
     22.0700	  574.00	  547.79	-1744.79	  428.55
     22.1700	  572.00	  547.48	-1746.48	  428.21
     22.2700	  574.00	  547.18	-1744.18	  427.86
     22.3700	  558.00	  546.87	-1759.87	  427.52
     22.4700	  577.00	  546.58	-1740.58	  427.18
     22.5700	  528.00	  546.28	-1789.28	  426.83
     22.6700	  543.00	  546.00	-1774.00	  426.49
     22.7700	  562.00	  545.72	-1754.72	  426.14
     22.8700	  548.00	  545.45	-1768.45	  425.80
     22.9700	  529.00	  545.19	-1787.19	  425.46
     23.0700	  552.00	  544.94	-1763.94	  425.11
     23.1700	  518.00	  544.70	-1797.70	  424.77
     23.2700	  556.00	  544.49	-1759.49	  424.43
     23.3700	  527.00	  544.30	-1788.30	  424.09
     23.4700	  545.00	  544.14	-1770.14	  423.74
     23.5700	  563.00	  544.02	-1752.02	  423.40
     23.6700	  561.00	  543.97	-1753.97	  423.06
     23.7700	  563.00	  544.15	-1752.15	  422.72
     23.8700	  516.00	  544.40	-1799.40	  422.38
     23.9700	  588.00	  545.06	-1728.06	  422.04
     24.0700	  541.00	  546.53	-1776.53	  421.70
     24.1700	  560.00	  549.46	-1760.46	  421.36
     24.2700	  595.00	  554.65	-1730.65	  421.02
     24.3700	  615.00	  563.04	-1719.04	  420.68
     24.4700	  566.00	  575.65	-1780.65	  420.34
     24.5700	  654.00	  592.83	-1709.83	  420.00
     24.6700	  581.00	  611.96	-1801.96	  419.66
     24.7700	  627.00	  625.39	-1769.39	  419.32
     24.8700	  598.00	  622.64	-1795.64	  418.98
     24.9700	  608.00	  602.24	-1765.24	  418.65
     25.0700	  571.00	  577.40	-1777.40	  418.31
     25.1700	  578.00	  558.89	-1751.89	  417.98
     25.2700	  510.00	  548.56	-1809.56	  417.64
     25.3700	  547.00	  543.78	-1767.78	  417.31
     25.4700	  548.00	  541.63	-1764.63	  416.97
     25.5700	  545.00	  540.49	-1766.49	  416.64
     25.6700	  549.00	  539.74	-1761.74	  416.31
     25.7700	  560.00	  539.19	-1750.19	  415.98
     25.8700	  524.00	  538.77	-1785.77	  415.64
     25.9700	  521.00	  538.45	-1788.45	  415.31
     26.0700	  579.00	  538.21	-1730.21	  414.98
     26.1700	  585.00	  538.05	-1724.05	  414.65
     26.2700	  529.00	  537.96	-1779.96	  414.33
     26.3700	  584.00	  537.95	-1724.95	  414.00
     26.4700	  524.00	  538.02	-1785.02	  413.67
     26.5700	  540.00	  538.18	-1769.18	  413.35
     26.6700	  534.00	  538.45	-1775.45	  413.02
     26.7700	  566.00	  538.86	-1743.86	  412.70
     26.8700	  513.00	  539.44	-1797.44	  412.37
     26.9700	  546.00	  540.23	-1765.23	  412.05
     27.0700	  561.00	  541.32	-1751.32	  411.73
     27.1700	  549.00	  542.83	-1764.83	  411.41
     27.2700	  514.00	  545.02	-1802.02	  411.09
     27.3700	  538.00	  548.36	-1781.36	  410.77
     27.4700	  559.00	  553.82	-1765.82	  410.45
     27.5700	  541.00	  563.06	-1793.06	  410.13
     27.6700	  618.00	  578.71	-1731.71	  409.82
     27.7700	  596.00	  604.12	-1779.12	  409.50
     27.8700	  627.00	  642.06	-1786.06	  409.19
     27.9700	  672.00	  692.44	-1791.44	  408.87
     28.0700	  776.00	  749.29	-1744.29	  408.56
     28.1700	  870.00	  798.25	-1699.25	  408.25
     28.2700	  873.00	  818.38	-1716.38	  407.94
     28.3700	  891.00	  798.75	-1678.75	  407.63
     28.4700	  821.00	  761.14	-1711.14	  407.32
     28.5700	  763.00	  738.51	-1746.51	  407.01
     28.6700	  704.00	  745.00	-1812.00	  406.71
     28.7700	  735.00	  774.68	-1810.68	  406.40
     28.8700	  827.00	  806.45	-1750.45	  406.10
     28.9700	  804.00	  810.96	-1777.96	  405.80
     29.0700	  782.00	  770.68	-1759.68	  405.50
     29.1700	  685.00	  703.80	-1789.80	  405.20
     29.2700	  643.00	  640.79	-1768.79	  404.90
     29.3700	  596.00	  595.66	-1770.66	  404.60
     29.4700	  591.00	  568.53	-1748.53	  404.30
     29.5700	  640.00	  553.93	-1684.93	  404.01
     29.6700	  586.00	  546.24	-1731.24	  403.71
     29.7700	  570.00	  541.90	-1742.90	  403.42
     29.8700	  586.00	  539.19	-1724.19	  403.13
     29.9700	  563.00	  537.49	-1745.49	  402.84
     30.0700	  551.00	  536.62	-1756.62	  402.55
     30.1700	  565.00	  536.76	-1742.76	  402.26
     30.2700	  549.00	  538.46	-1760.46	  401.97
     30.3700	  569.00	  542.83	-1744.83	  401.69
     30.4700	  519.00	  551.50	-1803.50	  401.40
     30.5700	  555.00	  566.19	-1782.19	  401.12
     30.6700	  571.00	  587.33	-1787.33	  400.84
     30.7700	  588.00	  612.21	-1795.21	  400.56
     30.8700	  572.00	  633.63	-1832.63	  400.28
     30.9700	  596.00	  640.74	-1815.74	  400.00
     31.0700	  615.00	  626.47	-1782.47	  399.73
     31.1700	  536.00	  598.44	-1833.44	  399.45
     31.2700	  542.00	  570.60	-1799.60	  399.18
     31.3700	  548.00	  550.20	-1773.20	  398.91
     31.4700	  552.00	  537.86	-1756.86	  398.64
     31.5700	  504.00	  531.30	-1798.30	  398.37
     31.6700	  527.00	  527.94	-1771.94	  398.10
     31.7700	  555.00	  526.07	-1742.07	  397.83
     31.8700	  510.00	  524.90	-1785.90	  397.57
     31.9700	  508.00	  524.09	-1787.09	  397.30
     32.0700	  517.00	  523.51	-1777.51	  397.04
     32.1700	  523.00	  523.12	-1771.12	  396.78
     32.2700	  537.00	  522.89	-1756.89	  396.52
     32.3700	  566.00	  522.81	-1727.81	  396.27
     32.4700	  568.00	  522.89	-1725.89	  396.01
     32.5700	  538.00	  523.14	-1756.14	  395.76
     32.6700	  536.00	  523.59	-1758.59	  395.50
     32.7700	  557.00	  524.28	-1738.28	  395.25
     32.8700	  555.00	  525.28	-1741.28	  395.00
     32.9700	  536.00	  526.72	-1761.72	  394.75
     33.0700	  539.00	  528.79	-1760.79	  394.51
     33.1700	  523.00	  531.98	-1779.98	  394.26
     33.2700	  565.00	  537.34	-1743.34	  394.02
     33.3700	  565.00	  547.20	-1753.20	  393.78
     33.4700	  593.00	  566.01	-1744.01	  393.54
     33.5700	  629.00	  600.92	-1742.92	  393.30
     33.6700	  643.00	  660.12	-1788.12	  393.06
     33.7700	  822.00	  747.21	-1696.21	  392.82
     33.8700	  889.00	  852.64	-1734.64	  392.59
     33.9700	 1017.00	  947.87	-1701.87	  392.36
     34.0700	 1068.00	  989.28	-1692.28	  392.13
     34.1700	 1004.00	  945.23	-1712.23	  391.90
     34.2700	  927.00	  838.73	-1682.73	  391.67
     34.3700	  738.00	  724.79	-1757.79	  391.44
     34.4700	  660.00	  636.97	-1747.97	  391.22
     34.5700	  627.00	  582.03	-1726.03	  391.00
     34.6700	  546.00	  552.45	-1777.45	  390.78
     34.7700	  512.00	  537.67	-1796.67	  390.56
     34.8700	  522.00	  529.99	-1778.99	  390.34
     34.9700	  509.00	  525.40	-1787.40	  390.12
     35.0700	  513.00	  522.24	-1780.24	  389.91
     35.1700	  538.00	  519.86	-1752.86	  389.70
     35.2700	  534.00	  517.99	-1754.99	  389.49
     35.3700	  512.00	  516.46	-1775.46	  389.28
     35.4700	  496.00	  515.20	-1790.20	  389.07
     35.5700	  513.00	  514.13	-1772.13	  388.86
     35.6700	  531.00	  513.22	-1753.22	  388.66
     35.7700	  552.00	  512.43	-1731.43	  388.46
     35.8700	  521.00	  511.73	-1761.73	  388.25
     35.9700	  535.00	  511.60	-1747.60	  388.06
     36.0700	  496.00	  511.06	-1786.06	  387.86
     36.1700	  498.00	  510.57	-1783.57	  387.66
     36.2700	  494.00	  510.13	-1787.13	  387.47
     36.3700	  478.00	  509.73	-1802.73	  387.28
     36.4700	  472.00	  509.38	-1808.38	  387.09
     36.5700	  532.00	  509.05	-1748.05	  386.90
     36.6700	  520.00	  508.77	-1759.77	  386.71
     36.7700	  507.00	  508.53	-1772.53	  386.53
     36.8700	  528.00	  508.35	-1751.35	  386.34
     36.9700	  532.00	  508.27	-1747.27	  386.16
     37.0700	  518.00	  508.39	-1761.39	  385.98
     37.1700	  487.00	  508.92	-1792.92	  385.80
     37.2700	  509.00	  510.17	-1772.17	  385.63
     37.3700	  534.00	  512.46	-1749.46	  385.45
     37.4700	  508.00	  515.87	-1778.87	  385.28
     37.5700	  533.00	  519.90	-1757.90	  385.11
     37.6700	  530.00	  523.36	-1764.36	  384.94
     37.7700	  529.00	  524.83	-1766.83	  384.77
     37.8700	  552.00	  523.81	-1742.81	  384.60
     37.9700	  532.00	  521.25	-1760.25	  384.44
     38.0700	  526.00	  518.05	-1763.05	  384.28
     38.1700	  505.00	  514.58	-1780.58	  384.12
     38.2700	  510.00	  511.30	-1772.30	  383.96
     38.3700	  482.00	  508.66	-1797.66	  383.80
     38.4700	  532.00	  506.80	-1745.80	  383.65
     38.5700	  493.00	  505.61	-1783.61	  383.49
     38.6700	  498.00	  504.88	-1777.88	  383.34
     38.7700	  539.00	  504.33	-1736.33	  383.19
     38.8700	  494.00	  504.01	-1781.01	  383.04
     38.9700	  465.00	  503.76	-1809.76	  382.90
     39.0700	  522.00	  503.55	-1752.55	  382.75
     39.1700	  474.00	  503.36	-1800.36	  382.61
     39.2700	  502.00	  503.11	-1772.11	  382.47
     39.3700	  514.00	  502.95	-1759.95	  382.33
     39.4700	  532.00	  502.81	-1741.81	  382.19
     39.5700	  482.00	  502.68	-1791.68	  382.06
     39.6700	  549.00	  502.68	-1724.68	  381.92
     39.7700	  491.00	  502.57	-1782.57	  381.79
     39.8700	  485.00	  502.47	-1788.47	  381.66
     39.9700	  479.00	  502.38	-1794.38	  381.53
     40.0700	  495.00	  502.29	-1778.29	  381.41
     40.1700	  516.00	  502.22	-1757.22	  381.28
     40.2700	  494.00	  502.16	-1779.16	  381.16
     40.3700	  488.00	  502.11	-1785.11	  381.04
     40.4700	  498.00	  502.08	-1775.08	  380.92
     40.5700	  503.00	  502.06	-1770.06	  380.80
     40.6700	  495.00	  502.06	-1778.06	  380.68
     40.7700	  481.00	  502.07	-1792.07	  380.57
