MSG Master    CELL:    5.88393   5.88393  23.12067   90.0000   90.0000  120.0000   SPGR: P 63/m m c             TEMP:    575.45
  2   1280     2.52000     0.00000    -0.09054     0.00000     0.00000    0
    96    96     0     0     2
       0.00000      10.00000
     125.00000     130.00000
 2Theta	Yobs	Ycal	Yobs-Ycal	Backg	Posr	(hkl)	K
      0.7700	    1.00	  878.60	-1942.41	  748.47
      0.8700	    0.00	  876.16	-1942.41	  746.02
      0.9700	   49.00	  873.73	-1942.41	  743.60
      1.0700	   58.00	  871.32	-1942.41	  741.18
      1.1700	   53.00	  868.92	-1942.41	  738.78
      1.2700	   46.00	  866.53	-1942.41	  736.40
      1.3700	   53.00	  864.16	-1942.41	  734.02
      1.4700	   99.00	  861.80	-1942.41	  731.66
      1.5700	  307.00	  859.45	-1942.41	  729.32
      1.6700	  467.00	  857.12	-1942.41	  726.98
      1.7700	  574.00	  854.80	-1942.41	  724.66
      1.8700	  680.00	  852.49	-1942.41	  722.36
      1.9700	  765.00	  850.20	-1942.41	  720.06
      2.0700	  757.00	  847.92	-1942.41	  717.78
      2.1700	  754.00	  845.65	-1942.41	  715.51
      2.2700	  790.00	  843.40	-1942.41	  713.26
      2.3700	  709.00	  841.15	-1942.41	  711.02
      2.4700	  707.00	  838.93	-1942.41	  708.79
      2.5700	  728.00	  836.71	-1942.41	  706.57
      2.6700	  682.00	  834.51	-1942.41	  704.37
      2.7700	  645.00	  832.32	-1942.41	  702.18
      2.8700	  669.00	  830.14	-1942.41	  700.00
      2.9700	  623.00	  827.98	-1942.41	  697.84
      3.0700	  660.00	  825.82	-1942.41	  695.69
      3.1700	  635.00	  823.68	-1942.41	  693.55
      3.2700	  679.00	  821.56	-1942.41	  691.42
      3.3700	  904.00	  819.44	-1942.41	  689.31
      3.4700	 1113.00	  817.34	-1942.41	  687.21
      3.5700	 1135.00	  815.25	-1942.41	  685.12
      3.6700	 1285.00	  813.18	-1942.41	  683.04
      3.7700	 1401.00	  811.11	-1942.41	  680.97
      3.8700	 1477.00	  809.06	-1942.41	  678.92
      3.9700	 1593.00	  807.02	-1942.41	  676.88
      4.0700	 1686.00	  804.99	-1942.41	  674.85
      4.1700	 1735.00	  802.97	-1942.41	  672.84
      4.2700	 1754.00	  800.97	-1942.41	  670.83
      4.3700	 1667.00	  798.98	-1942.41	  668.84
      4.4700	 1525.00	  797.00	-1942.41	  666.86
      4.5700	 1565.00	  795.03	-1942.41	  664.89
      4.6700	 1512.00	  793.08	-1942.41	  662.94
      4.7700	 1442.00	  791.13	-1942.41	  660.99
      4.8700	 1403.00	  789.20	-1942.41	  659.06
      4.9700	 1404.00	  787.28	-1942.41	  657.14
      5.0700	 1308.00	  785.37	-1942.41	  655.23
      5.1700	 1269.00	  783.47	-1942.41	  653.34
      5.2700	 1259.00	  781.59	-1942.41	  651.45
      5.3700	 1273.00	  779.71	-1942.41	  649.58
      5.4700	 1149.00	  777.85	-1942.41	  647.71
      5.5700	 1173.00	  776.00	-1942.41	  645.86
      5.6700	 1154.00	  774.16	-1942.41	  644.02
      5.7700	 1122.00	  772.33	-1942.41	  642.20
      5.8700	 1082.00	  770.52	-1942.41	  640.38
      5.9700	 1049.00	  768.71	-1942.41	  638.57
      6.0700	 1111.00	  766.92	-1942.41	  636.78
      6.1700	 1021.00	  765.13	-1942.41	  635.00
      6.2700	 1057.00	  763.36	-1942.41	  633.23
      6.3700	 1005.00	  761.60	-1942.41	  631.47
      6.4700	  969.00	  759.85	-1942.41	  629.72
      6.5700	  965.00	  758.11	-1942.41	  627.98
      6.6700	 1007.00	  756.39	-1942.41	  626.25
      6.7700	  909.00	  754.67	-1942.41	  624.53
      6.8700	  925.00	  752.97	-1942.41	  622.83
      6.9700	  899.00	  751.27	-1942.41	  621.13
      7.0700	  849.00	  749.59	-1942.41	  619.45
      7.1700	  904.00	  747.91	-1942.41	  617.78
      7.2700	  883.00	  746.25	-1942.41	  616.12
      7.3700	  855.00	  744.60	-1942.41	  614.46
      7.4700	  878.00	  742.96	-1942.41	  612.82
      7.5700	  862.00	  741.33	-1942.41	  611.19
      7.6700	  829.00	  739.71	-1942.41	  609.57
      7.7700	  821.00	  738.10	-1942.41	  607.96
      7.8700	  836.00	  736.50	-1942.41	  606.37
      7.9700	  768.00	  734.91	-1942.41	  604.78
      8.0700	  764.00	  733.34	-1942.41	  603.20
      8.1700	  801.00	  731.77	-1942.41	  601.63
      8.2700	  807.00	  730.21	-1942.41	  600.07
      8.3700	  815.00	  728.66	-1942.41	  598.53
      8.4700	  773.00	  727.13	-1942.41	  596.99
      8.5700	  776.00	  725.60	-1942.41	  595.47
      8.6700	  768.00	  724.09	-1942.41	  593.95
      8.7700	  729.00	  722.58	-1942.41	  592.44
      8.8700	  766.00	  721.08	-1942.41	  590.95
      8.9700	  745.00	  719.60	-1942.41	  589.46
      9.0700	  750.00	  718.12	-1942.41	  587.98
      9.1700	  806.00	  716.66	-1942.41	  586.52
      9.2700	  760.00	  715.20	-1942.41	  585.06
      9.3700	  718.00	  713.75	-1942.41	  583.62
      9.4700	  714.00	  712.32	-1942.41	  582.18
      9.5700	  727.00	  710.89	-1942.41	  580.75
      9.6700	  729.00	  709.47	-1942.41	  579.34
      9.7700	  758.00	  708.06	-1942.41	  577.93
      9.8700	  677.00	  706.67	-1942.41	  576.53
      9.9700	  695.00	  705.28	-1942.41	  575.14
     10.0700	  702.00	  705.91	-1946.31	  573.76
     10.1700	  714.00	  704.76	-1933.16	  572.40
     10.2700	  653.00	  703.66	-1993.07	  571.04
     10.3700	  727.00	  702.63	-1918.04	  569.69
     10.4700	  697.00	  701.70	-1947.11	  568.35
     10.5700	  721.00	  700.91	-1922.31	  567.01
     10.6700	  700.00	  700.31	-1942.72	  565.69
     10.7700	  683.00	  699.99	-1959.40	  564.38
     10.8700	  686.00	  700.06	-1956.47	  563.08
     10.9700	  739.00	  700.60	-1904.00	  561.78
     11.0700	  695.00	  701.64	-1949.04	  560.50
     11.1700	  678.00	  703.20	-1967.60	  559.22
     11.2700	  666.00	  705.30	-1981.71	  557.95
     11.3700	  698.00	  707.99	-1952.40	  556.70
     11.4700	  734.00	  711.37	-1919.78	  555.45
     11.5700	  695.00	  715.60	-1963.01	  554.21
     11.6700	  689.00	  720.91	-1974.32	  552.98
     11.7700	  816.00	  727.62	-1854.02	  551.76
     11.8700	  779.00	  736.04	-1899.44	  550.54
     11.9700	  801.00	  746.23	-1887.64	  549.34
     12.0700	  759.00	  757.57	-1940.98	  548.14
     12.1700	  822.00	  768.14	-1888.55	  546.96
     12.2700	  829.00	  774.15	-1887.56	  545.78
     12.3700	  827.00	  770.52	-1885.92	  544.61
     12.4700	  791.00	  755.29	-1906.69	  543.45
     12.5700	  723.00	  734.13	-1953.54	  542.30
     12.6700	  685.00	  714.48	-1971.88	  541.15
     12.7700	  715.00	  699.45	-1926.86	  540.02
     12.8700	  703.00	  689.04	-1928.44	  538.89
     12.9700	  619.00	  682.13	-2005.53	  537.77
     13.0700	  660.00	  677.44	-1959.84	  536.66
     13.1700	  631.00	  674.06	-1985.47	  535.56
     13.2700	  625.00	  671.43	-1988.83	  534.47
     13.3700	  661.00	  669.22	-1950.63	  533.38
     13.4700	  678.00	  667.30	-1931.70	  532.31
     13.5700	  624.00	  665.56	-1983.97	  531.24
     13.6700	  676.00	  663.97	-1930.38	  530.18
     13.7700	  710.00	  662.48	-1894.89	  529.13
     13.8700	  653.00	  661.08	-1950.49	  528.08
     13.9700	  685.00	  659.74	-1917.15	  527.05
     14.0700	  653.00	  658.46	-1947.87	  526.02
     14.1700	  657.00	  657.23	-1942.64	  525.00
     14.2700	  641.00	  656.03	-1957.44	  523.99
     14.3700	  680.00	  654.87	-1917.28	  522.98
     14.4700	  700.00	  653.74	-1896.14	  521.98
     14.5700	  651.00	  652.63	-1944.03	  521.00
     14.6700	  646.00	  651.54	-1947.95	  520.02
     14.7700	  642.00	  650.47	-1950.88	  519.04
     14.8700	  623.00	  649.43	-1968.83	  518.08
     14.9700	  607.00	  648.39	-1983.80	  517.12
     15.0700	  659.00	  647.38	-1930.78	  516.17
     15.1700	  656.00	  646.37	-1932.78	  515.23
     15.2700	  671.00	  645.39	-1916.79	  514.29
     15.3700	  636.00	  644.41	-1950.82	  513.37
     15.4700	  636.00	  643.45	-1949.85	  512.45
     15.5700	  603.00	  642.49	-1981.90	  511.53
     15.6700	  645.00	  641.55	-1938.96	  510.63
     15.7700	  607.00	  640.62	-1976.03	  509.73
     15.8700	  661.00	  639.70	-1921.11	  508.84
     15.9700	  661.00	  638.79	-1920.20	  507.96
     16.0700	  619.00	  637.89	-1961.30	  507.08
     16.1700	  649.00	  637.00	-1930.40	  506.22
     16.2700	  617.00	  636.11	-1961.52	  505.36
     16.3700	  604.00	  635.24	-1973.65	  504.50
     16.4700	  627.00	  634.38	-1949.78	  503.66
     16.5700	  641.00	  633.52	-1934.93	  502.82
     16.6700	  631.00	  632.67	-1944.08	  501.98
     16.7700	  612.00	  631.83	-1962.24	  501.16
     16.8700	  590.00	  631.00	-1983.40	  500.34
     16.9700	  648.00	  630.17	-1924.58	  499.53
     17.0700	  610.00	  629.36	-1961.76	  498.72
     17.1700	  678.00	  628.55	-1892.96	  497.93
     17.2700	  646.00	  627.75	-1924.16	  497.14
     17.3700	  689.00	  626.96	-1880.36	  496.35
     17.4700	  614.00	  626.17	-1954.58	  495.58
     17.5700	  656.00	  625.39	-1911.80	  494.81
     17.6700	  697.00	  624.62	-1870.03	  494.04
     17.7700	  589.00	  623.86	-1977.26	  493.29
     17.8700	  588.00	  623.10	-1977.51	  492.54
     17.9700	  635.00	  622.35	-1929.76	  491.79
     18.0700	  630.00	  621.61	-1934.02	  491.06
     18.1700	  624.00	  620.88	-1939.28	  490.33
     18.2700	  596.00	  620.15	-1966.56	  489.60
     18.3700	  622.00	  619.43	-1939.83	  488.88
     18.4700	  614.00	  618.71	-1947.12	  488.17
     18.5700	  638.00	  618.01	-1922.41	  487.47
     18.6700	  635.00	  617.31	-1924.71	  486.77
     18.7700	  593.00	  616.61	-1966.02	  486.08
     18.8700	  596.00	  617.57	-1963.97	  485.39
     18.9700	  658.00	  617.86	-1902.27	  484.72
     19.0700	  647.00	  617.24	-1912.65	  484.04
     19.1700	  601.00	  616.63	-1958.04	  483.38
     19.2700	  602.00	  616.03	-1956.43	  482.72
     19.3700	  631.00	  615.43	-1926.84	  482.06
     19.4700	  626.00	  614.85	-1931.26	  481.41
     19.5700	  609.00	  614.27	-1947.68	  480.77
     19.6700	  606.00	  613.71	-1950.11	  480.14
     19.7700	  585.00	  613.15	-1970.55	  479.51
     19.8700	  622.00	  612.60	-1933.00	  478.88
     19.9700	  614.00	  612.06	-1940.46	  478.27
     20.0700	  622.00	  611.52	-1931.93	  477.65
     20.1700	  617.00	  611.05	-1936.45	  477.05
     20.2700	  569.00	  610.53	-1983.94	  476.45
     20.3700	  605.00	  610.03	-1947.44	  475.85
     20.4700	  629.00	  609.54	-1922.94	  475.27
     20.5700	  639.00	  609.05	-1912.46	  474.68
     20.6700	  620.00	  608.58	-1930.98	  474.11
     20.7700	  593.00	  608.11	-1957.52	  473.54
     20.8700	  628.00	  607.66	-1922.07	  472.97
     20.9700	  572.00	  607.22	-1977.62	  472.41
     21.0700	  570.00	  606.78	-1979.19	  471.86
     21.1700	  588.00	  606.36	-1960.77	  471.31
     21.2700	  628.00	  605.95	-1920.36	  470.77
     21.3700	  616.00	  605.56	-1931.96	  470.23
     21.4700	  610.00	  605.17	-1937.58	  469.70
     21.5700	  598.00	  604.80	-1949.21	  469.17
     21.6700	  582.00	  604.44	-1964.85	  468.65
     21.7700	  597.00	  604.09	-1949.50	  468.13
     21.8700	  567.00	  603.76	-1979.17	  467.62
     21.9700	  565.00	  603.45	-1980.85	  467.12
     22.0700	  599.00	  603.15	-1946.55	  466.62
     22.1700	  543.00	  602.86	-2002.27	  466.13
     22.2700	  602.00	  602.60	-1943.00	  465.64
     22.3700	  626.00	  602.35	-1918.76	  465.15
     22.4700	  601.00	  602.31	-1943.72	  464.67
     22.5700	  621.00	  602.11	-1923.52	  464.20
     22.6700	  615.00	  601.93	-1929.34	  463.73
     22.7700	  602.00	  601.78	-1942.18	  463.27
     22.8700	  580.00	  601.65	-1964.06	  462.81
     22.9700	  622.00	  601.56	-1921.96	  462.36
     23.0700	  599.00	  601.49	-1944.90	  461.91
     23.1700	  570.00	  601.47	-1973.88	  461.47
     23.2700	  627.00	  601.50	-1916.90	  461.03
     23.3700	  634.00	  601.57	-1909.98	  460.60
     23.4700	  560.00	  601.70	-1984.11	  460.17
     23.5700	  605.00	  601.91	-1939.32	  459.75
     23.6700	  657.00	  602.21	-1887.62	  459.33
     23.7700	  601.00	  602.63	-1944.03	  458.91
     23.8700	  596.00	  603.21	-1949.61	  458.50
     23.9700	  590.00	  604.02	-1956.43	  458.10
     24.0700	  646.00	  605.15	-1901.55	  457.70
     24.1700	  618.00	  606.89	-1931.30	  457.31
     24.2700	  601.00	  609.51	-1950.91	  456.92
     24.3700	  648.00	  613.40	-1907.81	  456.53
     24.4700	  614.00	  619.00	-1947.41	  456.15
     24.5700	  713.00	  626.60	-1856.00	  455.78
     24.6700	  678.00	  636.10	-1900.50	  455.40
     24.7700	  692.00	  646.74	-1897.15	  455.04
     24.8700	  671.00	  656.73	-1928.14	  454.67
     24.9700	  703.00	  662.97	-1902.38	  454.32
     25.0700	  632.00	  662.02	-1972.43	  453.96
     25.1700	  683.00	  653.69	-1913.10	  453.61
     25.2700	  676.00	  642.36	-1908.77	  453.27
     25.3700	  652.00	  632.29	-1922.70	  452.93
     25.4700	  680.00	  625.17	-1887.58	  452.59
     25.5700	  682.00	  620.86	-1881.27	  452.26
     25.6700	  651.00	  618.80	-1910.21	  451.93
     25.7700	  577.00	  618.29	-1983.70	  451.61
     25.8700	  633.00	  618.82	-1928.22	  451.29
     25.9700	  619.00	  620.05	-1943.46	  450.98
     26.0700	  613.00	  621.85	-1951.26	  450.67
     26.1700	  651.00	  624.17	-1915.58	  450.36
     26.2700	  653.00	  627.02	-1916.43	  450.06
     26.3700	  646.00	  630.44	-1926.85	  449.76
     26.4700	  688.00	  634.52	-1888.93	  449.46
     26.5700	  593.00	  639.36	-1988.77	  449.17
     26.6700	  659.00	  645.11	-1928.52	  448.89
     26.7700	  676.00	  651.97	-1918.38	  448.61
     26.8700	  637.00	  660.20	-1965.61	  448.33
     26.9700	  698.00	  670.16	-1914.57	  448.05
     27.0700	  639.00	  682.33	-1985.74	  447.78
     27.1700	  704.00	  697.41	-1935.82	  447.52
     27.2700	  666.00	  716.42	-1992.83	  447.25
     27.3700	  703.00	  741.06	-1980.46	  447.00
     27.4700	  745.00	  774.57	-1971.98	  446.74
     27.5700	  702.00	  823.92	-2064.33	  446.49
     27.6700	  818.00	  903.92	-2028.33	  446.24
     27.7700	  897.00	 1043.50	-2088.91	  446.00
     27.8700	  985.00	 1292.18	-2249.59	  445.76
     27.9700	 1347.00	 1720.82	-2316.22	  445.52
     28.0700	 1827.00	 2404.43	-2519.84	  445.29
     28.1700	 3079.00	 3375.91	-2239.32	  445.06
     28.2700	 4804.00	 4547.02	-1685.43	  444.84
     28.3700	 6354.00	 5623.70	-1212.11	  444.61
     28.4700	 6919.00	 6113.99	-1137.40	  444.39
     28.5700	 6123.00	 5649.23	-1468.63	  444.18
     28.6700	 4477.00	 4581.22	-2046.63	  443.97
     28.7700	 3310.00	 3646.31	-2278.72	  443.76
     28.8700	 2963.00	 3214.17	-2193.58	  443.56
     28.9700	 3367.00	 3250.82	-1826.22	  443.36
     29.0700	 3805.00	 3487.17	-1624.58	  443.16
     29.1700	 3899.00	 3565.12	-1608.52	  442.96
     29.2700	 3419.00	 3228.67	-1752.08	  442.77
     29.3700	 2496.00	 2577.18	-2023.59	  442.58
     29.4700	 1710.00	 1915.40	-2147.80	  442.40
     29.5700	 1295.00	 1416.27	-2063.67	  442.22
     29.6700	  983.00	 1102.27	-2061.68	  442.04
     29.7700	  919.00	  926.59	-1950.00	  441.87
     29.8700	  823.00	  831.77	-1951.18	  441.70
     29.9700	  736.00	  777.30	-1983.71	  441.53
     30.0700	  753.00	  742.11	-1931.52	  441.36
     30.1700	  731.00	  717.07	-1928.48	  441.20
     30.2700	  689.00	  698.46	-1951.87	  441.04
     30.3700	  685.00	  684.70	-1942.11	  440.89
     30.4700	  673.00	  675.32	-1944.73	  440.73
     30.5700	  697.00	  670.64	-1916.04	  440.58
     30.6700	  691.00	  671.62	-1923.03	  440.44
     30.7700	  653.00	  679.45	-1968.85	  440.29
     30.8700	  700.00	  694.34	-1936.75	  440.15
     30.9700	  683.00	  714.13	-1973.54	  440.02
     31.0700	  826.00	  733.11	-1849.51	  439.88
     31.1700	  750.00	  741.96	-1934.37	  439.75
     31.2700	  759.00	  731.97	-1915.38	  439.62
     31.3700	  715.00	  705.28	-1932.69	  439.49
     31.4700	  669.00	  674.27	-1947.67	  439.37
     31.5700	  677.00	  648.18	-1913.59	  439.25
     31.6700	  627.00	  629.77	-1945.17	  439.13
     31.7700	  702.00	  618.10	-1858.50	  439.02
     31.8700	  676.00	  611.03	-1877.44	  438.90
     31.9700	  621.00	  606.65	-1928.05	  438.80
     32.0700	  662.00	  603.70	-1884.11	  438.69
     32.1700	  604.00	  601.56	-1939.97	  438.58
     32.2700	  662.00	  599.95	-1880.35	  438.48
     32.3700	  618.00	  598.74	-1923.14	  438.38
     32.4700	  626.00	  597.87	-1914.28	  438.29
     32.5700	  607.00	  597.32	-1932.73	  438.19
     32.6700	  617.00	  597.10	-1922.50	  438.10
     32.7700	  629.00	  597.21	-1910.61	  438.01
     32.8700	  642.00	  597.69	-1898.09	  437.93
     32.9700	  578.00	  598.60	-1963.01	  437.84
     33.0700	  640.00	  600.09	-1902.49	  437.76
     33.1700	  615.00	  602.24	-1929.65	  437.68
     33.2700	  626.00	  605.41	-1921.82	  437.61
     33.3700	  598.00	  610.17	-1954.57	  437.53
     33.4700	  640.00	  617.69	-1920.09	  437.46
     33.5700	  639.00	  630.19	-1933.60	  437.39
     33.6700	  641.00	  651.51	-1952.92	  437.33
     33.7700	  681.00	  687.26	-1948.67	  437.26
     33.8700	  729.00	  743.70	-1957.11	  437.20
     33.9700	  856.00	  824.32	-1910.73	  437.14
     34.0700	  966.00	  924.34	-1900.74	  437.08
     34.1700	 1097.00	 1025.78	-1871.18	  437.03
     34.2700	 1158.00	 1096.43	-1880.84	  436.97
     34.3700	 1210.00	 1099.76	-1832.16	  436.92
     34.4700	 1123.00	 1027.68	-1847.08	  436.87
     34.5700	  938.00	  917.30	-1921.70	  436.83
     34.6700	  818.00	  811.07	-1935.47	  436.78
     34.7700	  722.00	  728.97	-1949.38	  436.74
     34.8700	  684.00	  673.79	-1932.20	  436.70
     34.9700	  652.00	  640.15	-1930.56	  436.66
     35.0700	  643.00	  620.61	-1920.02	  436.62
     35.1700	  622.00	  609.12	-1929.53	  436.59
     35.2700	  643.00	  601.87	-1901.28	  436.56
     35.3700	  616.00	  596.85	-1923.26	  436.53
     35.4700	  617.00	  593.12	-1918.53	  436.50
     35.5700	  620.00	  590.22	-1912.63	  436.47
     35.6700	  657.00	  587.92	-1873.33	  436.45
     35.7700	  612.00	  586.06	-1916.47	  436.42
     35.8700	  615.00	  584.55	-1911.95	  436.40
     35.9700	  606.00	  583.31	-1919.72	  436.38
     36.0700	  602.00	  582.30	-1922.71	  436.37
     36.1700	  596.00	  581.48	-1927.89	  436.35
     36.2700	  591.00	  580.83	-1932.24	  436.34
     36.3700	  599.00	  580.32	-1923.73	  436.33
     36.4700	  594.00	  579.95	-1928.35	  436.32
     36.5700	  552.00	  579.70	-1970.11	  436.31
     36.6700	  589.00	  579.59	-1933.00	  436.30
     36.7700	  582.00	  579.62	-1940.03	  436.30
     36.8700	  588.00	  579.81	-1934.22	  436.30
     36.9700	  586.00	  580.69	-1937.09	  436.29
     37.0700	  617.00	  581.32	-1906.73	  436.29
     37.1700	  582.00	  582.49	-1942.90	  436.30
     37.2700	  628.00	  583.95	-1898.36	  436.30
     37.3700	  599.00	  586.24	-1929.65	  436.31
     37.4700	  560.00	  589.83	-1972.23	  436.31
     37.5700	  598.00	  595.49	-1939.90	  436.32
     37.6700	  629.00	  604.36	-1917.77	  436.33
     37.7700	  621.00	  617.81	-1939.22	  436.34
     37.8700	  614.00	  637.06	-1965.46	  436.36
     37.9700	  698.00	  662.13	-1906.54	  436.37
     38.0700	  666.00	  691.11	-1967.51	  436.39
     38.1700	  724.00	  717.58	-1935.99	  436.40
     38.2700	  721.00	  736.84	-1958.24	  436.42
     38.3700	  763.00	  738.15	-1917.56	  436.44
     38.4700	  675.00	  718.80	-1986.20	  436.46
     38.5700	  641.00	  687.28	-1988.69	  436.49
     38.6700	  630.00	  654.97	-1967.38	  436.51
     38.7700	  602.00	  628.32	-1968.72	  436.54
     38.8700	  567.00	  609.08	-1984.49	  436.57
     38.9700	  599.00	  596.50	-1939.90	  436.59
     39.0700	  606.00	  588.78	-1925.18	  436.62
     39.1700	  549.00	  584.14	-1977.55	  436.65
     39.2700	  560.00	  581.28	-1963.68	  436.69
     39.3700	  565.00	  579.38	-1956.79	  436.72
     39.4700	  561.00	  578.03	-1959.44	  436.76
     39.5700	  587.00	  577.01	-1932.42	  436.79
     39.6700	  563.00	  575.35	-1954.76	  436.83
     39.7700	  597.00	  574.74	-1920.15	  436.87
     39.8700	  591.00	  574.26	-1925.67	  436.91
     39.9700	  597.00	  573.88	-1919.29	  436.95
     40.0700	  565.00	  573.59	-1950.99	  436.99
     40.1700	  574.00	  573.36	-1941.77	  437.03
     40.2700	  600.00	  573.19	-1915.60	  437.08
     40.3700	  591.00	  573.07	-1924.47	  437.12
     40.4700	  589.00	  572.99	-1926.40	  437.17
     40.5700	  555.00	  572.95	-1960.36	  437.21
     40.6700	  596.00	  572.95	-1919.36	  437.26
     40.7700	  585.00	  573.51	-1930.91	  437.31
