MSG Master    CELL:    5.87518   5.87518  23.06919   90.0000   90.0000  120.0000   SPGR: P 63/m m c             TEMP:    440.45
  2   1280     2.52000     0.00000    -0.08754     0.00000     0.00000    0
    95    95     0     0     2
       0.00000      10.00000
     125.00000     130.00000
 2Theta	Yobs	Ycal	Yobs-Ycal	Backg	Posr	(hkl)	K
      0.7700	    0.00	 1007.56	-2357.75	  862.86
      0.8700	    0.00	 1004.17	-2357.75	  859.48
      0.9700	   46.00	 1000.81	-2357.75	  856.12
      1.0700	   40.00	  997.47	-2357.75	  852.78
      1.1700	   52.00	  994.16	-2357.75	  849.46
      1.2700	   48.00	  990.86	-2357.75	  846.16
      1.3700	   52.00	  987.58	-2357.75	  842.88
      1.4700	  102.00	  984.32	-2357.75	  839.63
      1.5700	  317.00	  981.09	-2357.75	  836.39
      1.6700	  429.00	  977.87	-2357.75	  833.18
      1.7700	  585.00	  974.68	-2357.75	  829.98
      1.8700	  621.00	  971.50	-2357.75	  826.81
      1.9700	  741.00	  968.35	-2357.75	  823.65
      2.0700	  781.00	  965.21	-2357.75	  820.52
      2.1700	  782.00	  962.10	-2357.75	  817.40
      2.2700	  808.00	  959.01	-2357.75	  814.31
      2.3700	  728.00	  955.93	-2357.75	  811.23
      2.4700	  772.00	  952.88	-2357.75	  808.18
      2.5700	  681.00	  949.84	-2357.75	  805.15
      2.6700	  697.00	  946.83	-2357.75	  802.13
      2.7700	  595.00	  943.83	-2357.75	  799.14
      2.8700	  621.00	  940.86	-2357.75	  796.16
      2.9700	  619.00	  937.90	-2357.75	  793.20
      3.0700	  589.00	  934.96	-2357.75	  790.27
      3.1700	  666.00	  932.04	-2357.75	  787.35
      3.2700	  768.00	  929.15	-2357.75	  784.45
      3.3700	  888.00	  926.27	-2357.75	  781.57
      3.4700	  996.00	  923.41	-2357.75	  778.71
      3.5700	 1149.00	  920.56	-2357.75	  775.87
      3.6700	 1338.00	  917.74	-2357.75	  773.04
      3.7700	 1419.00	  914.94	-2357.75	  770.24
      3.8700	 1577.00	  912.15	-2357.75	  767.45
      3.9700	 1526.00	  909.38	-2357.75	  764.69
      4.0700	 1662.00	  906.64	-2357.75	  761.94
      4.1700	 1725.00	  903.91	-2357.75	  759.21
      4.2700	 1743.00	  901.19	-2357.75	  756.50
      4.3700	 1718.00	  898.50	-2357.75	  753.80
      4.4700	 1646.00	  895.83	-2357.75	  751.13
      4.5700	 1602.00	  893.17	-2357.75	  748.47
      4.6700	 1581.00	  890.53	-2357.75	  745.83
      4.7700	 1525.00	  887.91	-2357.75	  743.21
      4.8700	 1468.00	  885.31	-2357.75	  740.61
      4.9700	 1485.00	  882.72	-2357.75	  738.02
      5.0700	 1316.00	  880.15	-2357.75	  735.46
      5.1700	 1322.00	  877.60	-2357.75	  732.91
      5.2700	 1263.00	  875.07	-2357.75	  730.37
      5.3700	 1285.00	  872.56	-2357.75	  727.86
      5.4700	 1203.00	  870.06	-2357.75	  725.36
      5.5700	 1229.00	  867.58	-2357.75	  722.88
      5.6700	 1234.00	  865.11	-2357.75	  720.42
      5.7700	 1182.00	  862.67	-2357.75	  717.97
      5.8700	 1198.00	  860.24	-2357.75	  715.54
      5.9700	 1105.00	  857.83	-2357.75	  713.13
      6.0700	 1153.00	  855.43	-2357.75	  710.74
      6.1700	 1101.00	  853.05	-2357.75	  708.36
      6.2700	 1125.00	  850.69	-2357.75	  706.00
      6.3700	 1088.00	  848.35	-2357.75	  703.65
      6.4700	 1113.00	  846.02	-2357.75	  701.32
      6.5700	 1032.00	  843.71	-2357.75	  699.01
      6.6700	 1029.00	  841.41	-2357.75	  696.72
      6.7700	 1022.00	  839.14	-2357.75	  694.44
      6.8700	  948.00	  836.87	-2357.75	  692.18
      6.9700	  959.00	  834.63	-2357.75	  689.93
      7.0700	  920.00	  832.40	-2357.75	  687.70
      7.1700	  934.00	  830.18	-2357.75	  685.49
      7.2700	  940.00	  827.99	-2357.75	  683.29
      7.3700	  971.00	  825.81	-2357.75	  681.11
      7.4700	  950.00	  823.64	-2357.75	  678.94
      7.5700	  974.00	  821.49	-2357.75	  676.79
      7.6700	  845.00	  819.36	-2357.75	  674.66
      7.7700	  872.00	  817.24	-2357.75	  672.54
      7.8700	  821.00	  815.13	-2357.75	  670.44
      7.9700	  807.00	  813.05	-2357.75	  668.35
      8.0700	  826.00	  810.97	-2357.75	  666.28
      8.1700	  841.00	  808.92	-2357.75	  664.22
      8.2700	  873.00	  806.88	-2357.75	  662.18
      8.3700	  788.00	  804.85	-2357.75	  660.15
      8.4700	  811.00	  802.84	-2357.75	  658.14
      8.5700	  861.00	  800.84	-2357.75	  656.15
      8.6700	  838.00	  798.86	-2357.75	  654.16
      8.7700	  856.00	  796.89	-2357.75	  652.20
      8.8700	  835.00	  794.94	-2357.75	  650.25
      8.9700	  796.00	  793.01	-2357.75	  648.31
      9.0700	  830.00	  791.09	-2357.75	  646.39
      9.1700	  822.00	  789.18	-2357.75	  644.48
      9.2700	  834.00	  787.29	-2357.75	  642.59
      9.3700	  754.00	  785.41	-2357.75	  640.71
      9.4700	  755.00	  783.54	-2357.75	  638.85
      9.5700	  804.00	  781.69	-2357.75	  637.00
      9.6700	  790.00	  779.86	-2357.75	  635.16
      9.7700	  794.00	  778.04	-2357.75	  633.34
      9.8700	  746.00	  776.23	-2357.75	  631.54
      9.9700	  784.00	  774.44	-2357.75	  629.74
     10.0700	  758.00	  774.68	-2374.43	  627.96
     10.1700	  747.00	  773.13	-2383.88	  626.20
     10.2700	  764.00	  771.64	-2365.39	  624.45
     10.3700	  814.00	  770.22	-2313.97	  622.71
     10.4700	  759.00	  768.89	-2367.64	  620.99
     10.5700	  757.00	  767.70	-2368.45	  619.28
     10.6700	  743.00	  766.68	-2381.43	  617.58
     10.7700	  810.00	  765.93	-2313.68	  615.90
     10.8700	  714.00	  765.53	-2409.28	  614.23
     10.9700	  800.00	  765.57	-2323.32	  612.58
     11.0700	  769.00	  766.12	-2354.87	  610.94
     11.1700	  735.00	  767.20	-2389.95	  609.31
     11.2700	  745.00	  768.82	-2381.57	  607.69
     11.3700	  781.00	  771.02	-2347.77	  606.09
     11.4700	  771.00	  773.89	-2360.64	  604.50
     11.5700	  771.00	  777.56	-2364.31	  602.92
     11.6700	  815.00	  782.25	-2325.00	  601.36
     11.7700	  806.00	  788.22	-2339.97	  599.81
     11.8700	  850.00	  795.77	-2303.52	  598.27
     11.9700	  809.00	  805.04	-2353.79	  596.74
     12.0700	  848.00	  815.61	-2325.36	  595.23
     12.1700	  837.00	  826.04	-2346.79	  593.73
     12.2700	  864.00	  833.26	-2327.01	  592.25
     12.3700	  850.00	  832.64	-2340.39	  590.77
     12.4700	  887.00	  820.78	-2291.53	  589.31
     12.5700	  766.00	  800.90	-2392.65	  587.86
     12.6700	  790.00	  780.42	-2348.17	  586.42
     12.7700	  775.00	  763.79	-2346.54	  584.99
     12.8700	  739.00	  751.71	-2370.46	  583.58
     12.9700	  719.00	  743.39	-2382.14	  582.18
     13.0700	  704.00	  737.67	-2391.42	  580.79
     13.1700	  717.00	  733.55	-2374.30	  579.41
     13.2700	  715.00	  730.36	-2373.11	  578.05
     13.3700	  732.00	  727.71	-2353.46	  576.69
     13.4700	  666.00	  725.39	-2417.14	  575.35
     13.5700	  687.00	  723.31	-2394.06	  574.02
     13.6700	  770.00	  721.39	-2309.14	  572.70
     13.7700	  700.00	  719.59	-2377.34	  571.40
     13.8700	  672.00	  717.89	-2403.64	  570.10
     13.9700	  749.00	  716.28	-2325.03	  568.82
     14.0700	  710.00	  714.72	-2362.47	  567.55
     14.1700	  753.00	  713.22	-2317.98	  566.28
     14.2700	  684.00	  711.77	-2385.52	  565.03
     14.3700	  737.00	  710.36	-2331.11	  563.80
     14.4700	  714.00	  708.98	-2352.73	  562.57
     14.5700	  738.00	  707.63	-2327.38	  561.35
     14.6700	  665.00	  706.31	-2399.06	  560.15
     14.7700	  722.00	  705.01	-2340.76	  558.95
     14.8700	  742.00	  703.73	-2319.48	  557.77
     14.9700	  686.00	  702.48	-2374.23	  556.60
     15.0700	  686.00	  701.24	-2372.99	  555.43
     15.1700	  642.00	  700.03	-2415.78	  554.28
     15.2700	  682.00	  698.83	-2374.58	  553.14
     15.3700	  723.00	  697.65	-2332.40	  552.01
     15.4700	  690.00	  696.48	-2364.23	  550.89
     15.5700	  687.00	  695.33	-2366.08	  549.79
     15.6700	  668.00	  694.19	-2383.94	  548.69
     15.7700	  669.00	  693.06	-2381.81	  547.60
     15.8700	  676.00	  691.95	-2373.70	  546.52
     15.9700	  625.00	  690.85	-2423.60	  545.46
     16.0700	  708.00	  689.77	-2339.52	  544.40
     16.1700	  682.00	  688.70	-2364.45	  543.35
     16.2700	  672.00	  687.64	-2373.39	  542.31
     16.3700	  705.00	  686.59	-2339.34	  541.29
     16.4700	  662.00	  685.55	-2381.30	  540.27
     16.5700	  669.00	  684.52	-2373.27	  539.26
     16.6700	  699.00	  683.51	-2342.26	  538.27
     16.7700	  698.00	  682.51	-2342.26	  537.28
     16.8700	  701.00	  681.51	-2338.26	  536.30
     16.9700	  685.00	  680.53	-2353.28	  535.34
     17.0700	  704.00	  679.56	-2333.31	  534.38
     17.1700	  653.00	  678.60	-2383.35	  533.43
     17.2700	  646.00	  677.65	-2389.40	  532.49
     17.3700	  698.00	  676.71	-2336.46	  531.56
     17.4700	  670.00	  675.78	-2363.53	  530.64
     17.5700	  699.00	  674.86	-2333.61	  529.73
     17.6700	  672.00	  673.95	-2359.70	  528.83
     17.7700	  691.00	  673.05	-2339.80	  527.94
     17.8700	  704.00	  672.16	-2325.92	  527.05
     17.9700	  650.00	  671.29	-2379.04	  526.18
     18.0700	  667.00	  670.41	-2361.16	  525.32
     18.1700	  689.00	  669.55	-2338.30	  524.46
     18.2700	  641.00	  668.70	-2385.45	  523.61
     18.3700	  663.00	  667.86	-2362.61	  522.78
     18.4700	  682.00	  667.03	-2342.78	  521.95
     18.5700	  699.00	  666.21	-2324.96	  521.13
     18.6700	  626.00	  665.39	-2397.14	  520.32
     18.7700	  677.00	  664.59	-2345.34	  519.51
     18.8700	  688.00	  663.79	-2333.54	  518.72
     18.9700	  659.00	  663.00	-2361.75	  517.93
     19.0700	  730.00	  663.57	-2291.32	  517.16
     19.1700	  658.00	  665.10	-2364.85	  516.39
     19.2700	  671.00	  664.42	-2351.17	  515.63
     19.3700	  686.00	  663.74	-2335.49	  514.88
     19.4700	  666.00	  663.08	-2354.83	  514.14
     19.5700	  634.00	  662.44	-2386.19	  513.40
     19.6700	  647.00	  661.80	-2372.55	  512.67
     19.7700	  664.00	  661.17	-2354.92	  511.96
     19.8700	  688.00	  660.56	-2330.31	  511.25
     19.9700	  692.00	  659.96	-2325.71	  510.54
     20.0700	  651.00	  659.37	-2366.12	  509.85
     20.1700	  666.00	  658.79	-2350.54	  509.16
     20.2700	  681.00	  658.28	-2335.03	  508.49
     20.3700	  683.00	  657.73	-2332.48	  507.82
     20.4700	  669.00	  657.19	-2345.94	  507.15
     20.5700	  672.00	  656.66	-2342.41	  506.50
     20.6700	  660.00	  656.15	-2353.90	  505.85
     20.7700	  674.00	  655.65	-2339.40	  505.21
     20.8700	  655.00	  655.16	-2357.91	  504.58
     20.9700	  647.00	  654.69	-2365.44	  503.96
     21.0700	  642.00	  654.23	-2369.98	  503.34
     21.1700	  647.00	  653.79	-2364.54	  502.73
     21.2700	  659.00	  653.36	-2352.11	  502.13
     21.3700	  672.00	  652.94	-2338.69	  501.54
     21.4700	  649.00	  652.55	-2361.30	  500.95
     21.5700	  684.00	  652.16	-2325.91	  500.37
     21.6700	  689.00	  651.80	-2320.55	  499.80
     21.7700	  670.00	  651.45	-2339.20	  499.23
     21.8700	  631.00	  651.12	-2377.87	  498.68
     21.9700	  664.00	  650.81	-2344.56	  498.13
     22.0700	  689.00	  650.52	-2319.27	  497.58
     22.1700	  689.00	  650.25	-2319.00	  497.05
     22.2700	  616.00	  650.00	-2391.75	  496.52
     22.3700	  634.00	  649.77	-2373.52	  495.99
     22.4700	  638.00	  649.78	-2369.53	  495.48
     22.5700	  619.00	  649.61	-2388.36	  494.97
     22.6700	  635.00	  649.47	-2372.22	  494.47
     22.7700	  641.00	  649.35	-2366.10	  493.97
     22.8700	  701.00	  649.27	-2306.02	  493.48
     22.9700	  662.00	  649.23	-2344.98	  493.00
     23.0700	  639.00	  649.22	-2367.97	  492.52
     23.1700	  660.00	  649.26	-2347.01	  492.05
     23.2700	  686.00	  649.34	-2321.09	  491.59
     23.3700	  674.00	  649.48	-2333.23	  491.14
     23.4700	  699.00	  649.69	-2308.44	  490.69
     23.5700	  661.00	  649.97	-2346.72	  490.24
     23.6700	  677.00	  650.34	-2331.09	  489.81
     23.7700	  674.00	  650.83	-2334.58	  489.38
     23.8700	  616.00	  651.47	-2393.22	  488.95
     23.9700	  683.00	  652.31	-2327.06	  488.53
     24.0700	  620.00	  653.45	-2391.20	  488.12
     24.1700	  677.00	  655.05	-2335.80	  487.71
     24.2700	  712.00	  657.34	-2303.09	  487.31
     24.3700	  683.00	  660.61	-2335.36	  486.92
     24.4700	  681.00	  665.40	-2342.15	  486.53
     24.5700	  724.00	  672.00	-2305.75	  486.15
     24.6700	  686.00	  680.57	-2352.32	  485.77
     24.7700	  665.00	  690.74	-2383.49	  485.40
     24.8700	  739.00	  701.42	-2320.17	  485.04
     24.9700	  754.00	  710.36	-2314.11	  484.68
     25.0700	  729.00	  714.28	-2343.03	  484.33
     25.1700	  731.00	  710.69	-2337.44	  483.98
     25.2700	  739.00	  701.38	-2320.13	  483.64
     25.3700	  731.00	  691.02	-2317.77	  483.30
     25.4700	  711.00	  682.78	-2329.53	  482.97
     25.5700	  688.00	  677.37	-2347.12	  482.64
     25.6700	  707.00	  674.57	-2325.32	  482.32
     25.7700	  683.00	  673.77	-2348.52	  482.01
     25.8700	  663.00	  674.38	-2369.13	  481.70
     25.9700	  672.00	  675.98	-2361.73	  481.40
     26.0700	  648.00	  678.34	-2388.09	  481.10
     26.1700	  680.00	  681.37	-2359.12	  480.80
     26.2700	  704.00	  685.06	-2338.81	  480.52
     26.3700	  658.00	  689.47	-2389.22	  480.23
     26.4700	  764.00	  694.67	-2288.42	  479.96
     26.5700	  640.00	  700.80	-2418.55	  479.68
     26.6700	  684.00	  708.03	-2381.78	  479.42
     26.7700	  690.00	  716.60	-2384.35	  479.15
     26.8700	  708.00	  726.81	-2376.56	  478.89
     26.9700	  711.00	  739.07	-2385.82	  478.64
     27.0700	  692.00	  753.93	-2419.68	  478.39
     27.1700	  732.00	  772.18	-2397.93	  478.15
     27.2700	  756.00	  794.92	-2396.67	  477.91
     27.3700	  804.00	  823.90	-2377.65	  477.68
     27.4700	  830.00	  862.19	-2389.94	  477.45
     27.5700	  800.00	  916.20	-2473.95	  477.23
     27.6700	  898.00	 1000.10	-2459.85	  477.01
     27.7700	  977.00	 1143.56	-2524.31	  476.79
     27.8700	 1143.00	 1401.78	-2616.53	  476.58
     27.9700	 1427.00	 1862.66	-2793.41	  476.38
     28.0700	 1998.00	 2638.56	-2998.31	  476.18
     28.1700	 3323.00	 3822.81	-2857.56	  475.98
     28.2700	 5428.00	 5396.56	-2326.31	  475.79
     28.3700	 7836.00	 7089.99	-1611.74	  475.60
     28.4700	 9431.00	 8298.45	-1225.20	  475.41
     28.5700	 9082.00	 8286.56	-1562.31	  475.23
     28.6700	 7193.00	 7007.92	-2172.67	  475.06
     28.7700	 5092.00	 5456.59	-2722.34	  474.89
     28.8700	 4292.00	 4489.75	-2555.50	  474.72
     28.9700	 4201.00	 4299.13	-2455.88	  474.56
     29.0700	 4903.00	 4613.84	-2068.59	  474.40
     29.1700	 5355.00	 4939.63	-1942.38	  474.25
     29.2700	 5032.00	 4779.76	-2105.51	  474.10
     29.3700	 4030.00	 4002.69	-2330.44	  473.95
     29.4700	 2798.00	 2992.43	-2552.18	  473.81
     29.5700	 1971.00	 2133.35	-2520.10	  473.67
     29.6700	 1314.00	 1551.96	-2595.71	  473.54
     29.7700	 1212.00	 1213.86	-2359.61	  473.41
     29.8700	  996.00	 1032.56	-2394.31	  473.28
     29.9700	  930.00	  933.68	-2361.43	  473.16
     30.0700	  885.00	  873.76	-2346.51	  473.04
     30.1700	  802.00	  832.89	-2388.64	  472.92
     30.2700	  831.00	  802.92	-2329.67	  472.81
     30.3700	  756.00	  780.45	-2382.20	  472.70
     30.4700	  787.00	  764.06	-2334.81	  472.60
     30.5700	  729.00	  753.48	-2382.23	  472.50
     30.6700	  746.00	  749.42	-2361.17	  472.40
     30.7700	  778.00	  753.24	-2332.99	  472.30
     30.8700	  784.00	  766.03	-2339.78	  472.21
     30.9700	  765.00	  786.93	-2379.68	  472.13
     31.0700	  843.00	  811.39	-2326.14	  472.04
     31.1700	  829.00	  830.22	-2358.97	  471.96
     31.2700	  836.00	  831.08	-2352.83	  471.89
     31.3700	  809.00	  807.75	-2356.50	  471.81
     31.4700	  801.00	  770.25	-2327.00	  471.74
     31.5700	  752.00	  733.68	-2339.43	  471.68
     31.6700	  676.00	  705.51	-2387.26	  471.61
     31.7700	  717.00	  686.63	-2327.38	  471.55
     31.8700	  723.00	  674.95	-2309.70	  471.50
     31.9700	  701.00	  667.80	-2324.55	  471.44
     32.0700	  698.00	  663.17	-2322.92	  471.39
     32.1700	  689.00	  659.90	-2328.65	  471.34
     32.2700	  663.00	  657.45	-2352.20	  471.30
     32.3700	  699.00	  655.56	-2314.31	  471.26
     32.4700	  628.00	  654.13	-2383.88	  471.22
     32.5700	  738.00	  653.11	-2272.86	  471.18
     32.6700	  662.00	  652.46	-2348.21	  471.15
     32.7700	  664.00	  652.21	-2345.96	  471.12
     32.8700	  725.00	  652.37	-2285.12	  471.09
     32.9700	  636.00	  653.02	-2374.77	  471.07
     33.0700	  673.00	  654.18	-2338.93	  471.04
     33.1700	  652.00	  656.02	-2361.77	  471.02
     33.2700	  646.00	  658.77	-2370.52	  471.01
     33.3700	  689.00	  662.86	-2331.61	  470.99
     33.4700	  700.00	  669.15	-2326.90	  470.98
     33.5700	  690.00	  679.32	-2347.07	  470.97
     33.6700	  721.00	  696.42	-2333.17	  470.97
     33.7700	  750.00	  725.47	-2333.22	  470.96
     33.8700	  787.00	  773.14	-2343.90	  470.96
     33.9700	  859.00	  845.77	-2344.52	  470.97
     34.0700	 1018.00	  944.52	-2284.27	  470.97
     34.1700	 1139.00	 1059.23	-2277.98	  470.98
     34.2700	 1314.00	 1164.21	-2207.96	  470.99
     34.3700	 1318.00	 1219.72	-2259.47	  471.00
     34.4700	 1309.00	 1191.70	-2240.45	  471.01
     34.5700	 1188.00	 1090.60	-2260.35	  471.03
     34.6700	 1010.00	  965.71	-2313.46	  471.05
     34.7700	  836.00	  855.89	-2377.64	  471.07
     34.8700	  729.00	  775.23	-2403.98	  471.09
     34.9700	  743.00	  722.80	-2337.55	  471.11
     35.0700	  708.00	  691.39	-2341.14	  471.14
     35.1700	  727.00	  673.13	-2303.88	  471.17
     35.2700	  715.00	  662.15	-2304.90	  471.20
     35.3700	  693.00	  655.01	-2319.76	  471.24
     35.4700	  717.00	  649.99	-2290.74	  471.27
     35.5700	  635.00	  646.16	-2368.91	  471.31
     35.6700	  668.00	  643.18	-2332.93	  471.35
     35.7700	  668.00	  640.80	-2330.55	  471.39
     35.8700	  653.00	  638.88	-2343.63	  471.44
     35.9700	  618.00	  637.33	-2377.08	  471.48
     36.0700	  655.00	  636.07	-2338.82	  471.53
     36.1700	  625.00	  635.06	-2367.81	  471.58
     36.2700	  639.00	  634.25	-2353.00	  471.63
     36.3700	  651.00	  633.62	-2340.37	  471.68
     36.4700	  644.00	  633.16	-2346.91	  471.74
     36.5700	  648.00	  632.86	-2342.61	  471.79
     36.6700	  637.00	  632.70	-2353.45	  471.85
     36.7700	  619.00	  632.70	-2371.45	  471.91
     36.8700	  671.00	  632.88	-2319.63	  471.98
     36.9700	  647.00	  633.24	-2343.99	  472.04
     37.0700	  647.00	  634.05	-2344.80	  472.10
     37.1700	  659.00	  634.96	-2333.71	  472.17
     37.2700	  631.00	  636.85	-2363.60	  472.24
     37.3700	  648.00	  638.86	-2348.61	  472.31
     37.4700	  616.00	  641.92	-2383.67	  472.38
     37.5700	  660.00	  646.66	-2344.41	  472.46
     37.6700	  688.00	  654.13	-2323.88	  472.53
     37.7700	  671.00	  665.86	-2352.61	  472.61
     37.8700	  672.00	  683.57	-2369.32	  472.68
     37.9700	  718.00	  708.61	-2348.36	  472.76
     38.0700	  749.00	  740.78	-2349.53	  472.84
     38.1700	  776.00	  774.83	-2356.58	  472.93
     38.2700	  709.00	  808.09	-2456.84	  473.01
     38.3700	  806.00	  827.79	-2379.54	  473.09
     38.4700	  788.00	  823.69	-2393.44	  473.18
     38.5700	  776.00	  795.81	-2377.56	  473.27
     38.6700	  780.00	  756.52	-2334.27	  473.35
     38.7700	  731.00	  718.53	-2345.28	  473.44
     38.8700	  635.00	  688.13	-2410.88	  473.54
     38.9700	  630.00	  666.59	-2394.34	  473.63
     39.0700	  661.00	  652.65	-2349.40	  473.72
     39.1700	  597.00	  644.12	-2404.87	  473.81
     39.2700	  623.00	  638.98	-2373.73	  473.91
     39.3700	  613.00	  635.76	-2380.51	  474.01
     39.4700	  637.00	  633.61	-2354.36	  474.10
     39.5700	  610.00	  630.79	-2378.54	  474.20
     39.6700	  654.00	  629.66	-2333.41	  474.30
     39.7700	  641.00	  628.78	-2345.53	  474.40
     39.8700	  624.00	  628.11	-2361.86	  474.51
     39.9700	  638.00	  627.58	-2347.33	  474.61
     40.0700	  624.00	  627.16	-2360.91	  474.71
     40.1700	  561.00	  626.85	-2423.60	  474.82
     40.2700	  619.00	  626.61	-2365.36	  474.92
     40.3700	  653.00	  626.45	-2331.20	  475.03
     40.4700	  609.00	  626.34	-2375.09	  475.14
     40.5700	  641.00	  626.28	-2343.03	  475.24
     40.6700	  645.00	  626.26	-2339.01	  475.35
     40.7700	  610.00	  626.29	-2374.04	  475.46
