MSG Master    CELL:    5.90303   5.90303  23.18221   90.0000   90.0000  120.0000   SPGR: P 63/m m c             TEMP:    821.25
  1   1280     2.52000     0.00000    -0.12957     0.00000     0.00000    0
    98     0     2
       0.00000      10.00000
     125.00000     130.00000
 2Theta	Yobs	Ycal	Yobs-Ycal	Backg	Posr	(hkl)	K
      0.7700	    0.00	  480.38	-1752.75	  372.07
      0.8700	    0.00	  482.09	-1752.75	  373.78
      0.9700	   46.00	  483.78	-1752.75	  375.47
      1.0700	   47.00	  485.45	-1752.75	  377.14
      1.1700	   25.00	  487.10	-1752.75	  378.79
      1.2700	   45.00	  488.74	-1752.75	  380.43
      1.3700	   45.00	  490.35	-1752.75	  382.04
      1.4700	   94.00	  491.95	-1752.75	  383.64
      1.5700	  295.00	  493.53	-1752.75	  385.22
      1.6700	  462.00	  495.09	-1752.75	  386.78
      1.7700	  586.00	  496.64	-1752.75	  388.32
      1.8700	  627.00	  498.16	-1752.75	  389.85
      1.9700	  753.00	  499.67	-1752.75	  391.35
      2.0700	  782.00	  501.16	-1752.75	  392.84
      2.1700	  767.00	  502.63	-1752.75	  394.32
      2.2700	  757.00	  504.09	-1752.75	  395.77
      2.3700	  731.00	  505.52	-1752.75	  397.21
      2.4700	  683.00	  506.94	-1752.75	  398.63
      2.5700	  700.00	  508.35	-1752.75	  400.03
      2.6700	  679.00	  509.73	-1752.75	  401.42
      2.7700	  646.00	  511.10	-1752.75	  402.79
      2.8700	  592.00	  512.45	-1752.75	  404.14
      2.9700	  609.00	  513.79	-1752.75	  405.47
      3.0700	  629.00	  515.11	-1752.75	  406.79
      3.1700	  622.00	  516.41	-1752.75	  408.10
      3.2700	  668.00	  517.70	-1752.75	  409.38
      3.3700	  758.00	  518.97	-1752.75	  410.65
      3.4700	  957.00	  520.22	-1752.75	  411.90
      3.5700	 1053.00	  521.46	-1752.75	  413.14
      3.6700	 1138.00	  522.68	-1752.75	  414.36
      3.7700	 1267.00	  523.88	-1752.75	  415.57
      3.8700	 1311.00	  525.07	-1752.75	  416.76
      3.9700	 1327.00	  526.25	-1752.75	  417.93
      4.0700	 1339.00	  527.41	-1752.75	  419.09
      4.1700	 1377.00	  528.55	-1752.75	  420.23
      4.2700	 1374.00	  529.68	-1752.75	  421.36
      4.3700	 1410.00	  530.79	-1752.75	  422.48
      4.4700	 1343.00	  531.89	-1752.75	  423.57
      4.5700	 1253.00	  532.97	-1752.75	  424.65
      4.6700	 1273.00	  534.04	-1752.75	  425.72
      4.7700	 1169.00	  535.09	-1752.75	  426.77
      4.8700	 1206.00	  536.13	-1752.75	  427.81
      4.9700	 1118.00	  537.15	-1752.75	  428.84
      5.0700	 1093.00	  538.16	-1752.75	  429.84
      5.1700	 1040.00	  539.15	-1752.75	  430.84
      5.2700	 1046.00	  540.13	-1752.75	  431.82
      5.3700	 1019.00	  541.10	-1752.75	  432.78
      5.4700	  995.00	  542.05	-1752.75	  433.73
      5.5700	  931.00	  542.98	-1752.75	  434.67
      5.6700	  916.00	  543.91	-1752.75	  435.59
      5.7700	  923.00	  544.82	-1752.75	  436.50
      5.8700	  944.00	  545.71	-1752.75	  437.40
      5.9700	  909.00	  546.59	-1752.75	  438.28
      6.0700	  893.00	  547.46	-1752.75	  439.15
      6.1700	  878.00	  548.32	-1752.75	  440.00
      6.2700	  915.00	  549.16	-1752.75	  440.84
      6.3700	  803.00	  549.99	-1752.75	  441.67
      6.4700	  839.00	  550.80	-1752.75	  442.49
      6.5700	  789.00	  551.60	-1752.75	  443.29
      6.6700	  817.00	  552.39	-1752.75	  444.08
      6.7700	  838.00	  553.17	-1752.75	  444.85
      6.8700	  810.00	  553.93	-1752.75	  445.62
      6.9700	  776.00	  554.68	-1752.75	  446.37
      7.0700	  710.00	  555.42	-1752.75	  447.10
      7.1700	  708.00	  556.14	-1752.75	  447.83
      7.2700	  753.00	  556.85	-1752.75	  448.54
      7.3700	  700.00	  557.55	-1752.75	  449.24
      7.4700	  747.00	  558.24	-1752.75	  449.93
      7.5700	  696.00	  558.92	-1752.75	  450.60
      7.6700	  696.00	  559.58	-1752.75	  451.27
      7.7700	  627.00	  560.23	-1752.75	  451.92
      7.8700	  698.00	  560.87	-1752.75	  452.56
      7.9700	  655.00	  561.50	-1752.75	  453.18
      8.0700	  645.00	  562.11	-1752.75	  453.80
      8.1700	  668.00	  562.72	-1752.75	  454.40
      8.2700	  689.00	  563.31	-1752.75	  455.00
      8.3700	  643.00	  563.89	-1752.75	  455.58
      8.4700	  679.00	  564.46	-1752.75	  456.15
      8.5700	  626.00	  565.02	-1752.75	  456.70
      8.6700	  622.00	  565.56	-1752.75	  457.25
      8.7700	  639.00	  566.10	-1752.75	  457.79
      8.8700	  605.00	  566.63	-1752.75	  458.31
      8.9700	  697.00	  567.14	-1752.75	  458.82
      9.0700	  609.00	  567.64	-1752.75	  459.33
      9.1700	  647.00	  568.13	-1752.75	  459.82
      9.2700	  621.00	  568.61	-1752.75	  460.30
      9.3700	  636.00	  569.08	-1752.75	  460.77
      9.4700	  680.00	  569.54	-1752.75	  461.23
      9.5700	  577.00	  569.99	-1752.75	  461.68
      9.6700	  595.00	  570.43	-1752.75	  462.12
      9.7700	  620.00	  570.86	-1752.75	  462.55
      9.8700	  623.00	  571.28	-1752.75	  462.97
      9.9700	  624.00	  571.69	-1752.75	  463.37
     10.0700	  641.00	  574.35	-1686.10	  463.77
     10.1700	  598.00	  574.93	-1729.68	  464.16
     10.2700	  584.00	  575.54	-1744.29	  464.54
     10.3700	  578.00	  576.20	-1750.95	  464.91
     10.4700	  618.00	  576.95	-1711.70	  465.27
     10.5700	  595.00	  577.82	-1735.57	  465.62
     10.6700	  632.00	  578.90	-1699.65	  465.95
     10.7700	  629.00	  580.28	-1704.03	  466.28
     10.8700	  645.00	  582.03	-1689.78	  466.60
     10.9700	  631.00	  584.19	-1705.94	  466.92
     11.0700	  617.00	  586.78	-1722.53	  467.22
     11.1700	  585.00	  589.80	-1757.55	  467.51
     11.2700	  627.00	  593.29	-1719.04	  467.79
     11.3700	  596.00	  597.30	-1754.05	  468.07
     11.4700	  590.00	  601.97	-1764.72	  468.33
     11.5700	  602.00	  607.48	-1758.23	  468.59
     11.6700	  635.00	  614.13	-1731.88	  468.84
     11.7700	  649.00	  622.28	-1726.03	  469.08
     11.8700	  634.00	  632.21	-1750.96	  469.31
     11.9700	  673.00	  643.75	-1723.50	  469.53
     12.0700	  693.00	  655.59	-1715.34	  469.74
     12.1700	  695.00	  664.64	-1722.39	  469.95
     12.2700	  720.00	  665.90	-1698.65	  470.14
     12.3700	  695.00	  655.60	-1713.35	  470.33
     12.4700	  708.00	  637.45	-1682.20	  470.51
     12.5700	  643.00	  619.50	-1729.25	  470.68
     12.6700	  589.00	  605.96	-1769.71	  470.84
     12.7700	  589.00	  597.14	-1760.89	  471.00
     12.8700	  596.00	  591.89	-1748.64	  471.15
     12.9700	  566.00	  588.86	-1775.61	  471.29
     13.0700	  589.00	  587.06	-1750.81	  471.42
     13.1700	  563.00	  585.91	-1775.66	  471.54
     13.2700	  571.00	  585.12	-1766.87	  471.66
     13.3700	  571.00	  584.53	-1766.28	  471.77
     13.4700	  550.00	  584.10	-1786.85	  471.87
     13.5700	  567.00	  583.76	-1769.51	  471.96
     13.6700	  539.00	  583.54	-1797.29	  472.05
     13.7700	  558.00	  583.33	-1778.08	  472.13
     13.8700	  574.00	  583.17	-1761.92	  472.20
     13.9700	  580.00	  583.03	-1755.78	  472.27
     14.0700	  570.00	  582.92	-1765.68	  472.32
     14.1700	  562.00	  582.83	-1773.58	  472.37
     14.2700	  533.00	  582.75	-1802.50	  472.42
     14.3700	  542.00	  582.68	-1793.43	  472.45
     14.4700	  592.00	  582.62	-1743.37	  472.48
     14.5700	  546.00	  582.56	-1789.31	  472.51
     14.6700	  569.00	  582.51	-1766.26	  472.52
     14.7700	  530.00	  582.45	-1805.20	  472.53
     14.8700	  573.00	  582.40	-1762.15	  472.54
     14.9700	  558.00	  582.34	-1777.09	  472.53
     15.0700	  535.00	  582.29	-1800.04	  472.52
     15.1700	  532.00	  582.23	-1802.98	  472.51
     15.2700	  578.00	  582.17	-1756.92	  472.49
     15.3700	  553.00	  582.11	-1781.86	  472.46
     15.4700	  596.00	  582.05	-1738.80	  472.42
     15.5700	  593.00	  581.98	-1741.73	  472.38
     15.6700	  594.00	  581.91	-1740.66	  472.33
     15.7700	  549.00	  581.83	-1785.58	  472.28
     15.8700	  567.00	  581.75	-1767.50	  472.22
     15.9700	  578.00	  581.67	-1756.42	  472.16
     16.0700	  562.00	  581.58	-1772.33	  472.09
     16.1700	  579.00	  581.49	-1755.24	  472.01
     16.2700	  571.00	  581.39	-1763.14	  471.93
     16.3700	  550.00	  581.29	-1784.04	  471.84
     16.4700	  602.00	  581.19	-1731.94	  471.75
     16.5700	  603.00	  581.08	-1730.83	  471.65
     16.6700	  554.00	  580.96	-1779.71	  471.54
     16.7700	  561.00	  580.84	-1772.59	  471.43
     16.8700	  555.00	  580.72	-1778.47	  471.32
     16.9700	  567.00	  580.59	-1766.34	  471.20
     17.0700	  589.00	  580.46	-1744.21	  471.07
     17.1700	  558.00	  580.32	-1775.07	  470.94
     17.2700	  554.00	  580.18	-1778.93	  470.81
     17.3700	  582.00	  580.04	-1750.79	  470.67
     17.4700	  542.00	  580.00	-1790.75	  470.52
     17.5700	  540.00	  579.84	-1792.59	  470.37
     17.6700	  540.00	  579.69	-1792.44	  470.22
     17.7700	  572.00	  579.53	-1760.28	  470.06
     17.8700	  592.00	  579.36	-1740.11	  469.89
     17.9700	  558.00	  579.31	-1774.06	  469.72
     18.0700	  568.00	  579.14	-1763.89	  469.55
     18.1700	  553.00	  578.96	-1778.71	  469.37
     18.2700	  574.00	  578.78	-1757.53	  469.19
     18.3700	  555.00	  578.60	-1776.35	  469.00
     18.4700	  562.00	  578.41	-1769.16	  468.81
     18.5700	  549.00	  578.22	-1781.97	  468.61
     18.6700	  529.00	  578.03	-1801.78	  468.41
     18.7700	  565.00	  577.83	-1765.58	  468.21
     18.8700	  595.00	  577.62	-1735.37	  468.00
     18.9700	  535.00	  577.42	-1795.17	  467.78
     19.0700	  568.00	  577.21	-1761.96	  467.57
     19.1700	  525.00	  577.00	-1804.75	  467.34
     19.2700	  560.00	  576.78	-1769.53	  467.12
     19.3700	  547.00	  576.56	-1782.31	  466.89
     19.4700	  576.00	  576.34	-1753.09	  466.66
     19.5700	  542.00	  576.15	-1786.90	  466.42
     19.6700	  535.00	  575.92	-1793.67	  466.18
     19.7700	  601.00	  575.69	-1727.44	  465.93
     19.8700	  563.00	  575.45	-1765.20	  465.69
     19.9700	  561.00	  575.22	-1766.97	  465.43
     20.0700	  570.00	  574.98	-1757.73	  465.18
     20.1700	  556.00	  574.73	-1771.48	  464.92
     20.2700	  548.00	  574.49	-1779.24	  464.66
     20.3700	  567.00	  574.24	-1759.99	  464.39
     20.4700	  523.00	  573.99	-1803.74	  464.12
     20.5700	  554.00	  573.74	-1772.49	  463.85
     20.6700	  549.00	  573.48	-1777.23	  463.58
     20.7700	  565.00	  573.23	-1760.98	  463.30
     20.8700	  559.00	  572.97	-1766.72	  463.02
     20.9700	  588.00	  572.71	-1737.46	  462.73
     21.0700	  581.00	  572.45	-1744.20	  462.44
     21.1700	  575.00	  572.19	-1749.94	  462.15
     21.2700	  579.00	  571.92	-1745.67	  461.86
     21.3700	  571.00	  571.66	-1753.41	  461.56
     21.4700	  528.00	  571.39	-1796.14	  461.26
     21.5700	  542.00	  571.13	-1781.88	  460.96
     21.6700	  530.00	  570.86	-1793.61	  460.65
     21.7700	  559.00	  570.60	-1764.35	  460.34
     21.8700	  560.00	  570.33	-1763.08	  460.03
     21.9700	  587.00	  570.07	-1735.82	  459.72
     22.0700	  562.00	  569.96	-1760.71	  459.40
     22.1700	  561.00	  569.71	-1761.46	  459.08
     22.2700	  531.00	  569.45	-1791.20	  458.76
     22.3700	  512.00	  569.20	-1809.95	  458.44
     22.4700	  579.00	  568.96	-1742.71	  458.11
     22.5700	  531.00	  568.72	-1790.47	  457.78
     22.6700	  552.00	  568.49	-1769.24	  457.45
     22.7700	  557.00	  568.27	-1764.02	  457.12
     22.8700	  596.00	  568.06	-1724.81	  456.79
     22.9700	  584.00	  567.87	-1736.62	  456.45
     23.0700	  552.00	  567.69	-1768.44	  456.11
     23.1700	  568.00	  567.54	-1752.29	  455.77
     23.2700	  581.00	  567.37	-1739.12	  455.42
     23.3700	  606.00	  567.28	-1714.03	  455.08
     23.4700	  586.00	  567.25	-1734.00	  454.73
     23.5700	  532.00	  567.28	-1788.03	  454.38
     23.6700	  566.00	  567.40	-1754.15	  454.03
     23.7700	  583.00	  567.65	-1737.40	  453.67
     23.8700	  550.00	  568.13	-1770.88	  453.32
     23.9700	  616.00	  568.95	-1705.70	  452.96
     24.0700	  532.00	  570.36	-1791.11	  452.60
     24.1700	  580.00	  572.73	-1745.48	  452.24
     24.2700	  624.00	  576.56	-1705.31	  451.88
     24.3700	  643.00	  582.41	-1692.16	  451.51
     24.4700	  652.00	  590.69	-1691.44	  451.15
     24.5700	  683.00	  601.41	-1671.16	  450.78
     24.6700	  631.00	  613.67	-1735.42	  450.41
     24.7700	  656.00	  625.15	-1721.90	  450.04
     24.8700	  681.00	  631.73	-1703.48	  449.67
     24.9700	  642.00	  628.82	-1739.57	  449.29
     25.0700	  693.00	  616.50	-1676.25	  448.92
     25.1700	  614.00	  600.93	-1739.68	  448.54
     25.2700	  621.00	  587.46	-1719.21	  448.17
     25.3700	  577.00	  577.77	-1753.52	  447.79
     25.4700	  599.00	  571.53	-1725.28	  447.41
     25.5700	  625.00	  567.76	-1695.51	  447.03
     25.6700	  551.00	  565.48	-1767.23	  446.65
     25.7700	  605.00	  564.03	-1711.78	  446.26
     25.8700	  590.00	  563.03	-1725.78	  445.88
     25.9700	  574.00	  562.30	-1741.05	  445.49
     26.0700	  583.00	  561.76	-1731.51	  445.11
     26.1700	  619.00	  561.37	-1695.12	  444.72
     26.2700	  597.00	  561.11	-1716.86	  444.33
     26.3700	  599.00	  560.97	-1714.72	  443.94
     26.4700	  546.00	  560.94	-1767.69	  443.55
     26.5700	  591.00	  561.03	-1722.78	  443.16
     26.6700	  604.00	  561.26	-1710.01	  442.77
     26.7700	  592.00	  561.64	-1722.39	  442.38
     26.8700	  600.00	  562.21	-1714.96	  441.98
     26.9700	  629.00	  563.02	-1686.77	  441.59
     27.0700	  625.00	  564.13	-1691.88	  441.20
     27.1700	  611.00	  565.64	-1707.39	  440.80
     27.2700	  601.00	  567.75	-1719.50	  440.41
     27.3700	  612.00	  570.80	-1711.55	  440.01
     27.4700	  623.00	  575.45	-1705.20	  439.61
     27.5700	  631.00	  582.88	-1704.63	  439.22
     27.6700	  629.00	  595.06	-1718.81	  438.82
     27.7700	  613.00	  614.86	-1754.61	  438.42
     27.8700	  645.00	  645.42	-1753.17	  438.02
     27.9700	  730.00	  688.68	-1711.43	  437.62
     28.0700	  768.00	  743.00	-1727.75	  437.22
     28.1700	  791.00	  800.75	-1762.50	  436.82
     28.2700	  902.00	  846.75	-1697.50	  436.42
     28.3700	  957.00	  861.73	-1657.48	  436.02
     28.4700	  915.00	  841.27	-1679.02	  435.62
     28.5700	  837.00	  810.56	-1726.31	  435.22
     28.6700	  744.00	  797.61	-1806.36	  434.82
     28.7700	  788.00	  810.99	-1775.74	  434.42
     28.8700	  857.00	  841.69	-1737.44	  434.02
     28.9700	  910.00	  868.04	-1710.79	  433.62
     29.0700	  852.00	  863.14	-1763.89	  433.22
     29.1700	  825.00	  815.77	-1743.52	  432.82
     29.2700	  733.00	  746.59	-1766.34	  432.41
     29.3700	  682.00	  682.30	-1753.05	  432.01
     29.4700	  621.00	  634.48	-1766.23	  431.61
     29.5700	  586.00	  603.46	-1770.21	  431.21
     29.6700	  608.00	  585.04	-1729.79	  430.81
     29.7700	  650.00	  574.43	-1677.18	  430.41
     29.8700	  638.00	  568.14	-1682.89	  430.01
     29.9700	  586.00	  564.21	-1730.96	  429.61
     30.0700	  606.00	  561.73	-1708.48	  429.21
     30.1700	  616.00	  560.46	-1697.21	  428.81
     30.2700	  607.00	  560.52	-1706.27	  428.41
     30.3700	  641.00	  562.41	-1674.16	  428.01
     30.4700	  573.00	  566.99	-1746.74	  427.61
     30.5700	  630.00	  575.33	-1698.08	  427.21
     30.6700	  567.00	  588.16	-1773.91	  426.81
     30.7700	  613.00	  605.00	-1744.75	  426.41
     30.8700	  650.00	  623.23	-1725.98	  426.01
     30.9700	  671.00	  637.59	-1719.34	  425.62
     31.0700	  678.00	  640.95	-1715.70	  425.22
     31.1700	  628.00	  629.49	-1754.24	  424.82
     31.2700	  629.00	  608.64	-1732.40	  424.43
     31.3700	  625.00	  587.41	-1715.16	  424.03
     31.4700	  567.00	  570.62	-1756.37	  423.64
     31.5700	  609.00	  559.15	-1702.90	  423.24
     31.6700	  542.00	  552.04	-1762.79	  422.85
     31.7700	  524.00	  547.83	-1776.58	  422.46
     31.8700	  555.00	  545.31	-1743.06	  422.06
     31.9700	  554.00	  543.70	-1742.45	  421.67
     32.0700	  561.00	  542.62	-1734.37	  421.28
     32.1700	  568.00	  541.87	-1726.62	  420.89
     32.2700	  578.00	  541.38	-1716.13	  420.50
     32.3700	  589.00	  541.12	-1704.87	  420.11
     32.4700	  522.00	  541.08	-1771.83	  419.73
     32.5700	  569.00	  541.26	-1725.01	  419.34
     32.6700	  517.00	  541.69	-1777.44	  418.95
     32.7700	  560.00	  542.41	-1735.16	  418.57
     32.8700	  591.00	  543.50	-1705.25	  418.18
     32.9700	  559.00	  545.06	-1738.81	  417.80
     33.0700	  563.00	  547.27	-1737.02	  417.41
     33.1700	  587.00	  550.52	-1716.27	  417.03
     33.2700	  579.00	  555.42	-1729.17	  416.65
     33.3700	  578.00	  563.31	-1738.06	  416.27
     33.4700	  548.00	  576.47	-1781.22	  415.89
     33.5700	  605.00	  598.53	-1746.28	  415.51
     33.6700	  639.00	  634.05	-1747.80	  415.14
     33.7700	  637.00	  686.94	-1802.69	  414.76
     33.8700	  725.00	  757.05	-1784.80	  414.38
     33.9700	  866.00	  836.05	-1722.80	  414.01
     34.0700	 1002.00	  905.07	-1655.82	  413.64
     34.1700	 1019.00	  936.53	-1670.28	  413.27
     34.2700	  975.00	  909.75	-1687.50	  412.89
     34.3700	  920.00	  836.35	-1669.10	  412.52
     34.4700	  773.00	  750.53	-1730.28	  412.16
     34.5700	  661.00	  676.67	-1768.42	  411.79
     34.6700	  598.00	  622.84	-1777.59	  411.42
     34.7700	  553.00	  587.79	-1787.54	  411.06
     34.8700	  542.00	  566.56	-1777.31	  410.69
     34.9700	  555.00	  553.95	-1751.70	  410.33
     35.0700	  529.00	  546.15	-1769.90	  409.97
     35.1700	  559.00	  540.90	-1734.65	  409.61
     35.2700	  509.00	  537.05	-1780.80	  409.25
     35.3700	  534.00	  534.05	-1752.80	  408.89
     35.4700	  553.00	  532.09	-1731.84	  408.54
     35.5700	  527.00	  530.09	-1755.84	  408.18
     35.6700	  519.00	  528.39	-1762.14	  407.83
     35.7700	  476.00	  526.93	-1803.68	  407.48
     35.8700	  525.00	  525.65	-1753.41	  407.13
     35.9700	  528.00	  524.54	-1749.29	  406.78
     36.0700	  476.00	  523.54	-1800.29	  406.43
     36.1700	  536.00	  522.65	-1739.40	  406.08
     36.2700	  497.00	  521.85	-1777.60	  405.74
     36.3700	  533.00	  521.12	-1740.87	  405.39
     36.4700	  541.00	  520.43	-1732.18	  405.05
     36.5700	  498.00	  519.83	-1774.58	  404.71
     36.6700	  495.00	  519.30	-1777.05	  404.37
     36.7700	  523.00	  518.83	-1748.58	  404.03
     36.8700	  496.00	  518.44	-1775.19	  403.70
     36.9700	  557.00	  518.15	-1713.90	  403.36
     37.0700	  500.00	  518.02	-1770.77	  403.03
     37.1700	  509.00	  518.14	-1761.89	  402.70
     37.2700	  516.00	  518.66	-1755.41	  402.37
     37.3700	  517.00	  519.73	-1755.48	  402.04
     37.4700	  532.00	  521.66	-1742.41	  401.71
     37.5700	  511.00	  524.05	-1765.80	  401.39
     37.6700	  512.00	  526.75	-1767.50	  401.06
     37.7700	  496.00	  529.08	-1785.83	  400.74
     37.8700	  491.00	  530.04	-1791.79	  400.42
     37.9700	  535.00	  529.00	-1746.75	  400.10
     38.0700	  537.00	  526.33	-1742.08	  399.78
     38.1700	  522.00	  523.04	-1753.79	  399.47
     38.2700	  482.00	  519.83	-1790.58	  399.15
     38.3700	  506.00	  517.08	-1763.83	  398.84
     38.4700	  510.00	  514.93	-1757.68	  398.53
     38.5700	  482.00	  513.34	-1784.09	  398.22
     38.6700	  511.00	  512.20	-1753.95	  397.91
     38.7700	  532.00	  511.36	-1732.11	  397.61
     38.8700	  472.00	  510.71	-1791.46	  397.30
     38.9700	  544.00	  510.19	-1718.94	  397.00
     39.0700	  506.00	  509.73	-1756.48	  396.70
     39.1700	  504.00	  509.32	-1758.07	  396.40
     39.2700	  487.00	  508.95	-1774.70	  396.11
     39.3700	  472.00	  508.49	-1789.24	  395.81
     39.4700	  482.00	  508.16	-1778.91	  395.52
     39.5700	  481.00	  507.85	-1779.60	  395.23
     39.6700	  515.00	  507.55	-1745.30	  394.94
     39.7700	  492.00	  507.27	-1768.02	  394.65
     39.8700	  491.00	  507.01	-1768.76	  394.36
     39.9700	  524.00	  506.75	-1735.50	  394.08
     40.0700	  503.00	  506.51	-1756.26	  393.79
     40.1700	  497.00	  506.82	-1762.57	  393.51
     40.2700	  512.00	  506.61	-1747.36	  393.23
     40.3700	  502.00	  506.31	-1757.06	  392.96
     40.4700	  475.00	  506.13	-1783.88	  392.68
     40.5700	  519.00	  506.03	-1739.78	  392.41
     40.6700	  474.00	  505.90	-1784.65	  392.14
     40.7700	  498.00	  505.78	-1760.53	  391.87
