MSG Master    CELL:    5.91943   5.91943  23.27432   90.0000   90.0000  120.0000   SPGR: P 63/m m c             TEMP:   1074.85
  1   1280     2.52000     0.00000    -0.12459     0.00000     0.00000    0
    99     0     2
       0.00000      10.00000
     125.00000     130.00000
 2Theta	Yobs	Ycal	Yobs-Ycal	Backg	Posr	(hkl)	K
      0.7700	    0.00	  543.56	-1735.15	  425.11
      0.8700	    0.00	  544.36	-1735.15	  425.91
      0.9700	   44.00	  545.15	-1735.15	  426.69
      1.0700	   39.00	  545.92	-1735.15	  427.47
      1.1700	   45.00	  546.68	-1735.15	  428.23
      1.2700	   49.00	  547.43	-1735.15	  428.98
      1.3700	   54.00	  548.17	-1735.15	  429.72
      1.4700	  105.00	  548.90	-1735.15	  430.45
      1.5700	  293.00	  549.62	-1735.15	  431.17
      1.6700	  463.00	  550.32	-1735.15	  431.87
      1.7700	  560.00	  551.02	-1735.15	  432.57
      1.8700	  645.00	  551.70	-1735.15	  433.25
      1.9700	  712.00	  552.37	-1735.15	  433.92
      2.0700	  752.00	  553.04	-1735.15	  434.58
      2.1700	  795.00	  553.69	-1735.15	  435.24
      2.2700	  769.00	  554.33	-1735.15	  435.88
      2.3700	  707.00	  554.96	-1735.15	  436.50
      2.4700	  721.00	  555.57	-1735.15	  437.12
      2.5700	  623.00	  556.18	-1735.15	  437.73
      2.6700	  703.00	  556.78	-1735.15	  438.33
      2.7700	  675.00	  557.37	-1735.15	  438.92
      2.8700	  676.00	  557.94	-1735.15	  439.49
      2.9700	  612.00	  558.51	-1735.15	  440.06
      3.0700	  629.00	  559.07	-1735.15	  440.62
      3.1700	  611.00	  559.61	-1735.15	  441.16
      3.2700	  561.00	  560.15	-1735.15	  441.70
      3.3700	  661.00	  560.68	-1735.15	  442.23
      3.4700	  725.00	  561.19	-1735.15	  442.74
      3.5700	  826.00	  561.70	-1735.15	  443.25
      3.6700	  919.00	  562.20	-1735.15	  443.75
      3.7700	  939.00	  562.69	-1735.15	  444.23
      3.8700	  982.00	  563.16	-1735.15	  444.71
      3.9700	 1023.00	  563.63	-1735.15	  445.18
      4.0700	 1062.00	  564.09	-1735.15	  445.64
      4.1700	 1023.00	  564.54	-1735.15	  446.09
      4.2700	 1090.00	  564.98	-1735.15	  446.53
      4.3700	 1133.00	  565.41	-1735.15	  446.96
      4.4700	 1052.00	  565.83	-1735.15	  447.38
      4.5700	 1133.00	  566.25	-1735.15	  447.79
      4.6700	 1008.00	  566.65	-1735.15	  448.20
      4.7700	  991.00	  567.04	-1735.15	  448.59
      4.8700	  967.00	  567.43	-1735.15	  448.98
      4.9700	  962.00	  567.81	-1735.15	  449.36
      5.0700	  968.00	  568.18	-1735.15	  449.72
      5.1700	  905.00	  568.53	-1735.15	  450.08
      5.2700	  911.00	  568.89	-1735.15	  450.43
      5.3700	  914.00	  569.23	-1735.15	  450.78
      5.4700	  905.00	  569.56	-1735.15	  451.11
      5.5700	  862.00	  569.89	-1735.15	  451.44
      5.6700	  899.00	  570.20	-1735.15	  451.75
      5.7700	  807.00	  570.51	-1735.15	  452.06
      5.8700	  811.00	  570.81	-1735.15	  452.36
      5.9700	  774.00	  571.11	-1735.15	  452.65
      6.0700	  787.00	  571.39	-1735.15	  452.94
      6.1700	  740.00	  571.67	-1735.15	  453.22
      6.2700	  753.00	  571.94	-1735.15	  453.48
      6.3700	  776.00	  572.20	-1735.15	  453.74
      6.4700	  772.00	  572.45	-1735.15	  454.00
      6.5700	  748.00	  572.69	-1735.15	  454.24
      6.6700	  718.00	  572.93	-1735.15	  454.48
      6.7700	  736.00	  573.16	-1735.15	  454.71
      6.8700	  740.00	  573.38	-1735.15	  454.93
      6.9700	  718.00	  573.60	-1735.15	  455.14
      7.0700	  742.00	  573.80	-1735.15	  455.35
      7.1700	  733.00	  574.00	-1735.15	  455.55
      7.2700	  679.00	  574.19	-1735.15	  455.74
      7.3700	  716.00	  574.38	-1735.15	  455.93
      7.4700	  682.00	  574.56	-1735.15	  456.11
      7.5700	  656.00	  574.73	-1735.15	  456.28
      7.6700	  620.00	  574.89	-1735.15	  456.44
      7.7700	  661.00	  575.05	-1735.15	  456.60
      7.8700	  655.00	  575.20	-1735.15	  456.75
      7.9700	  653.00	  575.34	-1735.15	  456.89
      8.0700	  629.00	  575.48	-1735.15	  457.02
      8.1700	  631.00	  575.60	-1735.15	  457.15
      8.2700	  589.00	  575.73	-1735.15	  457.28
      8.3700	  619.00	  575.84	-1735.15	  457.39
      8.4700	  617.00	  575.95	-1735.15	  457.50
      8.5700	  626.00	  576.05	-1735.15	  457.60
      8.6700	  671.00	  576.15	-1735.15	  457.70
      8.7700	  635.00	  576.24	-1735.15	  457.79
      8.8700	  622.00	  576.32	-1735.15	  457.87
      8.9700	  633.00	  576.40	-1735.15	  457.95
      9.0700	  586.00	  576.47	-1735.15	  458.02
      9.1700	  626.00	  576.53	-1735.15	  458.08
      9.2700	  625.00	  576.59	-1735.15	  458.14
      9.3700	  587.00	  576.64	-1735.15	  458.19
      9.4700	  597.00	  576.69	-1735.15	  458.24
      9.5700	  607.00	  576.73	-1735.15	  458.28
      9.6700	  620.00	  576.76	-1735.15	  458.31
      9.7700	  627.00	  576.79	-1735.15	  458.34
      9.8700	  583.00	  576.82	-1735.15	  458.36
      9.9700	  601.00	  576.83	-1735.15	  458.38
     10.0700	  578.00	  577.64	-1734.79	  458.39
     10.1700	  607.00	  577.73	-1705.88	  458.40
     10.2700	  570.00	  577.83	-1742.98	  458.40
     10.3700	  567.00	  577.96	-1746.11	  458.39
     10.4700	  551.00	  578.14	-1762.30	  458.38
     10.5700	  620.00	  578.44	-1693.59	  458.36
     10.6700	  556.00	  578.93	-1758.09	  458.34
     10.7700	  574.00	  579.75	-1740.90	  458.32
     10.8700	  548.00	  580.95	-1768.10	  458.28
     10.9700	  615.00	  582.53	-1702.68	  458.25
     11.0700	  573.00	  584.46	-1746.61	  458.20
     11.1700	  642.00	  586.72	-1679.88	  458.15
     11.2700	  551.00	  589.36	-1773.52	  458.10
     11.3700	  620.00	  592.46	-1707.61	  458.04
     11.4700	  630.00	  596.13	-1701.29	  457.98
     11.5700	  580.00	  600.60	-1755.75	  457.91
     11.6700	  647.00	  606.19	-1694.35	  457.84
     11.7700	  625.00	  613.53	-1723.68	  457.76
     11.8700	  683.00	  623.54	-1675.69	  457.68
     11.9700	  636.00	  636.89	-1736.04	  457.59
     12.0700	  669.00	  652.03	-1718.18	  457.50
     12.1700	  659.00	  662.82	-1738.97	  457.41
     12.2700	  694.00	  659.49	-1700.64	  457.30
     12.3700	  664.00	  639.02	-1710.17	  457.20
     12.4700	  624.00	  613.97	-1725.13	  457.09
     12.5700	  611.00	  595.66	-1719.81	  456.98
     12.6700	  566.00	  585.74	-1754.89	  456.86
     12.7700	  572.00	  581.25	-1744.40	  456.74
     12.8700	  614.00	  579.23	-1700.38	  456.61
     12.9700	  579.00	  578.12	-1734.27	  456.48
     13.0700	  553.00	  577.36	-1759.51	  456.34
     13.1700	  560.00	  576.77	-1751.93	  456.20
     13.2700	  585.00	  576.30	-1726.45	  456.06
     13.3700	  599.00	  575.90	-1712.05	  455.91
     13.4700	  564.00	  575.55	-1746.70	  455.76
     13.5700	  561.00	  575.23	-1749.39	  455.61
     13.6700	  574.00	  574.95	-1736.10	  455.45
     13.7700	  563.00	  574.68	-1746.83	  455.28
     13.8700	  558.00	  574.42	-1751.58	  455.12
     13.9700	  521.00	  574.18	-1788.33	  454.95
     14.0700	  563.00	  573.94	-1746.09	  454.77
     14.1700	  557.00	  573.71	-1751.86	  454.59
     14.2700	  556.00	  573.48	-1752.63	  454.41
     14.3700	  558.00	  573.26	-1750.41	  454.23
     14.4700	  542.00	  573.03	-1766.18	  454.04
     14.5700	  590.00	  572.81	-1717.96	  453.85
     14.6700	  550.00	  572.59	-1757.74	  453.65
     14.7700	  551.00	  572.36	-1756.52	  453.45
     14.8700	  547.00	  572.14	-1760.29	  453.25
     14.9700	  568.00	  571.91	-1739.07	  453.05
     15.0700	  544.00	  571.69	-1762.84	  452.84
     15.1700	  593.00	  571.46	-1713.61	  452.63
     15.2700	  549.00	  571.23	-1757.38	  452.41
     15.3700	  560.00	  571.00	-1746.15	  452.19
     15.4700	  570.00	  570.77	-1735.92	  451.97
     15.5700	  556.00	  570.53	-1749.68	  451.75
     15.6700	  585.00	  570.30	-1720.45	  451.52
     15.7700	  584.00	  570.06	-1721.21	  451.29
     15.8700	  545.00	  569.81	-1759.97	  451.06
     15.9700	  589.00	  569.57	-1715.72	  450.82
     16.0700	  559.00	  569.33	-1745.48	  450.58
     16.1700	  570.00	  569.10	-1734.26	  450.34
     16.2700	  562.00	  568.85	-1742.01	  450.10
     16.3700	  559.00	  568.60	-1744.75	  449.85
     16.4700	  524.00	  568.35	-1779.50	  449.60
     16.5700	  564.00	  568.09	-1739.24	  449.35
     16.6700	  580.00	  567.83	-1722.99	  449.10
     16.7700	  569.00	  567.57	-1733.72	  448.84
     16.8700	  585.00	  567.31	-1717.46	  448.58
     16.9700	  552.00	  567.04	-1750.20	  448.32
     17.0700	  578.00	  566.78	-1723.93	  448.05
     17.1700	  567.00	  566.51	-1734.66	  447.79
     17.2700	  567.00	  566.24	-1734.39	  447.52
     17.3700	  569.00	  565.96	-1732.11	  447.24
     17.4700	  559.00	  565.69	-1741.84	  446.97
     17.5700	  538.00	  565.41	-1762.56	  446.69
     17.6700	  546.00	  565.13	-1754.28	  446.42
     17.7700	  598.00	  564.85	-1702.00	  446.14
     17.8700	  603.00	  564.57	-1696.72	  445.85
     17.9700	  591.00	  564.28	-1708.43	  445.57
     18.0700	  555.00	  564.10	-1744.25	  445.28
     18.1700	  530.00	  563.81	-1768.96	  444.99
     18.2700	  603.00	  563.52	-1695.68	  444.70
     18.3700	  545.00	  563.23	-1753.39	  444.41
     18.4700	  570.00	  562.94	-1728.09	  444.12
     18.5700	  582.00	  562.65	-1715.80	  443.82
     18.6700	  580.00	  562.35	-1717.50	  443.52
     18.7700	  530.00	  562.06	-1767.21	  443.22
     18.8700	  542.00	  561.76	-1754.91	  442.92
     18.9700	  551.00	  561.54	-1745.70	  442.62
     19.0700	  561.00	  561.24	-1735.40	  442.31
     19.1700	  577.00	  560.94	-1719.10	  442.01
     19.2700	  555.00	  560.64	-1740.79	  441.70
     19.3700	  535.00	  560.34	-1760.49	  441.39
     19.4700	  550.00	  560.03	-1745.19	  441.08
     19.5700	  531.00	  559.73	-1763.88	  440.77
     19.6700	  570.00	  559.42	-1724.57	  440.45
     19.7700	  534.00	  559.11	-1760.27	  440.14
     19.8700	  556.00	  558.80	-1737.96	  439.82
     19.9700	  540.00	  558.50	-1753.65	  439.50
     20.0700	  537.00	  558.18	-1756.34	  439.18
     20.1700	  591.00	  557.87	-1702.03	  438.86
     20.2700	  551.00	  557.56	-1741.71	  438.54
     20.3700	  568.00	  557.25	-1724.40	  438.22
     20.4700	  525.00	  556.94	-1767.09	  437.89
     20.5700	  541.00	  556.62	-1750.77	  437.56
     20.6700	  553.00	  556.28	-1738.43	  437.24
     20.7700	  566.00	  555.96	-1725.12	  436.91
     20.8700	  511.00	  555.65	-1779.80	  436.58
     20.9700	  530.00	  555.37	-1760.52	  436.25
     21.0700	  590.00	  555.05	-1700.21	  435.92
     21.1700	  551.00	  554.74	-1738.89	  435.59
     21.2700	  587.00	  554.43	-1702.58	  435.25
     21.3700	  570.00	  554.11	-1719.26	  434.92
     21.4700	  519.00	  553.80	-1769.95	  434.58
     21.5700	  533.00	  553.49	-1755.64	  434.25
     21.6700	  563.00	  553.17	-1725.33	  433.91
     21.7700	  547.00	  552.86	-1741.02	  433.57
     21.8700	  550.00	  552.56	-1737.71	  433.24
     21.9700	  550.00	  552.25	-1737.40	  432.90
     22.0700	  570.00	  551.94	-1717.09	  432.56
     22.1700	  521.00	  551.64	-1765.79	  432.22
     22.2700	  567.00	  551.34	-1719.49	  431.88
     22.3700	  567.00	  551.04	-1719.19	  431.53
     22.4700	  562.00	  550.74	-1723.90	  431.19
     22.5700	  503.00	  550.45	-1782.61	  430.85
     22.6700	  524.00	  550.17	-1761.32	  430.51
     22.7700	  599.00	  549.89	-1686.04	  430.16
     22.8700	  567.00	  549.62	-1717.77	  429.82
     22.9700	  562.00	  549.36	-1722.51	  429.47
     23.0700	  579.00	  549.11	-1705.27	  429.13
     23.1700	  569.00	  548.88	-1715.03	  428.78
     23.2700	  553.00	  548.67	-1730.82	  428.44
     23.3700	  562.00	  548.48	-1721.63	  428.09
     23.4700	  595.00	  548.32	-1688.48	  427.74
     23.5700	  588.00	  548.21	-1695.37	  427.39
     23.6700	  583.00	  548.17	-1700.32	  427.05
     23.7700	  566.00	  548.36	-1717.51	  426.70
     23.8700	  550.00	  548.63	-1733.79	  426.35
     23.9700	  549.00	  549.32	-1735.48	  426.00
     24.0700	  560.00	  550.85	-1726.00	  425.66
     24.1700	  534.00	  553.84	-1754.99	  425.31
     24.2700	  552.00	  559.12	-1742.27	  424.96
     24.3700	  552.00	  567.61	-1750.76	  424.61
     24.4700	  583.00	  580.30	-1732.45	  424.26
     24.5700	  607.00	  597.44	-1725.59	  423.91
     24.6700	  634.00	  616.32	-1717.47	  423.56
     24.7700	  632.00	  629.35	-1732.51	  423.22
     24.8700	  624.00	  626.35	-1737.51	  422.87
     24.9700	  570.00	  606.08	-1771.23	  422.52
     25.0700	  537.00	  581.54	-1779.69	  422.17
     25.1700	  590.00	  563.20	-1708.35	  421.82
     25.2700	  552.00	  552.85	-1736.00	  421.47
     25.3700	  566.00	  547.98	-1717.13	  421.12
     25.4700	  531.00	  545.75	-1749.90	  420.78
     25.5700	  537.00	  544.56	-1742.71	  420.43
     25.6700	  610.00	  543.78	-1668.93	  420.08
     25.7700	  618.00	  543.20	-1660.35	  419.73
     25.8700	  567.00	  542.76	-1710.91	  419.39
     25.9700	  579.00	  542.42	-1698.57	  419.04
     26.0700	  621.00	  542.16	-1656.32	  418.69
     26.1700	  545.00	  541.99	-1732.14	  418.35
     26.2700	  549.00	  541.89	-1728.04	  418.00
     26.3700	  541.00	  541.87	-1736.02	  417.66
     26.4700	  562.00	  541.93	-1715.08	  417.31
     26.5700	  524.00	  542.09	-1753.24	  416.97
     26.6700	  563.00	  542.36	-1714.51	  416.62
     26.7700	  600.00	  542.77	-1677.93	  416.28
     26.8700	  522.00	  543.36	-1756.52	  415.93
     26.9700	  542.00	  544.18	-1737.33	  415.59
     27.0700	  553.00	  545.31	-1727.46	  415.25
     27.1700	  544.00	  546.88	-1738.03	  414.91
     27.2700	  537.00	  549.15	-1747.30	  414.57
     27.3700	  579.00	  552.64	-1708.79	  414.22
     27.4700	  569.00	  558.37	-1724.52	  413.88
     27.5700	  538.00	  568.16	-1765.31	  413.54
     27.6700	  492.00	  584.93	-1828.08	  413.21
     27.7700	  599.00	  612.46	-1748.62	  412.87
     27.8700	  623.00	  654.09	-1766.24	  412.53
     27.9700	  698.00	  710.04	-1747.19	  412.19
     28.0700	  795.00	  773.95	-1714.10	  411.86
     28.1700	  931.00	  829.72	-1633.88	  411.52
     28.2700	  953.00	  853.08	-1635.24	  411.19
     28.3700	  869.00	  829.63	-1695.79	  410.85
     28.4700	  839.00	  782.17	-1678.32	  410.52
     28.5700	  709.00	  748.39	-1774.54	  410.19
     28.6700	  713.00	  745.54	-1767.69	  409.85
     28.7700	  745.00	  768.78	-1758.93	  409.52
     28.8700	  831.00	  797.39	-1701.54	  409.19
     28.9700	  787.00	  802.23	-1750.39	  408.86
     29.0700	  766.00	  764.78	-1733.93	  408.54
     29.1700	  719.00	  700.92	-1717.07	  408.21
     29.2700	  626.00	  640.10	-1749.25	  407.88
     29.3700	  604.00	  596.34	-1727.49	  407.56
     29.4700	  580.00	  570.00	-1725.16	  407.23
     29.5700	  576.00	  555.83	-1714.98	  406.91
     29.6700	  587.00	  548.35	-1696.50	  406.59
     29.7700	  591.00	  544.09	-1688.25	  406.26
     29.8700	  610.00	  541.40	-1666.55	  405.94
     29.9700	  552.00	  539.65	-1722.80	  405.62
     30.0700	  579.00	  538.66	-1694.82	  405.30
     30.1700	  565.00	  538.58	-1708.74	  404.99
     30.2700	  554.00	  539.88	-1721.04	  404.67
     30.3700	  535.00	  543.51	-1743.66	  404.36
     30.4700	  556.00	  550.92	-1730.07	  404.04
     30.5700	  534.00	  563.66	-1764.81	  403.73
     30.6700	  571.00	  582.19	-1746.34	  403.42
     30.7700	  583.00	  604.21	-1756.36	  403.10
     30.8700	  605.00	  623.44	-1753.59	  402.80
     30.9700	  629.00	  630.24	-1736.39	  402.49
     31.0700	  577.00	  618.04	-1776.19	  402.18
     31.1700	  560.00	  593.14	-1768.30	  401.87
     31.2700	  514.00	  568.16	-1789.32	  401.57
     31.3700	  535.00	  549.74	-1749.90	  401.26
     31.4700	  564.00	  538.57	-1709.72	  400.96
     31.5700	  519.00	  532.60	-1748.75	  400.66
     31.6700	  560.00	  529.52	-1704.67	  400.36
     31.7700	  561.00	  527.80	-1701.96	  400.06
     31.8700	  531.00	  526.71	-1730.86	  399.76
     31.9700	  498.00	  525.94	-1763.10	  399.47
     32.0700	  568.00	  525.39	-1692.55	  399.17
     32.1700	  542.00	  525.01	-1718.17	  398.88
     32.2700	  549.00	  524.78	-1710.94	  398.59
     32.3700	  539.00	  524.70	-1720.85	  398.30
     32.4700	  562.00	  524.76	-1697.91	  398.01
     32.5700	  567.00	  524.99	-1693.14	  397.72
     32.6700	  515.00	  525.41	-1745.56	  397.43
     32.7700	  578.00	  526.06	-1683.22	  397.15
     32.8700	  542.00	  527.03	-1720.18	  396.86
     32.9700	  550.00	  528.41	-1713.56	  396.58
     33.0700	  552.00	  530.43	-1713.58	  396.30
     33.1700	  591.00	  533.53	-1677.68	  396.02
     33.2700	  510.00	  538.75	-1763.91	  395.74
     33.3700	  523.00	  548.38	-1760.53	  395.46
     33.4700	  530.00	  566.78	-1771.94	  395.19
     33.5700	  565.00	  600.96	-1771.11	  394.91
     33.6700	  632.00	  659.00	-1762.15	  394.64
     33.7700	  748.00	  744.65	-1731.80	  394.37
     33.8700	  895.00	  848.71	-1688.87	  394.10
     33.9700	  988.00	  943.28	-1690.43	  393.83
     34.0700	 1099.00	  985.36	-1621.52	  393.57
     34.1700	 1007.00	  943.13	-1671.28	  393.30
     34.2700	  910.00	  838.39	-1663.54	  393.04
     34.3700	  729.00	  725.49	-1731.65	  392.78
     34.4700	  640.00	  638.13	-1733.28	  392.52
     34.5700	  570.00	  583.28	-1748.43	  392.26
     34.6700	  593.00	  553.66	-1695.81	  392.00
     34.7700	  540.00	  538.83	-1733.98	  391.75
     34.8700	  542.00	  531.12	-1724.27	  391.49
     34.9700	  519.00	  526.51	-1742.66	  391.24
     35.0700	  516.00	  523.33	-1742.48	  390.99
     35.1700	  474.00	  520.92	-1782.08	  390.74
     35.2700	  515.00	  519.04	-1739.19	  390.49
     35.3700	  483.00	  517.48	-1769.64	  390.25
     35.4700	  504.00	  516.19	-1747.34	  390.00
     35.5700	  540.00	  515.10	-1710.25	  389.76
     35.6700	  506.00	  514.15	-1743.31	  389.52
     35.7700	  509.00	  513.33	-1739.48	  389.28
     35.8700	  518.00	  512.61	-1729.76	  389.05
     35.9700	  540.00	  511.96	-1707.11	  388.81
     36.0700	  518.00	  511.85	-1729.00	  388.58
     36.1700	  507.00	  511.33	-1739.48	  388.34
     36.2700	  514.00	  510.86	-1732.01	  388.11
     36.3700	  556.00	  510.43	-1689.58	  387.88
     36.4700	  564.00	  510.04	-1681.20	  387.66
     36.5700	  467.00	  509.69	-1777.85	  387.43
     36.6700	  531.00	  509.38	-1713.54	  387.21
     36.7700	  467.00	  509.12	-1777.28	  386.99
     36.8700	  543.00	  508.93	-1701.08	  386.77
     36.9700	  514.00	  508.87	-1730.02	  386.55
     37.0700	  527.00	  509.07	-1717.22	  386.33
     37.1700	  529.00	  509.79	-1715.94	  386.12
     37.2700	  515.00	  511.41	-1731.56	  385.90
     37.3700	  520.00	  514.28	-1729.43	  385.69
     37.4700	  554.00	  518.39	-1699.54	  385.48
     37.5700	  506.00	  522.95	-1752.10	  385.27
     37.6700	  556.00	  526.35	-1705.51	  385.07
     37.7700	  501.00	  526.83	-1760.99	  384.86
     37.8700	  554.00	  524.06	-1705.21	  384.66
     37.9700	  510.00	  519.69	-1744.84	  384.46
     38.0700	  509.00	  515.34	-1741.49	  384.26
     38.1700	  517.00	  511.71	-1729.86	  384.06
     38.2700	  502.00	  508.97	-1742.12	  383.87
     38.3700	  513.00	  507.08	-1729.23	  383.67
     38.4700	  516.00	  505.83	-1724.98	  383.48
     38.5700	  493.00	  505.02	-1747.17	  383.29
     38.6700	  504.00	  504.37	-1735.53	  383.11
     38.7700	  478.00	  503.99	-1761.14	  382.92
     38.8700	  479.00	  503.68	-1759.83	  382.73
     38.9700	  507.00	  503.42	-1731.57	  382.55
     39.0700	  479.00	  503.19	-1759.34	  382.37
     39.1700	  531.00	  502.89	-1707.04	  382.19
     39.2700	  514.00	  502.69	-1723.84	  382.02
     39.3700	  549.00	  502.50	-1688.65	  381.84
     39.4700	  527.00	  502.33	-1710.48	  381.67
     39.5700	  515.00	  502.29	-1722.44	  381.50
     39.6700	  487.00	  502.13	-1750.28	  381.33
     39.7700	  469.00	  501.98	-1768.14	  381.16
     39.8700	  518.00	  501.84	-1719.00	  380.99
     39.9700	  517.00	  501.72	-1719.87	  380.83
     40.0700	  506.00	  501.60	-1730.75	  380.67
     40.1700	  460.00	  501.49	-1776.64	  380.51
     40.2700	  477.00	  501.39	-1759.54	  380.35
     40.3700	  470.00	  501.30	-1766.45	  380.19
     40.4700	  530.00	  501.22	-1706.37	  380.04
     40.5700	  482.00	  501.16	-1754.31	  379.88
     40.6700	  513.00	  501.11	-1723.26	  379.73
     40.7700	  456.00	  501.08	-1780.24	  379.58
