MSG Master    CELL:    5.90961   5.90961  23.23443   90.0000   90.0000  120.0000   SPGR: P 63/m m c             TEMP:    909.85
  1   1280     2.52000     0.00000    -0.12467     0.00000     0.00000    0
    98     0     2
       0.00000      10.00000
     125.00000     130.00000
 2Theta	Yobs	Ycal	Yobs-Ycal	Backg	Posr	(hkl)	K
      0.7700	    0.00	  465.93	-1734.50	  353.74
      0.8700	    0.00	  467.53	-1734.50	  355.33
      0.9700	   42.00	  469.11	-1734.50	  356.91
      1.0700	   48.00	  470.67	-1734.50	  358.48
      1.1700	   34.00	  472.21	-1734.50	  360.02
      1.2700	   31.00	  473.74	-1734.50	  361.55
      1.3700	   59.00	  475.25	-1734.50	  363.06
      1.4700	   84.00	  476.75	-1734.50	  364.55
      1.5700	  282.00	  478.22	-1734.50	  366.03
      1.6700	  470.00	  479.68	-1734.50	  367.49
      1.7700	  601.00	  481.13	-1734.50	  368.93
      1.8700	  657.00	  482.55	-1734.50	  370.36
      1.9700	  720.00	  483.96	-1734.50	  371.77
      2.0700	  796.00	  485.36	-1734.50	  373.16
      2.1700	  821.00	  486.73	-1734.50	  374.54
      2.2700	  776.00	  488.09	-1734.50	  375.90
      2.3700	  737.00	  489.44	-1734.50	  377.25
      2.4700	  661.00	  490.77	-1734.50	  378.58
      2.5700	  650.00	  492.08	-1734.50	  379.89
      2.6700	  642.00	  493.38	-1734.50	  381.18
      2.7700	  663.00	  494.66	-1734.50	  382.47
      2.8700	  646.00	  495.92	-1734.50	  383.73
      2.9700	  622.00	  497.17	-1734.50	  384.98
      3.0700	  621.00	  498.41	-1734.50	  386.22
      3.1700	  589.00	  499.63	-1734.50	  387.44
      3.2700	  651.00	  500.83	-1734.50	  388.64
      3.3700	  759.00	  502.02	-1734.50	  389.83
      3.4700	  829.00	  503.19	-1734.50	  391.00
      3.5700	  957.00	  504.35	-1734.50	  392.16
      3.6700	 1019.00	  505.50	-1734.50	  393.30
      3.7700	 1047.00	  506.63	-1734.50	  394.43
      3.8700	 1184.00	  507.74	-1734.50	  395.55
      3.9700	 1228.00	  508.84	-1734.50	  396.65
      4.0700	 1204.00	  509.93	-1734.50	  397.73
      4.1700	 1264.00	  511.00	-1734.50	  398.80
      4.2700	 1270.00	  512.05	-1734.50	  399.86
      4.3700	 1212.00	  513.10	-1734.50	  400.90
      4.4700	 1109.00	  514.13	-1734.50	  401.93
      4.5700	 1184.00	  515.14	-1734.50	  402.95
      4.6700	 1115.00	  516.14	-1734.50	  403.95
      4.7700	 1138.00	  517.13	-1734.50	  404.93
      4.8700	 1044.00	  518.10	-1734.50	  405.91
      4.9700	 1044.00	  519.06	-1734.50	  406.87
      5.0700	  963.00	  520.00	-1734.50	  407.81
      5.1700	 1004.00	  520.94	-1734.50	  408.74
      5.2700	  947.00	  521.86	-1734.50	  409.66
      5.3700	  931.00	  522.76	-1734.50	  410.57
      5.4700	  934.00	  523.65	-1734.50	  411.46
      5.5700	  898.00	  524.53	-1734.50	  412.34
      5.6700	  894.00	  525.40	-1734.50	  413.21
      5.7700	  833.00	  526.25	-1734.50	  414.06
      5.8700	  867.00	  527.09	-1734.50	  414.90
      5.9700	  822.00	  527.92	-1734.50	  415.73
      6.0700	  815.00	  528.74	-1734.50	  416.54
      6.1700	  777.00	  529.54	-1734.50	  417.35
      6.2700	  792.00	  530.33	-1734.50	  418.14
      6.3700	  769.00	  531.11	-1734.50	  418.92
      6.4700	  798.00	  531.87	-1734.50	  419.68
      6.5700	  721.00	  532.63	-1734.50	  420.43
      6.6700	  774.00	  533.37	-1734.50	  421.17
      6.7700	  729.00	  534.10	-1734.50	  421.90
      6.8700	  722.00	  534.81	-1734.50	  422.62
      6.9700	  667.00	  535.52	-1734.50	  423.33
      7.0700	  720.00	  536.21	-1734.50	  424.02
      7.1700	  665.00	  536.89	-1734.50	  424.70
      7.2700	  683.00	  537.56	-1734.50	  425.37
      7.3700	  698.00	  538.22	-1734.50	  426.03
      7.4700	  638.00	  538.87	-1734.50	  426.68
      7.5700	  664.00	  539.51	-1734.50	  427.31
      7.6700	  657.00	  540.13	-1734.50	  427.94
      7.7700	  656.00	  540.74	-1734.50	  428.55
      7.8700	  708.00	  541.34	-1734.50	  429.15
      7.9700	  671.00	  541.94	-1734.50	  429.74
      8.0700	  648.00	  542.52	-1734.50	  430.32
      8.1700	  643.00	  543.09	-1734.50	  430.89
      8.2700	  611.00	  543.64	-1734.50	  431.45
      8.3700	  618.00	  544.19	-1734.50	  432.00
      8.4700	  646.00	  544.73	-1734.50	  432.54
      8.5700	  656.00	  545.25	-1734.50	  433.06
      8.6700	  626.00	  545.77	-1734.50	  433.58
      8.7700	  641.00	  546.28	-1734.50	  434.08
      8.8700	  618.00	  546.77	-1734.50	  434.58
      8.9700	  637.00	  547.26	-1734.50	  435.06
      9.0700	  624.00	  547.73	-1734.50	  435.54
      9.1700	  621.00	  548.20	-1734.50	  436.00
      9.2700	  621.00	  548.65	-1734.50	  436.46
      9.3700	  583.00	  549.10	-1734.50	  436.90
      9.4700	  600.00	  549.53	-1734.50	  437.34
      9.5700	  524.00	  549.96	-1734.50	  437.76
      9.6700	  607.00	  550.37	-1734.50	  438.18
      9.7700	  565.00	  550.78	-1734.50	  438.59
      9.8700	  561.00	  551.17	-1734.50	  438.98
      9.9700	  583.00	  551.56	-1734.50	  439.37
     10.0700	  602.00	  553.66	-1686.16	  439.75
     10.1700	  544.00	  554.21	-1744.71	  440.11
     10.2700	  563.00	  554.80	-1726.30	  440.47
     10.3700	  602.00	  555.44	-1687.94	  440.82
     10.4700	  628.00	  556.17	-1662.67	  441.16
     10.5700	  542.00	  557.06	-1749.56	  441.49
     10.6700	  574.00	  558.18	-1718.68	  441.82
     10.7700	  548.00	  559.65	-1746.15	  442.13
     10.8700	  588.00	  561.54	-1708.04	  442.44
     10.9700	  561.00	  563.89	-1737.39	  442.73
     11.0700	  584.00	  566.69	-1717.19	  443.02
     11.1700	  626.00	  569.94	-1678.44	  443.30
     11.2700	  589.00	  573.69	-1719.19	  443.57
     11.3700	  599.00	  578.03	-1713.53	  443.83
     11.4700	  561.00	  583.09	-1756.59	  444.09
     11.5700	  587.00	  589.11	-1736.61	  444.33
     11.6700	  614.00	  596.46	-1716.96	  444.57
     11.7700	  622.00	  605.61	-1718.11	  444.80
     11.8700	  633.00	  616.99	-1718.49	  445.02
     11.9700	  625.00	  630.40	-1739.90	  445.23
     12.0700	  646.00	  644.04	-1732.54	  445.44
     12.1700	  682.00	  653.59	-1706.09	  445.63
     12.2700	  657.00	  652.51	-1730.01	  445.82
     12.3700	  654.00	  637.42	-1717.92	  446.00
     12.4700	  637.00	  615.30	-1712.80	  446.18
     12.5700	  631.00	  595.66	-1699.16	  446.34
     12.6700	  600.00	  582.02	-1716.52	  446.50
     12.7700	  544.00	  573.83	-1764.33	  446.65
     12.8700	  551.00	  569.30	-1752.80	  446.80
     12.9700	  552.00	  566.80	-1749.30	  446.93
     13.0700	  539.00	  565.33	-1760.83	  447.06
     13.1700	  535.00	  564.36	-1763.86	  447.18
     13.2700	  603.00	  563.68	-1695.18	  447.30
     13.3700	  538.00	  563.18	-1759.68	  447.41
     13.4700	  544.00	  562.80	-1753.30	  447.51
     13.5700	  571.00	  562.51	-1726.01	  447.60
     13.6700	  570.00	  562.29	-1726.79	  447.69
     13.7700	  509.00	  562.12	-1787.62	  447.77
     13.8700	  577.00	  561.98	-1719.48	  447.84
     13.9700	  558.00	  561.87	-1738.37	  447.91
     14.0700	  559.00	  561.78	-1737.28	  447.97
     14.1700	  587.00	  561.70	-1709.20	  448.02
     14.2700	  547.00	  561.67	-1749.17	  448.07
     14.3700	  523.00	  561.61	-1773.11	  448.11
     14.4700	  532.00	  561.56	-1764.06	  448.14
     14.5700	  546.00	  561.51	-1750.01	  448.17
     14.6700	  545.00	  561.47	-1750.97	  448.19
     14.7700	  564.00	  561.43	-1731.93	  448.21
     14.8700	  562.00	  561.39	-1733.89	  448.22
     14.9700	  533.00	  561.34	-1762.84	  448.22
     15.0700	  600.00	  561.30	-1695.80	  448.22
     15.1700	  602.00	  561.25	-1693.75	  448.21
     15.2700	  528.00	  561.20	-1767.70	  448.19
     15.3700	  515.00	  561.15	-1780.65	  448.17
     15.4700	  550.00	  561.10	-1745.60	  448.15
     15.5700	  534.00	  561.04	-1761.54	  448.12
     15.6700	  566.00	  560.98	-1729.48	  448.08
     15.7700	  540.00	  560.92	-1755.42	  448.03
     15.8700	  545.00	  560.85	-1750.35	  447.99
     15.9700	  564.00	  560.78	-1731.28	  447.93
     16.0700	  608.00	  560.70	-1687.20	  447.87
     16.1700	  543.00	  560.62	-1752.12	  447.81
     16.2700	  575.00	  560.54	-1720.04	  447.74
     16.3700	  555.00	  560.45	-1739.95	  447.66
     16.4700	  514.00	  560.36	-1780.86	  447.58
     16.5700	  565.00	  560.26	-1729.76	  447.49
     16.6700	  533.00	  560.16	-1761.66	  447.40
     16.7700	  546.00	  560.05	-1748.55	  447.31
     16.8700	  533.00	  559.94	-1761.44	  447.21
     16.9700	  551.00	  559.83	-1743.33	  447.10
     17.0700	  567.00	  559.71	-1727.21	  446.99
     17.1700	  557.00	  559.59	-1737.09	  446.87
     17.2700	  540.00	  559.47	-1753.97	  446.75
     17.3700	  536.00	  559.34	-1757.83	  446.63
     17.4700	  551.00	  559.20	-1742.70	  446.50
     17.5700	  529.00	  559.06	-1764.56	  446.37
     17.6700	  550.00	  558.92	-1743.42	  446.23
     17.7700	  548.00	  558.89	-1745.39	  446.08
     17.8700	  559.00	  558.74	-1734.24	  445.94
     17.9700	  550.00	  558.59	-1743.09	  445.78
     18.0700	  530.00	  558.43	-1762.93	  445.63
     18.1700	  502.00	  558.27	-1790.77	  445.47
     18.2700	  528.00	  558.19	-1764.69	  445.30
     18.3700	  580.00	  558.03	-1712.53	  445.13
     18.4700	  537.00	  557.86	-1755.36	  444.96
     18.5700	  563.00	  557.68	-1729.18	  444.78
     18.6700	  602.00	  557.51	-1690.01	  444.60
     18.7700	  541.00	  557.33	-1750.83	  444.42
     18.8700	  565.00	  557.14	-1726.64	  444.23
     18.9700	  574.00	  556.96	-1717.46	  444.04
     19.0700	  525.00	  556.77	-1766.27	  443.84
     19.1700	  547.00	  556.57	-1744.07	  443.64
     19.2700	  505.00	  556.37	-1785.87	  443.44
     19.3700	  529.00	  556.17	-1761.67	  443.23
     19.4700	  568.00	  555.97	-1722.47	  443.02
     19.5700	  569.00	  555.77	-1721.27	  442.80
     19.6700	  548.00	  555.56	-1742.06	  442.58
     19.7700	  551.00	  555.34	-1738.84	  442.36
     19.8700	  560.00	  555.13	-1729.63	  442.14
     19.9700	  545.00	  554.95	-1744.45	  441.91
     20.0700	  525.00	  554.73	-1764.23	  441.68
     20.1700	  554.00	  554.51	-1735.01	  441.44
     20.2700	  549.00	  554.29	-1739.79	  441.20
     20.3700	  513.00	  554.06	-1775.56	  440.96
     20.4700	  546.00	  553.83	-1742.33	  440.72
     20.5700	  555.00	  553.60	-1733.10	  440.47
     20.6700	  513.00	  553.37	-1774.87	  440.22
     20.7700	  506.00	  553.13	-1781.63	  439.96
     20.8700	  546.00	  552.90	-1741.40	  439.71
     20.9700	  544.00	  552.66	-1743.16	  439.45
     21.0700	  529.00	  552.42	-1757.92	  439.18
     21.1700	  528.00	  552.18	-1758.68	  438.92
     21.2700	  526.00	  551.94	-1760.44	  438.65
     21.3700	  518.00	  551.70	-1768.20	  438.38
     21.4700	  565.00	  551.45	-1720.95	  438.11
     21.5700	  582.00	  551.21	-1703.71	  437.83
     21.6700	  550.00	  550.97	-1735.47	  437.55
     21.7700	  530.00	  550.72	-1755.22	  437.27
     21.8700	  564.00	  550.48	-1720.98	  436.99
     21.9700	  535.00	  550.24	-1749.74	  436.70
     22.0700	  520.00	  550.00	-1764.50	  436.41
     22.1700	  545.00	  549.76	-1739.26	  436.12
     22.2700	  581.00	  549.48	-1702.98	  435.83
     22.3700	  508.00	  549.25	-1775.75	  435.53
     22.4700	  609.00	  549.02	-1674.52	  435.23
     22.5700	  564.00	  548.96	-1719.46	  434.93
     22.6700	  551.00	  548.75	-1732.25	  434.63
     22.7700	  556.00	  548.55	-1727.05	  434.32
     22.8700	  544.00	  548.36	-1738.86	  434.02
     22.9700	  540.00	  548.19	-1742.69	  433.71
     23.0700	  577.00	  548.03	-1705.53	  433.40
     23.1700	  545.00	  547.90	-1737.40	  433.09
     23.2700	  559.00	  547.80	-1723.30	  432.77
     23.3700	  570.00	  547.73	-1712.23	  432.45
     23.4700	  518.00	  547.71	-1764.21	  432.14
     23.5700	  542.00	  547.76	-1740.26	  431.82
     23.6700	  545.00	  547.91	-1737.41	  431.49
     23.7700	  568.00	  548.22	-1714.72	  431.17
     23.8700	  573.00	  548.77	-1710.27	  430.84
     23.9700	  556.00	  549.76	-1728.26	  430.52
     24.0700	  576.00	  551.49	-1709.99	  430.19
     24.1700	  549.00	  554.44	-1739.94	  429.86
     24.2700	  571.00	  559.20	-1722.70	  429.53
     24.3700	  584.00	  566.40	-1716.90	  429.19
     24.4700	  584.00	  576.43	-1726.93	  428.86
     24.5700	  591.00	  589.03	-1732.53	  428.52
     24.6700	  639.00	  602.58	-1698.08	  428.18
     24.7700	  658.00	  613.39	-1689.89	  427.84
     24.8700	  599.00	  615.86	-1751.36	  427.50
     24.9700	  615.00	  606.49	-1725.99	  427.16
     25.0700	  629.00	  589.82	-1695.32	  426.82
     25.1700	  605.00	  573.60	-1703.10	  426.47
     25.2700	  543.00	  561.50	-1753.00	  426.13
     25.3700	  603.00	  553.75	-1685.25	  425.78
     25.4700	  585.00	  549.23	-1698.73	  425.43
     25.5700	  567.00	  546.64	-1714.14	  425.09
     25.6700	  596.00	  545.07	-1683.57	  424.74
     25.7700	  556.00	  544.02	-1722.52	  424.39
     25.8700	  541.00	  543.27	-1736.77	  424.03
     25.9700	  567.00	  542.70	-1710.20	  423.68
     26.0700	  560.00	  542.28	-1716.78	  423.33
     26.1700	  564.00	  541.98	-1712.48	  422.97
     26.2700	  555.00	  541.78	-1721.28	  422.62
     26.3700	  563.00	  541.69	-1713.19	  422.26
     26.4700	  601.00	  541.70	-1675.20	  421.90
     26.5700	  510.00	  541.82	-1766.32	  421.54
     26.6700	  540.00	  542.07	-1736.57	  421.19
     26.7700	  564.00	  542.47	-1712.97	  420.83
     26.8700	  547.00	  543.05	-1730.55	  420.47
     26.9700	  549.00	  543.86	-1729.36	  420.11
     27.0700	  589.00	  544.98	-1690.48	  419.74
     27.1700	  580.00	  546.53	-1701.03	  419.38
     27.2700	  542.00	  548.70	-1741.20	  419.02
     27.3700	  561.00	  551.92	-1725.42	  418.66
     27.4700	  567.00	  556.98	-1724.48	  418.29
     27.5700	  559.00	  565.31	-1740.81	  417.93
     27.6700	  580.00	  579.30	-1733.80	  417.56
     27.7700	  618.00	  602.25	-1718.75	  417.20
     27.8700	  599.00	  637.64	-1773.14	  416.83
     27.9700	  638.00	  687.01	-1783.51	  416.47
     28.0700	  715.00	  747.23	-1766.73	  416.10
     28.1700	  829.00	  807.48	-1712.98	  415.74
     28.2700	  978.00	  848.06	-1604.56	  415.37
     28.3700	  904.00	  847.90	-1678.40	  415.00
     28.4700	  821.00	  810.25	-1723.75	  414.64
     28.5700	  777.00	  768.07	-1725.57	  414.27
     28.6700	  722.00	  747.62	-1760.12	  413.90
     28.7700	  707.00	  753.51	-1781.01	  413.54
     28.8700	  775.00	  774.20	-1733.70	  413.17
     28.9700	  747.00	  787.85	-1775.35	  412.80
     29.0700	  791.00	  772.06	-1715.56	  412.43
     29.1700	  773.00	  724.72	-1686.22	  412.07
     29.2700	  667.00	  667.68	-1735.18	  411.70
     29.3700	  607.00	  619.68	-1747.18	  411.33
     29.4700	  576.00	  586.41	-1744.91	  410.97
     29.5700	  590.00	  566.15	-1710.65	  410.60
     29.6700	  599.00	  554.63	-1690.13	  410.23
     29.7700	  605.00	  548.11	-1677.61	  409.86
     29.8700	  588.00	  544.22	-1690.72	  409.50
     29.9700	  614.00	  541.81	-1662.31	  409.13
     30.0700	  586.00	  540.44	-1688.94	  408.76
     30.1700	  551.00	  540.12	-1723.62	  408.40
     30.2700	  585.00	  541.18	-1690.68	  408.03
     30.3700	  579.00	  544.35	-1699.85	  407.67
     30.4700	  573.00	  550.79	-1712.29	  407.30
     30.5700	  583.00	  561.79	-1713.29	  406.94
     30.6700	  574.00	  578.02	-1738.52	  406.57
     30.7700	  572.00	  598.31	-1760.81	  406.21
     30.8700	  630.00	  618.66	-1723.16	  405.85
     30.9700	  618.00	  631.85	-1748.35	  405.48
     31.0700	  620.00	  629.78	-1744.28	  405.12
     31.1700	  610.00	  611.57	-1736.07	  404.76
     31.2700	  575.00	  586.77	-1746.27	  404.40
     31.3700	  505.00	  564.60	-1794.10	  404.03
     31.4700	  550.00	  548.56	-1733.06	  403.67
     31.5700	  542.00	  538.44	-1730.94	  403.31
     31.6700	  543.00	  532.57	-1724.07	  402.95
     31.7700	  561.00	  529.24	-1702.74	  402.59
     31.8700	  574.00	  527.25	-1687.75	  402.24
     31.9700	  542.00	  525.97	-1718.47	  401.88
     32.0700	  538.00	  525.10	-1721.60	  401.52
     32.1700	  534.00	  524.51	-1725.01	  401.17
     32.2700	  512.00	  524.15	-1746.65	  400.81
     32.3700	  584.00	  524.01	-1674.51	  400.45
     32.4700	  548.00	  524.08	-1710.58	  400.10
     32.5700	  581.00	  524.37	-1677.87	  399.75
     32.6700	  564.00	  524.92	-1695.42	  399.39
     32.7700	  522.00	  525.78	-1738.28	  399.04
     32.8700	  489.00	  527.02	-1772.52	  398.69
     32.9700	  487.00	  528.78	-1776.28	  398.34
     33.0700	  565.00	  531.28	-1700.78	  397.99
     33.1700	  522.00	  534.97	-1747.47	  397.64
     33.2700	  602.00	  540.74	-1673.24	  397.30
     33.3700	  599.00	  550.37	-1685.87	  396.95
     33.4700	  568.00	  566.98	-1733.48	  396.61
     33.5700	  566.00	  595.37	-1763.87	  396.26
     33.6700	  624.00	  641.21	-1751.71	  395.92
     33.7700	  686.00	  708.11	-1756.61	  395.57
     33.8700	  813.00	  792.86	-1714.36	  395.23
     33.9700	  886.00	  880.74	-1729.24	  394.89
     34.0700	  979.00	  944.20	-1699.70	  394.55
     34.1700	 1043.00	  950.68	-1642.18	  394.21
     34.2700	  963.00	  890.74	-1662.24	  393.88
     34.3700	  858.00	  795.79	-1672.29	  393.54
     34.4700	  714.00	  703.87	-1724.37	  393.21
     34.5700	  629.00	  633.22	-1738.72	  392.87
     34.6700	  561.00	  586.31	-1759.81	  392.54
     34.7700	  535.00	  558.17	-1757.67	  392.21
     34.8700	  552.00	  542.09	-1724.59	  391.88
     34.9700	  556.00	  532.69	-1711.19	  391.55
     35.0700	  569.00	  526.70	-1692.20	  391.22
     35.1700	  552.00	  522.49	-1704.99	  390.89
     35.2700	  542.00	  519.25	-1711.75	  390.57
     35.3700	  485.00	  516.70	-1766.20	  390.24
     35.4700	  527.00	  514.61	-1722.11	  389.92
     35.5700	  530.00	  512.86	-1717.36	  389.60
     35.6700	  512.00	  511.37	-1733.87	  389.28
     35.7700	  499.00	  510.55	-1746.05	  388.96
     35.8700	  573.00	  509.44	-1670.94	  388.64
     35.9700	  500.00	  508.45	-1742.95	  388.32
     36.0700	  502.00	  507.59	-1740.09	  388.01
     36.1700	  474.00	  506.81	-1767.31	  387.69
     36.2700	  487.00	  506.11	-1753.61	  387.38
     36.3700	  507.00	  505.47	-1732.97	  387.07
     36.4700	  488.00	  504.90	-1751.40	  386.76
     36.5700	  482.00	  504.39	-1756.89	  386.45
     36.6700	  507.00	  503.94	-1731.44	  386.14
     36.7700	  474.00	  503.57	-1764.07	  385.84
     36.8700	  518.00	  503.29	-1719.79	  385.54
     36.9700	  518.00	  503.16	-1719.66	  385.23
     37.0700	  530.00	  503.28	-1707.78	  384.93
     37.1700	  528.00	  503.81	-1710.31	  384.63
     37.2700	  485.00	  504.97	-1754.47	  384.33
     37.3700	  510.00	  506.96	-1731.46	  384.04
     37.4700	  511.00	  509.82	-1733.32	  383.74
     37.5700	  523.00	  513.24	-1724.74	  383.45
     37.6700	  554.00	  516.42	-1696.92	  383.16
     37.7700	  493.00	  518.15	-1759.65	  382.87
     37.8700	  566.00	  517.42	-1685.92	  382.58
     37.9700	  550.00	  514.70	-1699.20	  382.29
     38.0700	  499.00	  510.90	-1746.40	  382.01
     38.1700	  491.00	  507.16	-1750.66	  381.72
     38.2700	  502.00	  503.92	-1736.42	  381.44
     38.3700	  513.00	  501.36	-1722.86	  381.16
     38.4700	  488.00	  499.50	-1746.00	  380.88
     38.5700	  491.00	  498.19	-1741.69	  380.60
     38.6700	  472.00	  497.25	-1759.75	  380.33
     38.7700	  498.00	  496.57	-1733.07	  380.05
     38.8700	  486.00	  496.03	-1744.53	  379.78
     38.9700	  493.00	  495.58	-1737.08	  379.51
     39.0700	  506.00	  495.19	-1723.69	  379.24
     39.1700	  480.00	  494.73	-1749.23	  378.97
     39.2700	  455.00	  494.40	-1773.90	  378.71
     39.3700	  479.00	  494.10	-1749.60	  378.44
     39.4700	  466.00	  493.81	-1762.31	  378.18
     39.5700	  532.00	  493.54	-1696.04	  377.92
     39.6700	  440.00	  493.28	-1787.78	  377.66
     39.7700	  474.00	  493.04	-1753.54	  377.40
     39.8700	  476.00	  492.80	-1751.30	  377.15
     39.9700	  497.00	  492.50	-1730.00	  376.89
     40.0700	  512.00	  492.30	-1714.80	  376.64
     40.1700	  457.00	  492.11	-1769.61	  376.39
     40.2700	  466.00	  491.93	-1760.43	  376.14
     40.3700	  478.00	  491.77	-1748.27	  375.90
     40.4700	  503.00	  491.63	-1723.13	  375.65
     40.5700	  508.00	  492.01	-1718.51	  375.41
     40.6700	  486.00	  491.91	-1740.41	  375.17
     40.7700	  492.00	  491.84	-1734.34	  374.93
