MSG Master    CELL:    5.90180   5.90180  23.17671   90.0000   90.0000  120.0000   SPGR: P 63/m m c             TEMP:    801.65
  1   1280     2.52000     0.00000    -0.12727     0.00000     0.00000    0
    98     0     2
       0.00000      10.00000
     125.00000     130.00000
 2Theta	Yobs	Ycal	Yobs-Ycal	Backg	Posr	(hkl)	K
      0.7700	    0.00	  505.70	-1759.76	  400.77
      0.8700	    0.00	  507.25	-1759.76	  402.32
      0.9700	   47.00	  508.79	-1759.76	  403.86
      1.0700	   57.00	  510.31	-1759.76	  405.38
      1.1700	   46.00	  511.81	-1759.76	  406.88
      1.2700	   50.00	  513.29	-1759.76	  408.37
      1.3700	   47.00	  514.76	-1759.76	  409.83
      1.4700	   99.00	  516.21	-1759.76	  411.28
      1.5700	  295.00	  517.65	-1759.76	  412.72
      1.6700	  450.00	  519.06	-1759.76	  414.14
      1.7700	  563.00	  520.46	-1759.76	  415.54
      1.8700	  650.00	  521.85	-1759.76	  416.92
      1.9700	  701.00	  523.21	-1759.76	  418.29
      2.0700	  760.00	  524.56	-1759.76	  419.64
      2.1700	  805.00	  525.90	-1759.76	  420.97
      2.2700	  801.00	  527.22	-1759.76	  422.29
      2.3700	  701.00	  528.52	-1759.76	  423.59
      2.4700	  687.00	  529.80	-1759.76	  424.88
      2.5700	  679.00	  531.07	-1759.76	  426.15
      2.6700	  695.00	  532.33	-1759.76	  427.40
      2.7700	  634.00	  533.57	-1759.76	  428.64
      2.8700	  667.00	  534.79	-1759.76	  429.86
      2.9700	  593.00	  536.00	-1759.76	  431.07
      3.0700	  624.00	  537.19	-1759.76	  432.26
      3.1700	  659.00	  538.36	-1759.76	  433.43
      3.2700	  684.00	  539.52	-1759.76	  434.60
      3.3700	  799.00	  540.67	-1759.76	  435.74
      3.4700	  969.00	  541.80	-1759.76	  436.87
      3.5700	 1014.00	  542.92	-1759.76	  437.99
      3.6700	 1119.00	  544.02	-1759.76	  439.09
      3.7700	 1212.00	  545.10	-1759.76	  440.18
      3.8700	 1282.00	  546.18	-1759.76	  441.25
      3.9700	 1414.00	  547.23	-1759.76	  442.30
      4.0700	 1461.00	  548.28	-1759.76	  443.35
      4.1700	 1460.00	  549.30	-1759.76	  444.37
      4.2700	 1494.00	  550.32	-1759.76	  445.39
      4.3700	 1462.00	  551.32	-1759.76	  446.39
      4.4700	 1423.00	  552.30	-1759.76	  447.37
      4.5700	 1320.00	  553.27	-1759.76	  448.35
      4.6700	 1321.00	  554.23	-1759.76	  449.30
      4.7700	 1231.00	  555.18	-1759.76	  450.25
      4.8700	 1220.00	  556.11	-1759.76	  451.18
      4.9700	 1238.00	  557.02	-1759.76	  452.09
      5.0700	 1100.00	  557.93	-1759.76	  453.00
      5.1700	 1129.00	  558.81	-1759.76	  453.89
      5.2700	 1085.00	  559.69	-1759.76	  454.76
      5.3700	 1053.00	  560.55	-1759.76	  455.62
      5.4700	 1048.00	  561.40	-1759.76	  456.47
      5.5700	  977.00	  562.24	-1759.76	  457.31
      5.6700	 1013.00	  563.06	-1759.76	  458.13
      5.7700	  990.00	  563.87	-1759.76	  458.95
      5.8700	  970.00	  564.67	-1759.76	  459.74
      5.9700	  924.00	  565.46	-1759.76	  460.53
      6.0700	  860.00	  566.23	-1759.76	  461.30
      6.1700	  908.00	  566.99	-1759.76	  462.06
      6.2700	  867.00	  567.74	-1759.76	  462.81
      6.3700	  837.00	  568.47	-1759.76	  463.54
      6.4700	  828.00	  569.20	-1759.76	  464.27
      6.5700	  818.00	  569.91	-1759.76	  464.98
      6.6700	  801.00	  570.60	-1759.76	  465.68
      6.7700	  827.00	  571.29	-1759.76	  466.36
      6.8700	  818.00	  571.97	-1759.76	  467.04
      6.9700	  772.00	  572.63	-1759.76	  467.70
      7.0700	  774.00	  573.28	-1759.76	  468.35
      7.1700	  738.00	  573.92	-1759.76	  468.99
      7.2700	  694.00	  574.55	-1759.76	  469.62
      7.3700	  713.00	  575.16	-1759.76	  470.23
      7.4700	  717.00	  575.77	-1759.76	  470.84
      7.5700	  719.00	  576.36	-1759.76	  471.43
      7.6700	  702.00	  576.94	-1759.76	  472.01
      7.7700	  667.00	  577.51	-1759.76	  472.59
      7.8700	  720.00	  578.07	-1759.76	  473.15
      7.9700	  747.00	  578.62	-1759.76	  473.69
      8.0700	  692.00	  579.16	-1759.76	  474.23
      8.1700	  691.00	  579.69	-1759.76	  474.76
      8.2700	  666.00	  580.20	-1759.76	  475.28
      8.3700	  701.00	  580.71	-1759.76	  475.78
      8.4700	  700.00	  581.20	-1759.76	  476.28
      8.5700	  699.00	  581.69	-1759.76	  476.76
      8.6700	  701.00	  582.16	-1759.76	  477.23
      8.7700	  651.00	  582.63	-1759.76	  477.70
      8.8700	  630.00	  583.08	-1759.76	  478.15
      8.9700	  642.00	  583.52	-1759.76	  478.59
      9.0700	  651.00	  583.96	-1759.76	  479.03
      9.1700	  608.00	  584.38	-1759.76	  479.45
      9.2700	  641.00	  584.79	-1759.76	  479.86
      9.3700	  635.00	  585.20	-1759.76	  480.27
      9.4700	  623.00	  585.59	-1759.76	  480.66
      9.5700	  626.00	  585.97	-1759.76	  481.04
      9.6700	  629.00	  586.35	-1759.76	  481.42
      9.7700	  681.00	  586.71	-1759.76	  481.78
      9.8700	  640.00	  587.07	-1759.76	  482.14
      9.9700	  592.00	  587.41	-1759.76	  482.48
     10.0700	  646.00	  590.91	-1704.67	  482.82
     10.1700	  651.00	  591.42	-1700.18	  483.14
     10.2700	  627.00	  591.97	-1724.73	  483.46
     10.3700	  602.00	  592.57	-1750.33	  483.77
     10.4700	  625.00	  593.24	-1728.01	  484.07
     10.5700	  665.00	  594.05	-1688.81	  484.36
     10.6700	  621.00	  595.05	-1733.82	  484.64
     10.7700	  633.00	  596.35	-1723.11	  484.91
     10.8700	  634.00	  598.01	-1723.77	  485.18
     10.9700	  617.00	  600.08	-1742.84	  485.43
     11.0700	  550.00	  602.58	-1812.34	  485.68
     11.1700	  616.00	  605.50	-1749.26	  485.92
     11.2700	  636.00	  608.88	-1732.64	  486.15
     11.3700	  625.00	  612.78	-1747.54	  486.37
     11.4700	  623.00	  617.33	-1754.09	  486.58
     11.5700	  668.00	  622.71	-1714.47	  486.78
     11.6700	  632.00	  629.19	-1756.95	  486.98
     11.7700	  683.00	  637.14	-1713.90	  487.17
     11.8700	  698.00	  646.85	-1708.61	  487.35
     11.9700	  671.00	  658.17	-1746.93	  487.52
     12.0700	  693.00	  669.90	-1736.66	  487.69
     12.1700	  694.00	  679.07	-1744.83	  487.84
     12.2700	  740.00	  680.80	-1700.57	  487.99
     12.3700	  693.00	  671.14	-1737.91	  488.13
     12.4700	  657.00	  653.33	-1756.09	  488.26
     12.5700	  642.00	  635.35	-1753.11	  488.39
     12.6700	  618.00	  621.61	-1763.37	  488.51
     12.7700	  576.00	  612.59	-1796.35	  488.62
     12.8700	  622.00	  607.18	-1744.94	  488.72
     12.9700	  601.00	  604.04	-1762.81	  488.82
     13.0700	  576.00	  602.17	-1785.93	  488.91
     13.1700	  599.00	  600.96	-1761.72	  488.99
     13.2700	  599.00	  600.11	-1760.87	  489.06
     13.3700	  564.00	  599.48	-1795.24	  489.13
     13.4700	  612.00	  599.00	-1746.76	  489.19
     13.5700	  549.00	  598.63	-1809.39	  489.24
     13.6700	  556.00	  598.36	-1802.12	  489.29
     13.7700	  610.00	  598.11	-1747.87	  489.33
     13.8700	  586.00	  597.91	-1771.67	  489.36
     13.9700	  606.00	  597.74	-1751.50	  489.39
     14.0700	  594.00	  597.59	-1763.36	  489.41
     14.1700	  593.00	  597.46	-1764.23	  489.43
     14.2700	  611.00	  597.35	-1746.11	  489.43
     14.3700	  551.00	  597.25	-1806.01	  489.43
     14.4700	  574.00	  597.15	-1782.91	  489.43
     14.5700	  580.00	  597.06	-1776.82	  489.42
     14.6700	  577.00	  596.97	-1779.73	  489.40
     14.7700	  579.00	  596.88	-1777.64	  489.37
     14.8700	  585.00	  596.79	-1771.56	  489.34
     14.9700	  637.00	  596.71	-1719.47	  489.31
     15.0700	  556.00	  596.62	-1800.39	  489.26
     15.1700	  547.00	  596.54	-1809.30	  489.22
     15.2700	  560.00	  596.45	-1796.21	  489.16
     15.3700	  585.00	  596.36	-1771.12	  489.10
     15.4700	  559.00	  596.26	-1797.02	  489.04
     15.5700	  571.00	  596.16	-1784.93	  488.97
     15.6700	  566.00	  596.07	-1789.83	  488.89
     15.7700	  588.00	  595.96	-1767.72	  488.81
     15.8700	  614.00	  595.85	-1741.62	  488.72
     15.9700	  567.00	  595.74	-1788.51	  488.62
     16.0700	  564.00	  595.63	-1791.39	  488.53
     16.1700	  589.00	  595.51	-1766.27	  488.42
     16.2700	  607.00	  595.39	-1748.15	  488.31
     16.3700	  563.00	  595.26	-1792.03	  488.20
     16.4700	  607.00	  595.13	-1747.90	  488.08
     16.5700	  605.00	  595.00	-1749.76	  487.95
     16.6700	  577.00	  594.86	-1777.62	  487.82
     16.7700	  574.00	  594.72	-1780.48	  487.69
     16.8700	  592.00	  594.57	-1762.33	  487.55
     16.9700	  557.00	  594.42	-1797.18	  487.41
     17.0700	  609.00	  594.27	-1745.03	  487.26
     17.1700	  584.00	  594.11	-1769.87	  487.10
     17.2700	  573.00	  593.94	-1780.71	  486.94
     17.3700	  566.00	  593.78	-1787.54	  486.78
     17.4700	  562.00	  593.71	-1791.47	  486.61
     17.5700	  581.00	  593.54	-1772.30	  486.44
     17.6700	  560.00	  593.36	-1793.12	  486.26
     17.7700	  585.00	  593.18	-1767.94	  486.08
     17.8700	  574.00	  593.00	-1778.76	  485.90
     17.9700	  556.00	  592.92	-1796.69	  485.71
     18.0700	  588.00	  592.73	-1764.49	  485.51
     18.1700	  562.00	  592.54	-1790.30	  485.31
     18.2700	  551.00	  592.34	-1801.10	  485.11
     18.3700	  543.00	  592.14	-1808.90	  484.90
     18.4700	  629.00	  591.93	-1722.70	  484.69
     18.5700	  585.00	  591.73	-1766.49	  484.48
     18.6700	  543.00	  591.51	-1808.28	  484.26
     18.7700	  591.00	  591.30	-1760.06	  484.03
     18.8700	  568.00	  591.08	-1782.84	  483.81
     18.9700	  569.00	  590.86	-1781.62	  483.58
     19.0700	  589.00	  590.63	-1761.39	  483.34
     19.1700	  547.00	  590.40	-1803.17	  483.11
     19.2700	  605.00	  590.17	-1744.94	  482.86
     19.3700	  600.00	  589.94	-1749.70	  482.62
     19.4700	  579.00	  589.70	-1770.46	  482.37
     19.5700	  588.00	  589.50	-1761.26	  482.12
     19.6700	  531.00	  589.26	-1818.02	  481.86
     19.7700	  560.00	  589.01	-1788.78	  481.60
     19.8700	  554.00	  588.77	-1794.53	  481.34
     19.9700	  562.00	  588.52	-1786.28	  481.07
     20.0700	  539.00	  588.26	-1809.03	  480.80
     20.1700	  598.00	  588.01	-1749.77	  480.53
     20.2700	  570.00	  587.75	-1777.51	  480.26
     20.3700	  560.00	  587.49	-1787.25	  479.98
     20.4700	  570.00	  587.23	-1776.99	  479.70
     20.5700	  585.00	  586.97	-1761.73	  479.41
     20.6700	  550.00	  586.70	-1796.46	  479.12
     20.7700	  589.00	  586.43	-1757.19	  478.83
     20.8700	  568.00	  586.16	-1777.93	  478.54
     20.9700	  560.00	  585.89	-1785.66	  478.24
     21.0700	  564.00	  585.62	-1781.38	  477.94
     21.1700	  513.00	  585.35	-1832.11	  477.64
     21.2700	  514.00	  585.08	-1830.84	  477.34
     21.3700	  580.00	  584.80	-1764.56	  477.03
     21.4700	  608.00	  584.53	-1736.29	  476.72
     21.5700	  598.00	  584.25	-1746.01	  476.40
     21.6700	  573.00	  583.98	-1770.74	  476.09
     21.7700	  523.00	  583.70	-1820.46	  475.77
     21.8700	  561.00	  583.43	-1782.19	  475.45
     21.9700	  593.00	  583.16	-1749.92	  475.13
     22.0700	  613.00	  582.89	-1729.65	  474.80
     22.1700	  586.00	  582.78	-1756.54	  474.48
     22.2700	  546.00	  582.52	-1796.28	  474.15
     22.3700	  589.00	  582.26	-1753.02	  473.81
     22.4700	  547.00	  582.01	-1794.77	  473.48
     22.5700	  594.00	  581.76	-1747.52	  473.14
     22.6700	  574.00	  581.52	-1767.28	  472.80
     22.7700	  607.00	  581.29	-1734.05	  472.46
     22.8700	  545.00	  581.07	-1795.83	  472.12
     22.9700	  564.00	  580.86	-1776.63	  471.77
     23.0700	  580.00	  580.68	-1760.44	  471.43
     23.1700	  554.00	  580.51	-1786.27	  471.08
     23.2700	  574.00	  580.33	-1766.09	  470.73
     23.3700	  592.00	  580.22	-1747.98	  470.38
     23.4700	  554.00	  580.17	-1785.93	  470.02
     23.5700	  543.00	  580.17	-1796.93	  469.67
     23.6700	  585.00	  580.26	-1755.02	  469.31
     23.7700	  547.00	  580.48	-1793.24	  468.95
     23.8700	  584.00	  580.90	-1756.66	  468.59
     23.9700	  615.00	  581.64	-1726.40	  468.22
     24.0700	  558.00	  582.92	-1784.68	  467.86
     24.1700	  617.00	  585.09	-1727.85	  467.49
     24.2700	  639.00	  588.61	-1709.37	  467.13
     24.3700	  678.00	  594.03	-1675.79	  466.76
     24.4700	  594.00	  601.76	-1767.52	  466.39
     24.5700	  625.00	  611.83	-1746.60	  466.01
     24.6700	  663.00	  623.49	-1720.25	  465.64
     24.7700	  647.00	  634.62	-1747.39	  465.27
     24.8700	  669.00	  641.43	-1732.20	  464.89
     24.9700	  679.00	  639.44	-1720.21	  464.51
     25.0700	  713.00	  628.20	-1674.96	  464.13
     25.1700	  678.00	  613.32	-1695.08	  463.75
     25.2700	  609.00	  600.15	-1750.92	  463.37
     25.3700	  590.00	  590.57	-1760.33	  462.99
     25.4700	  553.00	  584.35	-1791.11	  462.61
     25.5700	  614.00	  580.57	-1726.33	  462.22
     25.6700	  539.00	  578.28	-1799.04	  461.84
     25.7700	  607.00	  576.82	-1729.58	  461.45
     25.8700	  585.00	  575.82	-1750.58	  461.07
     25.9700	  622.00	  575.10	-1712.86	  460.68
     26.0700	  600.00	  574.56	-1734.32	  460.29
     26.1700	  610.00	  574.16	-1723.92	  459.90
     26.2700	  595.00	  573.89	-1738.65	  459.51
     26.3700	  651.00	  573.73	-1682.50	  459.12
     26.4700	  624.00	  573.69	-1709.45	  458.73
     26.5700	  675.00	  573.76	-1658.52	  458.33
     26.6700	  614.00	  573.96	-1719.72	  457.94
     26.7700	  621.00	  574.31	-1713.08	  457.54
     26.8700	  609.00	  574.85	-1725.61	  457.15
     26.9700	  612.00	  575.60	-1723.36	  456.75
     27.0700	  634.00	  576.64	-1702.40	  456.36
     27.1700	  638.00	  578.06	-1699.82	  455.96
     27.2700	  622.00	  580.04	-1717.80	  455.56
     27.3700	  659.00	  582.90	-1683.66	  455.17
     27.4700	  633.00	  587.23	-1713.99	  454.77
     27.5700	  722.00	  594.15	-1631.91	  454.37
     27.6700	  653.00	  605.51	-1712.27	  453.97
     27.7700	  662.00	  624.03	-1721.79	  453.57
     27.8700	  626.00	  652.84	-1786.60	  453.17
     27.9700	  682.00	  694.03	-1771.79	  452.77
     28.0700	  812.00	  746.42	-1694.18	  452.37
     28.1700	  832.00	  803.13	-1730.89	  451.97
     28.2700	  904.00	  849.87	-1705.63	  451.57
     28.3700	  979.00	  867.63	-1648.40	  451.17
     28.4700	  957.00	  849.81	-1652.57	  450.77
     28.5700	  853.00	  819.25	-1726.01	  450.37
     28.6700	  788.00	  804.51	-1776.28	  449.96
     28.7700	  768.00	  815.69	-1807.46	  449.56
     28.8700	  803.00	  845.22	-1801.98	  449.16
     28.9700	  841.00	  872.66	-1791.42	  448.76
     29.0700	  910.00	  871.47	-1721.23	  448.36
     29.1700	  878.00	  828.24	-1710.00	  447.96
     29.2700	  804.00	  761.11	-1716.88	  447.55
     29.3700	  699.00	  697.07	-1757.83	  447.15
     29.4700	  711.00	  648.77	-1697.54	  446.75
     29.5700	  634.00	  617.20	-1742.96	  446.35
     29.6700	  626.00	  598.39	-1732.15	  445.95
     29.7700	  662.00	  587.60	-1685.36	  445.55
     29.8700	  645.00	  581.26	-1696.02	  445.15
     29.9700	  643.00	  577.34	-1694.11	  444.75
     30.0700	  664.00	  574.93	-1670.69	  444.35
     30.1700	  619.00	  573.73	-1714.49	  443.95
     30.2700	  615.00	  573.89	-1718.65	  443.55
     30.3700	  647.00	  575.92	-1688.68	  443.15
     30.4700	  616.00	  580.73	-1724.49	  442.75
     30.5700	  609.00	  589.48	-1740.24	  442.35
     30.6700	  641.00	  603.05	-1721.81	  441.95
     30.7700	  625.00	  621.09	-1755.85	  441.55
     30.8700	  616.00	  641.00	-1784.77	  441.15
     30.9700	  694.00	  657.36	-1723.13	  440.76
     31.0700	  650.00	  662.49	-1772.25	  440.36
     31.1700	  680.00	  651.52	-1731.28	  439.96
     31.2700	  624.00	  629.50	-1765.26	  439.57
     31.3700	  613.00	  606.30	-1753.06	  439.17
     31.4700	  624.00	  587.64	-1723.40	  438.78
     31.5700	  613.00	  574.78	-1721.54	  438.38
     31.6700	  616.00	  566.77	-1710.53	  437.99
     31.7700	  591.00	  562.05	-1730.81	  437.60
     31.8700	  593.00	  559.25	-1726.01	  437.20
     31.9700	  614.00	  557.49	-1703.25	  436.81
     32.0700	  576.00	  556.32	-1740.08	  436.42
     32.1700	  558.00	  555.52	-1757.28	  436.03
     32.2700	  577.00	  555.00	-1737.76	  435.64
     32.3700	  555.00	  554.72	-1759.48	  435.25
     32.4700	  571.00	  554.68	-1743.44	  434.86
     32.5700	  590.00	  554.87	-1724.63	  434.48
     32.6700	  545.00	  555.32	-1770.08	  434.09
     32.7700	  565.00	  556.08	-1750.84	  433.70
     32.8700	  547.00	  557.21	-1769.97	  433.32
     32.9700	  576.00	  558.82	-1742.58	  432.94
     33.0700	  548.00	  561.10	-1772.86	  432.55
     33.1700	  575.00	  564.42	-1749.18	  432.17
     33.2700	  539.00	  569.39	-1790.15	  431.79
     33.3700	  592.00	  577.32	-1745.08	  431.41
     33.4700	  564.00	  590.52	-1786.29	  431.03
     33.5700	  621.00	  612.67	-1751.43	  430.65
     33.6700	  601.00	  648.53	-1807.29	  430.27
     33.7700	  670.00	  702.45	-1792.22	  429.90
     33.8700	  714.00	  774.89	-1820.65	  429.52
     33.9700	  916.00	  858.11	-1701.87	  429.15
     34.0700	  946.00	  933.32	-1747.08	  428.77
     34.1700	 1068.00	  971.90	-1663.66	  428.40
     34.2700	 1015.00	  949.96	-1694.73	  428.03
     34.3700	  946.00	  875.87	-1689.64	  427.66
     34.4700	  823.00	  785.10	-1721.86	  427.29
     34.5700	  701.00	  705.24	-1764.00	  426.92
     34.6700	  667.00	  646.27	-1739.03	  426.56
     34.7700	  612.00	  607.51	-1755.27	  426.19
     34.8700	  567.00	  583.93	-1776.69	  425.83
     34.9700	  588.00	  569.95	-1741.71	  425.46
     35.0700	  578.00	  561.36	-1743.13	  425.10
     35.1700	  541.00	  555.65	-1774.41	  424.74
     35.2700	  552.00	  551.49	-1759.26	  424.38
     35.3700	  511.00	  548.28	-1797.04	  424.02
     35.4700	  543.00	  545.68	-1762.44	  423.66
     35.5700	  575.00	  544.03	-1728.79	  423.31
     35.6700	  518.00	  542.23	-1783.99	  422.95
     35.7700	  530.00	  540.68	-1770.44	  422.60
     35.8700	  538.00	  539.34	-1761.10	  422.25
     35.9700	  518.00	  538.16	-1779.93	  421.90
     36.0700	  547.00	  537.12	-1749.88	  421.55
     36.1700	  536.00	  536.19	-1759.95	  421.20
     36.2700	  524.00	  535.35	-1771.11	  420.85
     36.3700	  520.00	  534.59	-1774.35	  420.51
     36.4700	  538.00	  533.88	-1755.64	  420.16
     36.5700	  498.00	  533.25	-1795.02	  419.82
     36.6700	  549.00	  532.70	-1743.46	  419.48
     36.7700	  489.00	  532.20	-1802.96	  419.14
     36.8700	  518.00	  531.78	-1773.54	  418.80
     36.9700	  518.00	  531.46	-1773.22	  418.47
     37.0700	  499.00	  531.28	-1792.04	  418.13
     37.1700	  548.00	  531.34	-1743.10	  417.80
     37.2700	  515.00	  531.76	-1776.52	  417.47
     37.3700	  504.00	  532.69	-1788.45	  417.13
     37.4700	  536.00	  534.45	-1758.21	  416.81
     37.5700	  575.00	  536.66	-1721.42	  416.48
     37.6700	  526.00	  539.23	-1772.99	  416.15
     37.7700	  540.00	  541.54	-1761.31	  415.83
     37.8700	  543.00	  542.68	-1759.44	  415.50
     37.9700	  509.00	  541.93	-1792.69	  415.18
     38.0700	  547.00	  539.53	-1752.29	  414.86
     38.1700	  518.00	  536.41	-1778.17	  414.54
     38.2700	  530.00	  533.29	-1763.05	  414.23
     38.3700	  541.00	  530.54	-1749.30	  413.91
     38.4700	  495.00	  528.35	-1793.11	  413.60
     38.5700	  490.00	  526.72	-1796.48	  413.29
     38.6700	  488.00	  525.53	-1797.29	  412.98
     38.7700	  484.00	  524.66	-1800.43	  412.67
     38.8700	  507.00	  524.00	-1776.76	  412.36
     38.9700	  500.00	  523.46	-1783.22	  412.05
     39.0700	  513.00	  523.00	-1769.76	  411.75
     39.1700	  471.00	  522.58	-1811.34	  411.45
     39.2700	  540.00	  522.20	-1741.96	  411.15
     39.3700	  507.00	  521.85	-1774.61	  410.85
     39.4700	  499.00	  521.41	-1782.17	  410.55
     39.5700	  497.00	  521.09	-1783.86	  410.26
     39.6700	  481.00	  520.79	-1799.56	  409.96
     39.7700	  539.00	  520.51	-1741.27	  409.67
     39.8700	  500.00	  520.23	-1780.00	  409.38
     39.9700	  513.00	  519.97	-1766.74	  409.09
     40.0700	  519.00	  519.73	-1760.49	  408.80
     40.1700	  493.00	  520.02	-1786.79	  408.52
     40.2700	  500.00	  519.86	-1779.62	  408.24
     40.3700	  456.00	  519.55	-1823.31	  407.95
     40.4700	  495.00	  519.37	-1784.13	  407.67
     40.5700	  539.00	  519.20	-1739.96	  407.40
     40.6700	  496.00	  519.05	-1782.81	  407.12
     40.7700	  494.00	  518.92	-1784.69	  406.85
