MSG Master    CELL:    5.90443   5.90443  23.19111   90.0000   90.0000  120.0000   SPGR: P 63/m m c             TEMP:    835.65
  1   1280     2.52000     0.00000    -0.12559     0.00000     0.00000    0
    98     0     2
       0.00000      10.00000
     125.00000     130.00000
 2Theta	Yobs	Ycal	Yobs-Ycal	Backg	Posr	(hkl)	K
      0.7700	    0.00	  422.37	-1776.75	  316.78
      0.8700	    0.00	  424.62	-1776.75	  319.03
      0.9700	   38.00	  426.85	-1776.75	  321.25
      1.0700	   40.00	  429.05	-1776.75	  323.46
      1.1700	   47.00	  431.23	-1776.75	  325.64
      1.2700	   39.00	  433.39	-1776.75	  327.80
      1.3700	   35.00	  435.53	-1776.75	  329.93
      1.4700	   95.00	  437.64	-1776.75	  332.05
      1.5700	  295.00	  439.73	-1776.75	  334.14
      1.6700	  449.00	  441.80	-1776.75	  336.21
      1.7700	  540.00	  443.85	-1776.75	  338.25
      1.8700	  688.00	  445.87	-1776.75	  340.28
      1.9700	  711.00	  447.88	-1776.75	  342.28
      2.0700	  714.00	  449.86	-1776.75	  344.27
      2.1700	  770.00	  451.82	-1776.75	  346.23
      2.2700	  759.00	  453.76	-1776.75	  348.17
      2.3700	  727.00	  455.68	-1776.75	  350.09
      2.4700	  659.00	  457.58	-1776.75	  351.99
      2.5700	  717.00	  459.46	-1776.75	  353.86
      2.6700	  690.00	  461.31	-1776.75	  355.72
      2.7700	  635.00	  463.15	-1776.75	  357.55
      2.8700	  640.00	  464.96	-1776.75	  359.37
      2.9700	  599.00	  466.76	-1776.75	  361.16
      3.0700	  630.00	  468.53	-1776.75	  362.94
      3.1700	  606.00	  470.29	-1776.75	  364.69
      3.2700	  608.00	  472.02	-1776.75	  366.43
      3.3700	  777.00	  473.74	-1776.75	  368.14
      3.4700	  931.00	  475.43	-1776.75	  369.84
      3.5700	 1018.00	  477.11	-1776.75	  371.51
      3.6700	 1135.00	  478.76	-1776.75	  373.17
      3.7700	 1120.00	  480.40	-1776.75	  374.81
      3.8700	 1220.00	  482.02	-1776.75	  376.42
      3.9700	 1257.00	  483.62	-1776.75	  378.02
      4.0700	 1352.00	  485.19	-1776.75	  379.60
      4.1700	 1326.00	  486.75	-1776.75	  381.16
      4.2700	 1395.00	  488.30	-1776.75	  382.70
      4.3700	 1361.00	  489.82	-1776.75	  384.23
      4.4700	 1348.00	  491.32	-1776.75	  385.73
      4.5700	 1191.00	  492.81	-1776.75	  387.22
      4.6700	 1216.00	  494.28	-1776.75	  388.68
      4.7700	 1140.00	  495.73	-1776.75	  390.13
      4.8700	 1144.00	  497.16	-1776.75	  391.57
      4.9700	 1120.00	  498.57	-1776.75	  392.98
      5.0700	 1073.00	  499.97	-1776.75	  394.38
      5.1700	 1034.00	  501.35	-1776.75	  395.75
      5.2700	 1024.00	  502.71	-1776.75	  397.11
      5.3700	 1076.00	  504.05	-1776.75	  398.46
      5.4700	 1012.00	  505.38	-1776.75	  399.78
      5.5700	  991.00	  506.69	-1776.75	  401.09
      5.6700	  946.00	  507.98	-1776.75	  402.38
      5.7700	  866.00	  509.25	-1776.75	  403.66
      5.8700	  871.00	  510.51	-1776.75	  404.92
      5.9700	  863.00	  511.75	-1776.75	  406.16
      6.0700	  802.00	  512.97	-1776.75	  407.38
      6.1700	  954.00	  514.18	-1776.75	  408.59
      6.2700	  846.00	  515.37	-1776.75	  409.78
      6.3700	  851.00	  516.55	-1776.75	  410.96
      6.4700	  766.00	  517.71	-1776.75	  412.11
      6.5700	  821.00	  518.85	-1776.75	  413.26
      6.6700	  787.00	  519.98	-1776.75	  414.38
      6.7700	  780.00	  521.09	-1776.75	  415.49
      6.8700	  804.00	  522.18	-1776.75	  416.59
      6.9700	  711.00	  523.26	-1776.75	  417.67
      7.0700	  778.00	  524.33	-1776.75	  418.73
      7.1700	  747.00	  525.37	-1776.75	  419.78
      7.2700	  699.00	  526.41	-1776.75	  420.81
      7.3700	  686.00	  527.42	-1776.75	  421.83
      7.4700	  703.00	  528.43	-1776.75	  422.83
      7.5700	  725.00	  529.41	-1776.75	  423.82
      7.6700	  646.00	  530.39	-1776.75	  424.79
      7.7700	  689.00	  531.35	-1776.75	  425.75
      7.8700	  686.00	  532.29	-1776.75	  426.70
      7.9700	  671.00	  533.22	-1776.75	  427.62
      8.0700	  642.00	  534.13	-1776.75	  428.54
      8.1700	  633.00	  535.03	-1776.75	  429.44
      8.2700	  657.00	  535.92	-1776.75	  430.32
      8.3700	  624.00	  536.79	-1776.75	  431.19
      8.4700	  652.00	  537.64	-1776.75	  432.05
      8.5700	  640.00	  538.49	-1776.75	  432.89
      8.6700	  618.00	  539.32	-1776.75	  433.72
      8.7700	  611.00	  540.13	-1776.75	  434.54
      8.8700	  631.00	  540.93	-1776.75	  435.34
      8.9700	  631.00	  541.72	-1776.75	  436.13
      9.0700	  642.00	  542.50	-1776.75	  436.90
      9.1700	  633.00	  543.26	-1776.75	  437.67
      9.2700	  585.00	  544.01	-1776.75	  438.41
      9.3700	  592.00	  544.74	-1776.75	  439.15
      9.4700	  592.00	  545.46	-1776.75	  439.87
      9.5700	  595.00	  546.17	-1776.75	  440.58
      9.6700	  622.00	  546.87	-1776.75	  441.28
      9.7700	  633.00	  547.55	-1776.75	  441.96
      9.8700	  602.00	  548.22	-1776.75	  442.63
      9.9700	  628.00	  548.88	-1776.75	  443.29
     10.0700	  603.00	  551.59	-1725.34	  443.93
     10.1700	  615.00	  552.42	-1714.17	  444.57
     10.2700	  562.00	  553.27	-1768.02	  445.19
     10.3700	  603.00	  554.17	-1727.92	  445.80
     10.4700	  550.00	  555.15	-1781.90	  446.39
     10.5700	  594.00	  556.26	-1739.01	  446.98
     10.6700	  555.00	  557.57	-1779.32	  447.55
     10.7700	  592.00	  559.18	-1743.93	  448.11
     10.8700	  577.00	  561.17	-1760.92	  448.66
     10.9700	  586.00	  563.58	-1754.33	  449.20
     11.0700	  578.00	  566.42	-1765.17	  449.72
     11.1700	  561.00	  569.69	-1785.44	  450.24
     11.2700	  587.00	  573.42	-1763.17	  450.74
     11.3700	  592.00	  577.69	-1762.44	  451.23
     11.4700	  578.00	  582.62	-1781.37	  451.71
     11.5700	  581.00	  588.40	-1784.15	  452.18
     11.6700	  587.00	  595.34	-1785.09	  452.64
     11.7700	  582.00	  603.80	-1798.55	  453.09
     11.8700	  600.00	  614.12	-1790.87	  453.52
     11.9700	  649.00	  626.12	-1753.87	  453.95
     12.0700	  704.00	  638.49	-1711.24	  454.37
     12.1700	  679.00	  648.02	-1745.77	  454.77
     12.2700	  655.00	  649.50	-1771.25	  455.17
     12.3700	  698.00	  639.01	-1717.76	  455.55
     12.4700	  634.00	  620.49	-1763.24	  455.92
     12.5700	  618.00	  602.31	-1761.06	  456.29
     12.6700	  590.00	  588.73	-1775.48	  456.64
     12.7700	  585.00	  580.04	-1771.79	  456.98
     12.8700	  592.00	  575.00	-1759.75	  457.32
     12.9700	  559.00	  572.19	-1789.94	  457.64
     13.0700	  578.00	  570.61	-1769.36	  457.95
     13.1700	  587.00	  569.65	-1759.40	  458.26
     13.2700	  561.00	  569.05	-1784.80	  458.55
     13.3700	  592.00	  568.65	-1753.40	  458.84
     13.4700	  506.00	  568.39	-1839.14	  459.11
     13.5700	  582.00	  568.24	-1762.99	  459.38
     13.6700	  541.00	  568.15	-1803.90	  459.64
     13.7700	  594.00	  568.15	-1750.90	  459.88
     13.8700	  604.00	  568.16	-1740.91	  460.12
     13.9700	  585.00	  568.19	-1759.94	  460.35
     14.0700	  538.00	  568.24	-1806.99	  460.57
     14.1700	  560.00	  568.31	-1785.06	  460.78
     14.2700	  532.00	  568.40	-1813.15	  460.99
     14.3700	  548.00	  568.48	-1797.23	  461.18
     14.4700	  533.00	  568.58	-1812.33	  461.37
     14.5700	  545.00	  568.67	-1800.42	  461.54
     14.6700	  544.00	  568.77	-1801.52	  461.71
     14.7700	  529.00	  568.87	-1816.62	  461.87
     14.8700	  523.00	  568.96	-1822.71	  462.02
     14.9700	  626.00	  569.06	-1719.81	  462.17
     15.0700	  547.00	  569.15	-1798.90	  462.30
     15.1700	  622.00	  569.24	-1723.99	  462.43
     15.2700	  516.00	  569.32	-1830.07	  462.55
     15.3700	  526.00	  569.40	-1820.15	  462.66
     15.4700	  566.00	  569.47	-1780.22	  462.77
     15.5700	  529.00	  569.54	-1817.29	  462.86
     15.6700	  583.00	  569.60	-1763.35	  462.95
     15.7700	  551.00	  569.66	-1795.41	  463.03
     15.8700	  547.00	  569.71	-1799.46	  463.10
     15.9700	  575.00	  569.76	-1771.51	  463.17
     16.0700	  537.00	  569.80	-1809.55	  463.23
     16.1700	  571.00	  569.84	-1775.59	  463.28
     16.2700	  526.00	  569.87	-1820.62	  463.32
     16.3700	  562.00	  569.89	-1784.64	  463.36
     16.4700	  564.00	  569.91	-1782.66	  463.39
     16.5700	  535.00	  569.92	-1811.67	  463.41
     16.6700	  566.00	  569.92	-1780.67	  463.42
     16.7700	  590.00	  569.92	-1756.67	  463.43
     16.8700	  569.00	  569.91	-1777.66	  463.43
     16.9700	  547.00	  569.90	-1799.65	  463.43
     17.0700	  541.00	  569.88	-1805.63	  463.42
     17.1700	  567.00	  569.86	-1779.61	  463.40
     17.2700	  576.00	  569.83	-1770.58	  463.37
     17.3700	  518.00	  569.90	-1828.65	  463.34
     17.4700	  527.00	  569.86	-1819.61	  463.31
     17.5700	  570.00	  569.81	-1776.56	  463.26
     17.6700	  529.00	  569.76	-1817.51	  463.21
     17.7700	  565.00	  569.71	-1781.46	  463.15
     17.8700	  541.00	  569.75	-1805.50	  463.09
     17.9700	  558.00	  569.68	-1788.43	  463.02
     18.0700	  548.00	  569.61	-1798.36	  462.95
     18.1700	  567.00	  569.53	-1779.28	  462.87
     18.2700	  557.00	  569.45	-1789.20	  462.78
     18.3700	  540.00	  569.36	-1806.11	  462.69
     18.4700	  576.00	  569.27	-1770.02	  462.59
     18.5700	  535.00	  569.17	-1810.92	  462.49
     18.6700	  533.00	  569.06	-1812.81	  462.38
     18.7700	  552.00	  568.95	-1793.70	  462.26
     18.8700	  581.00	  568.84	-1764.59	  462.14
     18.9700	  544.00	  568.72	-1801.47	  462.02
     19.0700	  558.00	  568.60	-1787.35	  461.89
     19.1700	  568.00	  568.47	-1777.22	  461.75
     19.2700	  560.00	  568.34	-1785.09	  461.61
     19.3700	  561.00	  568.20	-1783.95	  461.46
     19.4700	  586.00	  568.10	-1758.85	  461.31
     19.5700	  520.00	  567.95	-1824.70	  461.15
     19.6700	  550.00	  567.80	-1794.55	  460.99
     19.7700	  597.00	  567.65	-1747.40	  460.83
     19.8700	  530.00	  567.49	-1814.24	  460.66
     19.9700	  606.00	  567.33	-1738.08	  460.48
     20.0700	  546.00	  567.16	-1797.91	  460.30
     20.1700	  547.00	  566.99	-1796.74	  460.11
     20.2700	  588.00	  566.82	-1755.57	  459.92
     20.3700	  560.00	  566.64	-1783.39	  459.73
     20.4700	  523.00	  566.46	-1820.21	  459.53
     20.5700	  506.00	  566.27	-1837.02	  459.33
     20.6700	  535.00	  566.09	-1807.84	  459.12
     20.7700	  573.00	  565.90	-1769.65	  458.91
     20.8700	  542.00	  565.70	-1800.45	  458.69
     20.9700	  535.00	  565.51	-1807.26	  458.47
     21.0700	  538.00	  565.31	-1804.06	  458.24
     21.1700	  533.00	  565.11	-1808.86	  458.02
     21.2700	  580.00	  564.91	-1761.66	  457.78
     21.3700	  542.00	  564.70	-1799.45	  457.55
     21.4700	  551.00	  564.49	-1790.24	  457.31
     21.5700	  555.00	  564.29	-1786.04	  457.06
     21.6700	  571.00	  564.08	-1769.83	  456.81
     21.7700	  550.00	  563.87	-1790.62	  456.56
     21.8700	  613.00	  563.66	-1727.41	  456.31
     21.9700	  582.00	  563.45	-1758.20	  456.05
     22.0700	  560.00	  563.40	-1780.15	  455.78
     22.1700	  555.00	  563.19	-1784.94	  455.52
     22.2700	  511.00	  562.99	-1828.74	  455.25
     22.3700	  545.00	  562.79	-1794.54	  454.98
     22.4700	  528.00	  562.59	-1811.34	  454.70
     22.5700	  607.00	  562.40	-1732.15	  454.42
     22.6700	  607.00	  562.22	-1731.97	  454.14
     22.7700	  612.00	  562.04	-1726.79	  453.85
     22.8700	  564.00	  561.88	-1774.63	  453.56
     22.9700	  537.00	  561.73	-1801.48	  453.27
     23.0700	  548.00	  561.59	-1790.34	  452.97
     23.1700	  563.00	  561.44	-1775.19	  452.68
     23.2700	  536.00	  561.35	-1802.10	  452.37
     23.3700	  531.00	  561.30	-1807.05	  452.07
     23.4700	  526.00	  561.30	-1812.05	  451.76
     23.5700	  584.00	  561.37	-1754.12	  451.45
     23.6700	  555.00	  561.52	-1783.27	  451.14
     23.7700	  553.00	  561.81	-1785.56	  450.83
     23.8700	  515.00	  562.32	-1824.07	  450.51
     23.9700	  552.00	  563.18	-1787.93	  450.19
     24.0700	  592.00	  564.64	-1749.39	  449.87
     24.1700	  627.00	  567.08	-1716.83	  449.54
     24.2700	  550.00	  571.00	-1797.75	  449.21
     24.3700	  620.00	  576.98	-1733.73	  448.88
     24.4700	  580.00	  585.45	-1782.20	  448.55
     24.5700	  692.00	  596.36	-1681.11	  448.21
     24.6700	  607.00	  608.79	-1778.54	  447.88
     24.7700	  687.00	  620.28	-1710.03	  447.54
     24.8700	  652.00	  626.52	-1751.27	  447.20
     24.9700	  685.00	  622.95	-1714.70	  446.85
     25.0700	  630.00	  610.09	-1756.84	  446.51
     25.1700	  581.00	  594.40	-1790.15	  446.16
     25.2700	  586.00	  581.09	-1771.84	  445.81
     25.3700	  597.00	  571.67	-1751.42	  445.46
     25.4700	  575.00	  565.71	-1767.46	  445.11
     25.5700	  621.00	  562.15	-1717.90	  444.75
     25.6700	  574.00	  560.02	-1762.77	  444.39
     25.7700	  584.00	  558.66	-1751.41	  444.03
     25.8700	  560.00	  557.73	-1774.48	  443.67
     25.9700	  579.00	  557.05	-1754.80	  443.31
     26.0700	  579.00	  556.56	-1754.31	  442.95
     26.1700	  531.00	  556.21	-1801.96	  442.58
     26.2700	  578.00	  555.98	-1754.73	  442.21
     26.3700	  550.00	  555.87	-1782.62	  441.85
     26.4700	  623.00	  555.88	-1709.63	  441.48
     26.5700	  623.00	  556.00	-1709.75	  441.10
     26.6700	  593.00	  556.26	-1740.01	  440.73
     26.7700	  634.00	  556.68	-1699.43	  440.36
     26.8700	  559.00	  557.29	-1775.04	  439.98
     26.9700	  589.00	  558.14	-1745.89	  439.61
     27.0700	  591.00	  559.29	-1745.04	  439.23
     27.1700	  588.00	  560.87	-1749.62	  438.85
     27.2700	  617.00	  563.06	-1722.81	  438.47
     27.3700	  561.00	  566.23	-1781.98	  438.09
     27.4700	  608.00	  571.06	-1739.81	  437.71
     27.5700	  634.00	  578.77	-1721.52	  437.32
     27.6700	  599.00	  591.36	-1769.11	  436.94
     27.7700	  590.00	  611.66	-1798.41	  436.55
     27.8700	  638.00	  642.75	-1781.50	  436.17
     27.9700	  671.00	  686.30	-1792.05	  435.78
     28.0700	  759.00	  740.40	-1758.15	  435.39
     28.1700	  847.00	  797.18	-1726.93	  435.00
     28.2700	  952.00	  841.36	-1666.11	  434.61
     28.3700	  912.00	  854.02	-1718.77	  434.22
     28.4700	  901.00	  831.43	-1707.18	  433.83
     28.5700	  776.00	  798.49	-1799.24	  433.44
     28.6700	  750.00	  782.03	-1808.78	  433.05
     28.7700	  728.00	  790.13	-1838.88	  432.66
     28.8700	  799.00	  814.49	-1792.24	  432.26
     28.9700	  860.00	  835.29	-1752.04	  431.87
     29.0700	  842.00	  828.34	-1763.09	  431.47
     29.1700	  797.00	  784.38	-1764.13	  431.08
     29.2700	  732.00	  722.05	-1766.80	  430.68
     29.3700	  646.00	  664.62	-1795.37	  430.29
     29.4700	  599.00	  621.93	-1799.68	  429.89
     29.5700	  630.00	  594.16	-1740.91	  429.50
     29.6700	  655.00	  577.57	-1699.32	  429.10
     29.7700	  609.00	  567.95	-1735.70	  428.70
     29.8700	  583.00	  562.22	-1755.97	  428.31
     29.9700	  588.00	  558.64	-1747.39	  427.91
     30.0700	  579.00	  556.45	-1754.20	  427.51
     30.1700	  603.00	  555.42	-1729.17	  427.12
     30.2700	  604.00	  555.74	-1728.49	  426.72
     30.3700	  598.00	  557.95	-1736.70	  426.32
     30.4700	  639.00	  562.94	-1700.69	  425.92
     30.5700	  596.00	  571.80	-1752.55	  425.53
     30.6700	  596.00	  585.27	-1766.02	  425.13
     30.7700	  647.00	  602.74	-1732.49	  424.73
     30.8700	  620.00	  621.44	-1778.19	  424.33
     30.9700	  640.00	  635.85	-1772.60	  423.94
     31.0700	  635.00	  638.70	-1780.45	  423.54
     31.1700	  614.00	  626.40	-1789.15	  423.14
     31.2700	  606.00	  604.90	-1775.65	  422.75
     31.3700	  596.00	  583.30	-1764.05	  422.35
     31.4700	  609.00	  566.33	-1734.08	  421.95
     31.5700	  590.00	  554.77	-1741.52	  421.56
     31.6700	  593.00	  547.62	-1731.37	  421.16
     31.7700	  552.00	  543.39	-1768.14	  420.77
     31.8700	  576.00	  540.86	-1741.61	  420.37
     31.9700	  580.00	  539.25	-1736.00	  419.98
     32.0700	  558.00	  538.16	-1756.91	  419.59
     32.1700	  596.00	  537.41	-1718.16	  419.19
     32.2700	  555.00	  536.93	-1758.68	  418.80
     32.3700	  549.00	  536.69	-1764.44	  418.41
     32.4700	  529.00	  536.66	-1784.41	  418.02
     32.5700	  537.00	  536.87	-1776.62	  417.62
     32.6700	  536.00	  537.33	-1778.08	  417.23
     32.7700	  541.00	  538.11	-1773.86	  416.84
     32.8700	  578.00	  539.25	-1738.00	  416.45
     32.9700	  579.00	  540.89	-1738.64	  416.07
     33.0700	  560.00	  543.22	-1759.97	  415.68
     33.1700	  585.00	  546.64	-1738.39	  415.29
     33.2700	  540.00	  551.81	-1788.56	  414.90
     33.3700	  551.00	  560.15	-1785.90	  414.52
     33.4700	  552.00	  574.08	-1798.83	  414.13
     33.5700	  573.00	  597.41	-1801.16	  413.75
     33.6700	  648.00	  634.84	-1763.59	  413.37
     33.7700	  666.00	  690.27	-1801.02	  412.98
     33.8700	  756.00	  763.13	-1783.88	  412.60
     33.9700	  946.00	  844.33	-1675.08	  412.22
     34.0700	  949.00	  913.78	-1741.53	  411.84
     34.1700	  995.00	  942.93	-1724.68	  411.46
     34.2700	  955.00	  911.87	-1733.62	  411.09
     34.3700	  900.00	  834.72	-1711.47	  410.71
     34.4700	  776.00	  746.79	-1747.54	  410.33
     34.5700	  691.00	  672.06	-1757.81	  409.96
     34.6700	  652.00	  618.04	-1742.79	  409.59
     34.7700	  568.00	  583.08	-1791.82	  409.21
     34.8700	  596.00	  561.96	-1742.71	  408.84
     34.9700	  550.00	  549.42	-1776.17	  408.47
     35.0700	  540.00	  541.62	-1778.37	  408.10
     35.1700	  537.00	  536.35	-1776.10	  407.73
     35.2700	  499.00	  532.47	-1810.22	  407.37
     35.3700	  543.00	  529.92	-1763.67	  407.00
     35.4700	  489.00	  527.46	-1815.21	  406.64
     35.5700	  510.00	  525.42	-1792.17	  406.27
     35.6700	  523.00	  523.70	-1777.45	  405.91
     35.7700	  515.00	  522.22	-1783.97	  405.55
     35.8700	  484.00	  520.92	-1813.67	  405.19
     35.9700	  502.00	  519.79	-1794.54	  404.84
     36.0700	  544.00	  518.78	-1751.53	  404.48
     36.1700	  535.00	  517.87	-1759.62	  404.12
     36.2700	  531.00	  517.03	-1762.78	  403.77
     36.3700	  542.00	  516.29	-1751.04	  403.42
     36.4700	  496.00	  515.62	-1796.37	  403.07
     36.5700	  501.00	  515.02	-1790.77	  402.72
     36.6700	  517.00	  514.48	-1774.23	  402.37
     36.7700	  514.00	  514.02	-1776.77	  402.02
     36.8700	  453.00	  513.63	-1837.38	  401.68
     36.9700	  486.00	  513.37	-1804.12	  401.33
     37.0700	  497.00	  513.29	-1793.04	  400.99
     37.1700	  514.00	  513.51	-1776.26	  400.65
     37.2700	  506.00	  514.19	-1784.94	  400.31
     37.3700	  509.00	  515.52	-1783.27	  399.97
     37.4700	  511.00	  517.81	-1783.56	  399.64
     37.5700	  527.00	  520.64	-1770.39	  399.30
     37.6700	  553.00	  523.75	-1747.50	  398.97
     37.7700	  553.00	  526.28	-1750.03	  398.64
     37.8700	  562.00	  527.10	-1741.85	  398.31
     37.9700	  557.00	  525.56	-1745.31	  397.98
     38.0700	  520.00	  522.27	-1779.02	  397.65
     38.1700	  487.00	  518.46	-1808.21	  397.33
     38.2700	  552.00	  514.92	-1739.67	  397.00
     38.3700	  534.00	  511.99	-1754.74	  396.68
     38.4700	  473.00	  509.79	-1813.54	  396.36
     38.5700	  518.00	  508.20	-1766.95	  396.04
     38.6700	  494.00	  507.07	-1789.82	  395.73
     38.7700	  465.00	  506.24	-1817.99	  395.41
     38.8700	  510.00	  505.60	-1772.35	  395.10
     38.9700	  477.00	  505.07	-1804.82	  394.79
     39.0700	  470.00	  504.60	-1811.35	  394.48
     39.1700	  498.00	  504.18	-1782.93	  394.17
     39.2700	  489.00	  503.80	-1791.55	  393.87
     39.3700	  452.00	  503.33	-1828.08	  393.56
     39.4700	  453.00	  502.99	-1826.74	  393.26
     39.5700	  463.00	  502.66	-1816.41	  392.96
     39.6700	  504.00	  502.36	-1775.11	  392.66
     39.7700	  493.00	  502.07	-1785.82	  392.36
     39.8700	  479.00	  501.79	-1799.54	  392.07
     39.9700	  497.00	  501.53	-1781.28	  391.78
     40.0700	  533.00	  501.28	-1745.03	  391.49
     40.1700	  437.00	  501.58	-1841.33	  391.20
     40.2700	  496.00	  501.36	-1782.11	  390.91
     40.3700	  519.00	  501.06	-1758.81	  390.62
     40.4700	  505.00	  500.88	-1772.63	  390.34
     40.5700	  481.00	  500.72	-1796.47	  390.06
     40.6700	  496.00	  500.62	-1781.37	  389.78
     40.7700	  491.00	  500.51	-1786.26	  389.50
