MSG Master    CELL:    5.91916   5.91916  23.27571   90.0000   90.0000  120.0000   SPGR: P 63/m m c             TEMP:   1074.85
  1   1280     2.52000     0.00000    -0.12352     0.00000     0.00000    0
    99     0     2
       0.00000      10.00000
     125.00000     130.00000
 2Theta	Yobs	Ycal	Yobs-Ycal	Backg	Posr	(hkl)	K
      0.7700	    0.00	  534.75	-1755.25	  417.27
      0.8700	    0.00	  535.65	-1755.25	  418.17
      0.9700	   36.00	  536.53	-1755.25	  419.05
      1.0700	   34.00	  537.41	-1755.25	  419.93
      1.1700	   41.00	  538.27	-1755.25	  420.79
      1.2700	   45.00	  539.11	-1755.25	  421.63
      1.3700	   50.00	  539.95	-1755.25	  422.47
      1.4700	  103.00	  540.77	-1755.25	  423.29
      1.5700	  310.00	  541.58	-1755.25	  424.10
      1.6700	  473.00	  542.38	-1755.25	  424.90
      1.7700	  570.00	  543.17	-1755.25	  425.69
      1.8700	  642.00	  543.94	-1755.25	  426.47
      1.9700	  703.00	  544.71	-1755.25	  427.23
      2.0700	  771.00	  545.46	-1755.25	  427.98
      2.1700	  826.00	  546.20	-1755.25	  428.72
      2.2700	  792.00	  546.93	-1755.25	  429.45
      2.3700	  746.00	  547.65	-1755.25	  430.17
      2.4700	  725.00	  548.35	-1755.25	  430.87
      2.5700	  711.00	  549.05	-1755.25	  431.57
      2.6700	  696.00	  549.73	-1755.25	  432.25
      2.7700	  689.00	  550.40	-1755.25	  432.92
      2.8700	  627.00	  551.06	-1755.25	  433.58
      2.9700	  655.00	  551.71	-1755.25	  434.23
      3.0700	  620.00	  552.35	-1755.25	  434.87
      3.1700	  581.00	  552.98	-1755.25	  435.50
      3.2700	  579.00	  553.60	-1755.25	  436.12
      3.3700	  655.00	  554.21	-1755.25	  436.73
      3.4700	  739.00	  554.80	-1755.25	  437.32
      3.5700	  862.00	  555.39	-1755.25	  437.91
      3.6700	  894.00	  555.97	-1755.25	  438.49
      3.7700	  937.00	  556.53	-1755.25	  439.05
      3.8700	 1006.00	  557.09	-1755.25	  439.61
      3.9700	  980.00	  557.63	-1755.25	  440.15
      4.0700	 1037.00	  558.17	-1755.25	  440.69
      4.1700	 1002.00	  558.69	-1755.25	  441.21
      4.2700	 1093.00	  559.20	-1755.25	  441.73
      4.3700	 1027.00	  559.71	-1755.25	  442.23
      4.4700	 1083.00	  560.20	-1755.25	  442.72
      4.5700	 1019.00	  560.69	-1755.25	  443.21
      4.6700	 1024.00	  561.17	-1755.25	  443.69
      4.7700	  963.00	  561.63	-1755.25	  444.15
      4.8700	 1025.00	  562.09	-1755.25	  444.61
      4.9700	  943.00	  562.53	-1755.25	  445.05
      5.0700	  915.00	  562.97	-1755.25	  445.49
      5.1700	  911.00	  563.40	-1755.25	  445.92
      5.2700	  928.00	  563.82	-1755.25	  446.34
      5.3700	  874.00	  564.23	-1755.25	  446.75
      5.4700	  919.00	  564.63	-1755.25	  447.15
      5.5700	  849.00	  565.02	-1755.25	  447.54
      5.6700	  874.00	  565.40	-1755.25	  447.92
      5.7700	  836.00	  565.78	-1755.25	  448.30
      5.8700	  813.00	  566.14	-1755.25	  448.66
      5.9700	  805.00	  566.50	-1755.25	  449.02
      6.0700	  784.00	  566.85	-1755.25	  449.37
      6.1700	  746.00	  567.18	-1755.25	  449.71
      6.2700	  734.00	  567.52	-1755.25	  450.04
      6.3700	  770.00	  567.84	-1755.25	  450.36
      6.4700	  756.00	  568.15	-1755.25	  450.67
      6.5700	  744.00	  568.46	-1755.25	  450.98
      6.6700	  734.00	  568.75	-1755.25	  451.27
      6.7700	  737.00	  569.04	-1755.25	  451.56
      6.8700	  725.00	  569.32	-1755.25	  451.84
      6.9700	  725.00	  569.59	-1755.25	  452.11
      7.0700	  719.00	  569.86	-1755.25	  452.38
      7.1700	  722.00	  570.11	-1755.25	  452.63
      7.2700	  668.00	  570.36	-1755.25	  452.88
      7.3700	  700.00	  570.60	-1755.25	  453.12
      7.4700	  659.00	  570.84	-1755.25	  453.36
      7.5700	  666.00	  571.06	-1755.25	  453.58
      7.6700	  664.00	  571.28	-1755.25	  453.80
      7.7700	  680.00	  571.49	-1755.25	  454.01
      7.8700	  645.00	  571.69	-1755.25	  454.21
      7.9700	  652.00	  571.89	-1755.25	  454.41
      8.0700	  646.00	  572.08	-1755.25	  454.60
      8.1700	  642.00	  572.26	-1755.25	  454.78
      8.2700	  588.00	  572.43	-1755.25	  454.95
      8.3700	  618.00	  572.60	-1755.25	  455.12
      8.4700	  608.00	  572.75	-1755.25	  455.28
      8.5700	  600.00	  572.91	-1755.25	  455.43
      8.6700	  620.00	  573.05	-1755.25	  455.57
      8.7700	  602.00	  573.19	-1755.25	  455.71
      8.8700	  632.00	  573.32	-1755.25	  455.84
      8.9700	  639.00	  573.45	-1755.25	  455.97
      9.0700	  611.00	  573.56	-1755.25	  456.08
      9.1700	  597.00	  573.67	-1755.25	  456.19
      9.2700	  591.00	  573.78	-1755.25	  456.30
      9.3700	  592.00	  573.88	-1755.25	  456.40
      9.4700	  620.00	  573.97	-1755.25	  456.49
      9.5700	  566.00	  574.05	-1755.25	  456.57
      9.6700	  648.00	  574.13	-1755.25	  456.65
      9.7700	  558.00	  574.20	-1755.25	  456.72
      9.8700	  616.00	  574.27	-1755.25	  456.79
      9.9700	  602.00	  574.33	-1755.25	  456.85
     10.0700	  597.00	  575.16	-1733.41	  456.90
     10.1700	  584.00	  575.29	-1746.54	  456.95
     10.2700	  578.00	  575.43	-1752.68	  456.99
     10.3700	  609.00	  575.60	-1721.85	  457.03
     10.4700	  608.00	  575.81	-1723.06	  457.06
     10.5700	  610.00	  576.14	-1721.39	  457.08
     10.6700	  595.00	  576.66	-1736.91	  457.10
     10.7700	  588.00	  577.50	-1744.75	  457.11
     10.8700	  585.00	  578.73	-1748.98	  457.12
     10.9700	  560.00	  580.33	-1775.58	  457.12
     11.0700	  603.00	  582.28	-1734.53	  457.12
     11.1700	  561.00	  584.56	-1778.81	  457.11
     11.2700	  552.00	  587.20	-1790.45	  457.09
     11.3700	  596.00	  590.30	-1749.55	  457.07
     11.4700	  584.00	  593.97	-1765.22	  457.04
     11.5700	  557.00	  598.42	-1796.67	  457.01
     11.6700	  583.00	  603.99	-1776.24	  456.97
     11.7700	  714.00	  611.28	-1652.53	  456.93
     11.8700	  670.00	  621.24	-1706.49	  456.89
     11.9700	  654.00	  634.58	-1735.83	  456.83
     12.0700	  717.00	  649.81	-1688.06	  456.78
     12.1700	  718.00	  660.79	-1698.04	  456.71
     12.2700	  673.00	  657.62	-1739.87	  456.65
     12.3700	  616.00	  637.18	-1776.43	  456.58
     12.4700	  658.00	  612.08	-1709.33	  456.50
     12.5700	  631.00	  593.80	-1718.05	  456.42
     12.6700	  550.00	  583.98	-1789.23	  456.33
     12.7700	  575.00	  579.61	-1759.86	  456.24
     12.8700	  594.00	  577.67	-1738.92	  456.14
     12.9700	  556.00	  576.62	-1775.87	  456.04
     13.0700	  588.00	  575.91	-1743.16	  455.94
     13.1700	  551.00	  575.37	-1779.62	  455.83
     13.2700	  565.00	  574.94	-1765.19	  455.72
     13.3700	  591.00	  574.58	-1738.83	  455.60
     13.4700	  555.00	  574.26	-1774.51	  455.48
     13.5700	  521.00	  573.98	-1808.23	  455.35
     13.6700	  530.00	  573.73	-1798.98	  455.22
     13.7700	  571.00	  573.49	-1757.74	  455.09
     13.8700	  537.00	  573.27	-1791.52	  454.95
     13.9700	  560.00	  573.05	-1768.30	  454.81
     14.0700	  563.00	  572.84	-1765.09	  454.66
     14.1700	  572.00	  572.64	-1755.89	  454.51
     14.2700	  545.00	  572.44	-1782.69	  454.35
     14.3700	  535.00	  572.24	-1792.49	  454.20
     14.4700	  557.00	  572.05	-1770.30	  454.03
     14.5700	  595.00	  571.85	-1732.10	  453.87
     14.6700	  561.00	  571.65	-1765.90	  453.70
     14.7700	  562.00	  571.46	-1764.71	  453.52
     14.8700	  600.00	  571.26	-1726.51	  453.35
     14.9700	  550.00	  571.06	-1776.31	  453.17
     15.0700	  555.00	  570.86	-1771.11	  452.98
     15.1700	  579.00	  570.65	-1746.90	  452.79
     15.2700	  581.00	  570.45	-1744.70	  452.60
     15.3700	  534.00	  570.24	-1791.49	  452.41
     15.4700	  556.00	  570.03	-1769.28	  452.21
     15.5700	  529.00	  569.82	-1796.07	  452.01
     15.6700	  548.00	  569.61	-1776.86	  451.81
     15.7700	  520.00	  569.39	-1804.64	  451.60
     15.8700	  569.00	  569.17	-1755.42	  451.39
     15.9700	  566.00	  568.95	-1758.20	  451.17
     16.0700	  570.00	  568.73	-1753.98	  450.96
     16.1700	  601.00	  568.50	-1722.75	  450.74
     16.2700	  519.00	  568.30	-1804.55	  450.51
     16.3700	  584.00	  568.07	-1739.32	  450.29
     16.4700	  543.00	  567.83	-1780.08	  450.06
     16.5700	  522.00	  567.60	-1800.85	  449.83
     16.6700	  533.00	  567.36	-1789.61	  449.59
     16.7700	  579.00	  567.12	-1743.37	  449.36
     16.8700	  601.00	  566.87	-1721.12	  449.12
     16.9700	  579.00	  566.63	-1742.88	  448.87
     17.0700	  589.00	  566.38	-1732.63	  448.63
     17.1700	  577.00	  566.13	-1744.38	  448.38
     17.2700	  589.00	  565.88	-1732.13	  448.13
     17.3700	  523.00	  565.62	-1797.87	  447.88
     17.4700	  540.00	  565.37	-1780.62	  447.62
     17.5700	  604.00	  565.11	-1716.36	  447.36
     17.6700	  575.00	  564.84	-1745.09	  447.10
     17.7700	  570.00	  564.58	-1749.83	  446.84
     17.8700	  570.00	  564.31	-1749.56	  446.57
     17.9700	  531.00	  564.05	-1788.30	  446.31
     18.0700	  578.00	  563.88	-1741.13	  446.04
     18.1700	  599.00	  563.61	-1719.86	  445.76
     18.2700	  567.00	  563.33	-1751.58	  445.49
     18.3700	  530.00	  563.06	-1788.31	  445.21
     18.4700	  544.00	  562.78	-1774.03	  444.94
     18.5700	  577.00	  562.51	-1740.76	  444.66
     18.6700	  561.00	  562.23	-1756.48	  444.37
     18.7700	  609.00	  561.94	-1708.19	  444.09
     18.8700	  565.00	  561.66	-1751.91	  443.80
     18.9700	  528.00	  561.46	-1788.71	  443.51
     19.0700	  545.00	  561.18	-1771.43	  443.22
     19.1700	  564.00	  560.89	-1752.14	  442.93
     19.2700	  562.00	  560.60	-1753.85	  442.64
     19.3700	  576.00	  560.31	-1739.56	  442.34
     19.4700	  573.00	  560.02	-1742.27	  442.05
     19.5700	  542.00	  559.73	-1772.98	  441.75
     19.6700	  513.00	  559.44	-1801.69	  441.45
     19.7700	  559.00	  559.14	-1755.39	  441.14
     19.8700	  561.00	  558.85	-1753.10	  440.84
     19.9700	  556.00	  558.55	-1757.80	  440.54
     20.0700	  543.00	  558.25	-1770.50	  440.23
     20.1700	  533.00	  557.95	-1780.20	  439.92
     20.2700	  575.00	  557.65	-1737.90	  439.61
     20.3700	  523.00	  557.35	-1789.60	  439.30
     20.4700	  524.00	  557.05	-1788.30	  438.99
     20.5700	  536.00	  556.72	-1775.97	  438.67
     20.6700	  548.00	  556.42	-1763.67	  438.36
     20.7700	  576.00	  556.11	-1735.36	  438.04
     20.8700	  540.00	  555.81	-1771.06	  437.72
     20.9700	  558.00	  555.54	-1752.79	  437.41
     21.0700	  552.00	  555.24	-1758.49	  437.09
     21.1700	  556.00	  554.94	-1754.19	  436.76
     21.2700	  607.00	  554.63	-1702.88	  436.44
     21.3700	  564.00	  554.33	-1745.58	  436.12
     21.4700	  549.00	  554.03	-1760.28	  435.79
     21.5700	  540.00	  553.72	-1768.97	  435.47
     21.6700	  542.00	  553.42	-1766.67	  435.14
     21.7700	  582.00	  553.12	-1726.37	  434.82
     21.8700	  540.00	  552.82	-1768.07	  434.49
     21.9700	  579.00	  552.52	-1728.77	  434.16
     22.0700	  564.00	  552.22	-1743.47	  433.83
     22.1700	  539.00	  551.93	-1768.18	  433.50
     22.2700	  580.00	  551.64	-1726.89	  433.17
     22.3700	  521.00	  551.35	-1785.60	  432.83
     22.4700	  502.00	  551.06	-1804.31	  432.50
     22.5700	  564.00	  550.78	-1742.03	  432.17
     22.6700	  537.00	  550.50	-1768.75	  431.83
     22.7700	  588.00	  550.23	-1717.48	  431.50
     22.8700	  558.00	  549.96	-1747.21	  431.16
     22.9700	  558.00	  549.71	-1746.96	  430.83
     23.0700	  564.00	  549.47	-1740.72	  430.49
     23.1700	  524.00	  549.24	-1780.49	  430.15
     23.2700	  547.00	  549.03	-1757.28	  429.81
     23.3700	  562.00	  548.84	-1742.09	  429.48
     23.4700	  575.00	  548.68	-1728.93	  429.14
     23.5700	  567.00	  548.57	-1736.82	  428.80
     23.6700	  566.00	  548.52	-1737.77	  428.46
     23.7700	  546.00	  548.71	-1757.96	  428.12
     23.8700	  551.00	  548.96	-1753.21	  427.78
     23.9700	  484.00	  549.62	-1820.87	  427.44
     24.0700	  542.00	  551.10	-1764.35	  427.10
     24.1700	  569.00	  554.01	-1740.26	  426.76
     24.2700	  524.00	  559.17	-1790.42	  426.42
     24.3700	  583.00	  567.49	-1739.74	  426.07
     24.4700	  597.00	  579.97	-1738.22	  425.73
     24.5700	  592.00	  596.88	-1760.13	  425.39
     24.6700	  614.00	  615.59	-1756.84	  425.05
     24.7700	  625.00	  628.54	-1758.79	  424.71
     24.8700	  573.00	  625.55	-1807.80	  424.37
     24.9700	  599.00	  605.40	-1761.65	  424.02
     25.0700	  603.00	  581.09	-1733.34	  423.68
     25.1700	  574.00	  563.02	-1744.27	  423.34
     25.2700	  540.00	  552.92	-1768.17	  423.00
     25.3700	  560.00	  548.21	-1743.46	  422.66
     25.4700	  590.00	  546.08	-1711.33	  422.31
     25.5700	  568.00	  544.94	-1732.19	  421.97
     25.6700	  541.00	  544.18	-1758.43	  421.63
     25.7700	  586.00	  543.62	-1712.87	  421.29
     25.8700	  547.00	  543.19	-1751.44	  420.95
     25.9700	  552.00	  542.86	-1746.11	  420.61
     26.0700	  594.00	  542.61	-1703.86	  420.27
     26.1700	  530.00	  542.44	-1767.69	  419.92
     26.2700	  504.00	  542.33	-1793.58	  419.58
     26.3700	  534.00	  542.31	-1763.56	  419.24
     26.4700	  567.00	  542.36	-1730.61	  418.90
     26.5700	  531.00	  542.50	-1766.75	  418.57
     26.6700	  546.00	  542.76	-1752.01	  418.23
     26.7700	  538.00	  543.15	-1760.40	  417.89
     26.8700	  567.00	  543.71	-1731.96	  417.55
     26.9700	  596.00	  544.48	-1703.73	  417.21
     27.0700	  565.00	  545.55	-1735.80	  416.87
     27.1700	  571.00	  547.04	-1731.29	  416.54
     27.2700	  562.00	  549.20	-1742.45	  416.20
     27.3700	  594.00	  552.51	-1713.76	  415.87
     27.4700	  588.00	  557.92	-1725.17	  415.53
     27.5700	  602.00	  567.15	-1720.40	  415.20
     27.6700	  547.00	  582.92	-1791.17	  414.86
     27.7700	  534.00	  608.78	-1830.03	  414.53
     27.8700	  612.00	  647.86	-1791.11	  414.19
     27.9700	  675.00	  700.43	-1780.68	  413.86
     28.0700	  742.00	  760.66	-1773.91	  413.53
     28.1700	  891.00	  813.67	-1677.92	  413.20
     28.2700	  977.00	  836.82	-1615.07	  412.87
     28.3700	  893.00	  816.15	-1678.40	  412.54
     28.4700	  810.00	  772.27	-1717.52	  412.21
     28.5700	  709.00	  740.80	-1787.05	  411.88
     28.6700	  703.00	  738.49	-1790.74	  411.55
     28.7700	  766.00	  761.11	-1750.36	  411.23
     28.8700	  723.00	  789.15	-1821.40	  410.90
     28.9700	  753.00	  794.73	-1796.98	  410.58
     29.0700	  813.00	  759.48	-1701.73	  410.25
     29.1700	  727.00	  698.03	-1726.28	  409.93
     29.2700	  636.00	  638.92	-1758.17	  409.61
     29.3700	  576.00	  596.12	-1775.37	  409.28
     29.4700	  632.00	  570.25	-1693.50	  408.96
     29.5700	  577.00	  556.28	-1734.53	  408.64
     29.6700	  588.00	  548.93	-1716.18	  408.33
     29.7700	  611.00	  544.78	-1689.03	  408.01
     29.8700	  576.00	  542.20	-1721.45	  407.69
     29.9700	  573.00	  540.57	-1722.82	  407.38
     30.0700	  562.00	  539.73	-1732.98	  407.06
     30.1700	  572.00	  539.86	-1723.11	  406.75
     30.2700	  540.00	  541.49	-1756.74	  406.43
     30.3700	  537.00	  545.69	-1763.94	  406.12
     30.4700	  578.00	  554.11	-1731.36	  405.81
     30.5700	  580.00	  568.50	-1743.75	  405.50
     30.6700	  561.00	  589.43	-1783.68	  405.19
     30.7700	  613.00	  614.38	-1756.63	  404.89
     30.8700	  616.00	  636.37	-1775.62	  404.58
     30.9700	  625.00	  644.53	-1774.78	  404.27
     31.0700	  637.00	  631.21	-1749.46	  403.97
     31.1700	  543.00	  603.33	-1815.58	  403.67
     31.2700	  558.00	  575.07	-1772.32	  403.37
     31.3700	  522.00	  554.14	-1787.39	  403.07
     31.4700	  538.00	  541.41	-1758.66	  402.77
     31.5700	  560.00	  534.62	-1729.87	  402.47
     31.6700	  555.00	  531.13	-1731.38	  402.17
     31.7700	  554.00	  529.21	-1730.46	  401.88
     31.8700	  538.00	  527.99	-1745.24	  401.58
     31.9700	  510.00	  527.14	-1772.39	  401.29
     32.0700	  560.00	  526.53	-1721.78	  401.00
     32.1700	  563.00	  526.11	-1718.36	  400.71
     32.2700	  522.00	  525.84	-1759.09	  400.42
     32.3700	  531.00	  525.73	-1749.98	  400.13
     32.4700	  547.00	  525.77	-1734.02	  399.85
     32.5700	  539.00	  525.98	-1742.23	  399.56
     32.6700	  575.00	  526.39	-1706.64	  399.28
     32.7700	  522.00	  527.03	-1760.28	  398.99
     32.8700	  564.00	  527.98	-1719.23	  398.71
     32.9700	  562.00	  529.35	-1722.60	  398.43
     33.0700	  552.00	  531.35	-1734.60	  398.16
     33.1700	  569.00	  534.43	-1720.68	  397.88
     33.2700	  584.00	  539.61	-1710.86	  397.61
     33.3700	  573.00	  549.15	-1731.40	  397.33
     33.4700	  572.00	  567.42	-1750.67	  397.06
     33.5700	  583.00	  601.42	-1773.67	  396.79
     33.6700	  640.00	  659.34	-1774.59	  396.52
     33.7700	  745.00	  745.16	-1755.41	  396.25
     33.8700	  853.00	  849.90	-1752.15	  395.99
     33.9700	 1017.00	  945.75	-1684.00	  395.72
     34.0700	 1032.00	  989.45	-1712.70	  395.46
     34.1700	 1035.00	  948.27	-1668.52	  395.20
     34.2700	  844.00	  843.24	-1754.49	  394.94
     34.3700	  762.00	  729.24	-1722.49	  394.68
     34.4700	  622.00	  640.73	-1773.98	  394.42
     34.5700	  585.00	  585.07	-1755.32	  394.17
     34.6700	  578.00	  555.02	-1732.27	  393.91
     34.7700	  559.00	  539.99	-1736.24	  393.66
     34.8700	  531.00	  532.20	-1756.45	  393.41
     34.9700	  499.00	  527.56	-1783.81	  393.16
     35.0700	  547.00	  524.36	-1732.61	  392.92
     35.1700	  472.00	  521.95	-1805.20	  392.67
     35.2700	  515.00	  520.05	-1760.30	  392.43
     35.3700	  534.00	  518.50	-1739.75	  392.18
     35.4700	  501.00	  517.20	-1771.45	  391.94
     35.5700	  559.00	  516.11	-1712.36	  391.70
     35.6700	  517.00	  515.17	-1753.42	  391.47
     35.7700	  533.00	  514.34	-1736.59	  391.23
     35.8700	  551.00	  513.62	-1717.87	  391.00
     35.9700	  517.00	  512.98	-1751.23	  390.77
     36.0700	  558.00	  512.88	-1710.13	  390.53
     36.1700	  539.00	  512.36	-1728.61	  390.31
     36.2700	  511.00	  511.89	-1756.14	  390.08
     36.3700	  501.00	  511.47	-1765.72	  389.85
     36.4700	  562.00	  511.08	-1704.33	  389.63
     36.5700	  512.00	  510.73	-1753.98	  389.41
     36.6700	  495.00	  510.42	-1770.67	  389.19
     36.7700	  514.00	  510.16	-1751.41	  388.97
     36.8700	  496.00	  509.96	-1769.21	  388.75
     36.9700	  546.00	  509.88	-1719.13	  388.54
     37.0700	  551.00	  510.03	-1714.28	  388.32
     37.1700	  518.00	  510.65	-1747.90	  388.11
     37.2700	  507.00	  512.06	-1760.31	  387.90
     37.3700	  497.00	  514.63	-1772.88	  387.70
     37.4700	  497.00	  518.38	-1776.62	  387.49
     37.5700	  519.00	  522.71	-1758.96	  387.29
     37.6700	  530.00	  526.31	-1751.56	  387.08
     37.7700	  542.00	  527.66	-1740.91	  386.88
     37.8700	  487.00	  526.35	-1794.60	  386.68
     37.9700	  529.00	  523.49	-1749.74	  386.49
     38.0700	  506.00	  520.04	-1769.29	  386.29
     38.1700	  525.00	  516.34	-1746.59	  386.10
     38.2700	  513.00	  512.85	-1755.10	  385.91
     38.3700	  522.00	  510.03	-1743.28	  385.72
     38.4700	  493.00	  508.02	-1770.27	  385.53
     38.5700	  495.00	  506.72	-1766.97	  385.34
     38.6700	  512.00	  505.92	-1749.17	  385.16
     38.7700	  486.00	  505.31	-1774.56	  384.98
     38.8700	  501.00	  504.95	-1759.20	  384.80
     38.9700	  493.00	  504.66	-1766.91	  384.62
     39.0700	  454.00	  504.41	-1805.66	  384.44
     39.1700	  523.00	  504.18	-1736.43	  384.27
     39.2700	  510.00	  503.90	-1749.15	  384.09
     39.3700	  537.00	  503.71	-1721.96	  383.92
     39.4700	  528.00	  503.53	-1730.78	  383.75
     39.5700	  537.00	  503.37	-1721.62	  383.59
     39.6700	  517.00	  503.33	-1741.58	  383.42
     39.7700	  458.00	  503.19	-1800.44	  383.26
     39.8700	  469.00	  503.06	-1789.31	  383.10
     39.9700	  526.00	  502.93	-1732.18	  382.94
     40.0700	  485.00	  502.82	-1773.07	  382.78
     40.1700	  505.00	  502.71	-1752.96	  382.62
     40.2700	  490.00	  502.62	-1767.87	  382.47
     40.3700	  489.00	  502.54	-1768.79	  382.32
     40.4700	  494.00	  502.47	-1763.72	  382.16
     40.5700	  494.00	  502.42	-1763.67	  382.02
     40.6700	  524.00	  502.38	-1733.63	  381.87
     40.7700	  477.00	  502.37	-1780.62	  381.73
