MSG Master    CELL:    5.91959   5.91959  23.27305   90.0000   90.0000  120.0000   SPGR: P 63/m m c             TEMP:   1074.85
  1   1280     2.52000     0.00000    -0.12430     0.00000     0.00000    0
    99     0     2
       0.00000      10.00000
     125.00000     130.00000
 2Theta	Yobs	Ycal	Yobs-Ycal	Backg	Posr	(hkl)	K
      0.7700	    0.00	  544.45	-1748.25	  425.57
      0.8700	    0.00	  545.19	-1748.25	  426.31
      0.9700	   42.00	  545.92	-1748.25	  427.04
      1.0700	   48.00	  546.64	-1748.25	  427.76
      1.1700	   36.00	  547.34	-1748.25	  428.47
      1.2700	   42.00	  548.04	-1748.25	  429.16
      1.3700	   44.00	  548.73	-1748.25	  429.85
      1.4700	   76.00	  549.40	-1748.25	  430.53
      1.5700	  293.00	  550.07	-1748.25	  431.19
      1.6700	  473.00	  550.72	-1748.25	  431.84
      1.7700	  550.00	  551.36	-1748.25	  432.49
      1.8700	  630.00	  552.00	-1748.25	  433.12
      1.9700	  774.00	  552.62	-1748.25	  433.75
      2.0700	  815.00	  553.23	-1748.25	  434.36
      2.1700	  783.00	  553.84	-1748.25	  434.96
      2.2700	  806.00	  554.43	-1748.25	  435.55
      2.3700	  768.00	  555.01	-1748.25	  436.14
      2.4700	  722.00	  555.59	-1748.25	  436.71
      2.5700	  697.00	  556.15	-1748.25	  437.27
      2.6700	  668.00	  556.70	-1748.25	  437.83
      2.7700	  615.00	  557.25	-1748.25	  438.37
      2.8700	  622.00	  557.78	-1748.25	  438.91
      2.9700	  611.00	  558.31	-1748.25	  439.43
      3.0700	  606.00	  558.82	-1748.25	  439.95
      3.1700	  561.00	  559.33	-1748.25	  440.45
      3.2700	  606.00	  559.82	-1748.25	  440.95
      3.3700	  650.00	  560.31	-1748.25	  441.44
      3.4700	  751.00	  560.79	-1748.25	  441.91
      3.5700	  820.00	  561.26	-1748.25	  442.38
      3.6700	  873.00	  561.72	-1748.25	  442.84
      3.7700	  906.00	  562.17	-1748.25	  443.29
      3.8700	  949.00	  562.61	-1748.25	  443.74
      3.9700	  985.00	  563.05	-1748.25	  444.17
      4.0700	  996.00	  563.47	-1748.25	  444.59
      4.1700	 1098.00	  563.89	-1748.25	  445.01
      4.2700	 1088.00	  564.29	-1748.25	  445.42
      4.3700	 1098.00	  564.69	-1748.25	  445.82
      4.4700	 1074.00	  565.08	-1748.25	  446.21
      4.5700	 1032.00	  565.46	-1748.25	  446.59
      4.6700	 1001.00	  565.83	-1748.25	  446.96
      4.7700	  974.00	  566.20	-1748.25	  447.32
      4.8700	 1003.00	  566.56	-1748.25	  447.68
      4.9700	  944.00	  566.90	-1748.25	  448.03
      5.0700	  907.00	  567.24	-1748.25	  448.37
      5.1700	  989.00	  567.58	-1748.25	  448.70
      5.2700	  909.00	  567.90	-1748.25	  449.02
      5.3700	  864.00	  568.21	-1748.25	  449.34
      5.4700	  872.00	  568.52	-1748.25	  449.65
      5.5700	  803.00	  568.82	-1748.25	  449.95
      5.6700	  851.00	  569.11	-1748.25	  450.24
      5.7700	  836.00	  569.40	-1748.25	  450.52
      5.8700	  789.00	  569.68	-1748.25	  450.80
      5.9700	  770.00	  569.95	-1748.25	  451.07
      6.0700	  836.00	  570.21	-1748.25	  451.33
      6.1700	  765.00	  570.46	-1748.25	  451.59
      6.2700	  743.00	  570.71	-1748.25	  451.83
      6.3700	  815.00	  570.95	-1748.25	  452.07
      6.4700	  759.00	  571.18	-1748.25	  452.30
      6.5700	  748.00	  571.40	-1748.25	  452.53
      6.6700	  740.00	  571.62	-1748.25	  452.75
      6.7700	  707.00	  571.83	-1748.25	  452.96
      6.8700	  726.00	  572.04	-1748.25	  453.16
      6.9700	  719.00	  572.23	-1748.25	  453.36
      7.0700	  704.00	  572.42	-1748.25	  453.55
      7.1700	  725.00	  572.61	-1748.25	  453.73
      7.2700	  686.00	  572.78	-1748.25	  453.91
      7.3700	  660.00	  572.95	-1748.25	  454.07
      7.4700	  639.00	  573.11	-1748.25	  454.24
      7.5700	  615.00	  573.27	-1748.25	  454.39
      7.6700	  668.00	  573.42	-1748.25	  454.54
      7.7700	  655.00	  573.56	-1748.25	  454.68
      7.8700	  603.00	  573.70	-1748.25	  454.82
      7.9700	  633.00	  573.83	-1748.25	  454.95
      8.0700	  590.00	  573.95	-1748.25	  455.07
      8.1700	  603.00	  574.07	-1748.25	  455.19
      8.2700	  612.00	  574.18	-1748.25	  455.30
      8.3700	  616.00	  574.28	-1748.25	  455.41
      8.4700	  668.00	  574.38	-1748.25	  455.50
      8.5700	  599.00	  574.47	-1748.25	  455.60
      8.6700	  643.00	  574.56	-1748.25	  455.68
      8.7700	  624.00	  574.64	-1748.25	  455.76
      8.8700	  627.00	  574.71	-1748.25	  455.84
      8.9700	  618.00	  574.78	-1748.25	  455.90
      9.0700	  625.00	  574.84	-1748.25	  455.97
      9.1700	  619.00	  574.90	-1748.25	  456.02
      9.2700	  656.00	  574.95	-1748.25	  456.07
      9.3700	  615.00	  574.99	-1748.25	  456.12
      9.4700	  646.00	  575.03	-1748.25	  456.16
      9.5700	  576.00	  575.07	-1748.25	  456.19
      9.6700	  619.00	  575.10	-1748.25	  456.22
      9.7700	  632.00	  575.12	-1748.25	  456.24
      9.8700	  599.00	  575.14	-1748.25	  456.26
      9.9700	  599.00	  575.15	-1748.25	  456.27
     10.0700	  560.00	  576.05	-1764.30	  456.28
     10.1700	  596.00	  576.15	-1728.40	  456.28
     10.2700	  588.00	  576.27	-1736.52	  456.28
     10.3700	  590.00	  576.42	-1734.67	  456.27
     10.4700	  565.00	  576.63	-1759.88	  456.26
     10.5700	  590.00	  576.96	-1735.21	  456.24
     10.6700	  614.00	  577.52	-1711.77	  456.22
     10.7700	  583.00	  578.42	-1743.67	  456.19
     10.8700	  599.00	  579.75	-1729.00	  456.15
     10.9700	  590.00	  581.49	-1739.74	  456.11
     11.0700	  580.00	  583.61	-1751.86	  456.07
     11.1700	  587.00	  586.11	-1747.36	  456.02
     11.2700	  587.00	  589.02	-1750.27	  455.97
     11.3700	  584.00	  592.43	-1756.68	  455.91
     11.4700	  592.00	  596.48	-1752.73	  455.85
     11.5700	  599.00	  601.39	-1750.64	  455.78
     11.6700	  649.00	  607.55	-1706.80	  455.71
     11.7700	  632.00	  615.60	-1731.85	  455.64
     11.8700	  655.00	  626.51	-1719.76	  455.56
     11.9700	  684.00	  640.91	-1705.16	  455.47
     12.0700	  675.00	  657.06	-1730.31	  455.38
     12.1700	  660.00	  668.48	-1756.73	  455.29
     12.2700	  702.00	  664.99	-1711.24	  455.19
     12.3700	  664.00	  643.33	-1727.58	  455.09
     12.4700	  629.00	  616.57	-1735.82	  454.99
     12.5700	  644.00	  596.70	-1700.95	  454.88
     12.6700	  567.00	  585.69	-1766.94	  454.76
     12.7700	  571.00	  580.58	-1757.83	  454.65
     12.8700	  548.00	  578.24	-1778.49	  454.52
     12.9700	  547.00	  576.96	-1778.21	  454.40
     13.0700	  574.00	  576.11	-1750.35	  454.27
     13.1700	  563.00	  575.46	-1760.71	  454.14
     13.2700	  591.00	  574.93	-1732.18	  454.00
     13.3700	  588.00	  574.50	-1734.75	  453.86
     13.4700	  555.00	  574.12	-1767.37	  453.71
     13.5700	  536.00	  573.79	-1786.04	  453.57
     13.6700	  541.00	  573.49	-1780.74	  453.41
     13.7700	  580.00	  573.21	-1741.46	  453.26
     13.8700	  589.00	  572.95	-1732.20	  453.10
     13.9700	  585.00	  572.70	-1735.95	  452.94
     14.0700	  534.00	  572.46	-1786.71	  452.77
     14.1700	  556.00	  572.23	-1764.48	  452.60
     14.2700	  565.00	  572.00	-1755.25	  452.43
     14.3700	  517.00	  571.78	-1803.03	  452.25
     14.4700	  602.00	  571.56	-1717.81	  452.07
     14.5700	  566.00	  571.34	-1753.59	  451.89
     14.6700	  539.00	  571.12	-1780.37	  451.71
     14.7700	  593.00	  570.90	-1726.15	  451.52
     14.8700	  546.00	  570.69	-1772.94	  451.33
     14.9700	  601.00	  570.47	-1717.72	  451.13
     15.0700	  567.00	  570.25	-1751.50	  450.93
     15.1700	  534.00	  570.03	-1784.28	  450.73
     15.2700	  555.00	  569.81	-1763.06	  450.53
     15.3700	  586.00	  569.59	-1731.84	  450.32
     15.4700	  554.00	  569.36	-1763.61	  450.11
     15.5700	  564.00	  569.14	-1753.39	  449.90
     15.6700	  539.00	  568.91	-1778.16	  449.68
     15.7700	  582.00	  568.68	-1734.93	  449.47
     15.8700	  516.00	  568.45	-1800.70	  449.25
     15.9700	  634.00	  568.22	-1682.47	  449.02
     16.0700	  559.00	  568.01	-1757.26	  448.80
     16.1700	  562.00	  567.78	-1754.03	  448.57
     16.2700	  573.00	  567.54	-1742.79	  448.34
     16.3700	  555.00	  567.30	-1760.55	  448.10
     16.4700	  517.00	  567.06	-1798.31	  447.87
     16.5700	  572.00	  566.82	-1743.07	  447.63
     16.6700	  588.00	  566.57	-1726.82	  447.39
     16.7700	  579.00	  566.32	-1735.57	  447.15
     16.8700	  558.00	  566.07	-1756.32	  446.90
     16.9700	  582.00	  565.82	-1732.07	  446.65
     17.0700	  577.00	  565.57	-1736.82	  446.40
     17.1700	  577.00	  565.31	-1736.56	  446.15
     17.2700	  568.00	  565.06	-1745.31	  445.90
     17.3700	  543.00	  564.80	-1770.05	  445.64
     17.4700	  581.00	  564.54	-1731.79	  445.38
     17.5700	  570.00	  564.27	-1742.52	  445.12
     17.6700	  564.00	  564.01	-1748.26	  444.86
     17.7700	  557.00	  563.74	-1754.99	  444.59
     17.8700	  533.00	  563.47	-1778.72	  444.32
     17.9700	  540.00	  563.20	-1771.45	  444.06
     18.0700	  532.00	  563.04	-1779.29	  443.78
     18.1700	  550.00	  562.77	-1761.02	  443.51
     18.2700	  572.00	  562.50	-1738.75	  443.24
     18.3700	  558.00	  562.22	-1752.47	  442.96
     18.4700	  566.00	  561.95	-1744.20	  442.68
     18.5700	  555.00	  561.67	-1754.92	  442.40
     18.6700	  597.00	  561.39	-1712.64	  442.12
     18.7700	  553.00	  561.11	-1756.36	  441.84
     18.8700	  551.00	  560.83	-1758.08	  441.56
     18.9700	  576.00	  560.63	-1732.88	  441.27
     19.0700	  514.00	  560.35	-1794.60	  440.98
     19.1700	  547.00	  560.06	-1761.31	  440.69
     19.2700	  561.00	  559.78	-1747.03	  440.40
     19.3700	  573.00	  559.49	-1734.74	  440.11
     19.4700	  567.00	  559.20	-1740.45	  439.81
     19.5700	  499.00	  558.92	-1808.17	  439.52
     19.6700	  539.00	  558.63	-1767.88	  439.22
     19.7700	  567.00	  558.34	-1739.59	  438.93
     19.8700	  564.00	  558.05	-1742.30	  438.63
     19.9700	  539.00	  557.75	-1767.00	  438.33
     20.0700	  552.00	  557.46	-1753.71	  438.02
     20.1700	  559.00	  557.17	-1746.42	  437.72
     20.2700	  503.00	  556.88	-1802.13	  437.42
     20.3700	  559.00	  556.58	-1745.83	  437.11
     20.4700	  521.00	  556.29	-1783.54	  436.81
     20.5700	  560.00	  555.99	-1744.24	  436.50
     20.6700	  538.00	  555.70	-1765.95	  436.19
     20.7700	  563.00	  555.37	-1740.62	  435.88
     20.8700	  520.00	  555.11	-1783.36	  435.57
     20.9700	  575.00	  554.81	-1728.06	  435.26
     21.0700	  560.00	  554.52	-1742.77	  434.94
     21.1700	  561.00	  554.22	-1741.47	  434.63
     21.2700	  545.00	  553.93	-1757.18	  434.32
     21.3700	  533.00	  553.63	-1768.88	  434.00
     21.4700	  554.00	  553.34	-1747.59	  433.69
     21.5700	  539.00	  553.05	-1762.30	  433.37
     21.6700	  509.00	  552.76	-1792.01	  433.05
     21.7700	  608.00	  552.47	-1692.72	  432.73
     21.8700	  528.00	  552.18	-1772.43	  432.41
     21.9700	  503.00	  551.89	-1797.14	  432.09
     22.0700	  542.00	  551.61	-1757.86	  431.77
     22.1700	  537.00	  551.32	-1762.57	  431.45
     22.2700	  560.00	  551.04	-1739.29	  431.13
     22.3700	  550.00	  550.77	-1749.02	  430.81
     22.4700	  526.00	  550.50	-1772.75	  430.49
     22.5700	  597.00	  550.23	-1701.48	  430.16
     22.6700	  606.00	  549.97	-1692.22	  429.84
     22.7700	  589.00	  549.71	-1708.96	  429.51
     22.8700	  556.00	  549.47	-1741.72	  429.19
     22.9700	  526.00	  549.23	-1771.48	  428.86
     23.0700	  568.00	  549.01	-1729.26	  428.54
     23.1700	  578.00	  548.80	-1719.05	  428.21
     23.2700	  557.00	  548.62	-1739.87	  427.89
     23.3700	  556.00	  548.46	-1740.71	  427.56
     23.4700	  563.00	  548.34	-1733.59	  427.23
     23.5700	  576.00	  548.27	-1720.52	  426.90
     23.6700	  513.00	  548.39	-1783.64	  426.58
     23.7700	  549.00	  548.51	-1747.76	  426.25
     23.8700	  536.00	  548.84	-1761.09	  425.92
     23.9700	  555.00	  549.62	-1742.87	  425.59
     24.0700	  561.00	  551.24	-1738.49	  425.26
     24.1700	  553.00	  554.38	-1749.63	  424.93
     24.2700	  574.00	  559.83	-1734.08	  424.61
     24.3700	  604.00	  568.55	-1712.80	  424.28
     24.4700	  627.00	  581.47	-1702.72	  423.95
     24.5700	  603.00	  598.76	-1744.01	  423.62
     24.6700	  632.00	  617.68	-1733.93	  423.29
     24.7700	  634.00	  630.79	-1745.04	  422.96
     24.8700	  632.00	  628.06	-1744.31	  422.63
     24.9700	  652.00	  608.07	-1704.32	  422.30
     25.0700	  580.00	  583.49	-1751.74	  421.97
     25.1700	  613.00	  564.82	-1700.07	  421.65
     25.2700	  549.00	  554.05	-1753.30	  421.32
     25.3700	  574.00	  548.85	-1723.10	  420.99
     25.4700	  513.00	  546.44	-1781.69	  420.66
     25.5700	  539.00	  545.17	-1754.42	  420.33
     25.6700	  550.00	  544.34	-1742.59	  420.00
     25.7700	  562.00	  543.75	-1730.00	  419.68
     25.8700	  560.00	  543.30	-1731.55	  419.35
     25.9700	  514.00	  542.96	-1777.21	  419.02
     26.0700	  543.00	  542.71	-1747.96	  418.70
     26.1700	  522.00	  542.54	-1768.79	  418.37
     26.2700	  538.00	  542.45	-1752.70	  418.04
     26.3700	  591.00	  542.44	-1699.69	  417.72
     26.4700	  523.00	  542.51	-1767.76	  417.39
     26.5700	  573.00	  542.69	-1717.94	  417.06
     26.6700	  577.00	  542.98	-1714.23	  416.74
     26.7700	  606.00	  543.42	-1685.67	  416.42
     26.8700	  566.00	  544.03	-1726.28	  416.09
     26.9700	  538.00	  544.88	-1755.13	  415.77
     27.0700	  570.00	  546.04	-1724.29	  415.44
     27.1700	  564.00	  547.65	-1731.90	  415.12
     27.2700	  608.00	  549.97	-1690.22	  414.80
     27.3700	  537.00	  553.54	-1764.79	  414.48
     27.4700	  544.00	  559.40	-1763.65	  414.16
     27.5700	  551.00	  569.44	-1766.69	  413.84
     27.6700	  564.00	  586.68	-1770.93	  413.52
     27.7700	  522.00	  615.05	-1841.30	  413.20
     27.8700	  596.00	  658.03	-1810.28	  412.88
     27.9700	  730.00	  715.88	-1734.13	  412.56
     28.0700	  793.00	  781.98	-1737.23	  412.24
     28.1700	  907.00	  839.49	-1680.74	  411.93
     28.2700	 1004.00	  862.96	-1607.21	  411.61
     28.3700	  871.00	  837.27	-1714.52	  411.29
     28.4700	  822.00	  786.05	-1712.30	  410.98
     28.5700	  711.00	  748.25	-1785.50	  410.67
     28.6700	  707.00	  741.61	-1782.86	  410.35
     28.7700	  720.00	  761.49	-1789.74	  410.04
     28.8700	  761.00	  787.54	-1774.79	  409.73
     28.9700	  817.00	  791.46	-1722.71	  409.42
     29.0700	  735.00	  755.38	-1768.63	  409.11
     29.1700	  689.00	  694.38	-1753.63	  408.80
     29.2700	  653.00	  636.40	-1731.65	  408.49
     29.3700	  611.00	  594.72	-1731.97	  408.18
     29.4700	  563.00	  569.65	-1754.90	  407.88
     29.5700	  582.00	  556.16	-1722.41	  407.57
     29.6700	  571.00	  549.06	-1726.31	  407.27
     29.7700	  547.00	  545.02	-1746.27	  406.96
     29.8700	  592.00	  542.51	-1698.76	  406.66
     29.9700	  592.00	  540.91	-1697.16	  406.36
     30.0700	  586.00	  540.11	-1702.36	  406.06
     30.1700	  523.00	  540.26	-1765.51	  405.76
     30.2700	  584.00	  541.91	-1706.16	  405.46
     30.3700	  544.00	  546.11	-1750.36	  405.16
     30.4700	  614.00	  554.47	-1688.72	  404.86
     30.5700	  565.00	  568.67	-1751.92	  404.57
     30.6700	  601.00	  589.20	-1736.45	  404.27
     30.7700	  573.00	  613.51	-1788.76	  403.98
     30.8700	  653.00	  634.69	-1729.94	  403.69
     30.9700	  625.00	  642.23	-1765.48	  403.39
     31.0700	  663.00	  628.84	-1714.09	  403.10
     31.1700	  585.00	  601.56	-1764.81	  402.81
     31.2700	  557.00	  574.16	-1765.41	  402.53
     31.3700	  559.00	  553.92	-1743.17	  402.24
     31.4700	  532.00	  541.62	-1757.87	  401.95
     31.5700	  587.00	  535.04	-1696.29	  401.67
     31.6700	  471.00	  531.66	-1808.91	  401.38
     31.7700	  555.00	  529.78	-1723.03	  401.10
     31.8700	  539.00	  528.60	-1737.85	  400.82
     31.9700	  514.00	  527.78	-1762.03	  400.54
     32.0700	  544.00	  527.19	-1731.44	  400.26
     32.1700	  568.00	  526.79	-1707.04	  399.98
     32.2700	  545.00	  526.54	-1729.79	  399.71
     32.3700	  562.00	  526.44	-1712.69	  399.43
     32.4700	  587.00	  526.50	-1687.75	  399.16
     32.5700	  548.00	  526.73	-1726.98	  398.89
     32.6700	  557.00	  527.15	-1718.40	  398.61
     32.7700	  538.00	  527.82	-1738.07	  398.34
     32.8700	  557.00	  528.79	-1720.04	  398.08
     32.9700	  544.00	  530.18	-1734.43	  397.81
     33.0700	  503.00	  532.21	-1777.46	  397.54
     33.1700	  540.00	  535.32	-1743.57	  397.28
     33.2700	  551.00	  540.56	-1737.81	  397.01
     33.3700	  560.00	  550.16	-1738.41	  396.75
     33.4700	  577.00	  568.40	-1739.65	  396.49
     33.5700	  610.00	  602.08	-1740.33	  396.23
     33.6700	  608.00	  658.95	-1799.20	  395.97
     33.7700	  752.00	  742.49	-1738.74	  395.72
     33.8700	  882.00	  843.61	-1709.86	  395.46
     33.9700	 1062.00	  935.37	-1621.62	  395.21
     34.0700	 1016.00	  976.25	-1708.50	  394.96
     34.1700	  966.00	  935.46	-1717.71	  394.71
     34.2700	  935.00	  833.94	-1647.19	  394.46
     34.3700	  752.00	  724.22	-1720.47	  394.21
     34.4700	  654.00	  638.93	-1733.18	  393.96
     34.5700	  586.00	  585.03	-1747.28	  393.72
     34.6700	  550.00	  555.69	-1753.94	  393.47
     34.7700	  534.00	  540.89	-1755.14	  393.23
     34.8700	  537.00	  533.15	-1744.40	  392.99
     34.9700	  533.00	  528.54	-1743.79	  392.75
     35.0700	  542.00	  525.36	-1731.61	  392.52
     35.1700	  529.00	  522.99	-1742.24	  392.28
     35.2700	  510.00	  521.09	-1759.34	  392.05
     35.3700	  523.00	  519.55	-1744.80	  391.81
     35.4700	  528.00	  518.27	-1738.52	  391.58
     35.5700	  546.00	  517.18	-1719.43	  391.35
     35.6700	  541.00	  516.26	-1723.51	  391.12
     35.7700	  517.00	  515.45	-1746.70	  390.90
     35.8700	  557.00	  514.74	-1705.99	  390.67
     35.9700	  513.00	  514.11	-1749.36	  390.45
     36.0700	  513.00	  514.01	-1749.26	  390.23
     36.1700	  529.00	  513.50	-1732.75	  390.01
     36.2700	  552.00	  513.05	-1709.30	  389.79
     36.3700	  505.00	  512.64	-1755.89	  389.57
     36.4700	  459.00	  512.27	-1801.52	  389.35
     36.5700	  538.00	  511.95	-1722.20	  389.14
     36.6700	  483.00	  511.66	-1776.91	  388.93
     36.7700	  477.00	  511.43	-1782.68	  388.72
     36.8700	  505.00	  511.28	-1754.53	  388.51
     36.9700	  488.00	  511.27	-1771.52	  388.30
     37.0700	  522.00	  511.54	-1737.79	  388.10
     37.1700	  522.00	  512.37	-1738.62	  387.89
     37.2700	  512.00	  514.15	-1750.40	  387.69
     37.3700	  512.00	  517.25	-1753.50	  387.49
     37.4700	  507.00	  521.68	-1762.93	  387.29
     37.5700	  514.00	  526.70	-1760.95	  387.09
     37.6700	  533.00	  530.73	-1745.98	  386.90
     37.7700	  490.00	  531.93	-1790.18	  386.70
     37.8700	  566.00	  529.83	-1712.08	  386.51
     37.9700	  517.00	  525.88	-1757.13	  386.32
     38.0700	  507.00	  521.52	-1762.77	  386.13
     38.1700	  490.00	  517.35	-1775.60	  385.94
     38.2700	  497.00	  513.77	-1765.02	  385.76
     38.3700	  505.00	  511.07	-1754.32	  385.57
     38.4700	  464.00	  509.20	-1793.45	  385.39
     38.5700	  496.00	  508.00	-1760.25	  385.21
     38.6700	  507.00	  507.14	-1748.39	  385.03
     38.7700	  501.00	  506.65	-1753.90	  384.85
     38.8700	  527.00	  506.29	-1727.54	  384.68
     38.9700	  491.00	  506.00	-1763.25	  384.50
     39.0700	  517.00	  505.75	-1737.00	  384.33
     39.1700	  481.00	  505.45	-1772.70	  384.16
     39.2700	  486.00	  505.25	-1767.50	  383.99
     39.3700	  524.00	  505.06	-1729.31	  383.83
     39.4700	  506.00	  505.02	-1747.27	  383.66
     39.5700	  507.00	  504.86	-1746.11	  383.50
     39.6700	  494.00	  504.71	-1758.96	  383.33
     39.7700	  508.00	  504.57	-1744.82	  383.17
     39.8700	  489.00	  504.44	-1763.69	  383.02
     39.9700	  495.00	  504.32	-1757.57	  382.86
     40.0700	  500.00	  504.21	-1752.46	  382.71
     40.1700	  520.00	  504.12	-1732.37	  382.55
     40.2700	  482.00	  504.03	-1770.28	  382.40
     40.3700	  480.00	  503.96	-1772.21	  382.25
     40.4700	  488.00	  503.90	-1764.15	  382.10
     40.5700	  500.00	  503.86	-1752.11	  381.96
     40.6700	  496.00	  503.84	-1756.09	  381.81
     40.7700	  556.00	  503.83	-1696.08	  381.67
