MSG Master    CELL:    5.89259   5.89259  23.15776   90.0000   90.0000  120.0000   SPGR: P 63/m m c             TEMP:    678.85
  2   1280     2.52000     0.00000    -0.10249     0.00000     0.00000    0
    96    96     0     0     2
       0.00000      10.00000
     125.00000     130.00000
 2Theta	Yobs	Ycal	Yobs-Ycal	Backg	Posr	(hkl)	K
      0.7700	    0.00	  717.31	-1846.97	  596.51
      0.8700	    0.00	  716.69	-1846.97	  595.89
      0.9700	   59.00	  716.07	-1846.97	  595.27
      1.0700	   58.00	  715.45	-1846.97	  594.65
      1.1700	   43.00	  714.83	-1846.97	  594.03
      1.2700	   49.00	  714.20	-1846.97	  593.40
      1.3700	   51.00	  713.58	-1846.97	  592.78
      1.4700	  110.00	  712.95	-1846.97	  592.15
      1.5700	  309.00	  712.33	-1846.97	  591.53
      1.6700	  459.00	  711.70	-1846.97	  590.90
      1.7700	  609.00	  711.07	-1846.97	  590.27
      1.8700	  628.00	  710.44	-1846.97	  589.64
      1.9700	  778.00	  709.82	-1846.97	  589.02
      2.0700	  772.00	  709.18	-1846.97	  588.38
      2.1700	  795.00	  708.55	-1846.97	  587.75
      2.2700	  742.00	  707.92	-1846.97	  587.12
      2.3700	  781.00	  707.29	-1846.97	  586.49
      2.4700	  745.00	  706.65	-1846.97	  585.85
      2.5700	  706.00	  706.02	-1846.97	  585.22
      2.6700	  686.00	  705.38	-1846.97	  584.58
      2.7700	  618.00	  704.75	-1846.97	  583.95
      2.8700	  633.00	  704.11	-1846.97	  583.31
      2.9700	  649.00	  703.47	-1846.97	  582.67
      3.0700	  643.00	  702.84	-1846.97	  582.04
      3.1700	  572.00	  702.20	-1846.97	  581.40
      3.2700	  706.00	  701.56	-1846.97	  580.76
      3.3700	  852.00	  700.92	-1846.97	  580.12
      3.4700	  986.00	  700.28	-1846.97	  579.48
      3.5700	 1136.00	  699.64	-1846.97	  578.84
      3.6700	 1241.00	  698.99	-1846.97	  578.19
      3.7700	 1366.00	  698.35	-1846.97	  577.55
      3.8700	 1425.00	  697.71	-1846.97	  576.91
      3.9700	 1528.00	  697.07	-1846.97	  576.27
      4.0700	 1535.00	  696.42	-1846.97	  575.62
      4.1700	 1558.00	  695.78	-1846.97	  574.98
      4.2700	 1665.00	  695.13	-1846.97	  574.33
      4.3700	 1623.00	  694.49	-1846.97	  573.69
      4.4700	 1548.00	  693.85	-1846.97	  573.04
      4.5700	 1515.00	  693.20	-1846.97	  572.40
      4.6700	 1414.00	  692.55	-1846.97	  571.75
      4.7700	 1412.00	  691.91	-1846.97	  571.11
      4.8700	 1300.00	  691.26	-1846.97	  570.46
      4.9700	 1311.00	  690.62	-1846.97	  569.82
      5.0700	 1272.00	  689.97	-1846.97	  569.17
      5.1700	 1202.00	  689.32	-1846.97	  568.52
      5.2700	 1160.00	  688.68	-1846.97	  567.88
      5.3700	 1143.00	  688.03	-1846.97	  567.23
      5.4700	 1126.00	  687.38	-1846.97	  566.58
      5.5700	 1078.00	  686.73	-1846.97	  565.93
      5.6700	 1109.00	  686.09	-1846.97	  565.29
      5.7700	 1021.00	  685.44	-1846.97	  564.64
      5.8700	 1033.00	  684.79	-1846.97	  563.99
      5.9700	 1035.00	  684.14	-1846.97	  563.34
      6.0700	 1010.00	  683.50	-1846.97	  562.70
      6.1700	 1021.00	  682.85	-1846.97	  562.05
      6.2700	  943.00	  682.20	-1846.97	  561.40
      6.3700	  949.00	  681.55	-1846.97	  560.75
      6.4700	  955.00	  680.91	-1846.97	  560.11
      6.5700	  932.00	  680.26	-1846.97	  559.46
      6.6700	  884.00	  679.61	-1846.97	  558.81
      6.7700	  871.00	  678.97	-1846.97	  558.17
      6.8700	  859.00	  678.32	-1846.97	  557.52
      6.9700	  845.00	  677.67	-1846.97	  556.87
      7.0700	  891.00	  677.03	-1846.97	  556.22
      7.1700	  855.00	  676.38	-1846.97	  555.58
      7.2700	  865.00	  675.73	-1846.97	  554.93
      7.3700	  854.00	  675.09	-1846.97	  554.29
      7.4700	  807.00	  674.44	-1846.97	  553.64
      7.5700	  808.00	  673.80	-1846.97	  553.00
      7.6700	  723.00	  673.15	-1846.97	  552.35
      7.7700	  817.00	  672.51	-1846.97	  551.71
      7.8700	  713.00	  671.86	-1846.97	  551.06
      7.9700	  739.00	  671.22	-1846.97	  550.42
      8.0700	  750.00	  670.57	-1846.97	  549.77
      8.1700	  771.00	  669.93	-1846.97	  549.13
      8.2700	  709.00	  669.29	-1846.97	  548.49
      8.3700	  772.00	  668.64	-1846.97	  547.84
      8.4700	  710.00	  668.00	-1846.97	  547.20
      8.5700	  701.00	  667.36	-1846.97	  546.56
      8.6700	  748.00	  666.72	-1846.97	  545.92
      8.7700	  729.00	  666.08	-1846.97	  545.28
      8.8700	  730.00	  665.44	-1846.97	  544.64
      8.9700	  715.00	  664.80	-1846.97	  544.00
      9.0700	  735.00	  664.16	-1846.97	  543.36
      9.1700	  737.00	  663.52	-1846.97	  542.72
      9.2700	  675.00	  662.88	-1846.97	  542.08
      9.3700	  737.00	  662.24	-1846.97	  541.44
      9.4700	  697.00	  661.61	-1846.97	  540.81
      9.5700	  615.00	  660.97	-1846.97	  540.17
      9.6700	  675.00	  660.34	-1846.97	  539.54
      9.7700	  678.00	  659.70	-1846.97	  538.90
      9.8700	  736.00	  659.07	-1846.97	  538.27
      9.9700	  684.00	  658.43	-1846.97	  537.63
     10.0700	  702.00	  659.94	-1804.91	  537.00
     10.1700	  721.00	  659.55	-1785.51	  536.37
     10.2700	  712.00	  659.21	-1794.17	  535.73
     10.3700	  640.00	  658.94	-1865.90	  535.10
     10.4700	  679.00	  658.77	-1826.74	  534.47
     10.5700	  687.00	  658.75	-1818.72	  533.84
     10.6700	  646.00	  658.96	-1859.92	  533.22
     10.7700	  716.00	  659.47	-1790.44	  532.59
     10.8700	  663.00	  660.40	-1844.37	  531.96
     10.9700	  627.00	  661.81	-1881.78	  531.33
     11.0700	  676.00	  663.73	-1834.70	  530.71
     11.1700	  653.00	  666.18	-1860.14	  530.08
     11.2700	  678.00	  669.17	-1838.14	  529.46
     11.3700	  689.00	  672.78	-1830.75	  528.84
     11.4700	  694.00	  677.12	-1830.09	  528.22
     11.5700	  724.00	  682.38	-1805.35	  527.59
     11.6700	  695.00	  688.83	-1840.80	  526.97
     11.7700	  741.00	  696.78	-1802.75	  526.36
     11.8700	  746.00	  706.50	-1807.47	  525.74
     11.9700	  752.00	  717.85	-1812.82	  525.12
     12.0700	  794.00	  729.85	-1782.82	  524.50
     12.1700	  814.00	  740.01	-1772.97	  523.89
     12.2700	  748.00	  743.96	-1842.93	  523.27
     12.3700	  768.00	  736.98	-1815.95	  522.66
     12.4700	  737.00	  719.47	-1829.44	  522.05
     12.5700	  719.00	  698.64	-1826.61	  521.44
     12.6700	  624.00	  680.73	-1903.70	  520.83
     12.7700	  642.00	  667.63	-1872.59	  520.22
     12.8700	  679.00	  658.84	-1826.81	  519.61
     12.9700	  577.00	  653.12	-1923.09	  519.00
     13.0700	  622.00	  649.33	-1874.30	  518.40
     13.1700	  619.00	  646.66	-1874.63	  517.79
     13.2700	  665.00	  644.63	-1826.60	  517.19
     13.3700	  624.00	  642.97	-1865.94	  516.59
     13.4700	  616.00	  641.56	-1872.53	  515.99
     13.5700	  640.00	  640.32	-1847.29	  515.38
     13.6700	  669.00	  639.20	-1817.17	  514.79
     13.7700	  628.00	  638.18	-1857.15	  514.19
     13.8700	  602.00	  637.24	-1882.21	  513.59
     13.9700	  596.00	  636.35	-1887.32	  513.00
     14.0700	  628.00	  635.51	-1854.48	  512.40
     14.1700	  607.00	  634.70	-1874.67	  511.81
     14.2700	  671.00	  633.93	-1809.90	  511.22
     14.3700	  594.00	  633.18	-1886.15	  510.63
     14.4700	  642.00	  632.46	-1837.42	  510.04
     14.5700	  633.00	  631.75	-1845.72	  509.45
     14.6700	  606.00	  631.06	-1872.02	  508.86
     14.7700	  595.00	  630.38	-1882.34	  508.28
     14.8700	  614.00	  629.71	-1862.68	  507.69
     14.9700	  618.00	  629.05	-1858.02	  507.11
     15.0700	  603.00	  628.40	-1872.37	  506.53
     15.1700	  677.00	  627.76	-1797.73	  505.95
     15.2700	  626.00	  627.13	-1848.10	  505.37
     15.3700	  672.00	  626.50	-1801.47	  504.79
     15.4700	  651.00	  625.88	-1821.85	  504.22
     15.5700	  647.00	  625.27	-1825.24	  503.64
     15.6700	  633.00	  624.66	-1838.63	  503.07
     15.7700	  601.00	  624.05	-1870.02	  502.50
     15.8700	  597.00	  623.45	-1873.42	  501.93
     15.9700	  571.00	  622.85	-1898.82	  501.36
     16.0700	  620.00	  622.26	-1849.23	  500.79
     16.1700	  588.00	  621.67	-1880.64	  500.22
     16.2700	  587.00	  621.08	-1881.05	  499.66
     16.3700	  637.00	  620.50	-1830.47	  499.09
     16.4700	  618.00	  619.92	-1848.89	  498.53
     16.5700	  576.00	  619.34	-1890.31	  497.97
     16.6700	  612.00	  618.76	-1853.73	  497.41
     16.7700	  583.00	  618.19	-1882.16	  496.86
     16.8700	  578.00	  617.62	-1886.59	  496.30
     16.9700	  605.00	  617.05	-1859.02	  495.75
     17.0700	  565.00	  616.49	-1898.46	  495.19
     17.1700	  636.00	  615.93	-1826.90	  494.64
     17.2700	  621.00	  615.37	-1841.33	  494.09
     17.3700	  584.00	  614.81	-1877.78	  493.54
     17.4700	  627.00	  614.25	-1834.22	  493.00
     17.5700	  568.00	  613.70	-1892.67	  492.45
     17.6700	  591.00	  613.15	-1869.12	  491.91
     17.7700	  606.00	  612.60	-1853.57	  491.36
     17.8700	  581.00	  612.05	-1878.02	  490.82
     17.9700	  600.00	  611.51	-1858.48	  490.28
     18.0700	  558.00	  610.97	-1899.93	  489.75
     18.1700	  661.00	  611.35	-1797.32	  489.21
     18.2700	  573.00	  611.37	-1885.34	  488.68
     18.3700	  566.00	  610.86	-1891.83	  488.14
     18.4700	  609.00	  610.36	-1848.32	  487.61
     18.5700	  575.00	  609.86	-1881.82	  487.08
     18.6700	  568.00	  609.36	-1888.32	  486.56
     18.7700	  613.00	  608.86	-1842.83	  486.03
     18.8700	  643.00	  608.37	-1812.34	  485.51
     18.9700	  585.00	  607.88	-1869.85	  484.98
     19.0700	  590.00	  607.39	-1864.36	  484.46
     19.1700	  636.00	  606.91	-1817.88	  483.94
     19.2700	  583.00	  606.43	-1870.40	  483.42
     19.3700	  600.00	  605.96	-1852.92	  482.91
     19.4700	  628.00	  605.48	-1824.45	  482.39
     19.5700	  599.00	  605.01	-1852.98	  481.88
     19.6700	  570.00	  604.61	-1881.58	  481.37
     19.7700	  570.00	  604.15	-1881.12	  480.86
     19.8700	  598.00	  603.69	-1852.66	  480.35
     19.9700	  641.00	  603.24	-1809.21	  479.85
     20.0700	  556.00	  602.79	-1893.76	  479.34
     20.1700	  577.00	  602.34	-1872.31	  478.84
     20.2700	  614.00	  601.90	-1834.87	  478.34
     20.3700	  628.00	  601.47	-1820.43	  477.84
     20.4700	  608.00	  601.03	-1840.00	  477.34
     20.5700	  574.00	  600.61	-1873.58	  476.85
     20.6700	  564.00	  600.19	-1883.15	  476.36
     20.7700	  624.00	  599.77	-1822.74	  475.86
     20.8700	  583.00	  599.36	-1863.32	  475.37
     20.9700	  586.00	  598.95	-1859.92	  474.88
     21.0700	  563.00	  598.55	-1882.52	  474.40
     21.1700	  564.00	  598.15	-1881.12	  473.91
     21.2700	  578.00	  597.77	-1866.73	  473.43
     21.3700	  584.00	  597.38	-1860.35	  472.95
     21.4700	  619.00	  597.01	-1824.98	  472.47
     21.5700	  639.00	  596.64	-1804.61	  471.99
     21.6700	  606.00	  596.28	-1837.25	  471.52
     21.7700	  601.00	  595.93	-1841.90	  471.04
     21.8700	  605.00	  595.59	-1837.56	  470.57
     21.9700	  585.00	  595.26	-1857.22	  470.10
     22.0700	  609.00	  595.11	-1833.08	  469.63
     22.1700	  613.00	  594.80	-1828.77	  469.16
     22.2700	  572.00	  594.50	-1869.47	  468.70
     22.3700	  594.00	  594.22	-1847.19	  468.24
     22.4700	  624.00	  593.95	-1816.92	  467.78
     22.5700	  589.00	  593.70	-1851.66	  467.32
     22.6700	  603.00	  593.46	-1837.43	  466.86
     22.7700	  597.00	  593.24	-1843.21	  466.40
     22.8700	  586.00	  593.05	-1854.02	  465.95
     22.9700	  579.00	  592.88	-1860.85	  465.50
     23.0700	  632.00	  592.74	-1807.70	  465.05
     23.1700	  577.00	  592.63	-1862.60	  464.60
     23.2700	  638.00	  592.56	-1801.53	  464.15
     23.3700	  604.00	  592.54	-1835.51	  463.71
     23.4700	  584.00	  592.58	-1855.55	  463.27
     23.5700	  591.00	  592.69	-1848.66	  462.82
     23.6700	  577.00	  592.90	-1862.86	  462.39
     23.7700	  598.00	  593.23	-1842.20	  461.95
     23.8700	  607.00	  593.76	-1833.73	  461.51
     23.9700	  591.00	  594.57	-1850.54	  461.08
     24.0700	  623.00	  595.79	-1819.76	  460.65
     24.1700	  576.00	  597.77	-1868.74	  460.22
     24.2700	  582.00	  600.82	-1865.78	  459.79
     24.3700	  610.00	  605.37	-1842.33	  459.37
     24.4700	  649.00	  611.79	-1809.76	  458.94
     24.5700	  653.00	  620.18	-1814.15	  458.52
     24.6700	  674.00	  630.14	-1803.11	  458.10
     24.7700	  710.00	  640.40	-1777.37	  457.68
     24.8700	  685.00	  648.48	-1810.45	  457.27
     24.9700	  708.00	  650.85	-1789.81	  456.85
     25.0700	  687.00	  645.27	-1805.24	  456.44
     25.1700	  675.00	  634.27	-1806.24	  456.03
     25.2700	  645.00	  622.71	-1824.68	  455.62
     25.3700	  701.00	  613.47	-1759.44	  455.22
     25.4700	  651.00	  607.16	-1803.13	  454.81
     25.5700	  602.00	  603.36	-1848.33	  454.41
     25.6700	  582.00	  601.38	-1866.35	  454.01
     25.7700	  651.00	  600.60	-1796.56	  453.61
     25.8700	  648.00	  600.58	-1799.54	  453.22
     25.9700	  608.00	  601.09	-1840.05	  452.82
     26.0700	  639.00	  602.02	-1809.98	  452.43
     26.1700	  675.00	  603.33	-1775.30	  452.04
     26.2700	  635.00	  605.03	-1817.00	  451.65
     26.3700	  625.00	  607.15	-1829.12	  451.26
     26.4700	  644.00	  609.75	-1812.72	  450.88
     26.5700	  632.00	  612.90	-1827.86	  450.49
     26.6700	  595.00	  616.70	-1868.67	  450.11
     26.7700	  600.00	  621.31	-1868.28	  449.73
     26.8700	  660.00	  626.91	-1813.88	  449.36
     26.9700	  628.00	  633.78	-1852.75	  448.98
     27.0700	  662.00	  642.28	-1827.25	  448.61
     27.1700	  608.00	  652.96	-1891.92	  448.24
     27.2700	  700.00	  666.67	-1813.64	  447.87
     27.3700	  714.00	  684.97	-1817.94	  447.50
     27.4700	  729.00	  710.87	-1828.84	  447.13
     27.5700	  740.00	  750.45	-1857.42	  446.77
     27.6700	  773.00	  815.18	-1889.15	  446.41
     27.7700	  841.00	  924.69	-1930.66	  446.05
     27.8700	  875.00	 1107.80	-2079.76	  445.69
     27.9700	 1106.00	 1396.84	-2137.81	  445.33
     28.0700	 1526.00	 1810.81	-2131.78	  444.98
     28.1700	 2149.00	 2328.73	-2026.70	  444.63
     28.2700	 3076.00	 2859.56	-1630.53	  444.28
     28.3700	 3831.00	 3226.73	-1242.69	  443.93
     28.4700	 3660.00	 3226.81	-1413.77	  443.59
     28.5700	 3030.00	 2858.62	-1675.59	  443.24
     28.6700	 2221.00	 2406.97	-2032.93	  442.90
     28.7700	 1879.00	 2116.76	-2084.73	  442.56
     28.8700	 1912.00	 2045.68	-1980.65	  442.22
     28.9700	 2128.00	 2119.28	-1838.25	  441.88
     29.0700	 2323.00	 2190.00	-1713.97	  441.55
     29.1700	 2318.00	 2103.99	-1632.96	  441.22
     29.2700	 1835.00	 1825.42	-1837.39	  440.89
     29.3700	 1444.00	 1475.93	-1878.90	  440.56
     29.4700	 1148.00	 1174.46	-1873.43	  440.23
     29.5700	  927.00	  961.51	-1881.48	  439.91
     29.6700	  790.00	  829.31	-1886.27	  439.59
     29.7700	  755.00	  753.03	-1845.00	  439.26
     29.8700	  786.00	  709.08	-1770.05	  438.95
     29.9700	  750.00	  682.00	-1778.96	  438.63
     30.0700	  738.00	  663.78	-1772.75	  438.31
     30.1700	  683.00	  650.89	-1814.86	  438.00
     30.2700	  705.00	  641.92	-1783.89	  437.69
     30.3700	  682.00	  636.60	-1801.56	  437.38
     30.4700	  659.00	  635.43	-1823.39	  437.07
     30.5700	  658.00	  639.60	-1828.57	  436.77
     30.6700	  687.00	  650.60	-1810.57	  436.47
     30.7700	  651.00	  669.23	-1865.20	  436.17
     30.8700	  644.00	  694.10	-1897.07	  435.87
     30.9700	  698.00	  720.27	-1869.24	  435.57
     31.0700	  737.00	  738.63	-1848.60	  435.27
     31.1700	  759.00	  738.04	-1826.01	  434.98
     31.2700	  730.00	  714.94	-1831.91	  434.69
     31.3700	  690.00	  680.24	-1837.21	  434.40
     31.4700	  695.00	  647.23	-1799.20	  434.11
     31.5700	  619.00	  621.94	-1849.91	  433.83
     31.6700	  660.00	  604.94	-1791.91	  433.54
     31.7700	  639.00	  594.40	-1802.36	  433.26
     31.8700	  617.00	  588.01	-1817.98	  432.98
     31.9700	  647.00	  583.99	-1783.96	  432.70
     32.0700	  572.00	  581.27	-1856.24	  432.42
     32.1700	  596.00	  579.30	-1830.27	  432.15
     32.2700	  595.00	  577.85	-1829.82	  431.88
     32.3700	  630.00	  576.80	-1793.76	  431.61
     32.4700	  644.00	  576.08	-1779.05	  431.34
     32.5700	  601.00	  575.70	-1821.66	  431.07
     32.6700	  655.00	  575.66	-1767.63	  430.81
     32.7700	  577.00	  575.96	-1845.92	  430.54
     32.8700	  567.00	  576.64	-1856.61	  430.28
     32.9700	  648.00	  577.81	-1776.78	  430.02
     33.0700	  600.00	  579.60	-1826.57	  429.77
     33.1700	  618.00	  582.25	-1811.22	  429.51
     33.2700	  573.00	  586.22	-1860.18	  429.26
     33.3700	  593.00	  592.38	-1846.35	  429.01
     33.4700	  666.00	  602.41	-1783.38	  428.76
     33.5700	  645.00	  619.15	-1821.12	  428.51
     33.6700	  639.00	  646.85	-1854.81	  428.26
     33.7700	  672.00	  690.53	-1865.50	  428.02
     33.8700	  731.00	  753.83	-1869.80	  427.78
     33.9700	  871.00	  835.04	-1811.00	  427.54
     34.0700	  956.00	  922.89	-1813.86	  427.30
     34.1700	 1058.00	  994.41	-1783.38	  427.06
     34.2700	 1058.00	 1018.78	-1807.75	  426.83
     34.3700	 1034.00	  978.03	-1791.00	  426.59
     34.4700	  919.00	  891.58	-1819.55	  426.36
     34.5700	  824.00	  797.04	-1820.01	  426.13
     34.6700	  678.00	  717.95	-1886.92	  425.90
     34.7700	  640.00	  661.07	-1868.04	  425.68
     34.8700	  627.00	  624.18	-1844.15	  425.45
     34.9700	  623.00	  601.75	-1825.72	  425.23
     35.0700	  611.00	  588.31	-1824.28	  425.01
     35.1700	  612.00	  579.90	-1814.87	  424.79
     35.2700	  595.00	  574.21	-1826.17	  424.58
     35.3700	  537.00	  570.03	-1880.00	  424.36
     35.4700	  544.00	  566.79	-1869.76	  424.15
     35.5700	  606.00	  564.20	-1805.16	  423.94
     35.6700	  545.00	  562.07	-1864.04	  423.73
     35.7700	  513.00	  560.30	-1894.27	  423.52
     35.8700	  581.00	  558.82	-1824.79	  423.31
     35.9700	  529.00	  557.56	-1875.53	  423.11
     36.0700	  578.00	  556.49	-1825.46	  422.91
     36.1700	  545.00	  556.09	-1858.05	  422.71
     36.2700	  567.00	  555.32	-1835.28	  422.51
     36.3700	  550.00	  554.67	-1851.63	  422.31
     36.4700	  544.00	  554.13	-1857.10	  422.12
     36.5700	  552.00	  553.70	-1848.67	  421.92
     36.6700	  550.00	  553.39	-1850.35	  421.73
     36.7700	  538.00	  553.19	-1862.15	  421.54
     36.8700	  537.00	  553.12	-1863.09	  421.35
     36.9700	  518.00	  553.43	-1882.40	  421.17
     37.0700	  598.00	  553.78	-1802.75	  420.98
     37.1700	  537.00	  554.44	-1864.41	  420.80
     37.2700	  581.00	  555.67	-1821.63	  420.62
     37.3700	  523.00	  557.71	-1881.68	  420.44
     37.4700	  557.00	  561.00	-1850.97	  420.26
     37.5700	  534.00	  566.09	-1879.06	  420.08
     37.6700	  551.00	  573.58	-1869.55	  419.91
     37.7700	  576.00	  583.90	-1854.87	  419.74
     37.8700	  629.00	  596.90	-1814.87	  419.57
     37.9700	  602.00	  611.46	-1856.43	  419.40
     38.0700	  614.00	  625.41	-1858.38	  419.23
     38.1700	  618.00	  635.47	-1864.43	  419.06
     38.2700	  621.00	  637.41	-1863.38	  418.90
     38.3700	  598.00	  628.86	-1877.82	  418.74
     38.4700	  589.00	  612.79	-1870.76	  418.58
     38.5700	  588.00	  595.07	-1854.04	  418.42
     38.6700	  558.00	  579.74	-1868.71	  418.26
     38.7700	  555.00	  568.10	-1860.07	  418.10
     38.8700	  552.00	  559.22	-1854.19	  417.95
     38.9700	  557.00	  554.07	-1844.04	  417.80
     39.0700	  537.00	  550.84	-1860.81	  417.64
     39.1700	  585.00	  548.76	-1810.73	  417.49
     39.2700	  554.00	  547.35	-1840.32	  417.35
     39.3700	  522.00	  546.31	-1871.28	  417.20
     39.4700	  551.00	  545.50	-1841.47	  417.06
     39.5700	  553.00	  544.85	-1838.82	  416.91
     39.6700	  558.00	  544.30	-1833.27	  416.77
     39.7700	  613.00	  543.84	-1777.81	  416.63
     39.8700	  560.00	  543.45	-1830.41	  416.49
     39.9700	  545.00	  543.11	-1845.08	  416.36
     40.0700	  512.00	  542.30	-1877.26	  416.22
     40.1700	  522.00	  542.06	-1867.03	  416.09
     40.2700	  527.00	  542.40	-1862.36	  415.96
     40.3700	  524.00	  542.23	-1865.20	  415.83
     40.4700	  545.00	  542.10	-1844.07	  415.70
     40.5700	  573.00	  542.00	-1815.97	  415.57
     40.6700	  495.00	  541.93	-1893.90	  415.45
     40.7700	  549.00	  541.89	-1839.85	  415.32
