MSG Master    CELL:    5.90964   5.90964  23.23241   90.0000   90.0000  120.0000   SPGR: P 63/m m c             TEMP:    914.65
  1   1280     2.52000     0.00000    -0.12947     0.00000     0.00000    0
    98     0     2
       0.00000      10.00000
     125.00000     130.00000
 2Theta	Yobs	Ycal	Yobs-Ycal	Backg	Posr	(hkl)	K
      0.7700	    0.00	  460.74	-1734.00	  348.84
      0.8700	    0.00	  462.41	-1734.00	  350.51
      0.9700	   53.00	  464.06	-1734.00	  352.16
      1.0700	   46.00	  465.69	-1734.00	  353.79
      1.1700	   45.00	  467.30	-1734.00	  355.40
      1.2700	   51.00	  468.90	-1734.00	  357.00
      1.3700	   47.00	  470.48	-1734.00	  358.58
      1.4700	   92.00	  472.04	-1734.00	  360.14
      1.5700	  286.00	  473.58	-1734.00	  361.69
      1.6700	  453.00	  475.11	-1734.00	  363.21
      1.7700	  579.00	  476.62	-1734.00	  364.72
      1.8700	  632.00	  478.11	-1734.00	  366.21
      1.9700	  732.00	  479.59	-1734.00	  367.69
      2.0700	  771.00	  481.05	-1734.00	  369.15
      2.1700	  796.00	  482.49	-1734.00	  370.59
      2.2700	  723.00	  483.91	-1734.00	  372.01
      2.3700	  714.00	  485.32	-1734.00	  373.42
      2.4700	  690.00	  486.71	-1734.00	  374.81
      2.5700	  705.00	  488.09	-1734.00	  376.19
      2.6700	  681.00	  489.44	-1734.00	  377.54
      2.7700	  705.00	  490.79	-1734.00	  378.89
      2.8700	  640.00	  492.11	-1734.00	  380.21
      2.9700	  635.00	  493.42	-1734.00	  381.52
      3.0700	  604.00	  494.72	-1734.00	  382.82
      3.1700	  628.00	  496.00	-1734.00	  384.10
      3.2700	  640.00	  497.26	-1734.00	  385.36
      3.3700	  768.00	  498.50	-1734.00	  386.61
      3.4700	  776.00	  499.74	-1734.00	  387.84
      3.5700	  888.00	  500.95	-1734.00	  389.05
      3.6700	  990.00	  502.15	-1734.00	  390.25
      3.7700	 1116.00	  503.34	-1734.00	  391.44
      3.8700	 1169.00	  504.51	-1734.00	  392.61
      3.9700	 1162.00	  505.66	-1734.00	  393.76
      4.0700	 1132.00	  506.80	-1734.00	  394.90
      4.1700	 1199.00	  507.93	-1734.00	  396.03
      4.2700	 1266.00	  509.04	-1734.00	  397.14
      4.3700	 1240.00	  510.14	-1734.00	  398.24
      4.4700	 1180.00	  511.22	-1734.00	  399.32
      4.5700	 1111.00	  512.29	-1734.00	  400.39
      4.6700	 1106.00	  513.34	-1734.00	  401.44
      4.7700	 1049.00	  514.38	-1734.00	  402.48
      4.8700	 1059.00	  515.40	-1734.00	  403.50
      4.9700	 1076.00	  516.41	-1734.00	  404.51
      5.0700	  966.00	  517.41	-1734.00	  405.51
      5.1700	  946.00	  518.39	-1734.00	  406.49
      5.2700	  954.00	  519.36	-1734.00	  407.46
      5.3700	  928.00	  520.31	-1734.00	  408.41
      5.4700	  884.00	  521.25	-1734.00	  409.35
      5.5700	  897.00	  522.18	-1734.00	  410.28
      5.6700	  865.00	  523.10	-1734.00	  411.20
      5.7700	  847.00	  524.00	-1734.00	  412.10
      5.8700	  880.00	  524.88	-1734.00	  412.98
      5.9700	  856.00	  525.76	-1734.00	  413.86
      6.0700	  808.00	  526.62	-1734.00	  414.72
      6.1700	  795.00	  527.47	-1734.00	  415.57
      6.2700	  788.00	  528.30	-1734.00	  416.40
      6.3700	  821.00	  529.13	-1734.00	  417.23
      6.4700	  827.00	  529.94	-1734.00	  418.04
      6.5700	  719.00	  530.73	-1734.00	  418.83
      6.6700	  750.00	  531.52	-1734.00	  419.62
      6.7700	  778.00	  532.29	-1734.00	  420.39
      6.8700	  729.00	  533.05	-1734.00	  421.15
      6.9700	  720.00	  533.80	-1734.00	  421.90
      7.0700	  671.00	  534.54	-1734.00	  422.64
      7.1700	  712.00	  535.26	-1734.00	  423.36
      7.2700	  666.00	  535.97	-1734.00	  424.07
      7.3700	  679.00	  536.67	-1734.00	  424.77
      7.4700	  650.00	  537.36	-1734.00	  425.46
      7.5700	  677.00	  538.03	-1734.00	  426.13
      7.6700	  642.00	  538.70	-1734.00	  426.80
      7.7700	  630.00	  539.35	-1734.00	  427.45
      7.8700	  691.00	  539.99	-1734.00	  428.09
      7.9700	  677.00	  540.62	-1734.00	  428.72
      8.0700	  652.00	  541.24	-1734.00	  429.34
      8.1700	  651.00	  541.85	-1734.00	  429.95
      8.2700	  568.00	  542.44	-1734.00	  430.55
      8.3700	  659.00	  543.03	-1734.00	  431.13
      8.4700	  620.00	  543.60	-1734.00	  431.70
      8.5700	  592.00	  544.17	-1734.00	  432.27
      8.6700	  614.00	  544.72	-1734.00	  432.82
      8.7700	  608.00	  545.26	-1734.00	  433.36
      8.8700	  660.00	  545.79	-1734.00	  433.89
      8.9700	  611.00	  546.31	-1734.00	  434.41
      9.0700	  582.00	  546.82	-1734.00	  434.92
      9.1700	  584.00	  547.32	-1734.00	  435.42
      9.2700	  613.00	  547.81	-1734.00	  435.91
      9.3700	  566.00	  548.29	-1734.00	  436.39
      9.4700	  616.00	  548.76	-1734.00	  436.86
      9.5700	  607.00	  549.22	-1734.00	  437.32
      9.6700	  571.00	  549.67	-1734.00	  437.77
      9.7700	  572.00	  550.10	-1734.00	  438.21
      9.8700	  548.00	  550.53	-1734.00	  438.63
      9.9700	  602.00	  550.95	-1734.00	  439.05
     10.0700	  619.00	  552.91	-1667.91	  439.46
     10.1700	  599.00	  553.48	-1688.48	  439.86
     10.2700	  646.00	  554.07	-1642.07	  440.25
     10.3700	  594.00	  554.71	-1694.71	  440.63
     10.4700	  536.00	  555.43	-1753.43	  441.00
     10.5700	  601.00	  556.29	-1689.29	  441.37
     10.6700	  542.00	  557.36	-1749.36	  441.72
     10.7700	  611.00	  558.74	-1681.74	  442.06
     10.8700	  606.00	  560.49	-1688.49	  442.40
     10.9700	  557.00	  562.64	-1739.64	  442.72
     11.0700	  607.00	  565.19	-1692.19	  443.04
     11.1700	  576.00	  568.15	-1726.15	  443.34
     11.2700	  556.00	  571.54	-1749.54	  443.64
     11.3700	  557.00	  575.44	-1752.44	  443.93
     11.4700	  612.00	  580.00	-1702.00	  444.21
     11.5700	  574.00	  585.41	-1745.41	  444.49
     11.6700	  612.00	  592.00	-1714.00	  444.75
     11.7700	  593.00	  600.21	-1741.21	  445.01
     11.8700	  602.00	  610.40	-1742.40	  445.25
     11.9700	  611.00	  622.35	-1745.35	  445.49
     12.0700	  673.00	  634.41	-1695.41	  445.72
     12.1700	  722.00	  642.67	-1654.67	  445.95
     12.2700	  669.00	  641.31	-1706.31	  446.16
     12.3700	  641.00	  627.62	-1720.62	  446.37
     12.4700	  666.00	  608.05	-1676.05	  446.57
     12.5700	  627.00	  590.91	-1697.91	  446.76
     12.6700	  581.00	  579.10	-1732.10	  446.94
     12.7700	  578.00	  572.06	-1728.06	  447.11
     12.8700	  563.00	  568.19	-1739.19	  447.28
     12.9700	  604.00	  566.08	-1696.08	  447.44
     13.0700	  541.00	  564.84	-1757.84	  447.59
     13.1700	  546.00	  564.03	-1752.03	  447.74
     13.2700	  554.00	  563.47	-1743.47	  447.88
     13.3700	  533.00	  563.07	-1764.07	  448.01
     13.4700	  533.00	  562.78	-1763.78	  448.13
     13.5700	  542.00	  562.56	-1754.56	  448.24
     13.6700	  565.00	  562.40	-1731.40	  448.35
     13.7700	  559.00	  562.28	-1737.28	  448.45
     13.8700	  550.00	  562.19	-1746.19	  448.55
     13.9700	  550.00	  562.12	-1746.12	  448.64
     14.0700	  569.00	  562.07	-1727.07	  448.72
     14.1700	  552.00	  562.03	-1744.03	  448.79
     14.2700	  561.00	  562.03	-1735.03	  448.86
     14.3700	  544.00	  562.00	-1752.00	  448.92
     14.4700	  545.00	  561.98	-1750.98	  448.97
     14.5700	  528.00	  561.96	-1767.96	  449.02
     14.6700	  535.00	  561.95	-1760.95	  449.06
     14.7700	  552.00	  561.93	-1743.93	  449.09
     14.8700	  502.00	  561.91	-1793.91	  449.12
     14.9700	  515.00	  561.89	-1780.89	  449.14
     15.0700	  497.00	  561.87	-1798.87	  449.16
     15.1700	  521.00	  561.85	-1774.85	  449.17
     15.2700	  510.00	  561.82	-1785.82	  449.17
     15.3700	  541.00	  561.79	-1754.79	  449.17
     15.4700	  527.00	  561.76	-1768.76	  449.16
     15.5700	  534.00	  561.72	-1761.72	  449.15
     15.6700	  564.00	  561.68	-1731.68	  449.12
     15.7700	  487.00	  561.64	-1808.64	  449.10
     15.8700	  569.00	  561.59	-1726.59	  449.07
     15.9700	  588.00	  561.54	-1707.54	  449.03
     16.0700	  530.00	  561.48	-1765.48	  448.98
     16.1700	  592.00	  561.42	-1703.42	  448.94
     16.2700	  534.00	  561.35	-1761.35	  448.88
     16.3700	  541.00	  561.28	-1754.28	  448.82
     16.4700	  551.00	  561.20	-1744.20	  448.76
     16.5700	  541.00	  561.12	-1754.12	  448.68
     16.6700	  538.00	  561.04	-1757.04	  448.61
     16.7700	  553.00	  560.95	-1741.95	  448.53
     16.8700	  547.00	  560.86	-1747.86	  448.44
     16.9700	  546.00	  560.76	-1748.76	  448.35
     17.0700	  547.00	  560.66	-1747.66	  448.25
     17.1700	  556.00	  560.55	-1738.55	  448.15
     17.2700	  548.00	  560.44	-1746.44	  448.04
     17.3700	  521.00	  560.32	-1773.32	  447.93
     17.4700	  545.00	  560.20	-1749.20	  447.82
     17.5700	  541.00	  560.08	-1753.08	  447.70
     17.6700	  551.00	  560.05	-1743.05	  447.57
     17.7700	  536.00	  559.92	-1757.92	  447.44
     17.8700	  511.00	  559.78	-1782.78	  447.31
     17.9700	  538.00	  559.64	-1755.64	  447.17
     18.0700	  593.00	  559.50	-1700.50	  447.02
     18.1700	  600.00	  559.35	-1693.35	  446.87
     18.2700	  575.00	  559.29	-1718.29	  446.72
     18.3700	  587.00	  559.14	-1706.14	  446.56
     18.4700	  520.00	  558.98	-1772.98	  446.40
     18.5700	  558.00	  558.82	-1734.82	  446.24
     18.6700	  542.00	  558.65	-1750.65	  446.07
     18.7700	  576.00	  558.49	-1716.49	  445.89
     18.8700	  528.00	  558.31	-1764.31	  445.72
     18.9700	  557.00	  558.14	-1735.14	  445.53
     19.0700	  545.00	  557.96	-1746.96	  445.35
     19.1700	  564.00	  557.77	-1727.77	  445.16
     19.2700	  538.00	  557.59	-1753.59	  444.96
     19.3700	  576.00	  557.40	-1715.40	  444.77
     19.4700	  549.00	  557.20	-1742.20	  444.56
     19.5700	  551.00	  557.01	-1740.01	  444.36
     19.6700	  526.00	  556.81	-1764.81	  444.15
     19.7700	  560.00	  556.60	-1730.60	  443.94
     19.8700	  568.00	  556.43	-1722.43	  443.72
     19.9700	  558.00	  556.22	-1732.22	  443.50
     20.0700	  551.00	  556.01	-1739.01	  443.28
     20.1700	  501.00	  555.80	-1788.80	  443.05
     20.2700	  530.00	  555.58	-1759.58	  442.82
     20.3700	  548.00	  555.37	-1741.37	  442.59
     20.4700	  537.00	  555.14	-1752.14	  442.35
     20.5700	  520.00	  554.92	-1768.92	  442.12
     20.6700	  571.00	  554.70	-1717.70	  441.87
     20.7700	  537.00	  554.47	-1751.47	  441.63
     20.8700	  531.00	  554.24	-1757.24	  441.38
     20.9700	  543.00	  554.01	-1745.01	  441.13
     21.0700	  544.00	  553.78	-1743.78	  440.87
     21.1700	  561.00	  553.54	-1726.54	  440.61
     21.2700	  536.00	  553.31	-1751.31	  440.35
     21.3700	  577.00	  553.07	-1710.07	  440.09
     21.4700	  513.00	  552.83	-1773.83	  439.82
     21.5700	  495.00	  552.60	-1791.60	  439.55
     21.6700	  548.00	  552.36	-1738.36	  439.28
     21.7700	  579.00	  552.12	-1707.12	  439.01
     21.8700	  552.00	  551.88	-1733.88	  438.73
     21.9700	  548.00	  551.65	-1737.65	  438.45
     22.0700	  525.00	  551.41	-1760.41	  438.17
     22.1700	  551.00	  551.18	-1734.18	  437.88
     22.2700	  549.00	  550.95	-1735.95	  437.59
     22.3700	  533.00	  550.72	-1751.72	  437.30
     22.4700	  550.00	  550.50	-1734.50	  437.01
     22.5700	  539.00	  550.40	-1745.40	  436.72
     22.6700	  608.00	  550.19	-1676.19	  436.42
     22.7700	  548.00	  549.99	-1735.99	  436.12
     22.8700	  593.00	  549.80	-1690.80	  435.82
     22.9700	  551.00	  549.63	-1732.63	  435.52
     23.0700	  572.00	  549.47	-1711.47	  435.21
     23.1700	  590.00	  549.34	-1693.34	  434.90
     23.2700	  564.00	  549.23	-1719.23	  434.59
     23.3700	  546.00	  549.16	-1737.16	  434.28
     23.4700	  560.00	  549.14	-1723.14	  433.97
     23.5700	  558.00	  549.19	-1725.19	  433.65
     23.6700	  564.00	  549.33	-1719.33	  433.33
     23.7700	  549.00	  549.61	-1734.61	  433.01
     23.8700	  552.00	  550.15	-1732.15	  432.69
     23.9700	  536.00	  551.11	-1749.11	  432.37
     24.0700	  605.00	  552.79	-1681.79	  432.04
     24.1700	  571.00	  555.66	-1718.66	  431.72
     24.2700	  564.00	  560.30	-1730.30	  431.39
     24.3700	  599.00	  567.30	-1702.30	  431.06
     24.4700	  597.00	  577.04	-1714.04	  430.73
     24.5700	  609.00	  589.24	-1714.24	  430.40
     24.6700	  644.00	  602.29	-1692.29	  430.06
     24.7700	  633.00	  612.58	-1713.58	  429.72
     24.8700	  676.00	  614.68	-1672.68	  429.39
     24.9700	  649.00	  605.34	-1690.34	  429.05
     25.0700	  616.00	  589.17	-1707.17	  428.71
     25.1700	  579.00	  573.58	-1728.58	  428.37
     25.2700	  561.00	  562.02	-1735.02	  428.02
     25.3700	  542.00	  554.63	-1746.63	  427.68
     25.4700	  585.00	  550.33	-1699.33	  427.34
     25.5700	  564.00	  547.86	-1717.86	  426.99
     25.6700	  589.00	  546.35	-1691.35	  426.64
     25.7700	  563.00	  545.34	-1716.34	  426.29
     25.8700	  584.00	  544.61	-1694.61	  425.94
     25.9700	  591.00	  544.06	-1687.06	  425.59
     26.0700	  542.00	  543.64	-1735.64	  425.24
     26.1700	  565.00	  543.34	-1712.34	  424.89
     26.2700	  568.00	  543.13	-1709.13	  424.53
     26.3700	  540.00	  543.03	-1737.03	  424.18
     26.4700	  549.00	  543.02	-1728.02	  423.82
     26.5700	  564.00	  543.12	-1713.12	  423.47
     26.6700	  561.00	  543.34	-1716.34	  423.11
     26.7700	  535.00	  543.71	-1742.71	  422.75
     26.8700	  579.00	  544.25	-1699.25	  422.39
     26.9700	  590.00	  545.01	-1689.01	  422.03
     27.0700	  596.00	  546.05	-1684.05	  421.67
     27.1700	  585.00	  547.51	-1696.51	  421.31
     27.2700	  544.00	  549.56	-1739.56	  420.95
     27.3700	  559.00	  552.61	-1727.61	  420.59
     27.4700	  591.00	  557.41	-1700.41	  420.23
     27.5700	  567.00	  565.30	-1732.30	  419.86
     27.6700	  563.00	  578.49	-1749.49	  419.50
     27.7700	  569.00	  600.03	-1765.03	  419.14
     27.8700	  605.00	  632.99	-1761.99	  418.77
     27.9700	  610.00	  678.62	-1802.62	  418.41
     28.0700	  751.00	  733.77	-1716.77	  418.04
     28.1700	  790.00	  788.34	-1732.34	  417.68
     28.2700	  914.00	  824.38	-1644.38	  417.31
     28.3700	  952.00	  823.62	-1605.62	  416.94
     28.4700	  842.00	  790.97	-1682.97	  416.58
     28.5700	  742.00	  756.98	-1748.98	  416.21
     28.6700	  748.00	  744.49	-1730.49	  415.84
     28.7700	  689.00	  756.41	-1801.41	  415.48
     28.8700	  816.00	  780.60	-1698.60	  415.11
     28.9700	  794.00	  795.01	-1735.01	  414.74
     29.0700	  771.00	  777.69	-1740.69	  414.37
     29.1700	  696.00	  728.29	-1766.29	  414.01
     29.2700	  728.00	  669.95	-1675.95	  413.64
     29.3700	  603.00	  621.31	-1752.31	  413.27
     29.4700	  547.00	  587.77	-1774.77	  412.90
     29.5700	  606.00	  567.38	-1695.38	  412.54
     29.6700	  588.00	  555.77	-1701.77	  412.17
     29.7700	  504.00	  549.15	-1779.15	  411.80
     29.8700	  582.00	  545.14	-1697.14	  411.43
     29.9700	  573.00	  542.58	-1703.58	  411.07
     30.0700	  545.00	  541.01	-1730.01	  410.70
     30.1700	  558.00	  540.40	-1716.40	  410.33
     30.2700	  586.00	  540.99	-1688.99	  409.97
     30.3700	  582.00	  543.37	-1695.37	  409.60
     30.4700	  549.00	  548.46	-1733.46	  409.23
     30.5700	  556.00	  557.30	-1735.30	  408.87
     30.6700	  552.00	  570.34	-1752.34	  408.50
     30.7700	  585.00	  586.56	-1735.56	  408.14
     30.8700	  609.00	  602.62	-1727.62	  407.77
     30.9700	  619.00	  612.64	-1727.64	  407.41
     31.0700	  582.00	  610.21	-1762.21	  407.05
     31.1700	  586.00	  595.06	-1743.06	  406.68
     31.2700	  565.00	  575.04	-1744.04	  406.32
     31.3700	  595.00	  557.35	-1696.35	  405.96
     31.4700	  569.00	  544.61	-1709.61	  405.59
     31.5700	  556.00	  536.58	-1714.58	  405.23
     31.6700	  567.00	  531.91	-1698.91	  404.87
     31.7700	  498.00	  529.23	-1765.23	  404.51
     31.8700	  578.00	  527.63	-1683.63	  404.15
     31.9700	  512.00	  526.58	-1748.58	  403.79
     32.0700	  552.00	  525.88	-1707.88	  403.43
     32.1700	  528.00	  525.42	-1731.42	  403.07
     32.2700	  554.00	  525.17	-1705.17	  402.72
     32.3700	  583.00	  525.10	-1676.10	  402.36
     32.4700	  560.00	  525.24	-1699.24	  402.00
     32.5700	  567.00	  525.59	-1692.59	  401.65
     32.6700	  554.00	  526.18	-1706.18	  401.30
     32.7700	  546.00	  527.08	-1715.08	  400.94
     32.8700	  573.00	  528.36	-1689.36	  400.59
     32.9700	  533.00	  530.16	-1731.16	  400.24
     33.0700	  534.00	  532.70	-1732.70	  399.89
     33.1700	  503.00	  536.45	-1767.45	  399.53
     33.2700	  581.00	  542.33	-1695.33	  399.19
     33.3700	  592.00	  552.14	-1694.14	  398.84
     33.4700	  589.00	  569.05	-1714.05	  398.49
     33.5700	  615.00	  597.85	-1716.85	  398.14
     33.6700	  623.00	  644.15	-1755.15	  397.80
     33.7700	  719.00	  711.32	-1726.32	  397.45
     33.8700	  751.00	  795.77	-1778.77	  397.11
     33.9700	  937.00	  882.40	-1679.40	  396.76
     34.0700	 1061.00	  943.50	-1616.50	  396.42
     34.1700	  990.00	  947.14	-1691.14	  396.08
     34.2700	  936.00	  885.59	-1683.59	  395.74
     34.3700	  826.00	  791.08	-1699.08	  395.40
     34.4700	  713.00	  700.67	-1721.67	  395.07
     34.5700	  593.00	  631.62	-1772.62	  394.73
     34.6700	  568.00	  585.93	-1751.93	  394.39
     34.7700	  557.00	  558.58	-1735.58	  394.06
     34.8700	  547.00	  542.93	-1729.93	  393.73
     34.9700	  525.00	  533.75	-1742.75	  393.39
     35.0700	  502.00	  527.89	-1759.89	  393.06
     35.1700	  513.00	  523.74	-1744.74	  392.73
     35.2700	  518.00	  520.57	-1736.57	  392.40
     35.3700	  540.00	  518.05	-1712.05	  392.08
     35.4700	  532.00	  515.97	-1717.97	  391.75
     35.5700	  502.00	  514.24	-1746.24	  391.43
     35.6700	  545.00	  513.19	-1702.19	  391.10
     35.7700	  540.00	  511.92	-1705.92	  390.78
     35.8700	  525.00	  510.81	-1719.81	  390.46
     35.9700	  470.00	  509.83	-1773.83	  390.14
     36.0700	  497.00	  508.97	-1745.97	  389.82
     36.1700	  554.00	  508.18	-1688.18	  389.51
     36.2700	  550.00	  507.48	-1691.48	  389.19
     36.3700	  491.00	  506.83	-1749.83	  388.88
     36.4700	  519.00	  506.25	-1721.25	  388.56
     36.5700	  495.00	  505.73	-1744.73	  388.25
     36.6700	  529.00	  505.27	-1710.27	  387.94
     36.7700	  510.00	  504.88	-1728.88	  387.63
     36.8700	  515.00	  504.57	-1723.57	  387.33
     36.9700	  474.00	  504.41	-1764.41	  387.02
     37.0700	  492.00	  504.47	-1746.47	  386.72
     37.1700	  512.00	  504.92	-1726.92	  386.41
     37.2700	  461.00	  505.94	-1778.94	  386.11
     37.3700	  503.00	  507.72	-1738.72	  385.81
     37.4700	  475.00	  510.26	-1769.26	  385.51
     37.5700	  497.00	  513.26	-1750.26	  385.22
     37.6700	  504.00	  515.93	-1745.93	  384.92
     37.7700	  530.00	  517.11	-1721.11	  384.63
     37.8700	  518.00	  515.91	-1731.91	  384.34
     37.9700	  525.00	  512.89	-1721.89	  384.05
     38.0700	  497.00	  509.02	-1746.02	  383.76
     38.1700	  480.00	  505.52	-1759.52	  383.47
     38.2700	  523.00	  502.80	-1713.80	  383.18
     38.3700	  480.00	  500.89	-1754.89	  382.90
     38.4700	  493.00	  499.60	-1740.60	  382.62
     38.5700	  465.00	  498.72	-1767.72	  382.34
     38.6700	  497.00	  498.08	-1735.08	  382.06
     38.7700	  506.00	  497.58	-1725.58	  381.78
     38.8700	  477.00	  497.15	-1754.15	  381.50
     38.9700	  448.00	  496.76	-1782.76	  381.23
     39.0700	  503.00	  496.40	-1727.40	  380.96
     39.1700	  506.00	  495.98	-1723.98	  380.69
     39.2700	  488.00	  495.67	-1741.67	  380.42
     39.3700	  490.00	  495.37	-1739.37	  380.15
     39.4700	  526.00	  495.09	-1703.09	  379.88
     39.5700	  462.00	  494.83	-1766.83	  379.62
     39.6700	  495.00	  494.57	-1733.57	  379.36
     39.7700	  477.00	  494.33	-1751.33	  379.10
     39.8700	  482.00	  494.10	-1746.10	  378.84
     39.9700	  520.00	  493.79	-1707.79	  378.58
     40.0700	  526.00	  493.59	-1701.59	  378.32
     40.1700	  522.00	  493.40	-1705.40	  378.07
     40.2700	  474.00	  493.22	-1753.22	  377.82
     40.3700	  482.00	  493.05	-1745.05	  377.57
     40.4700	  504.00	  492.91	-1722.91	  377.32
     40.5700	  489.00	  493.28	-1738.28	  377.07
     40.6700	  475.00	  493.18	-1752.18	  376.83
     40.7700	  468.00	  493.10	-1759.10	  376.58
