MSG Master    CELL:    5.89103   5.89103  23.15314   90.0000   90.0000  120.0000   SPGR: P 63/m m c             TEMP:    658.95
  2   1280     2.52000     0.00000    -0.09823     0.00000     0.00000    0
    96    96     0     0     2
       0.00000      10.00000
     125.00000     130.00000
 2Theta	Yobs	Ycal	Yobs-Ycal	Backg	Posr	(hkl)	K
      0.7700	    0.00	  743.84	-1867.42	  621.06
      0.8700	    0.00	  742.91	-1867.42	  620.13
      0.9700	   42.00	  741.99	-1867.42	  619.21
      1.0700	   40.00	  741.07	-1867.42	  618.29
      1.1700	   39.00	  740.15	-1867.42	  617.37
      1.2700	   46.00	  739.24	-1867.42	  616.45
      1.3700	   49.00	  738.32	-1867.42	  615.54
      1.4700	  105.00	  737.40	-1867.42	  614.62
      1.5700	  271.00	  736.49	-1867.42	  613.71
      1.6700	  453.00	  735.58	-1867.42	  612.80
      1.7700	  585.00	  734.67	-1867.42	  611.89
      1.8700	  665.00	  733.76	-1867.42	  610.98
      1.9700	  711.00	  732.85	-1867.42	  610.07
      2.0700	  768.00	  731.94	-1867.42	  609.16
      2.1700	  780.00	  731.04	-1867.42	  608.26
      2.2700	  784.00	  730.14	-1867.42	  607.35
      2.3700	  740.00	  729.23	-1867.42	  606.45
      2.4700	  738.00	  728.33	-1867.42	  605.55
      2.5700	  670.00	  727.44	-1867.42	  604.65
      2.6700	  706.00	  726.54	-1867.42	  603.76
      2.7700	  623.00	  725.64	-1867.42	  602.86
      2.8700	  643.00	  724.75	-1867.42	  601.97
      2.9700	  630.00	  723.86	-1867.42	  601.07
      3.0700	  584.00	  722.96	-1867.42	  600.18
      3.1700	  609.00	  722.08	-1867.42	  599.29
      3.2700	  644.00	  721.19	-1867.42	  598.41
      3.3700	  905.00	  720.30	-1867.42	  597.52
      3.4700	 1016.00	  719.42	-1867.42	  596.63
      3.5700	 1097.00	  718.53	-1867.42	  595.75
      3.6700	 1306.00	  717.65	-1867.42	  594.87
      3.7700	 1372.00	  716.77	-1867.42	  593.99
      3.8700	 1479.00	  715.90	-1867.42	  593.11
      3.9700	 1462.00	  715.02	-1867.42	  592.24
      4.0700	 1547.00	  714.14	-1867.42	  591.36
      4.1700	 1616.00	  713.27	-1867.42	  590.49
      4.2700	 1638.00	  712.40	-1867.42	  589.62
      4.3700	 1577.00	  711.53	-1867.42	  588.75
      4.4700	 1447.00	  710.66	-1867.42	  587.88
      4.5700	 1467.00	  709.80	-1867.42	  587.01
      4.6700	 1434.00	  708.93	-1867.42	  586.15
      4.7700	 1384.00	  708.07	-1867.42	  585.29
      4.8700	 1311.00	  707.21	-1867.42	  584.43
      4.9700	 1316.00	  706.35	-1867.42	  583.57
      5.0700	 1243.00	  705.49	-1867.42	  582.71
      5.1700	 1233.00	  704.64	-1867.42	  581.86
      5.2700	 1253.00	  703.78	-1867.42	  581.00
      5.3700	 1159.00	  702.93	-1867.42	  580.15
      5.4700	 1101.00	  702.08	-1867.42	  579.30
      5.5700	 1098.00	  701.23	-1867.42	  578.45
      5.6700	 1097.00	  700.39	-1867.42	  577.61
      5.7700	 1030.00	  699.54	-1867.42	  576.76
      5.8700	 1048.00	  698.70	-1867.42	  575.92
      5.9700	  996.00	  697.86	-1867.42	  575.08
      6.0700	 1008.00	  697.02	-1867.42	  574.24
      6.1700	  971.00	  696.19	-1867.42	  573.40
      6.2700	  966.00	  695.35	-1867.42	  572.57
      6.3700	  981.00	  694.52	-1867.42	  571.74
      6.4700	  940.00	  693.69	-1867.42	  570.90
      6.5700	  911.00	  692.86	-1867.42	  570.08
      6.6700	  893.00	  692.03	-1867.42	  569.25
      6.7700	  852.00	  691.20	-1867.42	  568.42
      6.8700	  850.00	  690.38	-1867.42	  567.60
      6.9700	  816.00	  689.56	-1867.42	  566.78
      7.0700	  879.00	  688.74	-1867.42	  565.96
      7.1700	  779.00	  687.92	-1867.42	  565.14
      7.2700	  821.00	  687.11	-1867.42	  564.33
      7.3700	  773.00	  686.29	-1867.42	  563.51
      7.4700	  827.00	  685.48	-1867.42	  562.70
      7.5700	  730.00	  684.67	-1867.42	  561.89
      7.6700	  815.00	  683.86	-1867.42	  561.08
      7.7700	  763.00	  683.06	-1867.42	  560.28
      7.8700	  752.00	  682.26	-1867.42	  559.47
      7.9700	  768.00	  681.45	-1867.42	  558.67
      8.0700	  688.00	  680.65	-1867.42	  557.87
      8.1700	  778.00	  679.86	-1867.42	  557.08
      8.2700	  761.00	  679.06	-1867.42	  556.28
      8.3700	  705.00	  678.27	-1867.42	  555.49
      8.4700	  767.00	  677.48	-1867.42	  554.70
      8.5700	  757.00	  676.69	-1867.42	  553.91
      8.6700	  744.00	  675.90	-1867.42	  553.12
      8.7700	  692.00	  675.12	-1867.42	  552.33
      8.8700	  697.00	  674.33	-1867.42	  551.55
      8.9700	  725.00	  673.55	-1867.42	  550.77
      9.0700	  730.00	  672.77	-1867.42	  549.99
      9.1700	  709.00	  672.00	-1867.42	  549.22
      9.2700	  675.00	  671.22	-1867.42	  548.44
      9.3700	  735.00	  670.45	-1867.42	  547.67
      9.4700	  735.00	  669.68	-1867.42	  546.90
      9.5700	  715.00	  668.91	-1867.42	  546.13
      9.6700	  693.00	  668.15	-1867.42	  545.36
      9.7700	  678.00	  667.38	-1867.42	  544.60
      9.8700	  662.00	  666.62	-1867.42	  543.84
      9.9700	  704.00	  665.86	-1867.42	  543.08
     10.0700	  710.00	  667.38	-1824.79	  542.32
     10.1700	  691.00	  666.88	-1843.29	  541.57
     10.2700	  681.00	  666.43	-1852.85	  540.81
     10.3700	  738.00	  666.06	-1795.48	  540.06
     10.4700	  688.00	  665.80	-1845.22	  539.31
     10.5700	  662.00	  665.69	-1871.11	  538.57
     10.6700	  629.00	  665.81	-1904.23	  537.82
     10.7700	  680.00	  666.25	-1853.67	  537.08
     10.8700	  721.00	  667.11	-1813.53	  536.34
     10.9700	  697.00	  668.46	-1838.88	  535.60
     11.0700	  675.00	  670.34	-1862.75	  534.87
     11.1700	  670.00	  672.76	-1870.17	  534.14
     11.2700	  682.00	  675.75	-1861.16	  533.41
     11.3700	  633.00	  679.37	-1913.79	  532.68
     11.4700	  657.00	  683.75	-1894.17	  531.95
     11.5700	  722.00	  689.07	-1834.48	  531.23
     11.6700	  687.00	  695.58	-1876.00	  530.50
     11.7700	  722.00	  703.61	-1849.02	  529.78
     11.8700	  763.00	  713.37	-1817.79	  529.07
     11.9700	  781.00	  724.75	-1811.17	  528.35
     12.0700	  819.00	  736.77	-1785.18	  527.64
     12.1700	  796.00	  747.04	-1818.45	  526.93
     12.2700	  818.00	  751.34	-1800.76	  526.22
     12.3700	  778.00	  744.95	-1834.36	  525.51
     12.4700	  772.00	  727.82	-1823.24	  524.81
     12.5700	  681.00	  706.76	-1893.18	  524.11
     12.6700	  671.00	  688.25	-1884.67	  523.41
     12.7700	  665.00	  674.41	-1876.83	  522.71
     12.8700	  627.00	  664.93	-1905.34	  522.02
     12.9700	  629.00	  658.66	-1897.08	  521.33
     13.0700	  655.00	  654.47	-1866.89	  520.64
     13.1700	  582.00	  651.51	-1936.92	  519.95
     13.2700	  629.00	  649.25	-1887.67	  519.26
     13.3700	  617.00	  647.41	-1897.83	  518.58
     13.4700	  664.00	  645.85	-1849.27	  517.90
     13.5700	  644.00	  644.47	-1867.89	  517.22
     13.6700	  640.00	  643.24	-1870.65	  516.54
     13.7700	  616.00	  642.10	-1893.52	  515.87
     13.8700	  594.00	  641.05	-1914.47	  515.20
     13.9700	  642.00	  640.07	-1865.48	  514.53
     14.0700	  615.00	  639.13	-1891.55	  513.86
     14.1700	  616.00	  638.24	-1889.65	  513.20
     14.2700	  610.00	  637.38	-1894.79	  512.54
     14.3700	  619.00	  636.55	-1884.96	  511.88
     14.4700	  653.00	  635.74	-1850.16	  511.22
     14.5700	  645.00	  634.96	-1857.37	  510.56
     14.6700	  634.00	  634.19	-1867.60	  509.91
     14.7700	  616.00	  633.44	-1884.85	  509.26
     14.8700	  619.00	  632.70	-1881.11	  508.61
     14.9700	  605.00	  631.97	-1894.39	  507.97
     15.0700	  619.00	  631.26	-1879.67	  507.32
     15.1700	  654.00	  630.55	-1843.97	  506.68
     15.2700	  619.00	  629.85	-1878.27	  506.05
     15.3700	  610.00	  629.17	-1886.58	  505.41
     15.4700	  590.00	  628.48	-1905.90	  504.78
     15.5700	  606.00	  627.81	-1889.22	  504.14
     15.6700	  667.00	  627.14	-1827.55	  503.52
     15.7700	  611.00	  626.48	-1882.89	  502.89
     15.8700	  636.00	  625.82	-1857.23	  502.26
     15.9700	  622.00	  625.17	-1870.58	  501.64
     16.0700	  577.00	  624.52	-1914.93	  501.02
     16.1700	  589.00	  623.88	-1902.29	  500.41
     16.2700	  623.00	  623.24	-1867.65	  499.79
     16.3700	  620.00	  622.60	-1870.02	  499.18
     16.4700	  611.00	  621.97	-1878.39	  498.57
     16.5700	  634.00	  621.35	-1854.76	  497.96
     16.6700	  635.00	  620.72	-1853.14	  497.36
     16.7700	  615.00	  620.10	-1872.52	  496.75
     16.8700	  628.00	  619.49	-1858.90	  496.15
     16.9700	  598.00	  618.88	-1888.29	  495.56
     17.0700	  581.00	  618.27	-1904.68	  494.96
     17.1700	  617.00	  617.66	-1868.08	  494.37
     17.2700	  596.00	  617.06	-1888.48	  493.78
     17.3700	  585.00	  616.46	-1898.88	  493.19
     17.4700	  578.00	  615.87	-1905.28	  492.60
     17.5700	  577.00	  615.28	-1905.69	  492.02
     17.6700	  614.00	  614.69	-1868.10	  491.44
     17.7700	  587.00	  614.10	-1894.52	  490.86
     17.8700	  601.00	  613.52	-1879.93	  490.28
     17.9700	  609.00	  612.94	-1871.35	  489.71
     18.0700	  586.00	  612.36	-1893.78	  489.14
     18.1700	  630.00	  611.79	-1849.20	  488.57
     18.2700	  601.00	  611.22	-1877.63	  488.00
     18.3700	  593.00	  610.65	-1885.06	  487.44
     18.4700	  652.00	  611.16	-1826.58	  486.88
     18.5700	  595.00	  611.26	-1883.67	  486.32
     18.6700	  586.00	  610.73	-1892.15	  485.76
     18.7700	  622.00	  610.21	-1855.63	  485.21
     18.8700	  567.00	  609.69	-1910.11	  484.65
     18.9700	  632.00	  609.18	-1844.60	  484.10
     19.0700	  594.00	  608.67	-1882.09	  483.56
     19.1700	  599.00	  608.17	-1876.58	  483.01
     19.2700	  603.00	  607.67	-1872.08	  482.47
     19.3700	  605.00	  607.17	-1869.59	  481.93
     19.4700	  609.00	  606.68	-1865.10	  481.39
     19.5700	  647.00	  606.19	-1826.61	  480.86
     19.6700	  570.00	  605.71	-1903.13	  480.32
     19.7700	  601.00	  605.28	-1871.70	  479.79
     19.8700	  589.00	  604.81	-1883.23	  479.26
     19.9700	  592.00	  604.34	-1879.76	  478.74
     20.0700	  598.00	  603.88	-1873.30	  478.22
     20.1700	  593.00	  603.42	-1877.84	  477.69
     20.2700	  567.00	  602.97	-1903.39	  477.18
     20.3700	  586.00	  602.52	-1883.94	  476.66
     20.4700	  608.00	  602.08	-1861.50	  476.15
     20.5700	  600.00	  601.64	-1869.06	  475.64
     20.6700	  617.00	  601.21	-1851.63	  475.13
     20.7700	  599.00	  600.79	-1869.20	  474.62
     20.8700	  594.00	  600.37	-1873.79	  474.12
     20.9700	  577.00	  599.96	-1890.37	  473.61
     21.0700	  613.00	  599.55	-1853.97	  473.12
     21.1700	  574.00	  599.15	-1892.57	  472.62
     21.2700	  597.00	  598.76	-1869.18	  472.12
     21.3700	  581.00	  598.38	-1884.80	  471.63
     21.4700	  572.00	  598.00	-1893.42	  471.14
     21.5700	  566.00	  597.64	-1899.05	  470.66
     21.6700	  611.00	  597.28	-1853.70	  470.17
     21.7700	  606.00	  596.93	-1858.35	  469.69
     21.8700	  582.00	  596.59	-1882.01	  469.21
     21.9700	  625.00	  596.26	-1838.68	  468.73
     22.0700	  608.00	  596.13	-1855.55	  468.26
     22.1700	  595.00	  595.83	-1868.24	  467.78
     22.2700	  608.00	  595.54	-1854.96	  467.31
     22.3700	  612.00	  595.27	-1850.68	  466.84
     22.4700	  634.00	  595.01	-1828.43	  466.38
     22.5700	  592.00	  594.77	-1870.19	  465.92
     22.6700	  583.00	  594.55	-1878.96	  465.45
     22.7700	  606.00	  594.35	-1855.76	  465.00
     22.8700	  619.00	  594.17	-1842.59	  464.54
     22.9700	  605.00	  594.02	-1856.44	  464.09
     23.0700	  594.00	  593.91	-1867.32	  463.63
     23.1700	  632.00	  593.83	-1829.24	  463.19
     23.2700	  594.00	  593.79	-1867.20	  462.74
     23.3700	  648.00	  593.80	-1813.21	  462.29
     23.4700	  576.00	  593.87	-1885.29	  461.85
     23.5700	  605.00	  594.02	-1856.44	  461.41
     23.6700	  654.00	  594.28	-1807.69	  460.98
     23.7700	  595.00	  594.66	-1867.08	  460.54
     23.8700	  623.00	  595.25	-1839.67	  460.11
     23.9700	  602.00	  596.13	-1861.55	  459.68
     24.0700	  650.00	  597.47	-1814.88	  459.25
     24.1700	  604.00	  599.52	-1862.93	  458.83
     24.2700	  619.00	  602.64	-1851.05	  458.40
     24.3700	  621.00	  607.19	-1853.61	  457.98
     24.4700	  667.00	  613.67	-1814.09	  457.56
     24.5700	  681.00	  622.12	-1808.54	  457.15
     24.6700	  708.00	  632.16	-1791.58	  456.73
     24.7700	  647.00	  642.60	-1863.01	  456.32
     24.8700	  721.00	  651.07	-1797.48	  455.91
     24.9700	  705.00	  654.13	-1816.54	  455.51
     25.0700	  685.00	  649.36	-1831.78	  455.10
     25.1700	  659.00	  638.72	-1847.14	  454.70
     25.2700	  641.00	  627.07	-1853.48	  454.30
     25.3700	  653.00	  617.51	-1831.93	  453.90
     25.4700	  620.00	  610.86	-1858.27	  453.51
     25.5700	  616.00	  606.78	-1858.19	  453.11
     25.6700	  643.00	  604.63	-1829.04	  452.72
     25.7700	  648.00	  603.77	-1823.19	  452.33
     25.8700	  610.00	  603.77	-1861.19	  451.95
     25.9700	  643.00	  604.36	-1828.78	  451.56
     26.0700	  635.00	  605.42	-1837.83	  451.18
     26.1700	  621.00	  606.89	-1853.31	  450.80
     26.2700	  634.00	  608.79	-1842.21	  450.43
     26.3700	  616.00	  611.15	-1862.56	  450.05
     26.4700	  671.00	  614.02	-1810.43	  449.68
     26.5700	  630.00	  617.49	-1854.90	  449.31
     26.6700	  673.00	  621.67	-1816.08	  448.94
     26.7700	  621.00	  626.72	-1873.13	  448.58
     26.8700	  613.00	  632.84	-1887.26	  448.21
     26.9700	  653.00	  640.33	-1854.75	  447.85
     27.0700	  621.00	  649.58	-1895.99	  447.49
     27.1700	  660.00	  661.15	-1868.57	  447.14
     27.2700	  655.00	  675.95	-1888.37	  446.78
     27.3700	  724.00	  695.55	-1838.96	  446.43
     27.4700	  703.00	  723.07	-1887.49	  446.08
     27.5700	  726.00	  765.00	-1906.41	  445.73
     27.6700	  746.00	  834.12	-1955.53	  445.39
     27.7700	  816.00	  953.26	-2004.68	  445.05
     27.8700	  863.00	 1157.67	-2162.09	  444.70
     27.9700	 1162.00	 1490.47	-2195.89	  444.37
     28.0700	 1677.00	 1983.91	-2174.33	  444.03
     28.1700	 2544.00	 2625.21	-1948.62	  443.70
     28.2700	 3568.00	 3312.40	-1611.82	  443.36
     28.3700	 4431.00	 3825.71	-1262.13	  443.03
     28.4700	 4383.00	 3885.63	-1370.05	  442.71
     28.5700	 3694.00	 3436.55	-1609.96	  442.38
     28.6700	 2648.00	 2829.77	-2049.19	  442.06
     28.7700	 2116.00	 2414.32	-2165.74	  441.74
     28.8700	 2087.00	 2290.94	-2071.35	  441.42
     28.9700	 2423.00	 2375.76	-1820.18	  441.10
     29.0700	 2616.00	 2484.95	-1736.37	  440.79
     29.1700	 2596.00	 2417.66	-1689.08	  440.47
     29.2700	 2232.00	 2103.16	-1738.58	  440.16
     29.3700	 1685.00	 1679.70	-1862.11	  439.86
     29.4700	 1222.00	 1305.36	-1950.77	  439.55
     29.5700	 1029.00	 1039.65	-1878.07	  439.25
     29.6700	  824.00	  875.91	-1919.32	  438.94
     29.7700	  782.00	  782.98	-1868.39	  438.64
     29.8700	  775.00	  730.48	-1822.90	  438.35
     29.9700	  769.00	  698.59	-1797.00	  438.05
     30.0700	  762.00	  677.20	-1782.61	  437.76
     30.1700	  698.00	  661.88	-1831.30	  437.47
     30.2700	  698.00	  650.85	-1820.26	  437.18
     30.3700	  666.00	  643.53	-1844.95	  436.89
     30.4700	  682.00	  640.18	-1825.59	  436.61
     30.5700	  688.00	  641.68	-1821.10	  436.32
     30.6700	  629.00	  649.35	-1887.77	  436.04
     30.7700	  710.00	  664.05	-1821.46	  435.77
     30.8700	  733.00	  684.87	-1819.28	  435.49
     30.9700	  693.00	  707.83	-1882.25	  435.22
     31.0700	  736.00	  725.16	-1856.58	  434.94
     31.1700	  718.00	  726.69	-1876.11	  434.67
     31.2700	  713.00	  707.68	-1862.10	  434.41
     31.3700	  688.00	  676.72	-1856.14	  434.14
     31.4700	  682.00	  646.28	-1831.70	  433.88
     31.5700	  596.00	  622.60	-1894.01	  433.61
     31.6700	  634.00	  606.53	-1839.94	  433.35
     31.7700	  583.00	  596.52	-1880.93	  433.10
     31.8700	  614.00	  590.44	-1843.86	  432.84
     31.9700	  570.00	  586.61	-1884.03	  432.59
     32.0700	  606.00	  584.02	-1845.43	  432.33
     32.1700	  565.00	  582.14	-1884.56	  432.08
     32.2700	  600.00	  580.75	-1848.17	  431.84
     32.3700	  575.00	  579.74	-1872.16	  431.59
     32.4700	  595.00	  579.07	-1851.49	  431.35
     32.5700	  566.00	  578.71	-1880.13	  431.11
     32.6700	  595.00	  578.71	-1851.12	  430.87
     32.7700	  585.00	  579.02	-1861.44	  430.63
     32.8700	  638.00	  579.73	-1809.15	  430.39
     32.9700	  576.00	  580.92	-1872.34	  430.16
     33.0700	  627.00	  582.72	-1823.14	  429.93
     33.1700	  608.00	  585.37	-1844.78	  429.70
     33.2700	  607.00	  589.29	-1849.70	  429.47
     33.3700	  575.00	  595.33	-1887.75	  429.24
     33.4700	  616.00	  605.10	-1856.51	  429.02
     33.5700	  649.00	  621.37	-1839.78	  428.80
     33.6700	  650.00	  648.41	-1865.83	  428.58
     33.7700	  670.00	  691.50	-1888.91	  428.36
     33.8700	  711.00	  754.86	-1911.28	  428.14
     33.9700	  879.00	  837.75	-1826.17	  427.93
     34.0700	 1023.00	  929.88	-1774.30	  427.71
     34.1700	 1113.00	 1008.74	-1763.15	  427.50
     34.2700	 1109.00	 1042.32	-1800.74	  427.30
     34.3700	 1088.00	 1008.16	-1787.57	  427.09
     34.4700	  946.00	  921.56	-1842.98	  426.88
     34.5700	  831.00	  821.99	-1858.41	  426.68
     34.6700	  728.00	  736.67	-1876.09	  426.48
     34.7700	  612.00	  674.42	-1929.84	  426.28
     34.8700	  631.00	  633.72	-1870.13	  426.08
     34.9700	  598.00	  608.91	-1878.33	  425.89
     35.0700	  583.00	  594.11	-1878.53	  425.69
     35.1700	  617.00	  584.96	-1835.38	  425.50
     35.2700	  566.00	  578.84	-1880.26	  425.31
     35.3700	  591.00	  574.40	-1850.82	  425.12
     35.4700	  518.00	  570.99	-1920.41	  424.93
     35.5700	  629.00	  568.28	-1806.69	  424.75
     35.6700	  601.00	  566.07	-1832.48	  424.57
     35.7700	  567.00	  564.24	-1864.66	  424.39
     35.8700	  524.00	  562.72	-1906.14	  424.21
     35.9700	  578.00	  561.44	-1850.86	  424.03
     36.0700	  606.00	  560.36	-1821.78	  423.85
     36.1700	  536.00	  559.45	-1890.87	  423.68
     36.2700	  542.00	  558.69	-1884.11	  423.51
     36.3700	  544.00	  558.06	-1881.48	  423.33
     36.4700	  531.00	  557.55	-1893.97	  423.17
     36.5700	  538.00	  557.66	-1887.07	  423.00
     36.6700	  505.00	  557.39	-1919.81	  422.83
     36.7700	  587.00	  557.46	-1837.88	  422.67
     36.8700	  542.00	  557.49	-1882.90	  422.51
     36.9700	  564.00	  557.70	-1861.12	  422.35
     37.0700	  539.00	  558.17	-1886.59	  422.19
     37.1700	  538.00	  559.02	-1888.43	  422.03
     37.2700	  534.00	  560.43	-1893.85	  421.88
     37.3700	  524.00	  562.72	-1906.14	  421.72
     37.4700	  539.00	  566.37	-1894.79	  421.57
     37.5700	  576.00	  572.00	-1863.42	  421.42
     37.6700	  561.00	  580.44	-1886.85	  421.27
     37.7700	  551.00	  592.31	-1908.73	  421.13
     37.8700	  642.00	  607.72	-1833.14	  420.98
     37.9700	  621.00	  625.66	-1872.07	  420.84
     38.0700	  667.00	  643.70	-1844.11	  420.70
     38.1700	  606.00	  657.82	-1919.24	  420.55
     38.2700	  654.00	  662.63	-1876.04	  420.42
     38.3700	  665.00	  654.34	-1856.75	  420.28
     38.4700	  676.00	  635.75	-1827.16	  420.14
     38.5700	  636.00	  612.92	-1844.34	  420.01
     38.6700	  614.00	  593.46	-1846.88	  419.88
     38.7700	  563.00	  578.49	-1882.90	  419.75
     38.8700	  560.00	  568.07	-1875.48	  419.62
     38.9700	  582.00	  561.31	-1846.73	  419.49
     39.0700	  570.00	  557.09	-1854.50	  419.36
     39.1700	  626.00	  554.41	-1795.83	  419.24
     39.2700	  521.00	  552.63	-1899.04	  419.12
     39.3700	  527.00	  551.35	-1891.77	  419.00
     39.4700	  571.00	  550.37	-1846.79	  418.88
     39.5700	  573.00	  549.59	-1844.01	  418.76
     39.6700	  531.00	  548.96	-1885.37	  418.64
     39.7700	  518.00	  548.42	-1897.84	  418.52
     39.8700	  542.00	  547.98	-1873.39	  418.41
     39.9700	  543.00	  547.00	-1871.42	  418.30
     40.0700	  513.00	  546.69	-1901.11	  418.19
     40.1700	  538.00	  546.43	-1875.85	  418.08
     40.2700	  548.00	  546.21	-1865.63	  417.97
     40.3700	  550.00	  546.58	-1863.99	  417.86
     40.4700	  513.00	  546.44	-1900.86	  417.76
     40.5700	  555.00	  546.34	-1858.75	  417.66
     40.6700	  557.00	  546.27	-1856.68	  417.55
     40.7700	  522.00	  546.23	-1891.65	  417.45
