MSG Master    CELL:    5.89348   5.89348  23.16244   90.0000   90.0000  120.0000   SPGR: P 63/m m c             TEMP:    688.95
  2   1280     2.52000     0.00000    -0.10323     0.00000     0.00000    0
    96    96     0     0     2
       0.00000      10.00000
     125.00000     130.00000
 2Theta	Yobs	Ycal	Yobs-Ycal	Backg	Posr	(hkl)	K
      0.7700	    0.00	  669.31	-1831.19	  550.65
      0.8700	    0.00	  669.26	-1831.19	  550.60
      0.9700	   47.00	  669.20	-1831.19	  550.54
      1.0700	   49.00	  669.14	-1831.19	  550.47
      1.1700	   42.00	  669.07	-1831.19	  550.41
      1.2700	   40.00	  668.99	-1831.19	  550.33
      1.3700	   57.00	  668.91	-1831.19	  550.25
      1.4700	  101.00	  668.83	-1831.19	  550.17
      1.5700	  311.00	  668.74	-1831.19	  550.08
      1.6700	  439.00	  668.64	-1831.19	  549.98
      1.7700	  611.00	  668.54	-1831.19	  549.88
      1.8700	  665.00	  668.44	-1831.19	  549.77
      1.9700	  724.00	  668.32	-1831.19	  549.66
      2.0700	  759.00	  668.21	-1831.19	  549.54
      2.1700	  787.00	  668.09	-1831.19	  549.42
      2.2700	  746.00	  667.96	-1831.19	  549.30
      2.3700	  727.00	  667.83	-1831.19	  549.16
      2.4700	  675.00	  667.69	-1831.19	  549.03
      2.5700	  690.00	  667.55	-1831.19	  548.89
      2.6700	  676.00	  667.40	-1831.19	  548.74
      2.7700	  637.00	  667.25	-1831.19	  548.59
      2.8700	  616.00	  667.10	-1831.19	  548.43
      2.9700	  663.00	  666.94	-1831.19	  548.27
      3.0700	  616.00	  666.77	-1831.19	  548.11
      3.1700	  629.00	  666.60	-1831.19	  547.94
      3.2700	  723.00	  666.43	-1831.19	  547.76
      3.3700	  905.00	  666.25	-1831.19	  547.58
      3.4700	 1053.00	  666.06	-1831.19	  547.40
      3.5700	 1127.00	  665.88	-1831.19	  547.21
      3.6700	 1217.00	  665.68	-1831.19	  547.02
      3.7700	 1336.00	  665.49	-1831.19	  546.82
      3.8700	 1399.00	  665.29	-1831.19	  546.62
      3.9700	 1434.00	  665.08	-1831.19	  546.42
      4.0700	 1610.00	  664.87	-1831.19	  546.21
      4.1700	 1545.00	  664.66	-1831.19	  545.99
      4.2700	 1643.00	  664.44	-1831.19	  545.78
      4.3700	 1549.00	  664.22	-1831.19	  545.56
      4.4700	 1426.00	  663.99	-1831.19	  545.33
      4.5700	 1524.00	  663.76	-1831.19	  545.10
      4.6700	 1420.00	  663.53	-1831.19	  544.87
      4.7700	 1344.00	  663.29	-1831.19	  544.63
      4.8700	 1299.00	  663.05	-1831.19	  544.39
      4.9700	 1337.00	  662.81	-1831.19	  544.14
      5.0700	 1207.00	  662.56	-1831.19	  543.89
      5.1700	 1252.00	  662.30	-1831.19	  543.64
      5.2700	 1148.00	  662.05	-1831.19	  543.38
      5.3700	 1203.00	  661.79	-1831.19	  543.12
      5.4700	 1131.00	  661.52	-1831.19	  542.86
      5.5700	 1085.00	  661.25	-1831.19	  542.59
      5.6700	 1117.00	  660.98	-1831.19	  542.32
      5.7700	 1101.00	  660.71	-1831.19	  542.05
      5.8700	 1028.00	  660.43	-1831.19	  541.77
      5.9700	  986.00	  660.15	-1831.19	  541.49
      6.0700	  999.00	  659.86	-1831.19	  541.20
      6.1700	  964.00	  659.58	-1831.19	  540.91
      6.2700	 1016.00	  659.28	-1831.19	  540.62
      6.3700	  953.00	  658.99	-1831.19	  540.33
      6.4700	  899.00	  658.69	-1831.19	  540.03
      6.5700	  906.00	  658.39	-1831.19	  539.73
      6.6700	  869.00	  658.09	-1831.19	  539.42
      6.7700	  857.00	  657.78	-1831.19	  539.11
      6.8700	  875.00	  657.47	-1831.19	  538.80
      6.9700	  884.00	  657.15	-1831.19	  538.49
      7.0700	  845.00	  656.84	-1831.19	  538.17
      7.1700	  746.00	  656.52	-1831.19	  537.85
      7.2700	  819.00	  656.19	-1831.19	  537.53
      7.3700	  826.00	  655.87	-1831.19	  537.20
      7.4700	  811.00	  655.54	-1831.19	  536.88
      7.5700	  767.00	  655.21	-1831.19	  536.54
      7.6700	  784.00	  654.87	-1831.19	  536.21
      7.7700	  794.00	  654.54	-1831.19	  535.87
      7.8700	  766.00	  654.20	-1831.19	  535.53
      7.9700	  762.00	  653.85	-1831.19	  535.19
      8.0700	  692.00	  653.51	-1831.19	  534.85
      8.1700	  785.00	  653.16	-1831.19	  534.50
      8.2700	  790.00	  652.81	-1831.19	  534.15
      8.3700	  755.00	  652.46	-1831.19	  533.79
      8.4700	  724.00	  652.10	-1831.19	  533.44
      8.5700	  695.00	  651.75	-1831.19	  533.08
      8.6700	  713.00	  651.39	-1831.19	  532.72
      8.7700	  726.00	  651.02	-1831.19	  532.36
      8.8700	  695.00	  650.66	-1831.19	  531.99
      8.9700	  710.00	  650.29	-1831.19	  531.63
      9.0700	  709.00	  649.92	-1831.19	  531.26
      9.1700	  722.00	  649.55	-1831.19	  530.88
      9.2700	  693.00	  649.17	-1831.19	  530.51
      9.3700	  709.00	  648.80	-1831.19	  530.13
      9.4700	  652.00	  648.42	-1831.19	  529.76
      9.5700	  706.00	  648.04	-1831.19	  529.37
      9.6700	  681.00	  647.66	-1831.19	  528.99
      9.7700	  690.00	  647.27	-1831.19	  528.61
      9.8700	  644.00	  646.88	-1831.19	  528.22
      9.9700	  699.00	  646.49	-1831.19	  527.83
     10.0700	  688.00	  648.34	-1791.53	  527.44
     10.1700	  666.00	  648.20	-1813.39	  527.05
     10.2700	  658.00	  648.11	-1821.30	  526.65
     10.3700	  661.00	  648.09	-1818.28	  526.26
     10.4700	  736.00	  648.18	-1743.37	  525.86
     10.5700	  643.00	  648.43	-1836.61	  525.46
     10.6700	  669.00	  648.90	-1811.09	  525.05
     10.7700	  693.00	  649.71	-1787.89	  524.65
     10.8700	  656.00	  650.94	-1826.13	  524.24
     10.9700	  706.00	  652.67	-1777.86	  523.84
     11.0700	  641.00	  654.94	-1845.12	  523.43
     11.1700	  635.00	  657.74	-1853.92	  523.02
     11.2700	  677.00	  661.11	-1815.30	  522.61
     11.3700	  643.00	  665.13	-1853.32	  522.19
     11.4700	  692.00	  669.92	-1809.10	  521.78
     11.5700	  667.00	  675.66	-1839.85	  521.36
     11.6700	  712.00	  682.65	-1801.84	  520.94
     11.7700	  663.00	  691.22	-1859.40	  520.52
     11.8700	  736.00	  701.62	-1796.80	  520.10
     11.9700	  722.00	  713.70	-1822.88	  519.68
     12.0700	  770.00	  726.38	-1787.57	  519.25
     12.1700	  745.00	  737.02	-1823.21	  518.83
     12.2700	  840.00	  741.02	-1732.21	  518.40
     12.3700	  808.00	  733.53	-1756.72	  517.97
     12.4700	  751.00	  715.26	-1795.45	  517.54
     12.5700	  722.00	  693.82	-1803.00	  517.11
     12.6700	  678.00	  675.55	-1828.73	  516.68
     12.7700	  643.00	  662.27	-1850.46	  516.25
     12.8700	  669.00	  653.46	-1815.65	  515.81
     12.9700	  635.00	  647.78	-1843.97	  515.38
     13.0700	  639.00	  644.08	-1836.27	  514.94
     13.1700	  581.00	  641.52	-1891.71	  514.51
     13.2700	  605.00	  639.61	-1865.79	  514.07
     13.3700	  641.00	  638.08	-1828.27	  513.63
     13.4700	  586.00	  636.80	-1881.99	  513.19
     13.5700	  634.00	  635.70	-1832.88	  512.75
     13.6700	  581.00	  634.72	-1884.91	  512.30
     13.7700	  609.00	  633.84	-1856.03	  511.86
     13.8700	  654.00	  633.03	-1810.22	  511.42
     13.9700	  626.00	  632.29	-1837.47	  510.97
     14.0700	  663.00	  631.58	-1799.77	  510.53
     14.1700	  617.00	  630.92	-1845.10	  510.08
     14.2700	  602.00	  630.28	-1859.47	  509.63
     14.3700	  665.00	  629.67	-1795.86	  509.18
     14.4700	  602.00	  629.08	-1858.27	  508.74
     14.5700	  618.00	  628.51	-1841.69	  508.29
     14.6700	  580.00	  627.95	-1879.13	  507.84
     14.7700	  590.00	  627.40	-1868.59	  507.39
     14.8700	  629.00	  626.86	-1829.05	  506.93
     14.9700	  589.00	  626.33	-1868.52	  506.48
     15.0700	  606.00	  625.81	-1851.00	  506.03
     15.1700	  613.00	  625.29	-1843.48	  505.58
     15.2700	  618.00	  624.78	-1837.97	  505.12
     15.3700	  559.00	  624.28	-1896.47	  504.67
     15.4700	  657.00	  623.78	-1797.96	  504.21
     15.5700	  626.00	  623.28	-1828.47	  503.76
     15.6700	  623.00	  622.79	-1830.97	  503.30
     15.7700	  619.00	  622.30	-1834.48	  502.85
     15.8700	  604.00	  621.81	-1848.99	  502.39
     15.9700	  631.00	  621.32	-1821.51	  501.93
     16.0700	  603.00	  620.84	-1849.02	  501.48
     16.1700	  612.00	  620.36	-1839.54	  501.02
     16.2700	  631.00	  619.87	-1820.06	  500.56
     16.3700	  571.00	  619.40	-1879.58	  500.10
     16.4700	  618.00	  618.92	-1832.10	  499.65
     16.5700	  623.00	  618.44	-1826.63	  499.19
     16.6700	  639.00	  617.97	-1810.15	  498.73
     16.7700	  626.00	  617.49	-1822.68	  498.27
     16.8700	  570.00	  617.02	-1878.20	  497.81
     16.9700	  580.00	  616.54	-1867.73	  497.35
     17.0700	  604.00	  616.07	-1843.26	  496.89
     17.1700	  585.00	  615.60	-1861.79	  496.43
     17.2700	  635.00	  615.13	-1811.32	  495.97
     17.3700	  595.00	  614.66	-1850.85	  495.51
     17.4700	  596.00	  614.19	-1849.38	  495.05
     17.5700	  597.00	  613.73	-1847.91	  494.60
     17.6700	  597.00	  613.26	-1847.44	  494.14
     17.7700	  581.00	  612.79	-1862.98	  493.68
     17.8700	  615.00	  612.33	-1828.51	  493.22
     17.9700	  622.00	  611.86	-1821.05	  492.76
     18.0700	  585.00	  612.22	-1858.40	  492.30
     18.1700	  627.00	  611.77	-1815.95	  491.84
     18.2700	  600.00	  611.81	-1843.00	  491.38
     18.3700	  576.00	  611.38	-1866.56	  490.92
     18.4700	  559.00	  610.94	-1883.13	  490.46
     18.5700	  613.00	  610.51	-1828.69	  490.00
     18.6700	  625.00	  610.08	-1816.26	  489.54
     18.7700	  607.00	  609.64	-1833.83	  489.09
     18.8700	  594.00	  609.22	-1846.40	  488.63
     18.9700	  590.00	  608.79	-1849.97	  488.17
     19.0700	  569.00	  608.36	-1870.55	  487.71
     19.1700	  611.00	  607.94	-1828.12	  487.26
     19.2700	  619.00	  607.52	-1819.70	  486.80
     19.3700	  584.00	  607.10	-1854.28	  486.34
     19.4700	  595.00	  606.68	-1842.86	  485.89
     19.5700	  592.00	  606.32	-1845.51	  485.43
     19.6700	  613.00	  605.91	-1824.09	  484.97
     19.7700	  584.00	  605.50	-1852.68	  484.52
     19.8700	  640.00	  605.09	-1796.27	  484.06
     19.9700	  575.00	  604.68	-1860.87	  483.61
     20.0700	  566.00	  604.28	-1869.47	  483.16
     20.1700	  568.00	  603.88	-1867.06	  482.70
     20.2700	  622.00	  603.48	-1812.67	  482.25
     20.3700	  598.00	  603.09	-1836.27	  481.80
     20.4700	  611.00	  602.70	-1822.88	  481.35
     20.5700	  567.00	  602.31	-1866.49	  480.90
     20.6700	  605.00	  601.92	-1828.11	  480.44
     20.7700	  565.00	  601.54	-1867.73	  479.99
     20.8700	  604.00	  601.16	-1828.35	  479.55
     20.9700	  587.00	  600.79	-1844.98	  479.10
     21.0700	  628.00	  600.42	-1803.61	  478.65
     21.1700	  613.00	  600.06	-1818.25	  478.20
     21.2700	  562.00	  599.70	-1868.89	  477.75
     21.3700	  603.00	  599.35	-1827.53	  477.31
     21.4700	  614.00	  599.00	-1816.18	  476.86
     21.5700	  592.00	  598.66	-1837.84	  476.42
     21.6700	  567.00	  598.32	-1862.51	  475.97
     21.7700	  611.00	  597.99	-1818.18	  475.53
     21.8700	  584.00	  597.67	-1844.86	  475.08
     21.9700	  616.00	  597.54	-1812.72	  474.64
     22.0700	  621.00	  597.24	-1807.42	  474.20
     22.1700	  612.00	  596.94	-1816.13	  473.76
     22.2700	  587.00	  596.66	-1840.85	  473.32
     22.3700	  587.00	  596.39	-1840.58	  472.88
     22.4700	  602.00	  596.14	-1825.32	  472.44
     22.5700	  574.00	  595.90	-1853.08	  472.01
     22.6700	  568.00	  595.67	-1858.86	  471.57
     22.7700	  604.00	  595.46	-1822.65	  471.13
     22.8700	  594.00	  595.28	-1832.46	  470.70
     22.9700	  563.00	  595.12	-1863.30	  470.27
     23.0700	  609.00	  594.98	-1817.17	  469.83
     23.1700	  593.00	  594.88	-1833.07	  469.40
     23.2700	  583.00	  594.82	-1843.01	  468.97
     23.3700	  582.00	  594.81	-1843.99	  468.54
     23.4700	  653.00	  594.85	-1773.04	  468.11
     23.5700	  598.00	  594.97	-1828.16	  467.68
     23.6700	  585.00	  595.19	-1841.37	  467.26
     23.7700	  648.00	  595.54	-1778.73	  466.83
     23.8700	  621.00	  596.04	-1806.22	  466.40
     23.9700	  611.00	  596.90	-1817.08	  465.98
     24.0700	  604.00	  598.25	-1825.43	  465.56
     24.1700	  618.00	  600.35	-1813.53	  465.13
     24.2700	  620.00	  603.59	-1814.78	  464.71
     24.3700	  587.00	  608.42	-1852.61	  464.29
     24.4700	  641.00	  615.22	-1805.41	  463.87
     24.5700	  679.00	  624.06	-1776.25	  463.46
     24.6700	  686.00	  634.46	-1779.65	  463.04
     24.7700	  651.00	  645.04	-1825.22	  462.62
     24.8700	  678.00	  653.12	-1806.30	  462.21
     24.9700	  719.00	  654.99	-1767.18	  461.80
     25.0700	  700.00	  648.63	-1779.81	  461.38
     25.1700	  657.00	  636.87	-1811.06	  460.97
     25.2700	  659.00	  624.82	-1797.01	  460.56
     25.3700	  605.00	  615.28	-1841.46	  460.15
     25.4700	  630.00	  608.76	-1809.94	  459.75
     25.5700	  653.00	  604.80	-1782.98	  459.34
     25.6700	  613.00	  602.67	-1820.86	  458.94
     25.7700	  625.00	  601.73	-1807.92	  458.53
     25.8700	  633.00	  601.55	-1799.74	  458.13
     25.9700	  678.00	  601.89	-1755.07	  457.73
     26.0700	  627.00	  602.63	-1806.81	  457.33
     26.1700	  650.00	  603.73	-1784.91	  456.93
     26.2700	  664.00	  605.20	-1772.38	  456.53
     26.3700	  623.00	  607.05	-1815.24	  456.13
     26.4700	  619.00	  609.35	-1821.53	  455.74
     26.5700	  650.00	  612.15	-1793.34	  455.35
     26.6700	  622.00	  615.56	-1824.75	  454.95
     26.7700	  631.00	  619.70	-1819.89	  454.56
     26.8700	  654.00	  624.76	-1801.95	  454.17
     26.9700	  648.00	  630.97	-1814.16	  453.78
     27.0700	  676.00	  638.69	-1793.87	  453.40
     27.1700	  657.00	  648.40	-1822.58	  453.01
     27.2700	  674.00	  660.91	-1818.09	  452.63
     27.3700	  689.00	  677.66	-1819.85	  452.24
     27.4700	  717.00	  701.49	-1815.67	  451.86
     27.5700	  715.00	  737.97	-1854.16	  451.48
     27.6700	  752.00	  797.58	-1876.76	  451.10
     27.7700	  752.00	  897.92	-1977.11	  450.72
     27.8700	  855.00	 1064.40	-2040.58	  450.35
     27.9700	 1099.00	 1324.54	-2056.72	  449.97
     28.0700	 1366.00	 1692.73	-2157.92	  449.60
     28.1700	 2111.00	 2147.19	-1867.37	  449.23
     28.2700	 2890.00	 2604.96	-1546.14	  448.86
     28.3700	 3364.00	 2910.62	-1377.81	  448.49
     28.4700	 3275.00	 2893.02	-1449.21	  448.12
     28.5700	 2669.00	 2566.87	-1729.06	  447.76
     28.6700	 2042.00	 2183.16	-1972.35	  447.39
     28.7700	 1706.00	 1944.57	-2069.76	  447.03
     28.8700	 1788.00	 1893.46	-1936.64	  446.67
     28.9700	 1886.00	 1961.06	-1906.25	  446.31
     29.0700	 2145.00	 2017.11	-1703.29	  445.95
     29.1700	 2106.00	 1929.72	-1654.91	  445.59
     29.2700	 1633.00	 1676.19	-1874.38	  445.23
     29.3700	 1422.00	 1367.03	-1776.21	  444.88
     29.4700	 1060.00	 1103.24	-1874.42	  444.53
     29.5700	  935.00	  917.54	-1813.73	  444.18
     29.6700	  776.00	  802.12	-1857.30	  443.83
     29.7700	  788.00	  735.19	-1778.38	  443.48
     29.8700	  748.00	  696.37	-1779.55	  443.13
     29.9700	  730.00	  672.31	-1773.49	  442.79
     30.0700	  756.00	  656.09	-1731.28	  442.44
     30.1700	  680.00	  644.66	-1795.84	  442.10
     30.2700	  701.00	  636.81	-1766.99	  441.76
     30.3700	  678.00	  632.37	-1785.56	  441.42
     30.4700	  638.00	  631.91	-1825.09	  441.09
     30.5700	  670.00	  636.58	-1797.77	  440.75
     30.6700	  682.00	  647.81	-1797.00	  440.42
     30.7700	  680.00	  666.24	-1817.43	  440.08
     30.8700	  666.00	  690.35	-1855.53	  439.75
     30.9700	  755.00	  715.21	-1791.39	  439.42
     31.0700	  736.00	  731.94	-1827.13	  439.10
     31.1700	  726.00	  730.10	-1835.29	  438.77
     31.2700	  716.00	  707.13	-1822.32	  438.45
     31.3700	  655.00	  673.94	-1850.13	  438.12
     31.4700	  654.00	  642.83	-1820.01	  437.80
     31.5700	  595.00	  619.16	-1855.34	  437.48
     31.6700	  637.00	  603.29	-1797.47	  437.16
     31.7700	  623.00	  593.44	-1801.62	  436.85
     31.8700	  581.00	  587.45	-1837.64	  436.53
     31.9700	  612.00	  583.68	-1802.87	  436.22
     32.0700	  611.00	  581.12	-1801.31	  435.91
     32.1700	  587.00	  579.28	-1823.47	  435.60
     32.2700	  609.00	  577.93	-1800.12	  435.29
     32.3700	  614.00	  576.97	-1794.15	  434.98
     32.4700	  584.00	  576.33	-1823.52	  434.68
     32.5700	  610.00	  576.02	-1797.21	  434.38
     32.6700	  603.00	  576.06	-1804.25	  434.08
     32.7700	  609.00	  576.43	-1798.62	  433.78
     32.8700	  605.00	  577.20	-1803.39	  433.48
     32.9700	  601.00	  578.47	-1808.65	  433.18
     33.0700	  587.00	  580.37	-1824.56	  432.89
     33.1700	  597.00	  583.18	-1817.36	  432.59
     33.2700	  610.00	  587.38	-1808.56	  432.30
     33.3700	  614.00	  593.91	-1811.09	  432.01
     33.4700	  623.00	  604.53	-1812.72	  431.72
     33.5700	  596.00	  622.23	-1857.42	  431.44
     33.6700	  615.00	  651.36	-1867.55	  431.15
     33.7700	  650.00	  696.95	-1878.14	  430.87
     33.8700	  774.00	  762.36	-1819.55	  430.59
     33.9700	  874.00	  845.28	-1802.46	  430.31
     34.0700	  940.00	  933.55	-1824.74	  430.03
     34.1700	 1093.00	 1003.30	-1741.48	  429.75
     34.2700	 1115.00	 1023.54	-1739.72	  429.48
     34.3700	 1064.00	  978.32	-1745.50	  429.21
     34.4700	  886.00	  889.54	-1834.72	  428.94
     34.5700	  767.00	  794.73	-1858.91	  428.67
     34.6700	  710.00	  716.24	-1837.43	  428.40
     34.7700	  657.00	  660.10	-1834.29	  428.13
     34.8700	  648.00	  623.76	-1806.94	  427.87
     34.9700	  587.00	  601.64	-1845.82	  427.61
     35.0700	  600.00	  588.31	-1819.50	  427.35
     35.1700	  627.00	  579.92	-1784.11	  427.09
     35.2700	  572.00	  574.19	-1833.38	  426.83
     35.3700	  546.00	  569.97	-1855.15	  426.57
     35.4700	  579.00	  566.68	-1818.86	  426.32
     35.5700	  581.00	  564.03	-1814.21	  426.07
     35.6700	  586.00	  561.85	-1807.03	  425.82
     35.7700	  584.00	  560.03	-1807.21	  425.57
     35.8700	  593.00	  558.49	-1796.68	  425.32
     35.9700	  554.00	  557.18	-1834.37	  425.07
     36.0700	  540.00	  556.56	-1847.75	  424.83
     36.1700	  555.00	  555.60	-1831.79	  424.59
     36.2700	  587.00	  554.78	-1798.97	  424.35
     36.3700	  591.00	  554.09	-1794.27	  424.11
     36.4700	  572.00	  553.50	-1812.68	  423.87
     36.5700	  563.00	  553.02	-1821.20	  423.64
     36.6700	  558.00	  552.65	-1825.83	  423.40
     36.7700	  579.00	  552.39	-1804.58	  423.17
     36.8700	  570.00	  552.47	-1813.66	  422.94
     36.9700	  533.00	  552.50	-1850.68	  422.71
     37.0700	  537.00	  552.79	-1846.97	  422.49
     37.1700	  529.00	  553.43	-1855.61	  422.26
     37.2700	  574.00	  554.60	-1811.79	  422.04
     37.3700	  543.00	  556.59	-1844.78	  421.82
     37.4700	  572.00	  559.81	-1819.00	  421.60
     37.5700	  575.00	  564.77	-1820.95	  421.38
     37.6700	  549.00	  571.99	-1854.17	  421.16
     37.7700	  534.00	  581.76	-1878.94	  420.95
     37.8700	  581.00	  593.80	-1843.98	  420.74
     37.9700	  586.00	  606.94	-1852.13	  420.53
     38.0700	  603.00	  619.13	-1847.32	  420.32
     38.1700	  623.00	  627.40	-1835.59	  420.11
     38.2700	  624.00	  628.07	-1835.26	  419.90
     38.3700	  607.00	  619.40	-1843.58	  419.70
     38.4700	  580.00	  604.34	-1855.53	  419.49
     38.5700	  530.00	  588.21	-1889.39	  419.29
     38.6700	  589.00	  574.39	-1816.57	  419.09
     38.7700	  562.00	  564.00	-1833.19	  418.90
     38.8700	  551.00	  556.87	-1837.05	  418.70
     38.9700	  611.00	  551.47	-1771.66	  418.51
     39.0700	  535.00	  548.55	-1844.74	  418.31
     39.1700	  561.00	  546.65	-1816.84	  418.12
     39.2700	  553.00	  545.33	-1823.52	  417.93
     39.3700	  554.00	  544.34	-1821.53	  417.75
     39.4700	  521.00	  543.56	-1853.74	  417.56
     39.5700	  532.00	  542.91	-1842.10	  417.38
     39.6700	  508.00	  542.36	-1865.55	  417.19
     39.7700	  512.00	  541.90	-1861.08	  417.01
     39.8700	  540.00	  541.49	-1832.68	  416.83
     39.9700	  508.00	  541.14	-1864.32	  416.66
     40.0700	  506.00	  540.83	-1866.01	  416.48
     40.1700	  490.00	  540.64	-1881.83	  416.31
     40.2700	  544.00	  540.42	-1827.61	  416.13
     40.3700	  507.00	  540.23	-1864.42	  415.96
     40.4700	  554.00	  540.07	-1817.26	  415.79
     40.5700	  501.00	  539.95	-1870.13	  415.62
     40.6700	  538.00	  539.85	-1833.03	  415.46
     40.7700	  483.00	  539.78	-1887.97	  415.29
