MSG Master    CELL:    5.89453   5.89453  23.16008   90.0000   90.0000  120.0000   SPGR: P 63/m m c             TEMP:    703.75
  2   1280     2.52000     0.00000    -0.10852     0.00000     0.00000    0
    96    96     0     0     2
       0.00000      10.00000
     125.00000     130.00000
 2Theta	Yobs	Ycal	Yobs-Ycal	Backg	Posr	(hkl)	K
      0.7700	    0.00	  625.79	-1823.03	  507.01
      0.8700	    0.00	  626.31	-1823.03	  507.53
      0.9700	   41.00	  626.82	-1823.03	  508.04
      1.0700	   35.00	  627.32	-1823.03	  508.54
      1.1700	   49.00	  627.81	-1823.03	  509.03
      1.2700	   56.00	  628.29	-1823.03	  509.51
      1.3700	   46.00	  628.76	-1823.03	  509.99
      1.4700	  109.00	  629.23	-1823.03	  510.45
      1.5700	  288.00	  629.68	-1823.03	  510.90
      1.6700	  486.00	  630.12	-1823.03	  511.34
      1.7700	  532.00	  630.56	-1823.03	  511.78
      1.8700	  680.00	  630.98	-1823.03	  512.20
      1.9700	  719.00	  631.40	-1823.03	  512.62
      2.0700	  767.00	  631.80	-1823.03	  513.03
      2.1700	  742.00	  632.20	-1823.03	  513.42
      2.2700	  763.00	  632.59	-1823.03	  513.81
      2.3700	  682.00	  632.97	-1823.03	  514.19
      2.4700	  687.00	  633.34	-1823.03	  514.56
      2.5700	  717.00	  633.70	-1823.03	  514.93
      2.6700	  725.00	  634.06	-1823.03	  515.28
      2.7700	  677.00	  634.40	-1823.03	  515.62
      2.8700	  657.00	  634.74	-1823.03	  515.96
      2.9700	  630.00	  635.07	-1823.03	  516.29
      3.0700	  587.00	  635.38	-1823.03	  516.61
      3.1700	  648.00	  635.70	-1823.03	  516.92
      3.2700	  705.00	  636.00	-1823.03	  517.22
      3.3700	  825.00	  636.29	-1823.03	  517.51
      3.4700	 1001.00	  636.58	-1823.03	  517.80
      3.5700	 1088.00	  636.86	-1823.03	  518.08
      3.6700	 1339.00	  637.13	-1823.03	  518.35
      3.7700	 1411.00	  637.39	-1823.03	  518.61
      3.8700	 1389.00	  637.64	-1823.03	  518.86
      3.9700	 1502.00	  637.89	-1823.03	  519.11
      4.0700	 1605.00	  638.12	-1823.03	  519.35
      4.1700	 1630.00	  638.36	-1823.03	  519.58
      4.2700	 1546.00	  638.58	-1823.03	  519.80
      4.3700	 1530.00	  638.79	-1823.03	  520.01
      4.4700	 1471.00	  639.00	-1823.03	  520.22
      4.5700	 1451.00	  639.20	-1823.03	  520.42
      4.6700	 1422.00	  639.39	-1823.03	  520.61
      4.7700	 1326.00	  639.58	-1823.03	  520.80
      4.8700	 1300.00	  639.75	-1823.03	  520.97
      4.9700	 1225.00	  639.92	-1823.03	  521.14
      5.0700	 1251.00	  640.09	-1823.03	  521.31
      5.1700	 1196.00	  640.24	-1823.03	  521.46
      5.2700	 1214.00	  640.39	-1823.03	  521.61
      5.3700	 1219.00	  640.53	-1823.03	  521.75
      5.4700	 1161.00	  640.67	-1823.03	  521.89
      5.5700	 1085.00	  640.79	-1823.03	  522.01
      5.6700	 1118.00	  640.91	-1823.03	  522.13
      5.7700	 1044.00	  641.03	-1823.03	  522.25
      5.8700	 1003.00	  641.13	-1823.03	  522.35
      5.9700	  921.00	  641.23	-1823.03	  522.45
      6.0700	 1025.00	  641.33	-1823.03	  522.55
      6.1700	  996.00	  641.41	-1823.03	  522.63
      6.2700	  962.00	  641.49	-1823.03	  522.71
      6.3700	  991.00	  641.57	-1823.03	  522.79
      6.4700	  961.00	  641.63	-1823.03	  522.85
      6.5700	  937.00	  641.69	-1823.03	  522.92
      6.6700	  917.00	  641.75	-1823.03	  522.97
      6.7700	  864.00	  641.80	-1823.03	  523.02
      6.8700	  833.00	  641.84	-1823.03	  523.06
      6.9700	  843.00	  641.87	-1823.03	  523.09
      7.0700	  838.00	  641.90	-1823.03	  523.12
      7.1700	  847.00	  641.93	-1823.03	  523.15
      7.2700	  811.00	  641.94	-1823.03	  523.16
      7.3700	  774.00	  641.95	-1823.03	  523.18
      7.4700	  776.00	  641.96	-1823.03	  523.18
      7.5700	  792.00	  641.96	-1823.03	  523.18
      7.6700	  815.00	  641.95	-1823.03	  523.17
      7.7700	  772.00	  641.94	-1823.03	  523.16
      7.8700	  794.00	  641.92	-1823.03	  523.14
      7.9700	  734.00	  641.90	-1823.03	  523.12
      8.0700	  761.00	  641.87	-1823.03	  523.09
      8.1700	  786.00	  641.83	-1823.03	  523.06
      8.2700	  716.00	  641.79	-1823.03	  523.02
      8.3700	  791.00	  641.75	-1823.03	  522.97
      8.4700	  760.00	  641.70	-1823.03	  522.92
      8.5700	  702.00	  641.64	-1823.03	  522.86
      8.6700	  714.00	  641.58	-1823.03	  522.80
      8.7700	  740.00	  641.51	-1823.03	  522.73
      8.8700	  757.00	  641.44	-1823.03	  522.66
      8.9700	  724.00	  641.36	-1823.03	  522.58
      9.0700	  721.00	  641.28	-1823.03	  522.50
      9.1700	  726.00	  641.19	-1823.03	  522.41
      9.2700	  674.00	  641.10	-1823.03	  522.32
      9.3700	  713.00	  641.00	-1823.03	  522.22
      9.4700	  672.00	  640.90	-1823.03	  522.12
      9.5700	  630.00	  640.79	-1823.03	  522.01
      9.6700	  687.00	  640.68	-1823.03	  521.90
      9.7700	  723.00	  640.56	-1823.03	  521.78
      9.8700	  673.00	  640.44	-1823.03	  521.66
      9.9700	  673.00	  640.31	-1823.03	  521.53
     10.0700	  674.00	  642.45	-1791.48	  521.40
     10.1700	  700.00	  642.58	-1765.60	  521.27
     10.2700	  703.00	  642.75	-1762.78	  521.13
     10.3700	  622.00	  642.99	-1844.02	  520.98
     10.4700	  652.00	  643.34	-1814.37	  520.83
     10.5700	  630.00	  643.85	-1836.87	  520.68
     10.6700	  666.00	  644.58	-1801.61	  520.52
     10.7700	  664.00	  645.65	-1804.68	  520.36
     10.8700	  642.00	  647.14	-1828.17	  520.19
     10.9700	  681.00	  649.12	-1791.15	  520.02
     11.0700	  672.00	  651.62	-1802.65	  519.84
     11.1700	  678.00	  654.66	-1799.69	  519.66
     11.2700	  658.00	  658.26	-1823.29	  519.48
     11.3700	  706.00	  662.51	-1779.54	  519.29
     11.4700	  685.00	  667.52	-1805.54	  519.10
     11.5700	  678.00	  673.48	-1818.51	  518.91
     11.6700	  689.00	  680.68	-1814.71	  518.71
     11.7700	  705.00	  689.44	-1807.47	  518.50
     11.8700	  732.00	  699.96	-1790.99	  518.30
     11.9700	  788.00	  712.06	-1747.09	  518.09
     12.0700	  788.00	  724.60	-1759.63	  517.87
     12.1700	  808.00	  734.92	-1749.95	  517.65
     12.2700	  798.00	  738.54	-1763.57	  517.43
     12.3700	  788.00	  730.90	-1765.93	  517.20
     12.4700	  709.00	  713.04	-1827.07	  516.97
     12.5700	  741.00	  692.37	-1774.40	  516.74
     12.6700	  667.00	  674.87	-1830.90	  516.51
     12.7700	  683.00	  662.16	-1802.19	  516.27
     12.8700	  598.00	  653.70	-1878.73	  516.02
     12.9700	  623.00	  648.29	-1848.32	  515.78
     13.0700	  668.00	  644.81	-1799.83	  515.53
     13.1700	  706.00	  642.44	-1759.47	  515.27
     13.2700	  634.00	  640.71	-1829.73	  515.02
     13.3700	  634.00	  639.36	-1828.39	  514.76
     13.4700	  593.00	  638.25	-1868.28	  514.49
     13.5700	  618.00	  637.32	-1842.35	  514.23
     13.6700	  658.00	  636.52	-1801.55	  513.96
     13.7700	  577.00	  635.81	-1881.83	  513.69
     13.8700	  597.00	  635.17	-1861.19	  513.41
     13.9700	  590.00	  634.58	-1867.61	  513.13
     14.0700	  586.00	  634.04	-1871.07	  512.85
     14.1700	  621.00	  633.54	-1835.57	  512.57
     14.2700	  647.00	  633.06	-1809.09	  512.28
     14.3700	  605.00	  632.61	-1850.64	  511.99
     14.4700	  590.00	  632.17	-1865.20	  511.70
     14.5700	  604.00	  631.75	-1850.78	  511.40
     14.6700	  587.00	  631.34	-1867.37	  511.11
     14.7700	  582.00	  630.94	-1871.97	  510.81
     14.8700	  608.00	  630.55	-1845.58	  510.50
     14.9700	  619.00	  630.17	-1834.20	  510.20
     15.0700	  614.00	  629.79	-1838.82	  509.89
     15.1700	  566.00	  629.42	-1886.45	  509.58
     15.2700	  661.00	  629.05	-1791.08	  509.26
     15.3700	  611.00	  628.68	-1840.71	  508.95
     15.4700	  651.00	  628.32	-1800.34	  508.63
     15.5700	  586.00	  627.95	-1864.98	  508.31
     15.6700	  613.00	  627.59	-1837.62	  507.99
     15.7700	  615.00	  627.23	-1835.26	  507.66
     15.8700	  598.00	  626.87	-1851.90	  507.33
     15.9700	  620.00	  626.51	-1829.54	  507.00
     16.0700	  666.00	  626.15	-1783.18	  506.67
     16.1700	  647.00	  625.79	-1801.82	  506.34
     16.2700	  647.00	  625.43	-1801.46	  506.00
     16.3700	  628.00	  625.07	-1820.10	  505.66
     16.4700	  599.00	  624.71	-1848.74	  505.32
     16.5700	  627.00	  624.35	-1820.38	  504.98
     16.6700	  624.00	  623.99	-1823.02	  504.64
     16.7700	  593.00	  623.63	-1853.65	  504.29
     16.8700	  634.00	  623.26	-1812.29	  503.94
     16.9700	  619.00	  622.90	-1826.93	  503.59
     17.0700	  633.00	  622.53	-1812.56	  503.24
     17.1700	  581.00	  622.17	-1864.20	  502.88
     17.2700	  607.00	  621.80	-1837.83	  502.53
     17.3700	  603.00	  621.43	-1841.46	  502.17
     17.4700	  607.00	  621.07	-1837.10	  501.81
     17.5700	  593.00	  620.70	-1850.73	  501.45
     17.6700	  641.00	  620.33	-1802.36	  501.09
     17.7700	  636.00	  619.95	-1806.98	  500.72
     17.8700	  595.00	  619.58	-1847.61	  500.36
     17.9700	  632.00	  619.87	-1810.90	  499.99
     18.0700	  620.00	  619.93	-1822.96	  499.62
     18.1700	  601.00	  619.57	-1841.60	  499.25
     18.2700	  631.00	  619.22	-1811.25	  498.88
     18.3700	  555.00	  618.86	-1886.89	  498.50
     18.4700	  609.00	  618.51	-1832.54	  498.13
     18.5700	  577.00	  618.15	-1864.18	  497.75
     18.6700	  601.00	  617.79	-1839.82	  497.38
     18.7700	  581.00	  617.44	-1859.47	  497.00
     18.8700	  634.00	  617.08	-1806.11	  496.62
     18.9700	  604.00	  616.73	-1835.76	  496.23
     19.0700	  595.00	  616.37	-1844.40	  495.85
     19.1700	  605.00	  616.01	-1834.04	  495.47
     19.2700	  600.00	  615.66	-1838.69	  495.08
     19.3700	  600.00	  615.30	-1838.33	  494.70
     19.4700	  606.00	  615.01	-1832.04	  494.31
     19.5700	  610.00	  614.66	-1827.69	  493.92
     19.6700	  565.00	  614.30	-1872.33	  493.53
     19.7700	  576.00	  613.95	-1860.98	  493.14
     19.8700	  565.00	  613.60	-1871.63	  492.75
     19.9700	  535.00	  613.25	-1901.28	  492.36
     20.0700	  641.00	  612.90	-1794.93	  491.96
     20.1700	  626.00	  612.55	-1809.58	  491.57
     20.2700	  611.00	  612.20	-1824.23	  491.17
     20.3700	  602.00	  611.86	-1832.88	  490.78
     20.4700	  590.00	  611.51	-1844.54	  490.38
     20.5700	  561.00	  611.17	-1873.20	  489.98
     20.6700	  581.00	  610.83	-1852.86	  489.58
     20.7700	  627.00	  610.49	-1806.52	  489.18
     20.8700	  565.00	  610.15	-1868.18	  488.78
     20.9700	  579.00	  609.82	-1853.84	  488.38
     21.0700	  582.00	  609.48	-1850.51	  487.98
     21.1700	  613.00	  609.16	-1819.18	  487.58
     21.2700	  592.00	  608.83	-1839.86	  487.17
     21.3700	  612.00	  608.51	-1819.54	  486.77
     21.4700	  602.00	  608.19	-1829.22	  486.36
     21.5700	  612.00	  607.88	-1818.90	  485.96
     21.6700	  565.00	  607.57	-1865.59	  485.55
     21.7700	  592.00	  607.26	-1838.29	  485.15
     21.8700	  625.00	  607.14	-1805.17	  484.74
     21.9700	  623.00	  606.85	-1806.88	  484.34
     22.0700	  629.00	  606.57	-1800.59	  483.93
     22.1700	  584.00	  606.29	-1845.32	  483.52
     22.2700	  567.00	  606.03	-1862.05	  483.11
     22.3700	  638.00	  605.77	-1790.80	  482.70
     22.4700	  612.00	  605.52	-1816.55	  482.30
     22.5700	  627.00	  605.29	-1801.32	  481.89
     22.6700	  593.00	  605.07	-1835.10	  481.48
     22.7700	  585.00	  604.87	-1842.90	  481.07
     22.8700	  592.00	  604.69	-1835.72	  480.66
     22.9700	  589.00	  604.53	-1838.56	  480.25
     23.0700	  605.00	  604.40	-1822.42	  479.84
     23.1700	  641.00	  604.29	-1786.32	  479.43
     23.2700	  612.00	  604.22	-1815.25	  479.02
     23.3700	  623.00	  604.20	-1804.23	  478.60
     23.4700	  572.00	  604.24	-1855.27	  478.19
     23.5700	  598.00	  604.35	-1829.37	  477.78
     23.6700	  634.00	  604.55	-1793.58	  477.37
     23.7700	  643.00	  604.83	-1784.85	  476.96
     23.8700	  619.00	  605.37	-1809.39	  476.55
     23.9700	  615.00	  606.22	-1814.25	  476.14
     24.0700	  572.00	  607.55	-1858.58	  475.73
     24.1700	  560.00	  609.63	-1872.66	  475.32
     24.2700	  632.00	  612.84	-1803.87	  474.90
     24.3700	  611.00	  617.62	-1829.65	  474.49
     24.4700	  649.00	  624.30	-1798.33	  474.08
     24.5700	  670.00	  632.93	-1785.96	  473.67
     24.6700	  641.00	  643.03	-1825.06	  473.26
     24.7700	  707.00	  653.21	-1769.24	  472.85
     24.8700	  655.00	  660.84	-1828.87	  472.44
     24.9700	  689.00	  662.41	-1796.44	  472.03
     25.0700	  686.00	  655.96	-1792.99	  471.62
     25.1700	  654.00	  644.42	-1813.45	  471.21
     25.2700	  705.00	  632.64	-1750.67	  470.80
     25.3700	  687.00	  623.25	-1759.28	  470.39
     25.4700	  651.00	  616.76	-1788.79	  469.98
     25.5700	  649.00	  612.72	-1786.75	  469.57
     25.6700	  644.00	  610.45	-1789.48	  469.17
     25.7700	  674.00	  609.32	-1758.35	  468.76
     25.8700	  639.00	  608.93	-1792.96	  468.35
     25.9700	  642.00	  609.02	-1790.05	  467.94
     26.0700	  662.00	  609.49	-1770.51	  467.54
     26.1700	  663.00	  610.28	-1770.31	  467.13
     26.2700	  641.00	  611.40	-1793.43	  466.73
     26.3700	  600.00	  612.86	-1835.89	  466.32
     26.4700	  609.00	  614.70	-1828.73	  465.91
     26.5700	  614.00	  616.98	-1826.01	  465.51
     26.6700	  645.00	  619.78	-1797.81	  465.11
     26.7700	  645.00	  623.21	-1801.23	  464.70
     26.8700	  657.00	  627.41	-1793.44	  464.30
     26.9700	  629.00	  632.61	-1826.64	  463.90
     27.0700	  659.00	  639.08	-1803.11	  463.50
     27.1700	  673.00	  647.27	-1797.30	  463.10
     27.2700	  709.00	  657.88	-1771.91	  462.69
     27.3700	  687.00	  672.18	-1808.21	  462.30
     27.4700	  728.00	  692.66	-1787.69	  461.90
     27.5700	  703.00	  724.19	-1844.22	  461.50
     27.6700	  764.00	  775.68	-1834.71	  461.10
     27.7700	  784.00	  861.80	-1900.83	  460.70
     27.8700	  828.00	 1003.01	-1998.04	  460.31
     27.9700	 1064.00	 1220.19	-1979.22	  459.91
     28.0700	 1297.00	 1521.75	-2047.78	  459.51
     28.1700	 1851.00	 1885.64	-1857.67	  459.12
     28.2700	 2423.00	 2240.82	-1640.85	  458.73
     28.3700	 2801.00	 2461.52	-1483.54	  458.33
     28.4700	 2725.00	 2421.80	-1519.83	  457.94
     28.5700	 2130.00	 2157.56	-1850.59	  457.55
     28.6700	 1771.00	 1871.28	-1923.31	  457.16
     28.7700	 1569.00	 1708.24	-1962.26	  456.77
     28.8700	 1493.00	 1689.86	-2019.89	  456.38
     28.9700	 1685.00	 1754.31	-1892.34	  456.00
     29.0700	 1907.00	 1793.69	-1709.72	  455.61
     29.1700	 1726.00	 1705.59	-1802.62	  455.22
     29.2700	 1574.00	 1485.42	-1734.44	  454.84
     29.3700	 1244.00	 1229.11	-1808.14	  454.45
     29.4700	 1033.00	 1014.60	-1804.63	  454.07
     29.5700	  880.00	  864.72	-1807.75	  453.69
     29.6700	  814.00	  771.59	-1780.62	  453.31
     29.7700	  772.00	  717.32	-1768.35	  452.93
     29.8700	  783.00	  685.58	-1725.61	  452.55
     29.9700	  715.00	  665.82	-1773.85	  452.17
     30.0700	  734.00	  652.56	-1741.59	  451.79
     30.1700	  730.00	  643.39	-1736.42	  451.41
     30.2700	  695.00	  637.47	-1765.50	  451.04
     30.3700	  721.00	  634.84	-1736.87	  450.67
     30.4700	  683.00	  636.24	-1776.27	  450.29
     30.5700	  707.00	  643.02	-1759.05	  449.92
     30.6700	  700.00	  656.64	-1779.67	  449.55
     30.7700	  665.00	  677.58	-1835.61	  449.18
     30.8700	  697.00	  703.93	-1829.96	  448.81
     30.9700	  812.00	  730.15	-1741.18	  448.44
     31.0700	  675.00	  746.64	-1894.67	  448.08
     31.1700	  742.00	  742.83	-1823.86	  447.71
     31.2700	  706.00	  717.47	-1834.50	  447.35
     31.3700	  707.00	  682.72	-1798.75	  446.98
     31.4700	  639.00	  650.83	-1834.86	  446.62
     31.5700	  640.00	  626.79	-1809.82	  446.26
     31.6700	  604.00	  610.73	-1829.76	  445.90
     31.7700	  663.00	  600.77	-1760.80	  445.54
     31.8700	  648.00	  594.71	-1769.74	  445.18
     31.9700	  604.00	  590.89	-1809.92	  444.83
     32.0700	  682.00	  588.30	-1729.33	  444.47
     32.1700	  643.00	  586.44	-1766.47	  444.12
     32.2700	  608.00	  585.08	-1800.11	  443.77
     32.3700	  590.00	  584.11	-1817.14	  443.42
     32.4700	  632.00	  583.47	-1774.50	  443.07
     32.5700	  634.00	  583.18	-1772.21	  442.72
     32.6700	  595.00	  583.19	-1811.22	  442.37
     32.7700	  613.00	  583.55	-1793.58	  442.03
     32.8700	  594.00	  584.32	-1813.35	  441.68
     32.9700	  591.00	  585.58	-1817.61	  441.34
     33.0700	  579.00	  587.48	-1831.51	  441.00
     33.1700	  660.00	  590.31	-1753.34	  440.66
     33.2700	  587.00	  594.56	-1830.59	  440.32
     33.3700	  576.00	  601.21	-1848.24	  439.98
     33.4700	  634.00	  612.04	-1801.06	  439.64
     33.5700	  645.00	  629.99	-1808.02	  439.31
     33.6700	  640.00	  659.24	-1842.27	  438.97
     33.7700	  736.00	  704.40	-1791.43	  438.64
     33.8700	  772.00	  768.18	-1819.20	  438.31
     33.9700	  935.00	  847.55	-1735.58	  437.98
     34.0700	  947.00	  930.15	-1806.18	  437.65
     34.1700	 1063.00	  992.69	-1752.71	  437.33
     34.2700	 1134.00	 1006.40	-1695.43	  437.00
     34.3700	 1010.00	  959.09	-1772.12	  436.68
     34.4700	  938.00	  873.80	-1758.83	  436.35
     34.5700	  811.00	  785.05	-1797.08	  436.03
     34.6700	  699.00	  712.33	-1836.36	  435.71
     34.7700	  639.00	  660.40	-1844.43	  435.40
     34.8700	  658.00	  626.71	-1791.74	  435.08
     34.9700	  623.00	  606.05	-1806.08	  434.76
     35.0700	  628.00	  593.47	-1788.50	  434.45
     35.1700	  609.00	  585.45	-1799.48	  434.14
     35.2700	  591.00	  579.92	-1811.95	  433.83
     35.3700	  575.00	  575.81	-1823.84	  433.52
     35.4700	  565.00	  572.59	-1830.62	  433.21
     35.5700	  558.00	  569.98	-1835.00	  432.90
     35.6700	  569.00	  567.81	-1821.84	  432.60
     35.7700	  543.00	  565.99	-1846.02	  432.30
     35.8700	  537.00	  564.45	-1850.47	  431.99
     35.9700	  505.00	  563.60	-1881.63	  431.69
     36.0700	  539.00	  562.46	-1846.48	  431.40
     36.1700	  557.00	  561.46	-1827.49	  431.10
     36.2700	  583.00	  560.59	-1800.62	  430.80
     36.3700	  576.00	  559.84	-1806.87	  430.51
     36.4700	  556.00	  559.19	-1826.22	  430.22
     36.5700	  539.00	  558.65	-1842.68	  429.93
     36.6700	  524.00	  558.20	-1857.23	  429.64
     36.7700	  567.00	  558.06	-1814.09	  429.35
     36.8700	  549.00	  557.82	-1831.85	  429.06
     36.9700	  556.00	  557.77	-1824.80	  428.78
     37.0700	  550.00	  557.94	-1830.97	  428.49
     37.1700	  494.00	  558.43	-1887.46	  428.21
     37.2700	  502.00	  559.42	-1880.45	  427.93
     37.3700	  563.00	  561.15	-1821.18	  427.65
     37.4700	  529.00	  563.98	-1858.01	  427.38
     37.5700	  581.00	  568.31	-1810.34	  427.10
     37.6700	  573.00	  574.50	-1824.53	  426.83
     37.7700	  570.00	  582.66	-1835.69	  426.56
     37.8700	  581.00	  592.38	-1834.41	  426.29
     37.9700	  613.00	  602.51	-1812.54	  426.02
     38.0700	  592.00	  611.35	-1842.38	  425.75
     38.1700	  671.00	  616.70	-1768.73	  425.49
     38.2700	  573.00	  615.96	-1865.99	  425.22
     38.3700	  625.00	  608.19	-1806.22	  424.96
     38.4700	  601.00	  595.92	-1817.95	  424.70
     38.5700	  557.00	  583.16	-1849.19	  424.44
     38.6700	  516.00	  572.36	-1879.39	  424.18
     38.7700	  623.00	  564.25	-1764.28	  423.93
     38.8700	  544.00	  558.65	-1837.68	  423.67
     38.9700	  516.00	  554.96	-1861.99	  423.42
     39.0700	  551.00	  551.94	-1823.97	  423.17
     39.1700	  564.00	  550.34	-1809.36	  422.92
     39.2700	  551.00	  549.18	-1821.21	  422.67
     39.3700	  580.00	  548.30	-1791.33	  422.43
     39.4700	  505.00	  547.57	-1865.60	  422.18
     39.5700	  546.00	  546.96	-1823.99	  421.94
     39.6700	  529.00	  546.43	-1840.46	  421.70
     39.7700	  542.00	  545.96	-1826.99	  421.46
     39.8700	  515.00	  545.55	-1853.58	  421.22
     39.9700	  563.00	  545.18	-1805.21	  420.99
     40.0700	  532.00	  545.40	-1836.43	  420.75
     40.1700	  546.00	  544.70	-1821.73	  420.52
     40.2700	  562.00	  544.45	-1805.48	  420.29
     40.3700	  540.00	  544.22	-1827.25	  420.06
     40.4700	  548.00	  544.03	-1819.06	  419.83
     40.5700	  544.00	  543.86	-1822.88	  419.61
     40.6700	  531.00	  543.71	-1835.74	  419.38
     40.7700	  536.00	  543.60	-1830.63	  419.16
