MSG Master    CELL:    5.91802   5.91802  23.26392   90.0000   90.0000  120.0000   SPGR: P 63/m m c             TEMP:   1046.75
  1   1280     2.52000     0.00000    -0.12534     0.00000     0.00000    0
    99     0     2
       0.00000      10.00000
     125.00000     130.00000
 2Theta	Yobs	Ycal	Yobs-Ycal	Backg	Posr	(hkl)	K
      0.7700	    0.00	  567.07	-1766.75	  450.13
      0.8700	    0.00	  567.56	-1766.75	  450.62
      0.9700	   52.00	  568.04	-1766.75	  451.10
      1.0700	   39.00	  568.52	-1766.75	  451.57
      1.1700	   49.00	  568.98	-1766.75	  452.04
      1.2700	   40.00	  569.43	-1766.75	  452.49
      1.3700	   40.00	  569.88	-1766.75	  452.94
      1.4700	   99.00	  570.32	-1766.75	  453.37
      1.5700	  276.00	  570.75	-1766.75	  453.80
      1.6700	  444.00	  571.16	-1766.75	  454.22
      1.7700	  606.00	  571.57	-1766.75	  454.63
      1.8700	  660.00	  571.98	-1766.75	  455.03
      1.9700	  758.00	  572.37	-1766.75	  455.42
      2.0700	  820.00	  572.75	-1766.75	  455.81
      2.1700	  765.00	  573.13	-1766.75	  456.18
      2.2700	  783.00	  573.50	-1766.75	  456.55
      2.3700	  757.00	  573.86	-1766.75	  456.91
      2.4700	  681.00	  574.21	-1766.75	  457.26
      2.5700	  715.00	  574.55	-1766.75	  457.60
      2.6700	  685.00	  574.88	-1766.75	  457.94
      2.7700	  656.00	  575.21	-1766.75	  458.27
      2.8700	  594.00	  575.53	-1766.75	  458.58
      2.9700	  632.00	  575.84	-1766.75	  458.89
      3.0700	  572.00	  576.14	-1766.75	  459.20
      3.1700	  581.00	  576.43	-1766.75	  459.49
      3.2700	  610.00	  576.72	-1766.75	  459.78
      3.3700	  656.00	  577.00	-1766.75	  460.06
      3.4700	  741.00	  577.27	-1766.75	  460.33
      3.5700	  825.00	  577.53	-1766.75	  460.59
      3.6700	  854.00	  577.79	-1766.75	  460.85
      3.7700	  930.00	  578.04	-1766.75	  461.09
      3.8700	  962.00	  578.28	-1766.75	  461.34
      3.9700	 1046.00	  578.51	-1766.75	  461.57
      4.0700	 1092.00	  578.74	-1766.75	  461.80
      4.1700	 1069.00	  578.96	-1766.75	  462.01
      4.2700	 1149.00	  579.17	-1766.75	  462.23
      4.3700	 1021.00	  579.38	-1766.75	  462.43
      4.4700	 1023.00	  579.57	-1766.75	  462.63
      4.5700	 1003.00	  579.76	-1766.75	  462.82
      4.6700	 1074.00	  579.95	-1766.75	  463.00
      4.7700	 1044.00	  580.12	-1766.75	  463.18
      4.8700	 1000.00	  580.29	-1766.75	  463.35
      4.9700	  958.00	  580.46	-1766.75	  463.51
      5.0700	  956.00	  580.61	-1766.75	  463.67
      5.1700	  986.00	  580.76	-1766.75	  463.82
      5.2700	  933.00	  580.90	-1766.75	  463.96
      5.3700	  869.00	  581.04	-1766.75	  464.10
      5.4700	  871.00	  581.17	-1766.75	  464.23
      5.5700	  857.00	  581.29	-1766.75	  464.35
      5.6700	  803.00	  581.41	-1766.75	  464.47
      5.7700	  794.00	  581.52	-1766.75	  464.58
      5.8700	  783.00	  581.62	-1766.75	  464.68
      5.9700	  783.00	  581.72	-1766.75	  464.78
      6.0700	  799.00	  581.81	-1766.75	  464.87
      6.1700	  812.00	  581.90	-1766.75	  464.96
      6.2700	  823.00	  581.98	-1766.75	  465.03
      6.3700	  767.00	  582.05	-1766.75	  465.11
      6.4700	  735.00	  582.12	-1766.75	  465.18
      6.5700	  766.00	  582.18	-1766.75	  465.24
      6.6700	  798.00	  582.24	-1766.75	  465.29
      6.7700	  739.00	  582.29	-1766.75	  465.34
      6.8700	  697.00	  582.33	-1766.75	  465.39
      6.9700	  698.00	  582.37	-1766.75	  465.42
      7.0700	  696.00	  582.40	-1766.75	  465.46
      7.1700	  664.00	  582.43	-1766.75	  465.48
      7.2700	  709.00	  582.45	-1766.75	  465.51
      7.3700	  653.00	  582.47	-1766.75	  465.52
      7.4700	  695.00	  582.48	-1766.75	  465.53
      7.5700	  621.00	  582.48	-1766.75	  465.54
      7.6700	  620.00	  582.48	-1766.75	  465.54
      7.7700	  644.00	  582.48	-1766.75	  465.53
      7.8700	  662.00	  582.47	-1766.75	  465.52
      7.9700	  650.00	  582.45	-1766.75	  465.50
      8.0700	  645.00	  582.43	-1766.75	  465.48
      8.1700	  641.00	  582.40	-1766.75	  465.46
      8.2700	  637.00	  582.37	-1766.75	  465.43
      8.3700	  654.00	  582.33	-1766.75	  465.39
      8.4700	  616.00	  582.29	-1766.75	  465.35
      8.5700	  652.00	  582.25	-1766.75	  465.30
      8.6700	  659.00	  582.20	-1766.75	  465.25
      8.7700	  620.00	  582.14	-1766.75	  465.19
      8.8700	  615.00	  582.08	-1766.75	  465.13
      8.9700	  643.00	  582.01	-1766.75	  465.07
      9.0700	  625.00	  581.94	-1766.75	  465.00
      9.1700	  569.00	  581.87	-1766.75	  464.92
      9.2700	  618.00	  581.79	-1766.75	  464.84
      9.3700	  618.00	  581.71	-1766.75	  464.76
      9.4700	  577.00	  581.62	-1766.75	  464.67
      9.5700	  617.00	  581.52	-1766.75	  464.58
      9.6700	  600.00	  581.43	-1766.75	  464.48
      9.7700	  615.00	  581.33	-1766.75	  464.38
      9.8700	  604.00	  581.22	-1766.75	  464.28
      9.9700	  632.00	  581.11	-1766.75	  464.17
     10.0700	  600.00	  581.65	-1748.40	  464.05
     10.1700	  577.00	  581.60	-1771.35	  463.93
     10.2700	  628.00	  581.55	-1720.30	  463.81
     10.3700	  615.00	  581.53	-1733.28	  463.68
     10.4700	  613.00	  581.55	-1735.30	  463.55
     10.5700	  586.00	  581.65	-1762.40	  463.42
     10.6700	  588.00	  581.93	-1760.68	  463.28
     10.7700	  581.00	  582.50	-1768.25	  463.14
     10.8700	  600.00	  583.43	-1750.18	  462.99
     10.9700	  568.00	  584.71	-1783.46	  462.84
     11.0700	  566.00	  586.31	-1787.06	  462.69
     11.1700	  612.00	  588.20	-1742.95	  462.53
     11.2700	  623.00	  590.42	-1734.17	  462.37
     11.3700	  592.00	  593.05	-1767.80	  462.21
     11.4700	  587.00	  596.18	-1775.93	  462.04
     11.5700	  594.00	  600.01	-1772.76	  461.87
     11.6700	  676.00	  604.84	-1695.59	  461.69
     11.7700	  680.00	  611.22	-1697.97	  461.51
     11.8700	  655.00	  620.07	-1731.82	  461.33
     11.9700	  642.00	  632.32	-1757.07	  461.14
     12.0700	  682.00	  647.00	-1731.75	  460.96
     12.1700	  622.00	  658.31	-1803.06	  460.76
     12.2700	  679.00	  656.19	-1743.94	  460.57
     12.3700	  621.00	  636.68	-1782.43	  460.37
     12.4700	  608.00	  612.09	-1770.84	  460.17
     12.5700	  600.00	  594.35	-1761.10	  459.96
     12.6700	  574.00	  585.16	-1777.91	  459.76
     12.7700	  598.00	  581.25	-1750.00	  459.54
     12.8700	  537.00	  579.54	-1809.29	  459.33
     12.9700	  542.00	  578.57	-1803.32	  459.11
     13.0700	  608.00	  577.86	-1736.61	  458.89
     13.1700	  549.00	  577.30	-1795.05	  458.67
     13.2700	  533.00	  576.82	-1810.57	  458.44
     13.3700	  552.00	  576.40	-1791.15	  458.22
     13.4700	  509.00	  576.01	-1833.76	  457.99
     13.5700	  547.00	  575.66	-1795.41	  457.75
     13.6700	  584.00	  575.32	-1758.07	  457.51
     13.7700	  543.00	  575.00	-1798.75	  457.28
     13.8700	  601.00	  574.69	-1740.44	  457.03
     13.9700	  551.00	  574.39	-1790.14	  456.79
     14.0700	  527.00	  574.10	-1813.85	  456.54
     14.1700	  542.00	  573.81	-1798.56	  456.29
     14.2700	  595.00	  573.52	-1745.27	  456.04
     14.3700	  567.00	  573.23	-1772.98	  455.79
     14.4700	  578.00	  572.95	-1761.70	  455.53
     14.5700	  579.00	  572.67	-1760.42	  455.27
     14.6700	  547.00	  572.38	-1792.13	  455.01
     14.7700	  540.00	  572.10	-1798.85	  454.75
     14.8700	  592.00	  571.82	-1746.57	  454.48
     14.9700	  564.00	  571.54	-1774.29	  454.21
     15.0700	  598.00	  571.25	-1740.00	  453.94
     15.1700	  554.00	  570.97	-1783.72	  453.67
     15.2700	  571.00	  570.68	-1766.43	  453.39
     15.3700	  541.00	  570.40	-1796.15	  453.12
     15.4700	  566.00	  570.11	-1770.86	  452.84
     15.5700	  547.00	  569.82	-1789.57	  452.56
     15.6700	  531.00	  569.53	-1805.28	  452.28
     15.7700	  587.00	  569.24	-1748.99	  451.99
     15.8700	  568.00	  568.95	-1767.70	  451.70
     15.9700	  573.00	  568.65	-1762.40	  451.42
     16.0700	  576.00	  568.36	-1759.11	  451.13
     16.1700	  523.00	  568.06	-1811.81	  450.83
     16.2700	  606.00	  567.76	-1728.51	  450.54
     16.3700	  546.00	  567.46	-1788.21	  450.24
     16.4700	  589.00	  567.16	-1744.91	  449.95
     16.5700	  566.00	  566.88	-1767.63	  449.65
     16.6700	  529.00	  566.58	-1804.33	  449.35
     16.7700	  564.00	  566.27	-1769.02	  449.05
     16.8700	  583.00	  565.97	-1749.72	  448.74
     16.9700	  536.00	  565.66	-1796.41	  448.44
     17.0700	  549.00	  565.35	-1783.10	  448.13
     17.1700	  587.00	  565.04	-1744.79	  447.82
     17.2700	  524.00	  564.73	-1807.48	  447.51
     17.3700	  573.00	  564.42	-1758.17	  447.20
     17.4700	  591.00	  564.11	-1739.86	  446.89
     17.5700	  567.00	  563.79	-1763.54	  446.58
     17.6700	  559.00	  563.48	-1771.23	  446.26
     17.7700	  592.00	  563.16	-1737.91	  445.95
     17.8700	  639.00	  562.94	-1690.69	  445.63
     17.9700	  540.00	  562.62	-1789.37	  445.31
     18.0700	  565.00	  562.31	-1764.06	  444.99
     18.1700	  563.00	  561.99	-1765.74	  444.67
     18.2700	  581.00	  561.67	-1747.42	  444.35
     18.3700	  562.00	  561.35	-1766.10	  444.02
     18.4700	  558.00	  561.02	-1769.77	  443.70
     18.5700	  538.00	  560.70	-1789.45	  443.37
     18.6700	  576.00	  560.38	-1751.13	  443.05
     18.7700	  543.00	  560.05	-1783.80	  442.72
     18.8700	  565.00	  559.81	-1761.56	  442.39
     18.9700	  540.00	  559.49	-1786.24	  442.06
     19.0700	  551.00	  559.16	-1774.91	  441.73
     19.1700	  565.00	  558.84	-1760.59	  441.40
     19.2700	  578.00	  558.51	-1747.26	  441.07
     19.3700	  550.00	  558.19	-1774.94	  440.74
     19.4700	  513.00	  557.86	-1811.61	  440.40
     19.5700	  528.00	  557.53	-1796.28	  440.07
     19.6700	  563.00	  557.20	-1760.95	  439.74
     19.7700	  538.00	  556.88	-1785.63	  439.40
     19.8700	  582.00	  556.55	-1741.30	  439.06
     19.9700	  539.00	  556.22	-1783.97	  438.73
     20.0700	  515.00	  555.89	-1807.64	  438.39
     20.1700	  564.00	  555.56	-1758.31	  438.05
     20.2700	  557.00	  555.21	-1764.96	  437.71
     20.3700	  557.00	  554.88	-1764.63	  437.37
     20.4700	  562.00	  554.55	-1759.30	  437.03
     20.5700	  515.00	  554.22	-1805.97	  436.69
     20.6700	  552.00	  553.89	-1768.64	  436.35
     20.7700	  562.00	  553.57	-1758.32	  436.01
     20.8700	  516.00	  553.24	-1803.99	  435.67
     20.9700	  524.00	  552.95	-1795.70	  435.33
     21.0700	  570.00	  552.62	-1749.37	  434.99
     21.1700	  561.00	  552.30	-1758.05	  434.64
     21.2700	  525.00	  551.97	-1793.72	  434.30
     21.3700	  559.00	  551.65	-1759.40	  433.96
     21.4700	  557.00	  551.33	-1761.08	  433.61
     21.5700	  584.00	  551.00	-1733.75	  433.27
     21.6700	  565.00	  550.68	-1752.43	  432.92
     21.7700	  541.00	  550.36	-1776.11	  432.58
     21.8700	  544.00	  550.05	-1772.80	  432.24
     21.9700	  545.00	  549.73	-1771.48	  431.89
     22.0700	  511.00	  549.42	-1805.17	  431.55
     22.1700	  543.00	  549.11	-1772.86	  431.20
     22.2700	  544.00	  548.80	-1771.55	  430.86
     22.3700	  570.00	  548.49	-1745.24	  430.51
     22.4700	  604.00	  548.19	-1710.94	  430.17
     22.5700	  542.00	  547.89	-1772.64	  429.82
     22.6700	  544.00	  547.60	-1770.35	  429.48
     22.7700	  541.00	  547.32	-1773.07	  429.13
     22.8700	  557.00	  547.04	-1756.79	  428.79
     22.9700	  545.00	  546.77	-1768.52	  428.44
     23.0700	  540.00	  546.51	-1773.26	  428.10
     23.1700	  571.00	  546.26	-1742.01	  427.75
     23.2700	  560.00	  546.03	-1752.78	  427.41
     23.3700	  524.00	  545.83	-1788.58	  427.07
     23.4700	  514.00	  545.65	-1798.40	  426.72
     23.5700	  552.00	  545.51	-1760.26	  426.38
     23.6700	  540.00	  545.42	-1772.17	  426.03
     23.7700	  549.00	  545.42	-1763.17	  425.69
     23.8700	  563.00	  545.72	-1749.47	  425.35
     23.9700	  550.00	  546.26	-1763.01	  425.01
     24.0700	  527.00	  547.56	-1787.31	  424.66
     24.1700	  542.00	  550.29	-1775.04	  424.32
     24.2700	  580.00	  555.28	-1742.03	  423.98
     24.3700	  597.00	  563.51	-1733.26	  423.64
     24.4700	  618.00	  576.16	-1724.91	  423.30
     24.5700	  575.00	  594.02	-1785.77	  422.96
     24.6700	  582.00	  614.95	-1799.70	  422.62
     24.7700	  606.00	  631.01	-1791.76	  422.28
     24.8700	  561.00	  630.23	-1835.98	  421.94
     24.9700	  609.00	  609.18	-1766.93	  421.60
     25.0700	  599.00	  581.86	-1749.61	  421.26
     25.1700	  608.00	  561.29	-1720.04	  420.92
     25.2700	  567.00	  550.04	-1749.79	  420.59
     25.3700	  569.00	  545.06	-1742.81	  420.25
     25.4700	  557.00	  542.94	-1752.69	  419.91
     25.5700	  565.00	  541.86	-1743.61	  419.58
     25.6700	  579.00	  541.15	-1728.90	  419.24
     25.7700	  517.00	  540.63	-1790.38	  418.91
     25.8700	  546.00	  540.23	-1760.98	  418.57
     25.9700	  595.00	  539.93	-1711.68	  418.24
     26.0700	  574.00	  539.71	-1732.46	  417.91
     26.1700	  564.00	  539.56	-1742.31	  417.58
     26.2700	  566.00	  539.48	-1740.23	  417.25
     26.3700	  551.00	  539.48	-1755.23	  416.92
     26.4700	  531.00	  539.56	-1775.31	  416.59
     26.5700	  499.00	  539.73	-1807.48	  416.26
     26.6700	  554.00	  540.01	-1752.76	  415.93
     26.7700	  559.00	  540.43	-1748.18	  415.60
     26.8700	  574.00	  541.02	-1733.77	  415.28
     26.9700	  589.00	  541.84	-1719.59	  414.95
     27.0700	  540.00	  542.95	-1769.70	  414.63
     27.1700	  573.00	  544.48	-1738.23	  414.30
     27.2700	  496.00	  546.69	-1817.44	  413.98
     27.3700	  580.00	  550.06	-1736.81	  413.66
     27.4700	  570.00	  555.51	-1752.26	  413.34
     27.5700	  546.00	  564.70	-1785.45	  413.02
     27.6700	  593.00	  580.26	-1754.01	  412.70
     27.7700	  554.00	  605.55	-1818.30	  412.38
     27.8700	  602.00	  643.52	-1808.27	  412.06
     27.9700	  667.00	  694.38	-1794.13	  411.75
     28.0700	  758.00	  752.57	-1761.32	  411.43
     28.1700	  895.00	  804.19	-1675.94	  411.12
     28.2700	  934.00	  827.90	-1660.65	  410.80
     28.3700	  941.00	  809.80	-1635.55	  410.49
     28.4700	  829.00	  768.27	-1706.02	  410.18
     28.5700	  713.00	  737.36	-1791.11	  409.87
     28.6700	  727.00	  733.99	-1773.74	  409.56
     28.7700	  730.00	  754.88	-1791.63	  409.25
     28.8700	  796.00	  781.90	-1752.65	  408.94
     28.9700	  761.00	  788.31	-1794.06	  408.64
     29.0700	  766.00	  755.40	-1756.15	  408.33
     29.1700	  721.00	  695.91	-1741.66	  408.03
     29.2700	  627.00	  637.66	-1777.41	  407.73
     29.3700	  610.00	  594.94	-1751.69	  407.43
     29.4700	  544.00	  568.79	-1791.54	  407.13
     29.5700	  647.00	  554.54	-1674.29	  406.83
     29.6700	  646.00	  547.01	-1667.76	  406.53
     29.7700	  647.00	  542.78	-1662.53	  406.23
     29.8700	  569.00	  540.17	-1737.92	  405.94
     29.9700	  594.00	  538.53	-1711.28	  405.64
     30.0700	  554.00	  537.70	-1750.45	  405.35
     30.1700	  556.00	  537.83	-1748.58	  405.06
     30.2700	  577.00	  539.48	-1729.23	  404.77
     30.3700	  600.00	  543.73	-1710.48	  404.48
     30.4700	  606.00	  552.28	-1713.03	  404.19
     30.5700	  538.00	  567.05	-1795.80	  403.91
     30.6700	  613.00	  588.78	-1742.53	  403.62
     30.7700	  569.00	  615.10	-1812.85	  403.34
     30.8700	  586.00	  638.89	-1819.64	  403.06
     30.9700	  582.00	  648.77	-1833.52	  402.77
     31.0700	  633.00	  636.03	-1769.78	  402.49
     31.1700	  618.00	  607.00	-1755.75	  402.22
     31.2700	  572.00	  576.90	-1771.65	  401.94
     31.3700	  505.00	  554.38	-1816.13	  401.66
     31.4700	  532.00	  540.60	-1775.35	  401.39
     31.5700	  563.00	  533.26	-1737.01	  401.12
     31.6700	  523.00	  529.52	-1773.27	  400.85
     31.7700	  535.00	  527.48	-1759.23	  400.58
     31.8700	  518.00	  526.20	-1774.95	  400.31
     31.9700	  506.00	  525.31	-1786.06	  400.04
     32.0700	  556.00	  524.67	-1735.42	  399.77
     32.1700	  522.00	  524.21	-1768.96	  399.51
     32.2700	  528.00	  523.91	-1762.66	  399.25
     32.3700	  590.00	  523.77	-1700.52	  398.99
     32.4700	  548.00	  523.77	-1742.52	  398.73
     32.5700	  523.00	  523.93	-1767.68	  398.47
     32.6700	  555.00	  524.27	-1736.02	  398.21
     32.7700	  507.00	  524.83	-1784.58	  397.96
     32.8700	  546.00	  525.68	-1746.43	  397.70
     32.9700	  514.00	  526.90	-1779.65	  397.45
     33.0700	  563.00	  528.68	-1732.43	  397.20
     33.1700	  553.00	  531.40	-1745.15	  396.95
     33.2700	  553.00	  535.98	-1749.73	  396.70
     33.3700	  547.00	  544.38	-1764.13	  396.46
     33.4700	  541.00	  560.67	-1786.42	  396.21
     33.5700	  582.00	  591.47	-1776.22	  395.97
     33.6700	  640.00	  645.03	-1771.78	  395.73
     33.7700	  743.00	  726.16	-1749.91	  395.49
     33.8700	  830.00	  827.75	-1764.50	  395.25
     33.9700	  993.00	  924.05	-1697.80	  395.01
     34.0700	 1028.00	  973.01	-1711.76	  394.78
     34.1700	 1025.00	  939.58	-1681.33	  394.54
     34.2700	  898.00	  839.62	-1708.37	  394.31
     34.3700	  762.00	  727.09	-1731.84	  394.08
     34.4700	  601.00	  638.48	-1804.23	  393.85
     34.5700	  565.00	  582.56	-1784.31	  393.63
     34.6700	  560.00	  552.50	-1759.25	  393.40
     34.7700	  567.00	  537.67	-1737.42	  393.18
     34.8700	  550.00	  530.12	-1746.87	  392.95
     34.9700	  551.00	  525.70	-1741.45	  392.73
     35.0700	  517.00	  522.67	-1772.42	  392.52
     35.1700	  558.00	  520.40	-1729.15	  392.30
     35.2700	  572.00	  518.61	-1713.36	  392.08
     35.3700	  527.00	  517.16	-1756.91	  391.87
     35.4700	  504.00	  515.97	-1778.72	  391.66
     35.5700	  514.00	  514.95	-1767.70	  391.45
     35.6700	  509.00	  514.08	-1771.83	  391.24
     35.7700	  493.00	  513.33	-1787.08	  391.03
     35.8700	  554.00	  513.15	-1725.90	  390.83
     35.9700	  543.00	  512.57	-1736.32	  390.62
     36.0700	  475.00	  512.05	-1803.80	  390.42
     36.1700	  523.00	  511.58	-1755.33	  390.22
     36.2700	  581.00	  511.15	-1696.90	  390.02
     36.3700	  533.00	  510.77	-1744.52	  389.83
     36.4700	  530.00	  510.42	-1747.17	  389.63
     36.5700	  529.00	  510.11	-1747.86	  389.44
     36.6700	  513.00	  509.83	-1763.58	  389.25
     36.7700	  505.00	  509.59	-1771.34	  389.06
     36.8700	  484.00	  509.41	-1792.16	  388.87
     36.9700	  533.00	  509.31	-1743.06	  388.68
     37.0700	  504.00	  509.40	-1772.15	  388.50
     37.1700	  494.00	  509.85	-1782.60	  388.31
     37.2700	  470.00	  511.01	-1807.76	  388.13
     37.3700	  509.00	  513.26	-1771.01	  387.95
     37.4700	  519.00	  516.82	-1764.57	  387.78
     37.5700	  507.00	  521.34	-1781.09	  387.60
     37.6700	  485.00	  525.75	-1807.50	  387.43
     37.7700	  518.00	  528.53	-1777.28	  387.25
     37.8700	  537.00	  528.88	-1758.63	  387.08
     37.9700	  508.00	  527.34	-1786.09	  386.91
     38.0700	  484.00	  524.51	-1807.26	  386.75
     38.1700	  529.00	  520.53	-1758.28	  386.58
     38.2700	  520.00	  516.07	-1762.82	  386.42
     38.3700	  511.00	  512.15	-1767.90	  386.26
     38.4700	  468.00	  509.27	-1808.02	  386.10
     38.5700	  499.00	  507.42	-1775.17	  385.94
     38.6700	  505.00	  506.34	-1768.09	  385.78
     38.7700	  525.00	  505.71	-1747.46	  385.63
     38.8700	  500.00	  505.22	-1771.97	  385.48
     38.9700	  492.00	  504.93	-1779.68	  385.32
     39.0700	  513.00	  504.69	-1758.44	  385.18
     39.1700	  524.00	  504.48	-1747.23	  385.03
     39.2700	  435.00	  504.21	-1835.96	  384.88
     39.3700	  497.00	  504.04	-1773.79	  384.74
     39.4700	  492.00	  503.89	-1778.64	  384.60
     39.5700	  501.00	  503.74	-1769.49	  384.46
     39.6700	  521.00	  503.61	-1749.36	  384.32
     39.7700	  500.00	  503.49	-1770.24	  384.18
     39.8700	  509.00	  503.49	-1761.24	  384.05
     39.9700	  480.00	  503.39	-1790.14	  383.91
     40.0700	  538.00	  503.30	-1732.05	  383.78
     40.1700	  498.00	  503.22	-1771.97	  383.65
     40.2700	  501.00	  503.15	-1768.90	  383.52
     40.3700	  499.00	  503.09	-1770.84	  383.40
     40.4700	  458.00	  503.04	-1811.79	  383.27
     40.5700	  570.00	  503.01	-1699.76	  383.15
     40.6700	  483.00	  503.00	-1786.75	  383.03
     40.7700	  497.00	  503.00	-1772.75	  382.91
