MSG Master    CELL:    5.91670   5.91670  23.26583   90.0000   90.0000  120.0000   SPGR: P 63/m m c             TEMP:   1022.75
  1   1280     2.52000     0.00000    -0.12384     0.00000     0.00000    0
    99     0     2
       0.00000      10.00000
     125.00000     130.00000
 2Theta	Yobs	Ycal	Yobs-Ycal	Backg	Posr	(hkl)	K
      0.7700	    0.00	  527.22	-1707.55	  411.72
      0.8700	    0.00	  528.14	-1707.55	  412.64
      0.9700	   45.00	  529.05	-1707.55	  413.55
      1.0700	   39.00	  529.95	-1707.55	  414.45
      1.1700	   41.00	  530.83	-1707.55	  415.33
      1.2700	   47.00	  531.70	-1707.55	  416.20
      1.3700	   42.00	  532.56	-1707.55	  417.06
      1.4700	   91.00	  533.41	-1707.55	  417.91
      1.5700	  278.00	  534.25	-1707.55	  418.74
      1.6700	  431.00	  535.07	-1707.55	  419.57
      1.7700	  563.00	  535.88	-1707.55	  420.38
      1.8700	  652.00	  536.68	-1707.55	  421.18
      1.9700	  701.00	  537.47	-1707.55	  421.96
      2.0700	  752.00	  538.24	-1707.55	  422.74
      2.1700	  766.00	  539.01	-1707.55	  423.50
      2.2700	  746.00	  539.76	-1707.55	  424.26
      2.3700	  772.00	  540.50	-1707.55	  425.00
      2.4700	  727.00	  541.23	-1707.55	  425.73
      2.5700	  729.00	  541.95	-1707.55	  426.44
      2.6700	  685.00	  542.65	-1707.55	  427.15
      2.7700	  645.00	  543.35	-1707.55	  427.85
      2.8700	  672.00	  544.03	-1707.55	  428.53
      2.9700	  591.00	  544.70	-1707.55	  429.20
      3.0700	  590.00	  545.37	-1707.55	  429.87
      3.1700	  577.00	  546.02	-1707.55	  430.52
      3.2700	  672.00	  546.66	-1707.55	  431.16
      3.3700	  718.00	  547.29	-1707.55	  431.79
      3.4700	  788.00	  547.91	-1707.55	  432.41
      3.5700	  838.00	  548.52	-1707.55	  433.01
      3.6700	  948.00	  549.11	-1707.55	  433.61
      3.7700	  963.00	  549.70	-1707.55	  434.20
      3.8700	 1008.00	  550.28	-1707.55	  434.78
      3.9700	 1103.00	  550.85	-1707.55	  435.34
      4.0700	 1103.00	  551.40	-1707.55	  435.90
      4.1700	 1055.00	  551.95	-1707.55	  436.45
      4.2700	 1181.00	  552.48	-1707.55	  436.98
      4.3700	 1120.00	  553.01	-1707.55	  437.51
      4.4700	 1116.00	  553.53	-1707.55	  438.03
      4.5700	 1047.00	  554.03	-1707.55	  438.53
      4.6700	 1044.00	  554.53	-1707.55	  439.03
      4.7700	 1012.00	  555.02	-1707.55	  439.52
      4.8700	  965.00	  555.50	-1707.55	  439.99
      4.9700	  944.00	  555.96	-1707.55	  440.46
      5.0700	  964.00	  556.42	-1707.55	  440.92
      5.1700	  945.00	  556.87	-1707.55	  441.37
      5.2700	  928.00	  557.31	-1707.55	  441.81
      5.3700	  926.00	  557.74	-1707.55	  442.24
      5.4700	  870.00	  558.16	-1707.55	  442.66
      5.5700	  903.00	  558.57	-1707.55	  443.07
      5.6700	  866.00	  558.98	-1707.55	  443.48
      5.7700	  866.00	  559.37	-1707.55	  443.87
      5.8700	  801.00	  559.76	-1707.55	  444.25
      5.9700	  889.00	  560.13	-1707.55	  444.63
      6.0700	  751.00	  560.50	-1707.55	  445.00
      6.1700	  770.00	  560.86	-1707.55	  445.36
      6.2700	  775.00	  561.21	-1707.55	  445.71
      6.3700	  783.00	  561.55	-1707.55	  446.05
      6.4700	  721.00	  561.88	-1707.55	  446.38
      6.5700	  813.00	  562.21	-1707.55	  446.71
      6.6700	  725.00	  562.52	-1707.55	  447.02
      6.7700	  732.00	  562.83	-1707.55	  447.33
      6.8700	  770.00	  563.13	-1707.55	  447.63
      6.9700	  691.00	  563.42	-1707.55	  447.92
      7.0700	  702.00	  563.71	-1707.55	  448.21
      7.1700	  664.00	  563.98	-1707.55	  448.48
      7.2700	  681.00	  564.25	-1707.55	  448.75
      7.3700	  667.00	  564.51	-1707.55	  449.01
      7.4700	  675.00	  564.76	-1707.55	  449.26
      7.5700	  659.00	  565.00	-1707.55	  449.50
      7.6700	  677.00	  565.24	-1707.55	  449.74
      7.7700	  668.00	  565.47	-1707.55	  449.97
      7.8700	  652.00	  565.69	-1707.55	  450.19
      7.9700	  647.00	  565.90	-1707.55	  450.40
      8.0700	  629.00	  566.11	-1707.55	  450.61
      8.1700	  678.00	  566.31	-1707.55	  450.81
      8.2700	  645.00	  566.50	-1707.55	  451.00
      8.3700	  663.00	  566.68	-1707.55	  451.18
      8.4700	  586.00	  566.86	-1707.55	  451.36
      8.5700	  622.00	  567.03	-1707.55	  451.53
      8.6700	  587.00	  567.19	-1707.55	  451.69
      8.7700	  660.00	  567.35	-1707.55	  451.84
      8.8700	  648.00	  567.49	-1707.55	  451.99
      8.9700	  619.00	  567.64	-1707.55	  452.13
      9.0700	  644.00	  567.77	-1707.55	  452.27
      9.1700	  613.00	  567.90	-1707.55	  452.40
      9.2700	  624.00	  568.02	-1707.55	  452.52
      9.3700	  592.00	  568.13	-1707.55	  452.63
      9.4700	  583.00	  568.24	-1707.55	  452.74
      9.5700	  595.00	  568.34	-1707.55	  452.84
      9.6700	  580.00	  568.44	-1707.55	  452.94
      9.7700	  599.00	  568.53	-1707.55	  453.02
      9.8700	  574.00	  568.61	-1707.55	  453.11
      9.9700	  569.00	  568.68	-1707.55	  453.18
     10.0700	  617.00	  570.09	-1660.65	  453.25
     10.1700	  545.00	  570.31	-1732.86	  453.32
     10.2700	  629.00	  570.55	-1649.10	  453.37
     10.3700	  595.00	  570.84	-1683.39	  453.42
     10.4700	  611.00	  571.21	-1667.76	  453.47
     10.5700	  613.00	  571.72	-1666.28	  453.51
     10.6700	  591.00	  572.48	-1689.03	  453.54
     10.7700	  595.00	  573.57	-1686.12	  453.57
     10.8700	  586.00	  575.07	-1696.62	  453.59
     10.9700	  597.00	  576.99	-1687.55	  453.61
     11.0700	  540.00	  579.33	-1746.88	  453.62
     11.1700	  607.00	  582.07	-1682.63	  453.62
     11.2700	  575.00	  585.28	-1717.83	  453.62
     11.3700	  578.00	  589.02	-1718.57	  453.61
     11.4700	  650.00	  593.44	-1651.00	  453.60
     11.5700	  583.00	  598.78	-1723.34	  453.58
     11.6700	  622.00	  605.42	-1690.97	  453.56
     11.7700	  624.00	  613.89	-1697.44	  453.53
     11.8700	  614.00	  624.77	-1718.33	  453.50
     11.9700	  614.00	  637.98	-1731.53	  453.46
     12.0700	  677.00	  651.51	-1682.07	  453.42
     12.1700	  668.00	  660.36	-1699.91	  453.37
     12.2700	  655.00	  657.19	-1709.74	  453.32
     12.3700	  654.00	  639.56	-1693.11	  453.26
     12.4700	  646.00	  616.69	-1678.24	  453.19
     12.5700	  611.00	  598.03	-1694.59	  453.12
     12.6700	  576.00	  586.06	-1717.62	  453.05
     12.7700	  595.00	  579.42	-1691.98	  452.97
     12.8700	  555.00	  575.94	-1728.49	  452.89
     12.9700	  519.00	  573.99	-1762.54	  452.80
     13.0700	  570.00	  572.75	-1710.30	  452.71
     13.1700	  571.00	  571.85	-1708.41	  452.61
     13.2700	  565.00	  571.16	-1713.71	  452.51
     13.3700	  617.00	  570.60	-1661.15	  452.41
     13.4700	  547.00	  570.13	-1730.69	  452.30
     13.5700	  620.00	  569.73	-1657.29	  452.18
     13.6700	  498.00	  569.38	-1778.94	  452.07
     13.7700	  596.00	  569.07	-1680.62	  451.94
     13.8700	  556.00	  568.78	-1720.34	  451.81
     13.9700	  558.00	  568.52	-1718.07	  451.68
     14.0700	  573.00	  568.27	-1702.82	  451.55
     14.1700	  591.00	  568.03	-1684.58	  451.41
     14.2700	  571.00	  567.80	-1704.36	  451.27
     14.3700	  525.00	  567.58	-1750.14	  451.12
     14.4700	  558.00	  567.37	-1716.92	  450.97
     14.5700	  566.00	  567.15	-1708.71	  450.81
     14.6700	  585.00	  566.95	-1689.50	  450.65
     14.7700	  564.00	  566.74	-1710.29	  450.49
     14.8700	  542.00	  566.56	-1732.12	  450.32
     14.9700	  539.00	  566.36	-1734.91	  450.15
     15.0700	  544.00	  566.15	-1729.71	  449.98
     15.1700	  567.00	  565.95	-1706.50	  449.80
     15.2700	  528.00	  565.74	-1745.29	  449.62
     15.3700	  535.00	  565.53	-1738.08	  449.43
     15.4700	  554.00	  565.32	-1718.88	  449.25
     15.5700	  515.00	  565.11	-1757.67	  449.05
     15.6700	  568.00	  564.90	-1704.45	  448.86
     15.7700	  572.00	  564.68	-1700.24	  448.66
     15.8700	  548.00	  564.47	-1724.02	  448.46
     15.9700	  530.00	  564.25	-1741.80	  448.25
     16.0700	  524.00	  564.03	-1747.58	  448.05
     16.1700	  565.00	  563.81	-1706.36	  447.84
     16.2700	  543.00	  563.58	-1728.14	  447.62
     16.3700	  569.00	  563.36	-1701.91	  447.40
     16.4700	  560.00	  563.13	-1710.68	  447.18
     16.5700	  542.00	  562.90	-1728.45	  446.96
     16.6700	  521.00	  562.66	-1749.22	  446.73
     16.7700	  582.00	  562.43	-1687.98	  446.50
     16.8700	  588.00	  562.19	-1681.74	  446.27
     16.9700	  551.00	  561.95	-1718.50	  446.04
     17.0700	  577.00	  561.70	-1692.26	  445.80
     17.1700	  534.00	  561.46	-1735.01	  445.56
     17.2700	  506.00	  561.21	-1762.77	  445.32
     17.3700	  538.00	  560.96	-1730.52	  445.07
     17.4700	  567.00	  560.71	-1701.26	  444.82
     17.5700	  569.00	  560.46	-1699.01	  444.57
     17.6700	  548.00	  560.20	-1719.75	  444.32
     17.7700	  505.00	  559.94	-1762.50	  444.06
     17.8700	  576.00	  559.68	-1691.23	  443.80
     17.9700	  604.00	  559.52	-1663.08	  443.54
     18.0700	  536.00	  559.26	-1730.82	  443.28
     18.1700	  534.00	  559.00	-1732.55	  443.01
     18.2700	  499.00	  558.73	-1767.28	  442.75
     18.3700	  539.00	  558.46	-1727.02	  442.48
     18.4700	  553.00	  558.19	-1712.75	  442.20
     18.5700	  596.00	  558.01	-1669.56	  441.93
     18.6700	  529.00	  557.73	-1736.29	  441.65
     18.7700	  578.00	  557.46	-1687.01	  441.37
     18.8700	  552.00	  557.18	-1712.74	  441.09
     18.9700	  572.00	  556.91	-1692.46	  440.81
     19.0700	  534.00	  556.63	-1730.18	  440.53
     19.1700	  487.00	  556.35	-1776.90	  440.24
     19.2700	  548.00	  556.06	-1715.62	  439.95
     19.3700	  582.00	  555.78	-1681.33	  439.66
     19.4700	  557.00	  555.50	-1706.05	  439.37
     19.5700	  571.00	  555.21	-1691.76	  439.07
     19.6700	  545.00	  554.92	-1717.48	  438.78
     19.7700	  529.00	  554.63	-1733.19	  438.48
     19.8700	  520.00	  554.34	-1741.90	  438.18
     19.9700	  542.00	  554.05	-1719.61	  437.88
     20.0700	  570.00	  553.76	-1691.32	  437.58
     20.1700	  514.00	  553.47	-1747.02	  437.27
     20.2700	  570.00	  553.17	-1690.73	  436.97
     20.3700	  552.00	  552.91	-1708.47	  436.66
     20.4700	  559.00	  552.62	-1701.17	  436.35
     20.5700	  576.00	  552.32	-1683.88	  436.04
     20.6700	  550.00	  552.03	-1709.58	  435.73
     20.7700	  518.00	  551.73	-1741.29	  435.42
     20.8700	  549.00	  551.44	-1709.99	  435.10
     20.9700	  536.00	  551.14	-1722.69	  434.79
     21.0700	  567.00	  550.84	-1691.40	  434.47
     21.1700	  541.00	  550.55	-1717.10	  434.15
     21.2700	  587.00	  550.25	-1670.81	  433.83
     21.3700	  557.00	  549.96	-1700.51	  433.51
     21.4700	  566.00	  549.66	-1691.22	  433.19
     21.5700	  534.00	  549.37	-1722.92	  432.87
     21.6700	  588.00	  549.08	-1668.63	  432.54
     21.7700	  579.00	  548.79	-1677.34	  432.22
     21.8700	  530.00	  548.50	-1726.05	  431.89
     21.9700	  547.00	  548.17	-1708.72	  431.56
     22.0700	  555.00	  547.88	-1700.44	  431.23
     22.1700	  602.00	  547.60	-1653.16	  430.91
     22.2700	  555.00	  547.33	-1699.88	  430.58
     22.3700	  544.00	  547.06	-1710.61	  430.24
     22.4700	  540.00	  546.79	-1714.34	  429.91
     22.5700	  567.00	  546.53	-1687.08	  429.58
     22.6700	  573.00	  546.28	-1680.83	  429.25
     22.7700	  506.00	  546.03	-1747.59	  428.91
     22.8700	  539.00	  545.80	-1714.36	  428.58
     22.9700	  548.00	  545.59	-1705.14	  428.24
     23.0700	  551.00	  545.54	-1702.09	  427.91
     23.1700	  550.00	  545.36	-1702.92	  427.57
     23.2700	  562.00	  545.22	-1690.77	  427.23
     23.3700	  541.00	  545.11	-1711.66	  426.89
     23.4700	  538.00	  545.05	-1714.60	  426.55
     23.5700	  594.00	  545.05	-1658.61	  426.22
     23.6700	  542.00	  545.16	-1710.71	  425.88
     23.7700	  595.00	  545.42	-1657.97	  425.54
     23.8700	  554.00	  545.95	-1699.50	  425.19
     23.9700	  518.00	  546.97	-1736.52	  424.85
     24.0700	  540.00	  548.85	-1716.40	  424.51
     24.1700	  545.00	  552.15	-1714.70	  424.17
     24.2700	  577.00	  557.57	-1688.12	  423.83
     24.3700	  597.00	  565.82	-1676.37	  423.49
     24.4700	  575.00	  577.36	-1709.92	  423.14
     24.5700	  611.00	  591.79	-1688.34	  422.80
     24.6700	  605.00	  606.72	-1709.28	  422.46
     24.7700	  633.00	  616.95	-1691.51	  422.11
     24.8700	  636.00	  615.60	-1687.16	  421.77
     24.9700	  610.00	  601.04	-1698.60	  421.43
     25.0700	  574.00	  581.54	-1715.09	  421.08
     25.1700	  572.00	  565.10	-1700.65	  420.74
     25.2700	  553.00	  554.12	-1708.68	  420.39
     25.3700	  546.00	  547.80	-1709.35	  420.05
     25.4700	  576.00	  544.40	-1675.95	  419.71
     25.5700	  562.00	  542.51	-1688.06	  419.36
     25.6700	  545.00	  541.32	-1703.88	  419.02
     25.7700	  566.00	  540.50	-1682.05	  418.67
     25.8700	  556.00	  539.88	-1691.43	  418.33
     25.9700	  573.00	  539.41	-1673.96	  417.98
     26.0700	  584.00	  539.06	-1662.61	  417.64
     26.1700	  574.00	  538.81	-1672.36	  417.30
     26.2700	  529.00	  538.65	-1717.20	  416.95
     26.3700	  576.00	  538.58	-1670.13	  416.61
     26.4700	  576.00	  538.60	-1670.16	  416.27
     26.5700	  572.00	  538.73	-1674.29	  415.92
     26.6700	  520.00	  538.99	-1726.54	  415.58
     26.7700	  526.00	  539.38	-1720.94	  415.24
     26.8700	  553.00	  539.96	-1694.51	  414.90
     26.9700	  541.00	  540.76	-1707.32	  414.55
     27.0700	  544.00	  541.87	-1705.43	  414.21
     27.1700	  572.00	  543.42	-1678.97	  413.87
     27.2700	  554.00	  545.63	-1699.19	  413.53
     27.3700	  533.00	  549.00	-1723.55	  413.19
     27.4700	  574.00	  554.45	-1688.00	  412.85
     27.5700	  523.00	  563.68	-1748.23	  412.51
     27.6700	  552.00	  579.42	-1734.97	  412.17
     27.7700	  591.00	  605.32	-1721.87	  411.83
     27.8700	  602.00	  644.80	-1750.35	  411.49
     27.9700	  665.00	  698.61	-1741.16	  411.16
     28.0700	  786.00	  761.52	-1683.07	  410.82
     28.1700	  864.00	  819.16	-1662.71	  410.48
     28.2700	  919.00	  848.42	-1636.97	  410.15
     28.3700	  906.00	  831.94	-1633.49	  409.81
     28.4700	  855.00	  786.51	-1639.07	  409.48
     28.5700	  743.00	  749.34	-1713.89	  409.14
     28.6700	  696.00	  740.31	-1751.86	  408.81
     28.7700	  716.00	  757.35	-1748.91	  408.48
     28.8700	  816.00	  782.96	-1674.51	  408.14
     28.9700	  814.00	  790.89	-1684.45	  407.81
     29.0700	  777.00	  761.31	-1691.86	  407.48
     29.1700	  722.00	  703.78	-1689.33	  407.15
     29.2700	  656.00	  645.12	-1696.67	  406.82
     29.3700	  639.00	  600.54	-1669.09	  406.49
     29.4700	  575.00	  572.16	-1704.72	  406.17
     29.5700	  585.00	  556.08	-1678.64	  405.84
     29.6700	  587.00	  547.35	-1667.91	  405.51
     29.7700	  606.00	  542.41	-1643.96	  405.19
     29.8700	  593.00	  539.36	-1653.92	  404.86
     29.9700	  558.00	  537.42	-1686.97	  404.54
     30.0700	  563.00	  536.34	-1680.89	  404.22
     30.1700	  563.00	  536.24	-1680.80	  403.90
     30.2700	  559.00	  537.47	-1686.03	  403.57
     30.3700	  561.00	  540.87	-1687.42	  403.26
     30.4700	  537.00	  547.63	-1718.19	  402.94
     30.5700	  588.00	  559.01	-1678.57	  402.62
     30.6700	  614.00	  575.32	-1668.87	  402.30
     30.7700	  552.00	  594.70	-1750.26	  401.99
     30.8700	  626.00	  612.22	-1693.78	  401.67
     30.9700	  571.00	  620.04	-1756.59	  401.36
     31.0700	  588.00	  611.74	-1731.29	  401.04
     31.1700	  580.00	  590.94	-1718.49	  400.73
     31.2700	  542.00	  568.19	-1733.74	  400.42
     31.3700	  553.00	  550.16	-1704.71	  400.11
     31.4700	  488.00	  538.30	-1757.86	  399.80
     31.5700	  505.00	  531.43	-1733.99	  399.50
     31.6700	  512.00	  527.69	-1723.24	  399.19
     31.7700	  548.00	  525.60	-1685.15	  398.89
     31.8700	  518.00	  524.32	-1713.87	  398.58
     31.9700	  528.00	  523.47	-1703.03	  398.28
     32.0700	  491.00	  522.90	-1739.45	  397.98
     32.1700	  544.00	  522.53	-1686.08	  397.68
     32.2700	  541.00	  522.35	-1688.90	  397.38
     32.3700	  533.00	  522.34	-1696.89	  397.08
     32.4700	  552.00	  522.51	-1678.07	  396.79
     32.5700	  532.00	  522.89	-1698.44	  396.49
     32.6700	  576.00	  523.50	-1655.05	  396.20
     32.7700	  533.00	  524.40	-1698.96	  395.90
     32.8700	  559.00	  525.68	-1674.23	  395.61
     32.9700	  518.00	  527.47	-1717.03	  395.32
     33.0700	  517.00	  530.03	-1720.59	  395.03
     33.1700	  562.00	  533.89	-1679.44	  394.75
     33.2700	  573.00	  540.14	-1674.69	  394.46
     33.3700	  584.00	  551.00	-1674.56	  394.18
     33.4700	  583.00	  570.45	-1695.00	  393.89
     33.5700	  559.00	  604.37	-1752.93	  393.61
     33.6700	  640.00	  659.16	-1726.72	  393.33
     33.7700	  739.00	  737.38	-1705.93	  393.05
     33.8700	  870.00	  831.46	-1669.01	  392.77
     33.9700	 1011.00	  919.33	-1615.89	  392.50
     34.0700	 1046.00	  965.80	-1627.36	  392.22
     34.1700	  972.00	  940.32	-1675.88	  391.95
     34.2700	  901.00	  853.20	-1659.75	  391.68
     34.3700	  777.00	  749.36	-1679.91	  391.40
     34.4700	  672.00	  662.05	-1697.60	  391.14
     34.5700	  575.00	  601.72	-1734.27	  390.87
     34.6700	  559.00	  565.42	-1713.98	  390.60
     34.7700	  570.00	  545.36	-1682.92	  390.34
     34.8700	  567.00	  534.37	-1674.93	  390.07
     34.9700	  523.00	  527.85	-1712.40	  389.81
     35.0700	  488.00	  523.51	-1743.07	  389.55
     35.1700	  489.00	  520.33	-1738.88	  389.29
     35.2700	  506.00	  517.84	-1719.40	  389.04
     35.3700	  494.00	  515.84	-1729.39	  388.78
     35.4700	  508.00	  514.18	-1713.74	  388.53
     35.5700	  520.00	  512.79	-1700.35	  388.27
     35.6700	  514.00	  511.61	-1705.16	  388.02
     35.7700	  493.00	  510.59	-1725.14	  387.77
     35.8700	  561.00	  509.69	-1656.25	  387.53
     35.9700	  480.00	  509.36	-1736.91	  387.28
     36.0700	  520.00	  508.67	-1696.22	  387.04
     36.1700	  512.00	  508.04	-1703.60	  386.79
     36.2700	  492.00	  507.49	-1723.04	  386.55
     36.3700	  532.00	  506.99	-1682.54	  386.31
     36.4700	  531.00	  506.54	-1683.09	  386.08
     36.5700	  478.00	  506.15	-1735.70	  385.84
     36.6700	  491.00	  505.82	-1722.37	  385.60
     36.7700	  523.00	  505.54	-1690.10	  385.37
     36.8700	  495.00	  505.37	-1717.92	  385.14
     36.9700	  528.00	  505.36	-1684.92	  384.91
     37.0700	  477.00	  505.65	-1736.20	  384.68
     37.1700	  497.00	  506.44	-1717.00	  384.46
     37.2700	  564.00	  508.00	-1651.56	  384.23
     37.3700	  497.00	  510.52	-1721.07	  384.01
     37.4700	  483.00	  513.89	-1738.44	  383.79
     37.5700	  551.00	  517.50	-1674.05	  383.57
     37.6700	  603.00	  520.16	-1624.72	  383.35
     37.7700	  525.00	  520.48	-1703.03	  383.13
     37.8700	  530.00	  518.02	-1695.57	  382.92
     37.9700	  511.00	  513.98	-1710.53	  382.71
     38.0700	  519.00	  509.88	-1698.44	  382.50
     38.1700	  486.00	  506.51	-1728.07	  382.29
     38.2700	  531.00	  504.07	-1680.62	  382.08
     38.3700	  498.00	  502.43	-1711.99	  381.87
     38.4700	  502.00	  501.54	-1707.10	  381.67
     38.5700	  486.00	  500.84	-1722.39	  381.47
     38.6700	  517.00	  500.23	-1690.78	  381.27
     38.7700	  514.00	  499.83	-1693.39	  381.07
     38.8700	  494.00	  499.50	-1713.06	  380.87
     38.9700	  532.00	  499.21	-1674.77	  380.68
     39.0700	  495.00	  498.95	-1711.51	  380.48
     39.1700	  510.00	  498.71	-1696.27	  380.29
     39.2700	  518.00	  498.49	-1688.04	  380.10
     39.3700	  461.00	  498.28	-1744.83	  379.91
     39.4700	  520.00	  498.00	-1685.55	  379.73
     39.5700	  501.00	  497.81	-1704.37	  379.54
     39.6700	  457.00	  497.64	-1748.19	  379.36
     39.7700	  502.00	  497.47	-1703.03	  379.18
     39.8700	  481.00	  497.32	-1723.88	  379.00
     39.9700	  478.00	  497.18	-1726.73	  378.82
     40.0700	  534.00	  497.05	-1670.60	  378.65
     40.1700	  497.00	  496.93	-1707.48	  378.47
     40.2700	  520.00	  496.82	-1684.37	  378.30
     40.3700	  495.00	  496.72	-1709.28	  378.13
     40.4700	  468.00	  496.64	-1736.20	  377.96
     40.5700	  458.00	  496.58	-1746.13	  377.80
     40.6700	  498.00	  496.53	-1706.08	  377.63
     40.7700	  485.00	  496.50	-1719.05	  377.47
