MSG Master    CELL:    5.90891   5.90891  23.22472   90.0000   90.0000  120.0000   SPGR: P 63/m m c             TEMP:    895.05
  1   1280     2.52000     0.00000    -0.11803     0.00000     0.00000    0
    98     0     2
       0.00000      10.00000
     125.00000     130.00000
 2Theta	Yobs	Ycal	Yobs-Ycal	Backg	Posr	(hkl)	K
      0.7700	    0.00	  480.49	-1734.91	  368.95
      0.8700	    0.00	  481.85	-1734.91	  370.31
      0.9700	   44.00	  483.19	-1734.91	  371.65
      1.0700	   41.00	  484.52	-1734.91	  372.97
      1.1700	   41.00	  485.83	-1734.91	  374.28
      1.2700	   41.00	  487.13	-1734.91	  375.58
      1.3700	   53.00	  488.41	-1734.91	  376.86
      1.4700	   99.00	  489.67	-1734.91	  378.13
      1.5700	  283.00	  490.93	-1734.91	  379.38
      1.6700	  477.00	  492.16	-1734.91	  380.62
      1.7700	  587.00	  493.38	-1734.91	  381.84
      1.8700	  665.00	  494.59	-1734.91	  383.04
      1.9700	  728.00	  495.78	-1734.91	  384.24
      2.0700	  814.00	  496.96	-1734.91	  385.42
      2.1700	  805.00	  498.13	-1734.91	  386.58
      2.2700	  808.00	  499.28	-1734.91	  387.73
      2.3700	  726.00	  500.41	-1734.91	  388.87
      2.4700	  660.00	  501.53	-1734.91	  389.99
      2.5700	  695.00	  502.64	-1734.91	  391.10
      2.6700	  693.00	  503.74	-1734.91	  392.19
      2.7700	  627.00	  504.82	-1734.91	  393.27
      2.8700	  626.00	  505.88	-1734.91	  394.34
      2.9700	  591.00	  506.94	-1734.91	  395.39
      3.0700	  632.00	  507.98	-1734.91	  396.43
      3.1700	  600.00	  509.00	-1734.91	  397.46
      3.2700	  686.00	  510.02	-1734.91	  398.47
      3.3700	  738.00	  511.02	-1734.91	  399.47
      3.4700	  860.00	  512.00	-1734.91	  400.46
      3.5700	  934.00	  512.98	-1734.91	  401.43
      3.6700	 1052.00	  513.94	-1734.91	  402.39
      3.7700	 1021.00	  514.88	-1734.91	  403.34
      3.8700	 1147.00	  515.82	-1734.91	  404.27
      3.9700	 1236.00	  516.74	-1734.91	  405.20
      4.0700	 1240.00	  517.65	-1734.91	  406.11
      4.1700	 1253.00	  518.55	-1734.91	  407.00
      4.2700	 1262.00	  519.43	-1734.91	  407.89
      4.3700	 1231.00	  520.31	-1734.91	  408.76
      4.4700	 1186.00	  521.17	-1734.91	  409.62
      4.5700	 1206.00	  522.01	-1734.91	  410.47
      4.6700	 1168.00	  522.85	-1734.91	  411.30
      4.7700	 1129.00	  523.67	-1734.91	  412.13
      4.8700	 1087.00	  524.48	-1734.91	  412.94
      4.9700	 1034.00	  525.28	-1734.91	  413.74
      5.0700	 1009.00	  526.07	-1734.91	  414.52
      5.1700	  965.00	  526.85	-1734.91	  415.30
      5.2700	  944.00	  527.61	-1734.91	  416.07
      5.3700	  960.00	  528.36	-1734.91	  416.82
      5.4700	  938.00	  529.11	-1734.91	  417.56
      5.5700	  964.00	  529.84	-1734.91	  418.29
      5.6700	  894.00	  530.55	-1734.91	  419.01
      5.7700	  896.00	  531.26	-1734.91	  419.72
      5.8700	  856.00	  531.96	-1734.91	  420.41
      5.9700	  825.00	  532.64	-1734.91	  421.10
      6.0700	  816.00	  533.32	-1734.91	  421.77
      6.1700	  784.00	  533.98	-1734.91	  422.43
      6.2700	  767.00	  534.63	-1734.91	  423.09
      6.3700	  727.00	  535.27	-1734.91	  423.73
      6.4700	  773.00	  535.90	-1734.91	  424.36
      6.5700	  763.00	  536.52	-1734.91	  424.98
      6.6700	  755.00	  537.13	-1734.91	  425.59
      6.7700	  703.00	  537.73	-1734.91	  426.19
      6.8700	  708.00	  538.32	-1734.91	  426.78
      6.9700	  713.00	  538.90	-1734.91	  427.35
      7.0700	  776.00	  539.47	-1734.91	  427.92
      7.1700	  685.00	  540.03	-1734.91	  428.48
      7.2700	  670.00	  540.57	-1734.91	  429.03
      7.3700	  678.00	  541.11	-1734.91	  429.57
      7.4700	  670.00	  541.64	-1734.91	  430.09
      7.5700	  648.00	  542.16	-1734.91	  430.61
      7.6700	  657.00	  542.67	-1734.91	  431.12
      7.7700	  613.00	  543.16	-1734.91	  431.62
      7.8700	  664.00	  543.65	-1734.91	  432.11
      7.9700	  641.00	  544.13	-1734.91	  432.59
      8.0700	  666.00	  544.60	-1734.91	  433.05
      8.1700	  618.00	  545.06	-1734.91	  433.51
      8.2700	  599.00	  545.51	-1734.91	  433.97
      8.3700	  619.00	  545.95	-1734.91	  434.41
      8.4700	  637.00	  546.39	-1734.91	  434.84
      8.5700	  615.00	  546.81	-1734.91	  435.26
      8.6700	  646.00	  547.22	-1734.91	  435.68
      8.7700	  599.00	  547.63	-1734.91	  436.08
      8.8700	  631.00	  548.02	-1734.91	  436.48
      8.9700	  581.00	  548.41	-1734.91	  436.86
      9.0700	  622.00	  548.79	-1734.91	  437.24
      9.1700	  612.00	  549.16	-1734.91	  437.61
      9.2700	  646.00	  549.52	-1734.91	  437.97
      9.3700	  603.00	  549.87	-1734.91	  438.32
      9.4700	  601.00	  550.21	-1734.91	  438.67
      9.5700	  618.00	  550.55	-1734.91	  439.00
      9.6700	  641.00	  550.88	-1734.91	  439.33
      9.7700	  602.00	  551.19	-1734.91	  439.65
      9.8700	  538.00	  551.50	-1734.91	  439.96
      9.9700	  613.00	  551.81	-1734.91	  440.26
     10.0700	  623.00	  553.83	-1665.74	  440.55
     10.1700	  617.00	  554.30	-1672.20	  440.84
     10.2700	  594.00	  554.80	-1695.71	  441.12
     10.3700	  639.00	  555.35	-1651.26	  441.39
     10.4700	  579.00	  555.99	-1711.90	  441.65
     10.5700	  614.00	  556.77	-1677.68	  441.90
     10.6700	  574.00	  557.77	-1718.68	  442.15
     10.7700	  594.00	  559.09	-1699.99	  442.39
     10.8700	  629.00	  560.80	-1666.71	  442.62
     10.9700	  597.00	  562.96	-1700.86	  442.84
     11.0700	  568.00	  565.55	-1732.45	  443.06
     11.1700	  554.00	  568.58	-1749.48	  443.27
     11.2700	  565.00	  572.08	-1741.99	  443.47
     11.3700	  573.00	  576.14	-1738.05	  443.66
     11.4700	  588.00	  580.89	-1727.79	  443.85
     11.5700	  595.00	  586.53	-1726.43	  444.03
     11.6700	  556.00	  593.39	-1772.29	  444.20
     11.7700	  593.00	  601.90	-1743.81	  444.37
     11.8700	  648.00	  612.44	-1699.35	  444.52
     11.9700	  694.00	  624.87	-1665.78	  444.68
     12.0700	  676.00	  637.67	-1696.58	  444.82
     12.1700	  647.00	  647.15	-1735.06	  444.96
     12.2700	  700.00	  647.43	-1682.34	  445.09
     12.3700	  689.00	  634.70	-1680.61	  445.21
     12.4700	  618.00	  614.27	-1731.18	  445.33
     12.5700	  579.00	  595.21	-1751.12	  445.44
     12.6700	  548.00	  581.49	-1768.39	  445.55
     12.7700	  563.00	  572.96	-1744.86	  445.64
     12.8700	  568.00	  568.09	-1735.00	  445.74
     12.9700	  529.00	  565.36	-1771.27	  445.82
     13.0700	  563.00	  563.73	-1735.64	  445.90
     13.1700	  551.00	  562.66	-1746.57	  445.97
     13.2700	  565.00	  561.90	-1731.81	  446.04
     13.3700	  503.00	  561.33	-1793.24	  446.10
     13.4700	  529.00	  560.89	-1766.80	  446.16
     13.5700	  507.00	  560.55	-1788.46	  446.20
     13.6700	  537.00	  560.27	-1758.18	  446.25
     13.7700	  523.00	  560.05	-1771.96	  446.28
     13.8700	  559.00	  559.86	-1735.77	  446.31
     13.9700	  478.00	  559.70	-1816.61	  446.34
     14.0700	  505.00	  559.60	-1789.51	  446.36
     14.1700	  554.00	  559.48	-1740.39	  446.37
     14.2700	  534.00	  559.38	-1760.28	  446.38
     14.3700	  575.00	  559.28	-1719.19	  446.38
     14.4700	  555.00	  559.19	-1739.10	  446.38
     14.5700	  518.00	  559.11	-1776.02	  446.37
     14.6700	  563.00	  559.03	-1730.93	  446.36
     14.7700	  553.00	  558.95	-1740.86	  446.34
     14.8700	  543.00	  558.87	-1750.78	  446.32
     14.9700	  547.00	  558.80	-1746.70	  446.29
     15.0700	  545.00	  558.72	-1748.63	  446.25
     15.1700	  496.00	  558.64	-1797.55	  446.22
     15.2700	  527.00	  558.56	-1766.47	  446.17
     15.3700	  558.00	  558.48	-1735.39	  446.12
     15.4700	  551.00	  558.40	-1742.31	  446.07
     15.5700	  537.00	  558.32	-1756.22	  446.01
     15.6700	  544.00	  558.23	-1749.14	  445.94
     15.7700	  552.00	  558.14	-1741.04	  445.87
     15.8700	  521.00	  558.04	-1771.95	  445.80
     15.9700	  539.00	  557.95	-1753.86	  445.72
     16.0700	  558.00	  557.85	-1734.76	  445.64
     16.1700	  515.00	  557.75	-1777.65	  445.55
     16.2700	  547.00	  557.64	-1745.55	  445.46
     16.3700	  577.00	  557.53	-1715.44	  445.36
     16.4700	  525.00	  557.42	-1767.33	  445.26
     16.5700	  578.00	  557.30	-1714.21	  445.16
     16.6700	  548.00	  557.18	-1744.09	  445.05
     16.7700	  587.00	  557.06	-1704.97	  444.93
     16.8700	  556.00	  556.93	-1735.84	  444.81
     16.9700	  553.00	  556.80	-1738.71	  444.69
     17.0700	  562.00	  556.67	-1729.58	  444.57
     17.1700	  585.00	  556.53	-1706.44	  444.43
     17.2700	  543.00	  556.39	-1748.30	  444.30
     17.3700	  543.00	  556.25	-1748.15	  444.16
     17.4700	  595.00	  556.10	-1696.01	  444.02
     17.5700	  546.00	  555.95	-1744.85	  443.87
     17.6700	  509.00	  555.90	-1781.81	  443.72
     17.7700	  542.00	  555.75	-1748.66	  443.57
     17.8700	  543.00	  555.59	-1747.50	  443.41
     17.9700	  547.00	  555.43	-1743.33	  443.25
     18.0700	  548.00	  555.26	-1742.17	  443.08
     18.1700	  542.00	  555.19	-1748.10	  442.91
     18.2700	  546.00	  555.02	-1743.93	  442.74
     18.3700	  565.00	  554.85	-1724.76	  442.56
     18.4700	  511.00	  554.67	-1778.58	  442.39
     18.5700	  540.00	  554.49	-1749.40	  442.20
     18.6700	  551.00	  554.31	-1738.22	  442.02
     18.7700	  552.00	  554.13	-1737.03	  441.83
     18.8700	  535.00	  553.94	-1753.85	  441.63
     18.9700	  537.00	  553.75	-1751.66	  441.44
     19.0700	  527.00	  553.56	-1761.46	  441.24
     19.1700	  536.00	  553.36	-1752.27	  441.04
     19.2700	  537.00	  553.16	-1751.07	  440.83
     19.3700	  535.00	  552.96	-1752.87	  440.62
     19.4700	  554.00	  552.76	-1733.66	  440.41
     19.5700	  559.00	  552.55	-1728.46	  440.19
     19.6700	  533.00	  552.34	-1754.25	  439.98
     19.7700	  489.00	  552.13	-1798.04	  439.75
     19.8700	  531.00	  551.96	-1755.87	  439.53
     19.9700	  574.00	  551.74	-1712.65	  439.30
     20.0700	  526.00	  551.53	-1760.44	  439.08
     20.1700	  533.00	  551.31	-1753.22	  438.84
     20.2700	  542.00	  551.09	-1744.00	  438.61
     20.3700	  560.00	  550.87	-1725.78	  438.37
     20.4700	  554.00	  550.65	-1731.55	  438.13
     20.5700	  521.00	  550.42	-1764.33	  437.89
     20.6700	  527.00	  550.19	-1758.10	  437.64
     20.7700	  533.00	  549.97	-1751.87	  437.40
     20.8700	  527.00	  549.74	-1757.64	  437.15
     20.9700	  525.00	  549.51	-1759.41	  436.89
     21.0700	  569.00	  549.28	-1715.18	  436.64
     21.1700	  580.00	  549.04	-1703.95	  436.38
     21.2700	  496.00	  548.81	-1787.72	  436.12
     21.3700	  544.00	  548.58	-1739.49	  435.86
     21.4700	  537.00	  548.35	-1746.26	  435.60
     21.5700	  559.00	  548.12	-1724.02	  435.33
     21.6700	  530.00	  547.88	-1752.79	  435.06
     21.7700	  595.00	  547.65	-1687.56	  434.79
     21.8700	  586.00	  547.42	-1696.33	  434.52
     21.9700	  545.00	  547.19	-1737.10	  434.24
     22.0700	  557.00	  546.97	-1724.87	  433.97
     22.1700	  534.00	  546.74	-1747.65	  433.69
     22.2700	  546.00	  546.52	-1735.43	  433.41
     22.3700	  531.00	  546.31	-1750.21	  433.12
     22.4700	  557.00	  546.26	-1724.16	  432.84
     22.5700	  547.00	  546.05	-1733.96	  432.55
     22.6700	  561.00	  545.86	-1719.77	  432.27
     22.7700	  523.00	  545.63	-1757.54	  431.98
     22.8700	  532.00	  545.46	-1748.36	  431.69
     22.9700	  529.00	  545.30	-1751.21	  431.39
     23.0700	  544.00	  545.16	-1736.07	  431.10
     23.1700	  545.00	  545.04	-1734.95	  430.80
     23.2700	  545.00	  544.96	-1734.86	  430.50
     23.3700	  572.00	  544.91	-1707.81	  430.20
     23.4700	  578.00	  544.91	-1701.81	  429.90
     23.5700	  568.00	  544.97	-1711.88	  429.60
     23.6700	  539.00	  545.13	-1741.04	  429.30
     23.7700	  509.00	  545.44	-1771.34	  428.99
     23.8700	  556.00	  545.98	-1724.88	  428.68
     23.9700	  539.00	  546.91	-1742.82	  428.38
     24.0700	  567.00	  548.53	-1716.43	  428.07
     24.1700	  608.00	  551.24	-1678.14	  427.76
     24.2700	  572.00	  555.61	-1718.52	  427.44
     24.3700	  596.00	  562.25	-1701.16	  427.13
     24.4700	  580.00	  571.55	-1726.46	  426.82
     24.5700	  595.00	  583.35	-1723.26	  426.50
     24.6700	  628.00	  596.36	-1703.27	  426.19
     24.7700	  621.00	  607.45	-1721.36	  425.87
     24.8700	  661.00	  611.55	-1685.46	  425.55
     24.9700	  623.00	  604.57	-1716.48	  425.23
     25.0700	  641.00	  589.40	-1683.31	  424.91
     25.1700	  598.00	  573.45	-1710.35	  424.59
     25.2700	  615.00	  560.99	-1680.89	  424.26
     25.3700	  608.00	  552.70	-1679.61	  423.94
     25.4700	  537.00	  547.72	-1745.63	  423.62
     25.5700	  568.00	  544.84	-1711.75	  423.29
     25.6700	  558.00	  543.13	-1720.03	  422.97
     25.7700	  568.00	  542.01	-1708.92	  422.64
     25.8700	  554.00	  541.23	-1722.14	  422.31
     25.9700	  530.00	  540.66	-1745.57	  421.98
     26.0700	  579.00	  540.24	-1696.15	  421.65
     26.1700	  581.00	  539.95	-1693.86	  421.33
     26.2700	  610.00	  539.77	-1664.68	  421.00
     26.3700	  538.00	  539.70	-1736.60	  420.66
     26.4700	  492.00	  539.73	-1782.63	  420.33
     26.5700	  571.00	  539.87	-1703.78	  420.00
     26.6700	  532.00	  540.15	-1743.05	  419.67
     26.7700	  559.00	  540.57	-1716.48	  419.34
     26.8700	  564.00	  541.18	-1712.09	  419.00
     26.9700	  541.00	  542.01	-1735.92	  418.67
     27.0700	  594.00	  543.15	-1684.06	  418.33
     27.1700	  569.00	  544.70	-1710.61	  418.00
     27.2700	  566.00	  546.86	-1715.77	  417.66
     27.3700	  595.00	  550.01	-1689.92	  417.33
     27.4700	  539.00	  554.89	-1750.79	  416.99
     27.5700	  576.00	  562.81	-1721.72	  416.66
     27.6700	  581.00	  575.99	-1729.89	  416.32
     27.7700	  622.00	  597.54	-1710.45	  415.99
     27.8700	  557.00	  630.81	-1808.72	  415.65
     27.9700	  657.00	  677.53	-1755.44	  415.31
     28.0700	  726.00	  735.19	-1744.10	  414.97
     28.1700	  874.00	  794.32	-1655.23	  414.64
     28.2700	  933.00	  837.06	-1638.97	  414.30
     28.3700	  960.00	  842.91	-1617.81	  413.96
     28.4700	  873.00	  811.90	-1673.81	  413.63
     28.5700	  746.00	  774.22	-1763.12	  413.29
     28.6700	  715.00	  756.86	-1776.76	  412.95
     28.7700	  766.00	  765.83	-1734.73	  412.61
     28.8700	  789.00	  790.42	-1736.33	  412.28
     28.9700	  847.00	  808.68	-1696.58	  411.94
     29.0700	  797.00	  796.30	-1734.21	  411.60
     29.1700	  768.00	  748.18	-1715.09	  411.27
     29.2700	  730.00	  686.43	-1691.34	  410.93
     29.3700	  655.00	  632.72	-1712.62	  410.59
     29.4700	  561.00	  594.64	-1768.55	  410.25
     29.5700	  594.00	  570.93	-1711.84	  409.92
     29.6700	  617.00	  557.31	-1675.22	  409.58
     29.7700	  573.00	  549.59	-1711.50	  409.25
     29.8700	  550.00	  545.02	-1729.93	  408.91
     29.9700	  638.00	  542.18	-1639.09	  408.58
     30.0700	  582.00	  540.51	-1693.41	  408.24
     30.1700	  556.00	  539.91	-1718.82	  407.91
     30.2700	  588.00	  540.65	-1687.56	  407.57
     30.3700	  559.00	  543.39	-1719.29	  407.24
     30.4700	  585.00	  549.14	-1699.05	  406.90
     30.5700	  552.00	  559.14	-1742.04	  406.57
     30.6700	  583.00	  574.07	-1725.97	  406.24
     30.7700	  630.00	  593.04	-1697.95	  405.90
     30.8700	  586.00	  612.59	-1761.49	  405.57
     30.9700	  583.00	  626.24	-1778.15	  405.24
     31.0700	  606.00	  626.22	-1755.13	  404.91
     31.1700	  647.00	  610.47	-1698.38	  404.58
     31.2700	  564.00	  587.15	-1758.06	  404.25
     31.3700	  544.00	  565.46	-1756.37	  403.92
     31.4700	  543.00	  549.33	-1741.23	  403.59
     31.5700	  556.00	  538.89	-1717.80	  403.26
     31.6700	  536.00	  532.73	-1731.64	  402.94
     31.7700	  548.00	  529.22	-1716.13	  402.61
     31.8700	  582.00	  527.14	-1680.05	  402.28
     31.9700	  590.00	  525.83	-1670.74	  401.96
     32.0700	  520.00	  524.96	-1739.86	  401.63
     32.1700	  525.00	  524.38	-1734.29	  401.31
     32.2700	  571.00	  524.05	-1687.96	  400.99
     32.3700	  545.00	  523.93	-1713.84	  400.66
     32.4700	  534.00	  524.03	-1724.94	  400.34
     32.5700	  537.00	  524.36	-1722.26	  400.02
     32.6700	  577.00	  524.94	-1682.85	  399.70
     32.7700	  539.00	  525.83	-1721.74	  399.38
     32.8700	  498.00	  527.11	-1764.02	  399.06
     32.9700	  543.00	  528.90	-1720.81	  398.75
     33.0700	  543.00	  531.42	-1723.33	  398.43
     33.1700	  561.00	  535.09	-1709.00	  398.11
     33.2700	  546.00	  540.75	-1729.66	  397.80
     33.3700	  520.00	  550.05	-1764.96	  397.48
     33.4700	  557.00	  565.92	-1743.82	  397.17
     33.5700	  657.00	  592.78	-1670.69	  396.86
     33.6700	  606.00	  636.10	-1765.00	  396.55
     33.7700	  684.00	  699.74	-1750.65	  396.24
     33.8700	  768.00	  781.54	-1748.45	  395.93
     33.9700	  917.00	  868.75	-1686.66	  395.62
     34.0700	 1063.00	  936.12	-1608.03	  395.31
     34.1700	 1062.00	  951.64	-1624.55	  395.01
     34.2700	  954.00	  901.09	-1681.99	  394.70
     34.3700	  885.00	  810.40	-1660.30	  394.40
     34.4700	  685.00	  718.00	-1767.91	  394.09
     34.5700	  610.00	  644.61	-1769.52	  393.79
     34.6700	  610.00	  594.47	-1719.38	  393.49
     34.7700	  571.00	  563.65	-1727.56	  393.19
     34.8700	  559.00	  545.77	-1721.68	  392.89
     34.9700	  565.00	  535.32	-1705.22	  392.59
     35.0700	  525.00	  528.76	-1738.66	  392.30
     35.1700	  498.00	  524.22	-1761.12	  392.00
     35.2700	  561.00	  520.81	-1694.72	  391.71
     35.3700	  485.00	  518.12	-1768.03	  391.42
     35.4700	  531.00	  515.93	-1719.84	  391.13
     35.5700	  506.00	  514.11	-1743.02	  390.83
     35.6700	  512.00	  513.05	-1735.96	  390.55
     35.7700	  488.00	  511.71	-1758.61	  390.26
     35.8700	  497.00	  510.58	-1748.49	  389.97
     35.9700	  478.00	  509.59	-1766.49	  389.69
     36.0700	  501.00	  508.71	-1742.61	  389.40
     36.1700	  520.00	  507.92	-1722.83	  389.12
     36.2700	  504.00	  507.22	-1738.13	  388.84
     36.3700	  512.00	  506.60	-1729.50	  388.56
     36.4700	  493.00	  506.03	-1747.94	  388.28
     36.5700	  511.00	  505.54	-1729.44	  388.00
     36.6700	  496.00	  505.10	-1744.01	  387.73
     36.7700	  477.00	  504.74	-1762.65	  387.45
     36.8700	  459.00	  504.47	-1780.38	  387.18
     36.9700	  468.00	  504.35	-1771.25	  386.91
     37.0700	  481.00	  504.45	-1758.36	  386.64
     37.1700	  471.00	  504.94	-1768.85	  386.37
     37.2700	  467.00	  506.02	-1773.92	  386.10
     37.3700	  503.00	  507.88	-1739.78	  385.83
     37.4700	  451.00	  510.60	-1794.50	  385.57
     37.5700	  531.00	  513.93	-1717.84	  385.30
     37.6700	  538.00	  517.17	-1714.08	  385.04
     37.7700	  514.00	  519.34	-1740.25	  384.78
     37.8700	  521.00	  518.93	-1732.84	  384.52
     37.9700	  507.00	  516.12	-1744.03	  384.26
     38.0700	  523.00	  512.15	-1724.05	  384.01
     38.1700	  485.00	  508.23	-1758.14	  383.75
     38.2700	  498.00	  504.97	-1741.87	  383.50
     38.3700	  457.00	  502.51	-1780.41	  383.25
     38.4700	  504.00	  500.78	-1731.69	  383.00
     38.5700	  474.00	  499.60	-1760.51	  382.75
     38.6700	  491.00	  498.78	-1742.69	  382.50
     38.7700	  520.00	  498.17	-1713.08	  382.26
     38.8700	  507.00	  497.69	-1725.60	  382.01
     38.9700	  472.00	  497.28	-1760.19	  381.77
     39.0700	  516.00	  496.92	-1715.83	  381.53
     39.1700	  492.00	  496.59	-1739.50	  381.29
     39.2700	  490.00	  496.19	-1741.10	  381.05
     39.3700	  483.00	  495.91	-1747.82	  380.82
     39.4700	  518.00	  495.65	-1712.55	  380.58
     39.5700	  483.00	  495.40	-1747.31	  380.35
     39.6700	  481.00	  495.17	-1749.07	  380.12
     39.7700	  485.00	  494.95	-1744.86	  379.89
     39.8700	  535.00	  494.74	-1694.65	  379.66
     39.9700	  496.00	  494.55	-1733.45	  379.43
     40.0700	  497.00	  494.36	-1732.27	  379.21
     40.1700	  463.00	  494.10	-1766.01	  378.98
     40.2700	  516.00	  493.95	-1712.86	  378.76
     40.3700	  484.00	  493.81	-1744.72	  378.54
     40.4700	  507.00	  494.20	-1722.10	  378.32
     40.5700	  479.00	  494.10	-1750.00	  378.11
     40.6700	  511.00	  494.02	-1717.93	  377.89
     40.7700	  462.00	  493.96	-1766.87	  377.68
