MSG Master    CELL:    5.91020   5.91020  23.24084   90.0000   90.0000  120.0000   SPGR: P 63/m m c             TEMP:    919.35
  1   1280     2.52000     0.00000    -0.12074     0.00000     0.00000    0
    98     0     2
       0.00000      10.00000
     125.00000     130.00000
 2Theta	Yobs	Ycal	Yobs-Ycal	Backg	Posr	(hkl)	K
      0.7700	    0.00	  466.71	-1731.00	  356.63
      0.8700	    0.00	  468.31	-1731.00	  358.22
      0.9700	   40.00	  469.89	-1731.00	  359.80
      1.0700	   39.00	  471.45	-1731.00	  361.36
      1.1700	   47.00	  472.99	-1731.00	  362.90
      1.2700	   44.00	  474.51	-1731.00	  364.43
      1.3700	   50.00	  476.02	-1731.00	  365.93
      1.4700	   91.00	  477.51	-1731.00	  367.43
      1.5700	  304.00	  478.98	-1731.00	  368.90
      1.6700	  458.00	  480.44	-1731.00	  370.36
      1.7700	  578.00	  481.88	-1731.00	  371.80
      1.8700	  641.00	  483.30	-1731.00	  373.22
      1.9700	  739.00	  484.71	-1731.00	  374.63
      2.0700	  777.00	  486.10	-1731.00	  376.02
      2.1700	  771.00	  487.48	-1731.00	  377.39
      2.2700	  761.00	  488.83	-1731.00	  378.75
      2.3700	  737.00	  490.18	-1731.00	  380.09
      2.4700	  730.00	  491.50	-1731.00	  381.42
      2.5700	  653.00	  492.81	-1731.00	  382.72
      2.6700	  699.00	  494.10	-1731.00	  384.02
      2.7700	  672.00	  495.38	-1731.00	  385.30
      2.8700	  661.00	  496.65	-1731.00	  386.56
      2.9700	  641.00	  497.89	-1731.00	  387.81
      3.0700	  634.00	  499.12	-1731.00	  389.04
      3.1700	  566.00	  500.34	-1731.00	  390.25
      3.2700	  695.00	  501.54	-1731.00	  391.45
      3.3700	  755.00	  502.73	-1731.00	  392.64
      3.4700	  835.00	  503.90	-1731.00	  393.81
      3.5700	  951.00	  505.05	-1731.00	  394.97
      3.6700	  944.00	  506.19	-1731.00	  396.11
      3.7700	 1056.00	  507.32	-1731.00	  397.23
      3.8700	 1095.00	  508.43	-1731.00	  398.35
      3.9700	 1134.00	  509.53	-1731.00	  399.44
      4.0700	 1204.00	  510.61	-1731.00	  400.52
      4.1700	 1186.00	  511.68	-1731.00	  401.59
      4.2700	 1277.00	  512.73	-1731.00	  402.65
      4.3700	 1149.00	  513.77	-1731.00	  403.69
      4.4700	 1195.00	  514.80	-1731.00	  404.71
      4.5700	 1166.00	  515.81	-1731.00	  405.72
      4.6700	 1095.00	  516.81	-1731.00	  406.72
      4.7700	 1118.00	  517.79	-1731.00	  407.70
      4.8700	 1101.00	  518.76	-1731.00	  408.67
      4.9700	 1053.00	  519.72	-1731.00	  409.63
      5.0700	 1016.00	  520.66	-1731.00	  410.57
      5.1700	  962.00	  521.59	-1731.00	  411.50
      5.2700	 1022.00	  522.51	-1731.00	  412.42
      5.3700	  968.00	  523.41	-1731.00	  413.32
      5.4700	  908.00	  524.30	-1731.00	  414.21
      5.5700	  889.00	  525.18	-1731.00	  415.09
      5.6700	  883.00	  526.04	-1731.00	  415.95
      5.7700	  918.00	  526.89	-1731.00	  416.80
      5.8700	  828.00	  527.73	-1731.00	  417.64
      5.9700	  843.00	  528.55	-1731.00	  418.47
      6.0700	  851.00	  529.37	-1731.00	  419.28
      6.1700	  854.00	  530.17	-1731.00	  420.08
      6.2700	  837.00	  530.95	-1731.00	  420.87
      6.3700	  785.00	  531.73	-1731.00	  421.64
      6.4700	  764.00	  532.49	-1731.00	  422.41
      6.5700	  756.00	  533.24	-1731.00	  423.16
      6.6700	  704.00	  533.98	-1731.00	  423.90
      6.7700	  771.00	  534.71	-1731.00	  424.62
      6.8700	  711.00	  535.42	-1731.00	  425.34
      6.9700	  724.00	  536.13	-1731.00	  426.04
      7.0700	  677.00	  536.82	-1731.00	  426.73
      7.1700	  678.00	  537.50	-1731.00	  427.41
      7.2700	  712.00	  538.17	-1731.00	  428.08
      7.3700	  632.00	  538.82	-1731.00	  428.74
      7.4700	  675.00	  539.47	-1731.00	  429.38
      7.5700	  632.00	  540.10	-1731.00	  430.02
      7.6700	  638.00	  540.72	-1731.00	  430.64
      7.7700	  682.00	  541.34	-1731.00	  431.25
      7.8700	  641.00	  541.94	-1731.00	  431.85
      7.9700	  591.00	  542.52	-1731.00	  432.44
      8.0700	  635.00	  543.10	-1731.00	  433.02
      8.1700	  668.00	  543.67	-1731.00	  433.58
      8.2700	  662.00	  544.23	-1731.00	  434.14
      8.3700	  613.00	  544.77	-1731.00	  434.69
      8.4700	  653.00	  545.31	-1731.00	  435.22
      8.5700	  630.00	  545.83	-1731.00	  435.75
      8.6700	  666.00	  546.35	-1731.00	  436.26
      8.7700	  663.00	  546.85	-1731.00	  436.77
      8.8700	  628.00	  547.35	-1731.00	  437.26
      8.9700	  632.00	  547.83	-1731.00	  437.74
      9.0700	  607.00	  548.30	-1731.00	  438.22
      9.1700	  600.00	  548.77	-1731.00	  438.68
      9.2700	  556.00	  549.22	-1731.00	  439.14
      9.3700	  644.00	  549.67	-1731.00	  439.58
      9.4700	  620.00	  550.10	-1731.00	  440.01
      9.5700	  636.00	  550.52	-1731.00	  440.44
      9.6700	  597.00	  550.94	-1731.00	  440.85
      9.7700	  599.00	  551.34	-1731.00	  441.26
      9.8700	  559.00	  551.74	-1731.00	  441.65
      9.9700	  605.00	  552.13	-1731.00	  442.04
     10.0700	  585.00	  553.97	-1699.97	  442.42
     10.1700	  600.00	  554.49	-1685.49	  442.78
     10.2700	  590.00	  555.03	-1696.03	  443.14
     10.3700	  557.00	  555.62	-1729.62	  443.49
     10.4700	  562.00	  556.29	-1725.29	  443.83
     10.5700	  587.00	  557.08	-1701.08	  444.16
     10.6700	  564.00	  558.09	-1725.09	  444.49
     10.7700	  545.00	  559.40	-1745.40	  444.80
     10.8700	  542.00	  561.08	-1750.08	  445.10
     10.9700	  546.00	  563.18	-1748.18	  445.40
     11.0700	  621.00	  565.67	-1675.67	  445.69
     11.1700	  595.00	  568.56	-1704.56	  445.97
     11.2700	  576.00	  571.89	-1726.89	  446.24
     11.3700	  560.00	  575.72	-1746.72	  446.50
     11.4700	  541.00	  580.20	-1770.20	  446.75
     11.5700	  622.00	  585.52	-1694.52	  447.00
     11.6700	  617.00	  592.01	-1706.01	  447.24
     11.7700	  607.00	  600.14	-1724.14	  447.47
     11.8700	  658.00	  610.37	-1683.37	  447.69
     11.9700	  672.00	  622.63	-1681.63	  447.90
     12.0700	  689.00	  635.34	-1677.34	  448.11
     12.1700	  701.00	  644.48	-1674.48	  448.30
     12.2700	  645.00	  643.78	-1729.78	  448.49
     12.3700	  634.00	  629.83	-1726.83	  448.68
     12.4700	  630.00	  609.30	-1710.30	  448.85
     12.5700	  584.00	  591.30	-1738.30	  449.02
     12.6700	  593.00	  579.07	-1717.07	  449.18
     12.7700	  595.00	  571.94	-1707.94	  449.33
     12.8700	  587.00	  568.14	-1712.14	  449.48
     12.9700	  570.00	  566.09	-1727.09	  449.61
     13.0700	  572.00	  564.90	-1723.90	  449.74
     13.1700	  556.00	  564.12	-1739.12	  449.87
     13.2700	  557.00	  563.58	-1737.58	  449.98
     13.3700	  557.00	  563.18	-1737.18	  450.09
     13.4700	  534.00	  562.89	-1759.89	  450.20
     13.5700	  547.00	  562.67	-1746.67	  450.29
     13.6700	  538.00	  562.50	-1755.50	  450.38
     13.7700	  571.00	  562.37	-1722.37	  450.46
     13.8700	  570.00	  562.28	-1723.28	  450.54
     13.9700	  524.00	  562.20	-1769.20	  450.61
     14.0700	  548.00	  562.13	-1745.13	  450.67
     14.1700	  565.00	  562.08	-1728.08	  450.72
     14.2700	  533.00	  562.04	-1760.04	  450.77
     14.3700	  491.00	  562.00	-1802.00	  450.82
     14.4700	  537.00	  561.97	-1755.97	  450.85
     14.5700	  554.00	  561.97	-1738.97	  450.88
     14.6700	  553.00	  561.94	-1739.94	  450.91
     14.7700	  555.00	  561.91	-1737.91	  450.92
     14.8700	  552.00	  561.88	-1740.88	  450.94
     14.9700	  557.00	  561.85	-1735.85	  450.94
     15.0700	  535.00	  561.81	-1757.81	  450.94
     15.1700	  559.00	  561.78	-1733.78	  450.94
     15.2700	  574.00	  561.74	-1718.74	  450.92
     15.3700	  579.00	  561.70	-1713.70	  450.91
     15.4700	  534.00	  561.65	-1758.65	  450.88
     15.5700	  563.00	  561.60	-1729.60	  450.86
     15.6700	  524.00	  561.55	-1768.55	  450.82
     15.7700	  546.00	  561.49	-1746.49	  450.78
     15.8700	  532.00	  561.43	-1760.43	  450.74
     15.9700	  574.00	  561.36	-1718.36	  450.69
     16.0700	  570.00	  561.30	-1722.30	  450.63
     16.1700	  559.00	  561.22	-1733.22	  450.57
     16.2700	  533.00	  561.14	-1759.14	  450.50
     16.3700	  580.00	  561.06	-1712.06	  450.43
     16.4700	  561.00	  560.98	-1730.98	  450.35
     16.5700	  569.00	  560.89	-1722.89	  450.27
     16.6700	  541.00	  560.79	-1750.79	  450.18
     16.7700	  570.00	  560.69	-1721.69	  450.09
     16.8700	  549.00	  560.59	-1742.59	  450.00
     16.9700	  520.00	  560.48	-1771.48	  449.89
     17.0700	  579.00	  560.37	-1712.37	  449.79
     17.1700	  561.00	  560.25	-1730.25	  449.68
     17.2700	  556.00	  560.13	-1735.13	  449.56
     17.3700	  536.00	  560.01	-1755.01	  449.44
     17.4700	  496.00	  559.88	-1794.88	  449.32
     17.5700	  489.00	  559.85	-1801.85	  449.19
     17.6700	  533.00	  559.72	-1757.72	  449.05
     17.7700	  553.00	  559.58	-1737.58	  448.92
     17.8700	  587.00	  559.44	-1703.44	  448.77
     17.9700	  519.00	  559.29	-1771.29	  448.63
     18.0700	  560.00	  559.14	-1730.14	  448.48
     18.1700	  584.00	  559.08	-1706.08	  448.32
     18.2700	  590.00	  558.93	-1699.93	  448.16
     18.3700	  546.00	  558.77	-1743.77	  448.00
     18.4700	  573.00	  558.60	-1716.60	  447.83
     18.5700	  528.00	  558.44	-1761.44	  447.66
     18.6700	  590.00	  558.27	-1699.27	  447.48
     18.7700	  514.00	  558.09	-1775.09	  447.31
     18.8700	  505.00	  557.91	-1783.91	  447.12
     18.9700	  540.00	  557.73	-1748.73	  446.94
     19.0700	  519.00	  557.55	-1769.55	  446.74
     19.1700	  540.00	  557.36	-1748.36	  446.55
     19.2700	  522.00	  557.17	-1766.17	  446.35
     19.3700	  561.00	  556.98	-1726.98	  446.15
     19.4700	  524.00	  556.78	-1763.78	  445.95
     19.5700	  537.00	  556.58	-1750.58	  445.74
     19.6700	  526.00	  556.38	-1761.38	  445.53
     19.7700	  527.00	  556.18	-1760.18	  445.31
     19.8700	  534.00	  555.97	-1752.97	  445.09
     19.9700	  527.00	  555.79	-1759.79	  444.87
     20.0700	  569.00	  555.58	-1717.58	  444.65
     20.1700	  579.00	  555.37	-1707.37	  444.42
     20.2700	  506.00	  555.15	-1780.15	  444.19
     20.3700	  516.00	  554.93	-1769.93	  443.95
     20.4700	  548.00	  554.71	-1737.71	  443.72
     20.5700	  551.00	  554.49	-1734.49	  443.47
     20.6700	  534.00	  554.26	-1751.26	  443.23
     20.7700	  543.00	  554.04	-1742.04	  442.99
     20.8700	  550.00	  553.81	-1734.81	  442.74
     20.9700	  589.00	  553.58	-1695.58	  442.48
     21.0700	  571.00	  553.34	-1713.34	  442.23
     21.1700	  553.00	  553.11	-1731.11	  441.97
     21.2700	  580.00	  552.88	-1703.88	  441.71
     21.3700	  564.00	  552.64	-1719.64	  441.45
     21.4700	  546.00	  552.41	-1737.41	  441.18
     21.5700	  537.00	  552.17	-1746.17	  440.92
     21.6700	  575.00	  551.94	-1707.94	  440.64
     21.7700	  553.00	  551.70	-1729.70	  440.37
     21.8700	  589.00	  551.47	-1693.47	  440.10
     21.9700	  528.00	  551.24	-1754.24	  439.82
     22.0700	  528.00	  551.00	-1754.00	  439.54
     22.1700	  526.00	  550.77	-1755.77	  439.26
     22.2700	  509.00	  550.55	-1772.55	  438.97
     22.3700	  556.00	  550.28	-1725.28	  438.68
     22.4700	  533.00	  550.07	-1748.07	  438.39
     22.5700	  544.00	  549.86	-1736.86	  438.10
     22.6700	  557.00	  549.80	-1723.80	  437.81
     22.7700	  530.00	  549.61	-1750.61	  437.51
     22.8700	  571.00	  549.43	-1709.43	  437.22
     22.9700	  572.00	  549.26	-1708.26	  436.92
     23.0700	  549.00	  549.11	-1731.11	  436.62
     23.1700	  554.00	  548.99	-1725.99	  436.31
     23.2700	  531.00	  548.89	-1748.89	  436.01
     23.3700	  521.00	  548.83	-1758.83	  435.70
     23.4700	  573.00	  548.81	-1706.81	  435.39
     23.5700	  594.00	  548.87	-1685.87	  435.08
     23.6700	  558.00	  549.02	-1722.02	  434.77
     23.7700	  587.00	  549.32	-1693.32	  434.46
     23.8700	  564.00	  549.88	-1716.88	  434.14
     23.9700	  600.00	  550.88	-1681.88	  433.82
     24.0700	  554.00	  552.65	-1729.65	  433.51
     24.1700	  605.00	  555.70	-1681.70	  433.19
     24.2700	  573.00	  560.68	-1718.68	  432.86
     24.3700	  577.00	  568.29	-1722.29	  432.54
     24.4700	  567.00	  579.02	-1743.02	  432.22
     24.5700	  598.00	  592.64	-1725.64	  431.89
     24.6700	  618.00	  607.42	-1720.42	  431.56
     24.7700	  605.00	  619.21	-1745.21	  431.24
     24.8700	  623.00	  621.71	-1729.71	  430.91
     24.9700	  693.00	  611.06	-1649.06	  430.57
     25.0700	  626.00	  592.71	-1697.71	  430.24
     25.1700	  573.00	  575.26	-1733.26	  429.91
     25.2700	  590.00	  562.58	-1703.58	  429.58
     25.3700	  569.00	  554.70	-1716.70	  429.24
     25.4700	  548.00	  550.25	-1733.25	  428.90
     25.5700	  560.00	  547.77	-1718.77	  428.57
     25.6700	  561.00	  546.27	-1716.27	  428.23
     25.7700	  604.00	  545.28	-1672.28	  427.89
     25.8700	  557.00	  544.56	-1718.56	  427.55
     25.9700	  558.00	  544.03	-1717.03	  427.21
     26.0700	  538.00	  543.63	-1736.63	  426.86
     26.1700	  569.00	  543.34	-1705.34	  426.52
     26.2700	  549.00	  543.16	-1725.16	  426.18
     26.3700	  566.00	  543.08	-1708.08	  425.83
     26.4700	  587.00	  543.11	-1687.11	  425.49
     26.5700	  554.00	  543.24	-1720.24	  425.14
     26.6700	  604.00	  543.49	-1670.49	  424.80
     26.7700	  582.00	  543.90	-1692.90	  424.45
     26.8700	  571.00	  544.48	-1704.48	  424.10
     26.9700	  586.00	  545.29	-1690.29	  423.75
     27.0700	  498.00	  546.39	-1779.39	  423.40
     27.1700	  585.00	  547.91	-1693.91	  423.05
     27.2700	  568.00	  550.05	-1713.05	  422.70
     27.3700	  556.00	  553.19	-1728.19	  422.35
     27.4700	  571.00	  558.08	-1718.08	  422.00
     27.5700	  628.00	  566.04	-1669.04	  421.65
     27.6700	  566.00	  579.25	-1744.25	  421.30
     27.7700	  578.00	  600.68	-1753.68	  420.95
     27.8700	  592.00	  633.37	-1772.37	  420.60
     27.9700	  673.00	  678.61	-1736.61	  420.24
     28.0700	  707.00	  733.45	-1757.45	  419.89
     28.1700	  839.00	  788.33	-1680.33	  419.54
     28.2700	  961.00	  826.01	-1596.01	  419.19
     28.3700	  861.00	  828.16	-1698.16	  418.83
     28.4700	  826.00	  797.88	-1702.88	  418.48
     28.5700	  778.00	  764.63	-1717.63	  418.13
     28.6700	  689.00	  752.04	-1794.04	  417.77
     28.7700	  720.00	  763.99	-1774.99	  417.42
     28.8700	  749.00	  788.96	-1770.96	  417.07
     28.9700	  813.00	  804.97	-1722.97	  416.71
     29.0700	  825.00	  789.13	-1695.13	  416.36
     29.1700	  738.00	  739.44	-1732.44	  416.01
     29.2700	  708.00	  679.06	-1702.06	  415.65
     29.3700	  624.00	  627.95	-1734.95	  415.30
     29.4700	  613.00	  592.33	-1710.33	  414.95
     29.5700	  581.00	  570.46	-1720.46	  414.59
     29.6700	  591.00	  557.97	-1697.97	  414.24
     29.7700	  571.00	  550.90	-1710.90	  413.89
     29.8700	  561.00	  546.63	-1716.62	  413.54
     29.9700	  573.00	  543.92	-1701.92	  413.18
     30.0700	  560.00	  542.29	-1713.29	  412.83
     30.1700	  594.00	  541.66	-1678.66	  412.48
     30.2700	  558.00	  542.31	-1715.31	  412.13
     30.3700	  617.00	  544.87	-1658.87	  411.78
     30.4700	  574.00	  550.33	-1707.33	  411.43
     30.5700	  607.00	  559.83	-1683.83	  411.08
     30.6700	  572.00	  573.96	-1732.96	  410.73
     30.7700	  604.00	  591.70	-1718.70	  410.38
     30.8700	  589.00	  609.50	-1751.50	  410.03
     30.9700	  595.00	  621.00	-1757.00	  409.68
     31.0700	  638.00	  619.07	-1712.07	  409.34
     31.1700	  604.00	  602.95	-1729.95	  408.99
     31.2700	  595.00	  581.06	-1717.06	  408.64
     31.3700	  545.00	  561.52	-1747.52	  408.30
     31.4700	  543.00	  547.40	-1735.40	  407.95
     31.5700	  589.00	  538.49	-1680.49	  407.61
     31.6700	  504.00	  533.32	-1760.32	  407.26
     31.7700	  553.00	  530.38	-1708.38	  406.92
     31.8700	  556.00	  528.62	-1703.62	  406.58
     31.9700	  513.00	  527.49	-1745.49	  406.23
     32.0700	  536.00	  526.71	-1721.71	  405.89
     32.1700	  539.00	  526.20	-1718.20	  405.55
     32.2700	  548.00	  525.89	-1708.89	  405.21
     32.3700	  536.00	  525.79	-1720.79	  404.87
     32.4700	  569.00	  525.88	-1687.88	  404.54
     32.5700	  544.00	  526.18	-1713.18	  404.20
     32.6700	  492.00	  526.72	-1765.72	  403.86
     32.7700	  543.00	  527.56	-1715.56	  403.53
     32.8700	  581.00	  528.77	-1678.77	  403.19
     32.9700	  504.00	  530.47	-1757.47	  402.86
     33.0700	  545.00	  532.89	-1718.89	  402.52
     33.1700	  567.00	  536.45	-1700.45	  402.19
     33.2700	  501.00	  542.03	-1772.03	  401.86
     33.3700	  559.00	  551.37	-1723.37	  401.53
     33.4700	  519.00	  567.56	-1779.56	  401.20
     33.5700	  621.00	  595.39	-1705.39	  400.87
     33.6700	  582.00	  640.55	-1789.55	  400.55
     33.7700	  712.00	  706.75	-1725.75	  400.22
     33.8700	  836.00	  790.79	-1685.79	  399.90
     33.9700	  909.00	  877.89	-1699.89	  399.57
     34.0700	  995.00	  940.42	-1676.42	  399.25
     34.1700	 1007.00	  945.90	-1669.90	  398.93
     34.2700	  955.00	  885.44	-1661.44	  398.61
     34.3700	  813.00	  790.97	-1708.97	  398.29
     34.4700	  703.00	  700.23	-1728.23	  397.97
     34.5700	  631.00	  631.02	-1731.02	  397.65
     34.6700	  624.00	  585.46	-1692.46	  397.34
     34.7700	  556.00	  558.40	-1733.40	  397.02
     34.8700	  502.00	  543.06	-1772.06	  396.71
     34.9700	  553.00	  534.12	-1712.12	  396.39
     35.0700	  504.00	  528.44	-1755.44	  396.08
     35.1700	  529.00	  524.42	-1726.42	  395.77
     35.2700	  490.00	  521.36	-1762.36	  395.47
     35.3700	  550.00	  518.89	-1699.89	  395.16
     35.4700	  507.00	  516.89	-1740.89	  394.85
     35.5700	  527.00	  515.69	-1719.69	  394.55
     35.6700	  529.00	  514.27	-1716.27	  394.24
     35.7700	  515.00	  513.05	-1729.05	  393.94
     35.8700	  496.00	  511.99	-1746.99	  393.64
     35.9700	  481.00	  511.05	-1761.05	  393.34
     36.0700	  501.00	  510.21	-1740.21	  393.05
     36.1700	  541.00	  509.46	-1699.46	  392.75
     36.2700	  508.00	  508.79	-1731.79	  392.45
     36.3700	  485.00	  508.19	-1754.19	  392.16
     36.4700	  508.00	  507.64	-1730.64	  391.87
     36.5700	  510.00	  507.15	-1728.15	  391.58
     36.6700	  520.00	  506.71	-1717.71	  391.29
     36.7700	  486.00	  506.34	-1751.34	  391.00
     36.8700	  510.00	  506.06	-1727.06	  390.71
     36.9700	  504.00	  505.92	-1732.92	  390.43
     37.0700	  507.00	  506.02	-1730.02	  390.15
     37.1700	  513.00	  506.51	-1724.51	  389.86
     37.2700	  491.00	  507.62	-1747.62	  389.58
     37.3700	  481.00	  509.56	-1759.56	  389.31
     37.4700	  508.00	  512.34	-1735.34	  389.03
     37.5700	  503.00	  515.62	-1743.62	  388.75
     37.6700	  489.00	  518.53	-1760.53	  388.48
     37.7700	  532.00	  519.80	-1718.80	  388.21
     37.8700	  573.00	  518.50	-1676.50	  387.94
     37.9700	  501.00	  515.10	-1745.10	  387.67
     38.0700	  512.00	  511.06	-1730.06	  387.40
     38.1700	  553.00	  507.61	-1685.61	  387.13
     38.2700	  511.00	  504.81	-1724.81	  386.87
     38.3700	  555.00	  502.85	-1678.85	  386.61
     38.4700	  472.00	  501.55	-1760.55	  386.35
     38.5700	  492.00	  500.66	-1739.66	  386.09
     38.6700	  494.00	  500.03	-1737.03	  385.83
     38.7700	  509.00	  499.54	-1721.54	  385.57
     38.8700	  511.00	  499.12	-1719.12	  385.32
     38.9700	  505.00	  498.76	-1724.76	  385.07
     39.0700	  535.00	  498.42	-1694.42	  384.81
     39.1700	  464.00	  498.01	-1765.01	  384.57
     39.2700	  512.00	  497.72	-1716.72	  384.32
     39.3700	  559.00	  497.45	-1669.45	  384.07
     39.4700	  509.00	  497.20	-1719.20	  383.83
     39.5700	  508.00	  496.95	-1719.95	  383.59
     39.6700	  514.00	  496.72	-1713.72	  383.34
     39.7700	  494.00	  496.50	-1733.50	  383.11
     39.8700	  516.00	  496.29	-1711.29	  382.87
     39.9700	  487.00	  496.10	-1740.10	  382.63
     40.0700	  480.00	  495.82	-1746.82	  382.40
     40.1700	  479.00	  495.65	-1747.65	  382.17
     40.2700	  502.00	  495.49	-1724.49	  381.94
     40.3700	  443.00	  495.35	-1783.35	  381.71
     40.4700	  495.00	  495.22	-1731.22	  381.48
     40.5700	  495.00	  495.61	-1731.61	  381.26
     40.6700	  508.00	  495.53	-1718.53	  381.04
     40.7700	  487.00	  495.47	-1739.47	  380.82
