MSG Master    CELL:    5.91966   5.91966  23.27743   90.0000   90.0000  120.0000   SPGR: P 63/m m c             TEMP:   1074.85
  1   1280     2.52000     0.00000    -0.12231     0.00000     0.00000    0
    99     0     2
       0.00000      10.00000
     125.00000     130.00000
 2Theta	Yobs	Ycal	Yobs-Ycal	Backg	Posr	(hkl)	K
      0.7700	    0.00	  563.95	-1739.75	  444.90
      0.8700	    0.00	  564.47	-1739.75	  445.42
      0.9700	   43.00	  564.98	-1739.75	  445.93
      1.0700	   35.00	  565.48	-1739.75	  446.43
      1.1700	   41.00	  565.97	-1739.75	  446.92
      1.2700	   49.00	  566.45	-1739.75	  447.40
      1.3700	   45.00	  566.92	-1739.75	  447.87
      1.4700	   92.00	  567.39	-1739.75	  448.34
      1.5700	  286.00	  567.85	-1739.75	  448.79
      1.6700	  447.00	  568.29	-1739.75	  449.24
      1.7700	  571.00	  568.73	-1739.75	  449.68
      1.8700	  685.00	  569.16	-1739.75	  450.11
      1.9700	  707.00	  569.58	-1739.75	  450.53
      2.0700	  765.00	  570.00	-1739.75	  450.95
      2.1700	  770.00	  570.40	-1739.75	  451.35
      2.2700	  754.00	  570.80	-1739.75	  451.75
      2.3700	  777.00	  571.19	-1739.75	  452.13
      2.4700	  721.00	  571.57	-1739.75	  452.51
      2.5700	  678.00	  571.94	-1739.75	  452.89
      2.6700	  643.00	  572.30	-1739.75	  453.25
      2.7700	  645.00	  572.66	-1739.75	  453.60
      2.8700	  644.00	  573.00	-1739.75	  453.95
      2.9700	  618.00	  573.34	-1739.75	  454.29
      3.0700	  632.00	  573.67	-1739.75	  454.62
      3.1700	  612.00	  574.00	-1739.75	  454.95
      3.2700	  618.00	  574.32	-1739.75	  455.26
      3.3700	  694.00	  574.62	-1739.75	  455.57
      3.4700	  779.00	  574.92	-1739.75	  455.87
      3.5700	  818.00	  575.22	-1739.75	  456.17
      3.6700	  863.00	  575.50	-1739.75	  456.45
      3.7700	  930.00	  575.78	-1739.75	  456.73
      3.8700	  928.00	  576.05	-1739.75	  457.00
      3.9700	  999.00	  576.32	-1739.75	  457.27
      4.0700	 1120.00	  576.57	-1739.75	  457.52
      4.1700	 1149.00	  576.82	-1739.75	  457.77
      4.2700	 1095.00	  577.06	-1739.75	  458.01
      4.3700	 1112.00	  577.30	-1739.75	  458.25
      4.4700	 1046.00	  577.53	-1739.75	  458.48
      4.5700	 1108.00	  577.75	-1739.75	  458.70
      4.6700	 1054.00	  577.96	-1739.75	  458.91
      4.7700	  915.00	  578.17	-1739.75	  459.12
      4.8700	  964.00	  578.37	-1739.75	  459.32
      4.9700	  952.00	  578.56	-1739.75	  459.51
      5.0700	  954.00	  578.75	-1739.75	  459.70
      5.1700	  926.00	  578.93	-1739.75	  459.88
      5.2700	  965.00	  579.10	-1739.75	  460.05
      5.3700	  864.00	  579.27	-1739.75	  460.22
      5.4700	  881.00	  579.43	-1739.75	  460.38
      5.5700	  807.00	  579.58	-1739.75	  460.53
      5.6700	  864.00	  579.73	-1739.75	  460.68
      5.7700	  822.00	  579.87	-1739.75	  460.82
      5.8700	  790.00	  580.01	-1739.75	  460.96
      5.9700	  821.00	  580.13	-1739.75	  461.08
      6.0700	  764.00	  580.26	-1739.75	  461.21
      6.1700	  814.00	  580.37	-1739.75	  461.32
      6.2700	  773.00	  580.48	-1739.75	  461.43
      6.3700	  738.00	  580.59	-1739.75	  461.54
      6.4700	  744.00	  580.69	-1739.75	  461.63
      6.5700	  716.00	  580.78	-1739.75	  461.73
      6.6700	  736.00	  580.86	-1739.75	  461.81
      6.7700	  730.00	  580.94	-1739.75	  461.89
      6.8700	  691.00	  581.02	-1739.75	  461.97
      6.9700	  706.00	  581.09	-1739.75	  462.04
      7.0700	  690.00	  581.15	-1739.75	  462.10
      7.1700	  716.00	  581.21	-1739.75	  462.16
      7.2700	  685.00	  581.26	-1739.75	  462.21
      7.3700	  681.00	  581.31	-1739.75	  462.26
      7.4700	  681.00	  581.35	-1739.75	  462.30
      7.5700	  666.00	  581.38	-1739.75	  462.33
      7.6700	  621.00	  581.41	-1739.75	  462.36
      7.7700	  670.00	  581.44	-1739.75	  462.39
      7.8700	  655.00	  581.46	-1739.75	  462.41
      7.9700	  605.00	  581.47	-1739.75	  462.42
      8.0700	  604.00	  581.48	-1739.75	  462.43
      8.1700	  642.00	  581.49	-1739.75	  462.44
      8.2700	  618.00	  581.49	-1739.75	  462.44
      8.3700	  614.00	  581.48	-1739.75	  462.43
      8.4700	  609.00	  581.47	-1739.75	  462.42
      8.5700	  628.00	  581.45	-1739.75	  462.40
      8.6700	  665.00	  581.43	-1739.75	  462.38
      8.7700	  654.00	  581.41	-1739.75	  462.36
      8.8700	  611.00	  581.38	-1739.75	  462.33
      8.9700	  649.00	  581.34	-1739.75	  462.29
      9.0700	  610.00	  581.30	-1739.75	  462.25
      9.1700	  619.00	  581.26	-1739.75	  462.21
      9.2700	  577.00	  581.21	-1739.75	  462.16
      9.3700	  605.00	  581.15	-1739.75	  462.10
      9.4700	  584.00	  581.10	-1739.75	  462.04
      9.5700	  658.00	  581.03	-1739.75	  461.98
      9.6700	  613.00	  580.97	-1739.75	  461.91
      9.7700	  631.00	  580.89	-1739.75	  461.84
      9.8700	  570.00	  580.82	-1739.75	  461.77
      9.9700	  610.00	  580.74	-1739.75	  461.69
     10.0700	  613.00	  581.55	-1708.30	  461.60
     10.1700	  569.00	  581.56	-1752.31	  461.51
     10.2700	  556.00	  581.59	-1765.34	  461.42
     10.3700	  578.00	  581.65	-1743.40	  461.32
     10.4700	  604.00	  581.78	-1717.53	  461.22
     10.5700	  615.00	  582.02	-1706.77	  461.12
     10.6700	  582.00	  582.49	-1740.24	  461.01
     10.7700	  620.00	  583.29	-1703.04	  460.89
     10.8700	  602.00	  584.50	-1722.25	  460.78
     10.9700	  607.00	  586.11	-1718.86	  460.66
     11.0700	  603.00	  588.09	-1724.84	  460.53
     11.1700	  595.00	  590.44	-1735.19	  460.40
     11.2700	  572.00	  593.19	-1760.94	  460.27
     11.3700	  598.00	  596.43	-1738.18	  460.13
     11.4700	  641.00	  600.29	-1699.04	  459.99
     11.5700	  569.00	  605.00	-1775.75	  459.85
     11.6700	  637.00	  610.91	-1713.66	  459.70
     11.7700	  578.00	  618.67	-1780.42	  459.55
     11.8700	  646.00	  629.16	-1722.91	  459.40
     11.9700	  631.00	  642.92	-1751.67	  459.24
     12.0700	  676.00	  658.19	-1721.94	  459.08
     12.1700	  714.00	  668.83	-1694.58	  458.92
     12.2700	  743.00	  665.27	-1662.02	  458.75
     12.3700	  694.00	  644.56	-1690.31	  458.58
     12.4700	  681.00	  619.01	-1677.76	  458.41
     12.5700	  598.00	  599.90	-1741.65	  458.23
     12.6700	  582.00	  589.13	-1746.88	  458.05
     12.7700	  552.00	  584.01	-1771.76	  457.86
     12.8700	  596.00	  581.60	-1725.35	  457.68
     12.9700	  625.00	  580.25	-1695.00	  457.49
     13.0700	  555.00	  579.32	-1764.07	  457.30
     13.1700	  556.00	  578.61	-1762.36	  457.10
     13.2700	  585.00	  578.02	-1732.77	  456.90
     13.3700	  537.00	  577.52	-1780.27	  456.70
     13.4700	  572.00	  577.09	-1744.84	  456.49
     13.5700	  568.00	  576.69	-1748.44	  456.29
     13.6700	  569.00	  576.33	-1747.08	  456.08
     13.7700	  567.00	  575.99	-1748.74	  455.86
     13.8700	  598.00	  575.68	-1717.43	  455.65
     13.9700	  562.00	  575.37	-1753.12	  455.43
     14.0700	  547.00	  575.08	-1767.83	  455.21
     14.1700	  560.00	  574.79	-1754.54	  454.99
     14.2700	  586.00	  574.51	-1728.26	  454.76
     14.3700	  592.00	  574.23	-1721.98	  454.53
     14.4700	  560.00	  573.96	-1753.71	  454.30
     14.5700	  559.00	  573.69	-1754.44	  454.07
     14.6700	  565.00	  573.42	-1748.17	  453.83
     14.7700	  575.00	  573.15	-1737.90	  453.59
     14.8700	  514.00	  572.89	-1798.64	  453.35
     14.9700	  528.00	  572.62	-1784.37	  453.11
     15.0700	  545.00	  572.35	-1767.10	  452.86
     15.1700	  560.00	  572.09	-1751.84	  452.62
     15.2700	  546.00	  571.82	-1765.57	  452.37
     15.3700	  567.00	  571.55	-1744.30	  452.11
     15.4700	  576.00	  571.28	-1735.03	  451.86
     15.5700	  561.00	  571.02	-1749.77	  451.60
     15.6700	  522.00	  570.75	-1788.50	  451.34
     15.7700	  582.00	  570.47	-1728.22	  451.08
     15.8700	  550.00	  570.20	-1759.95	  450.82
     15.9700	  560.00	  569.96	-1749.71	  450.56
     16.0700	  573.00	  569.68	-1736.43	  450.29
     16.1700	  564.00	  569.41	-1745.16	  450.02
     16.2700	  596.00	  569.13	-1712.88	  449.75
     16.3700	  576.00	  568.85	-1732.60	  449.48
     16.4700	  557.00	  568.57	-1751.32	  449.21
     16.5700	  518.00	  568.29	-1790.04	  448.93
     16.6700	  579.00	  568.01	-1728.76	  448.65
     16.7700	  562.00	  567.72	-1745.47	  448.37
     16.8700	  559.00	  567.44	-1748.19	  448.09
     16.9700	  576.00	  567.15	-1730.90	  447.81
     17.0700	  562.00	  566.87	-1744.62	  447.53
     17.1700	  576.00	  566.58	-1730.33	  447.24
     17.2700	  550.00	  566.29	-1756.04	  446.95
     17.3700	  544.00	  566.00	-1761.75	  446.66
     17.4700	  574.00	  565.70	-1731.45	  446.37
     17.5700	  596.00	  565.41	-1709.16	  446.08
     17.6700	  539.00	  565.11	-1765.86	  445.79
     17.7700	  547.00	  564.82	-1757.57	  445.49
     17.8700	  569.00	  564.52	-1735.27	  445.20
     17.9700	  536.00	  564.22	-1767.97	  444.90
     18.0700	  580.00	  563.92	-1723.67	  444.60
     18.1700	  595.00	  563.73	-1708.48	  444.30
     18.2700	  589.00	  563.43	-1714.18	  444.00
     18.3700	  547.00	  563.13	-1755.88	  443.70
     18.4700	  555.00	  562.83	-1747.58	  443.39
     18.5700	  575.00	  562.53	-1727.28	  443.09
     18.6700	  566.00	  562.22	-1735.97	  442.78
     18.7700	  618.00	  561.92	-1683.67	  442.47
     18.8700	  587.00	  561.61	-1714.36	  442.16
     18.9700	  521.00	  561.38	-1780.13	  441.86
     19.0700	  569.00	  561.08	-1731.83	  441.54
     19.1700	  551.00	  560.77	-1749.52	  441.23
     19.2700	  551.00	  560.46	-1749.21	  440.92
     19.3700	  533.00	  560.16	-1766.91	  440.61
     19.4700	  494.00	  559.85	-1805.60	  440.29
     19.5700	  530.00	  559.54	-1769.29	  439.98
     19.6700	  542.00	  559.23	-1756.98	  439.66
     19.7700	  604.00	  558.92	-1694.67	  439.34
     19.8700	  551.00	  558.61	-1747.36	  439.02
     19.9700	  545.00	  558.30	-1753.05	  438.71
     20.0700	  571.00	  557.99	-1726.74	  438.39
     20.1700	  533.00	  557.68	-1764.43	  438.07
     20.2700	  581.00	  557.37	-1716.12	  437.75
     20.3700	  556.00	  557.06	-1740.81	  437.42
     20.4700	  527.00	  556.75	-1769.50	  437.10
     20.5700	  522.00	  556.44	-1774.19	  436.78
     20.6700	  547.00	  556.13	-1748.88	  436.45
     20.7700	  544.00	  555.82	-1751.57	  436.13
     20.8700	  540.00	  555.51	-1755.26	  435.80
     20.9700	  563.00	  555.20	-1731.95	  435.48
     21.0700	  530.00	  554.89	-1764.64	  435.15
     21.1700	  577.00	  554.58	-1717.33	  434.83
     21.2700	  540.00	  554.28	-1754.03	  434.50
     21.3700	  524.00	  553.97	-1769.72	  434.17
     21.4700	  566.00	  553.66	-1727.41	  433.84
     21.5700	  535.00	  553.36	-1758.11	  433.52
     21.6700	  558.00	  553.06	-1734.81	  433.19
     21.7700	  549.00	  552.76	-1743.51	  432.86
     21.8700	  561.00	  552.46	-1731.21	  432.53
     21.9700	  573.00	  552.16	-1718.91	  432.20
     22.0700	  589.00	  551.87	-1702.62	  431.87
     22.1700	  571.00	  551.58	-1720.33	  431.54
     22.2700	  569.00	  551.29	-1722.04	  431.21
     22.3700	  517.00	  551.00	-1773.75	  430.88
     22.4700	  560.00	  550.72	-1730.47	  430.55
     22.5700	  533.00	  550.45	-1757.20	  430.22
     22.6700	  570.00	  550.18	-1719.93	  429.89
     22.7700	  566.00	  549.92	-1723.67	  429.55
     22.8700	  523.00	  549.67	-1766.42	  429.22
     22.9700	  591.00	  549.43	-1698.18	  428.89
     23.0700	  536.00	  549.20	-1752.95	  428.56
     23.1700	  584.00	  548.99	-1704.74	  428.23
     23.2700	  586.00	  548.80	-1702.55	  427.90
     23.3700	  545.00	  548.65	-1743.40	  427.56
     23.4700	  585.00	  548.52	-1703.27	  427.23
     23.5700	  547.00	  548.45	-1741.20	  426.90
     23.6700	  549.00	  548.58	-1739.33	  426.57
     23.7700	  598.00	  548.71	-1690.46	  426.24
     23.8700	  568.00	  549.06	-1720.81	  425.91
     23.9700	  579.00	  549.86	-1710.61	  425.58
     24.0700	  573.00	  551.52	-1718.27	  425.24
     24.1700	  528.00	  554.68	-1766.43	  424.91
     24.2700	  562.00	  560.14	-1737.89	  424.58
     24.3700	  563.00	  568.81	-1745.56	  424.25
     24.4700	  572.00	  581.57	-1749.32	  423.92
     24.5700	  627.00	  598.44	-1711.19	  423.59
     24.6700	  614.00	  616.63	-1742.38	  423.26
     24.7700	  609.00	  628.87	-1759.62	  422.93
     24.8700	  643.00	  625.67	-1722.42	  422.60
     24.9700	  601.00	  606.10	-1744.85	  422.27
     25.0700	  628.00	  582.45	-1694.20	  421.95
     25.1700	  611.00	  564.51	-1693.26	  421.62
     25.2700	  557.00	  554.09	-1736.84	  421.29
     25.3700	  536.00	  548.99	-1752.74	  420.96
     25.4700	  510.00	  546.59	-1776.34	  420.63
     25.5700	  560.00	  545.31	-1725.06	  420.31
     25.6700	  533.00	  544.47	-1751.22	  419.98
     25.7700	  508.00	  543.87	-1775.62	  419.66
     25.8700	  570.00	  543.41	-1713.16	  419.33
     25.9700	  556.00	  543.07	-1726.81	  419.01
     26.0700	  545.00	  542.81	-1737.56	  418.68
     26.1700	  540.00	  542.63	-1742.38	  418.36
     26.2700	  485.00	  542.54	-1797.29	  418.03
     26.3700	  582.00	  542.52	-1700.27	  417.71
     26.4700	  530.00	  542.59	-1752.34	  417.39
     26.5700	  530.00	  542.76	-1752.51	  417.07
     26.6700	  543.00	  543.04	-1739.79	  416.75
     26.7700	  535.00	  543.47	-1748.22	  416.43
     26.8700	  549.00	  544.06	-1734.81	  416.11
     26.9700	  555.00	  544.89	-1729.64	  415.79
     27.0700	  509.00	  546.03	-1776.78	  415.47
     27.1700	  546.00	  547.61	-1741.36	  415.15
     27.2700	  589.00	  549.88	-1700.63	  414.83
     27.3700	  520.00	  553.38	-1773.13	  414.52
     27.4700	  575.00	  559.13	-1723.88	  414.20
     27.5700	  562.00	  569.01	-1746.76	  413.89
     27.6700	  606.00	  586.01	-1719.76	  413.57
     27.7700	  580.00	  614.07	-1773.82	  413.26
     27.8700	  657.00	  656.73	-1739.48	  412.95
     27.9700	  646.00	  714.39	-1808.14	  412.64
     28.0700	  749.00	  780.55	-1771.30	  412.32
     28.1700	  902.00	  838.45	-1676.20	  412.01
     28.2700	  967.00	  862.48	-1635.23	  411.71
     28.3700	  915.00	  836.83	-1661.58	  411.40
     28.4700	  823.00	  784.46	-1701.21	  411.09
     28.5700	  749.00	  744.55	-1735.30	  410.78
     28.6700	  680.00	  735.31	-1795.06	  410.48
     28.7700	  751.00	  752.58	-1741.33	  410.17
     28.8700	  773.00	  776.79	-1743.54	  409.87
     28.9700	  797.00	  780.64	-1723.39	  409.57
     29.0700	  743.00	  746.53	-1743.28	  409.26
     29.1700	  662.00	  688.35	-1766.10	  408.96
     29.2700	  631.00	  632.79	-1741.54	  408.66
     29.3700	  625.00	  592.73	-1707.48	  408.36
     29.4700	  600.00	  568.56	-1708.31	  408.07
     29.5700	  549.00	  555.53	-1746.28	  407.77
     29.6700	  574.00	  548.65	-1714.40	  407.47
     29.7700	  574.00	  544.74	-1710.49	  407.18
     29.8700	  599.00	  542.28	-1683.03	  406.88
     29.9700	  552.00	  540.71	-1728.46	  406.59
     30.0700	  577.00	  539.89	-1702.64	  406.30
     30.1700	  569.00	  539.95	-1710.70	  406.01
     30.2700	  599.00	  541.40	-1682.15	  405.72
     30.3700	  517.00	  545.18	-1767.93	  405.43
     30.4700	  561.00	  552.76	-1731.51	  405.14
     30.5700	  560.00	  565.65	-1745.40	  404.86
     30.6700	  582.00	  584.30	-1742.05	  404.57
     30.7700	  634.00	  606.40	-1712.15	  404.29
     30.8700	  591.00	  625.70	-1774.45	  404.01
     30.9700	  593.00	  632.65	-1779.40	  403.72
     31.0700	  659.00	  620.58	-1701.33	  403.44
     31.1700	  600.00	  595.78	-1735.53	  403.16
     31.2700	  548.00	  570.78	-1762.53	  402.89
     31.3700	  534.00	  552.26	-1758.01	  402.61
     31.4700	  552.00	  540.95	-1728.70	  402.33
     31.5700	  553.00	  534.88	-1721.63	  402.06
     31.6700	  560.00	  531.76	-1711.51	  401.79
     31.7700	  553.00	  530.03	-1716.78	  401.52
     31.8700	  544.00	  528.95	-1724.70	  401.24
     31.9700	  552.00	  528.20	-1715.95	  400.98
     32.0700	  519.00	  527.68	-1748.43	  400.71
     32.1700	  544.00	  527.34	-1723.09	  400.44
     32.2700	  528.00	  527.15	-1738.90	  400.18
     32.3700	  576.00	  527.10	-1690.85	  399.91
     32.4700	  524.00	  527.22	-1742.97	  399.65
     32.5700	  578.00	  527.50	-1689.25	  399.39
     32.6700	  576.00	  527.98	-1691.73	  399.13
     32.7700	  523.00	  528.71	-1745.46	  398.87
     32.8700	  577.00	  529.75	-1692.50	  398.61
     32.9700	  537.00	  531.23	-1733.98	  398.36
     33.0700	  559.00	  533.37	-1714.12	  398.10
     33.1700	  541.00	  536.64	-1735.39	  397.85
     33.2700	  538.00	  542.11	-1743.86	  397.60
     33.3700	  559.00	  552.09	-1732.84	  397.35
     33.4700	  558.00	  570.95	-1752.70	  397.10
     33.5700	  601.00	  605.59	-1744.34	  396.85
     33.6700	  645.00	  663.83	-1758.58	  396.60
     33.7700	  725.00	  749.00	-1763.75	  396.36
     33.8700	  888.00	  851.76	-1703.51	  396.11
     33.9700	  952.00	  944.72	-1732.47	  395.87
     34.0700	 1087.00	  985.88	-1638.63	  395.63
     34.1700	 1033.00	  944.24	-1650.99	  395.39
     34.2700	  869.00	  841.20	-1711.95	  395.16
     34.3700	  710.00	  729.83	-1759.58	  394.92
     34.4700	  627.00	  643.11	-1755.86	  394.68
     34.5700	  592.00	  588.12	-1735.87	  394.45
     34.6700	  573.00	  558.04	-1724.79	  394.22
     34.7700	  581.00	  542.78	-1701.53	  393.99
     34.8700	  541.00	  534.79	-1733.54	  393.76
     34.9700	  526.00	  530.03	-1743.78	  393.53
     35.0700	  515.00	  526.78	-1751.53	  393.31
     35.1700	  574.00	  524.32	-1690.07	  393.08
     35.2700	  576.00	  522.37	-1686.12	  392.86
     35.3700	  508.00	  520.79	-1752.54	  392.64
     35.4700	  515.00	  519.49	-1744.24	  392.42
     35.5700	  483.00	  518.38	-1775.13	  392.20
     35.6700	  537.00	  517.44	-1720.19	  391.99
     35.7700	  502.00	  516.62	-1754.37	  391.77
     35.8700	  516.00	  515.90	-1739.65	  391.56
     35.9700	  502.00	  515.27	-1753.02	  391.35
     36.0700	  504.00	  514.70	-1750.45	  391.14
     36.1700	  498.00	  514.65	-1756.40	  390.93
     36.2700	  535.00	  514.20	-1718.95	  390.72
     36.3700	  502.00	  513.79	-1751.54	  390.51
     36.4700	  505.00	  513.42	-1748.17	  390.31
     36.5700	  544.00	  513.10	-1708.85	  390.11
     36.6700	  570.00	  512.81	-1682.56	  389.91
     36.7700	  499.00	  512.58	-1753.33	  389.71
     36.8700	  513.00	  512.42	-1739.17	  389.51
     36.9700	  492.00	  512.41	-1760.16	  389.31
     37.0700	  496.00	  512.67	-1756.42	  389.12
     37.1700	  484.00	  513.46	-1769.21	  388.93
     37.2700	  553.00	  515.13	-1701.88	  388.73
     37.3700	  556.00	  517.99	-1701.74	  388.55
     37.4700	  485.00	  521.99	-1776.74	  388.36
     37.5700	  552.00	  526.38	-1714.13	  388.17
     37.6700	  508.00	  529.65	-1761.40	  387.99
     37.7700	  545.00	  530.20	-1724.95	  387.80
     37.8700	  519.00	  527.74	-1748.49	  387.62
     37.9700	  530.00	  523.79	-1733.54	  387.44
     38.0700	  467.00	  519.73	-1792.48	  387.26
     38.1700	  528.00	  516.16	-1727.91	  387.09
     38.2700	  457.00	  513.31	-1796.06	  386.91
     38.3700	  505.00	  511.25	-1746.00	  386.74
     38.4700	  513.00	  509.86	-1736.61	  386.57
     38.5700	  502.00	  508.95	-1746.70	  386.40
     38.6700	  524.00	  508.26	-1724.01	  386.23
     38.7700	  544.00	  507.86	-1703.61	  386.06
     38.8700	  515.00	  507.55	-1732.30	  385.90
     38.9700	  521.00	  507.30	-1726.05	  385.73
     39.0700	  454.00	  507.08	-1792.83	  385.57
     39.1700	  508.00	  506.80	-1738.55	  385.41
     39.2700	  492.00	  506.61	-1754.36	  385.25
     39.3700	  525.00	  506.57	-1721.32	  385.10
     39.4700	  544.00	  506.42	-1702.17	  384.94
     39.5700	  555.00	  506.27	-1691.02	  384.79
     39.6700	  473.00	  506.13	-1772.88	  384.64
     39.7700	  534.00	  506.00	-1711.75	  384.49
     39.8700	  473.00	  505.88	-1772.63	  384.34
     39.9700	  523.00	  505.78	-1722.53	  384.19
     40.0700	  511.00	  505.68	-1734.43	  384.05
     40.1700	  530.00	  505.59	-1715.34	  383.90
     40.2700	  504.00	  505.51	-1741.26	  383.76
     40.3700	  539.00	  505.45	-1706.20	  383.62
     40.4700	  490.00	  505.39	-1755.14	  383.48
     40.5700	  481.00	  505.36	-1764.11	  383.35
     40.6700	  570.00	  505.34	-1675.09	  383.21
     40.7700	  485.00	  505.34	-1760.09	  383.08
