MSG Master    CELL:    5.91186   5.91186  23.24551   90.0000   90.0000  120.0000   SPGR: P 63/m m c             TEMP:    953.15
  1   1280     2.52000     0.00000    -0.13231     0.00000     0.00000    0
    99     0     2
       0.00000      10.00000
     125.00000     130.00000
 2Theta	Yobs	Ycal	Yobs-Ycal	Backg	Posr	(hkl)	K
      0.7700	    0.00	  495.66	-1717.49	  383.27
      0.8700	    0.00	  496.95	-1717.49	  384.56
      0.9700	   48.00	  498.22	-1717.49	  385.83
      1.0700	   36.00	  499.48	-1717.49	  387.09
      1.1700	   30.00	  500.72	-1717.49	  388.33
      1.2700	   41.00	  501.95	-1717.49	  389.56
      1.3700	   40.00	  503.17	-1717.49	  390.78
      1.4700	   89.00	  504.36	-1717.49	  391.97
      1.5700	  305.00	  505.55	-1717.49	  393.16
      1.6700	  471.00	  506.71	-1717.49	  394.33
      1.7700	  594.00	  507.87	-1717.49	  395.48
      1.8700	  665.00	  509.01	-1717.49	  396.62
      1.9700	  699.00	  510.13	-1717.49	  397.74
      2.0700	  726.00	  511.24	-1717.49	  398.85
      2.1700	  801.00	  512.34	-1717.49	  399.95
      2.2700	  793.00	  513.42	-1717.49	  401.03
      2.3700	  738.00	  514.48	-1717.49	  402.09
      2.4700	  662.00	  515.54	-1717.49	  403.15
      2.5700	  703.00	  516.58	-1717.49	  404.19
      2.6700	  698.00	  517.60	-1717.49	  405.21
      2.7700	  621.00	  518.61	-1717.49	  406.22
      2.8700	  617.00	  519.61	-1717.49	  407.22
      2.9700	  644.00	  520.59	-1717.49	  408.20
      3.0700	  582.00	  521.56	-1717.49	  409.17
      3.1700	  612.00	  522.52	-1717.49	  410.13
      3.2700	  604.00	  523.46	-1717.49	  411.07
      3.3700	  758.00	  524.39	-1717.49	  412.00
      3.4700	  839.00	  525.31	-1717.49	  412.92
      3.5700	  888.00	  526.21	-1717.49	  413.82
      3.6700	  948.00	  527.10	-1717.49	  414.71
      3.7700	 1017.00	  527.98	-1717.49	  415.59
      3.8700	 1072.00	  528.84	-1717.49	  416.45
      3.9700	 1110.00	  529.69	-1717.49	  417.30
      4.0700	 1132.00	  530.53	-1717.49	  418.14
      4.1700	 1104.00	  531.36	-1717.49	  418.97
      4.2700	 1166.00	  532.17	-1717.49	  419.78
      4.3700	 1204.00	  532.97	-1717.49	  420.59
      4.4700	 1097.00	  533.76	-1717.49	  421.37
      4.5700	 1149.00	  534.54	-1717.49	  422.15
      4.6700	 1040.00	  535.31	-1717.49	  422.92
      4.7700	 1069.00	  536.06	-1717.49	  423.67
      4.8700	 1005.00	  536.80	-1717.49	  424.41
      4.9700	 1003.00	  537.53	-1717.49	  425.14
      5.0700	  999.00	  538.24	-1717.49	  425.86
      5.1700	  998.00	  538.95	-1717.49	  426.56
      5.2700	  998.00	  539.64	-1717.49	  427.25
      5.3700	  954.00	  540.33	-1717.49	  427.94
      5.4700	  891.00	  541.00	-1717.49	  428.61
      5.5700	  850.00	  541.65	-1717.49	  429.27
      5.6700	  892.00	  542.30	-1717.49	  429.91
      5.7700	  882.00	  542.94	-1717.49	  430.55
      5.8700	  837.00	  543.56	-1717.49	  431.17
      5.9700	  798.00	  544.18	-1717.49	  431.79
      6.0700	  823.00	  544.78	-1717.49	  432.39
      6.1700	  812.00	  545.37	-1717.49	  432.98
      6.2700	  815.00	  545.96	-1717.49	  433.57
      6.3700	  771.00	  546.53	-1717.49	  434.14
      6.4700	  737.00	  547.09	-1717.49	  434.70
      6.5700	  761.00	  547.64	-1717.49	  435.25
      6.6700	  759.00	  548.17	-1717.49	  435.78
      6.7700	  736.00	  548.70	-1717.49	  436.31
      6.8700	  773.00	  549.22	-1717.49	  436.83
      6.9700	  735.00	  549.73	-1717.49	  437.34
      7.0700	  691.00	  550.23	-1717.49	  437.84
      7.1700	  675.00	  550.71	-1717.49	  438.32
      7.2700	  681.00	  551.19	-1717.49	  438.80
      7.3700	  667.00	  551.66	-1717.49	  439.27
      7.4700	  695.00	  552.12	-1717.49	  439.73
      7.5700	  641.00	  552.56	-1717.49	  440.17
      7.6700	  692.00	  553.00	-1717.49	  440.61
      7.7700	  636.00	  553.43	-1717.49	  441.04
      7.8700	  660.00	  553.85	-1717.49	  441.46
      7.9700	  657.00	  554.26	-1717.49	  441.87
      8.0700	  640.00	  554.66	-1717.49	  442.27
      8.1700	  652.00	  555.05	-1717.49	  442.66
      8.2700	  631.00	  555.43	-1717.49	  443.04
      8.3700	  589.00	  555.80	-1717.49	  443.41
      8.4700	  622.00	  556.16	-1717.49	  443.77
      8.5700	  582.00	  556.52	-1717.49	  444.13
      8.6700	  643.00	  556.86	-1717.49	  444.47
      8.7700	  606.00	  557.20	-1717.49	  444.81
      8.8700	  590.00	  557.52	-1717.49	  445.13
      8.9700	  607.00	  557.84	-1717.49	  445.45
      9.0700	  593.00	  558.15	-1717.49	  445.76
      9.1700	  640.00	  558.45	-1717.49	  446.06
      9.2700	  579.00	  558.74	-1717.49	  446.36
      9.3700	  592.00	  559.03	-1717.49	  446.64
      9.4700	  606.00	  559.30	-1717.49	  446.91
      9.5700	  563.00	  559.57	-1717.49	  447.18
      9.6700	  580.00	  559.83	-1717.49	  447.44
      9.7700	  624.00	  560.08	-1717.49	  447.69
      9.8700	  556.00	  560.32	-1717.49	  447.93
      9.9700	  634.00	  560.56	-1717.49	  448.17
     10.0700	  605.00	  562.36	-1674.85	  448.39
     10.1700	  577.00	  562.74	-1703.23	  448.61
     10.2700	  647.00	  563.15	-1633.64	  448.82
     10.3700	  623.00	  563.61	-1658.09	  449.02
     10.4700	  581.00	  564.15	-1700.64	  449.22
     10.5700	  588.00	  564.84	-1694.32	  449.41
     10.6700	  570.00	  565.75	-1713.23	  449.59
     10.7700	  573.00	  566.98	-1711.47	  449.76
     10.8700	  586.00	  568.61	-1700.10	  449.92
     10.9700	  562.00	  570.65	-1726.13	  450.08
     11.0700	  553.00	  573.08	-1737.57	  450.23
     11.1700	  622.00	  575.92	-1671.41	  450.37
     11.2700	  544.00	  579.21	-1752.70	  450.51
     11.3700	  596.00	  583.03	-1704.52	  450.64
     11.4700	  616.00	  587.52	-1689.01	  450.76
     11.5700	  572.00	  592.91	-1738.39	  450.87
     11.6700	  617.00	  599.53	-1700.02	  450.98
     11.7700	  622.00	  607.88	-1703.37	  451.08
     11.8700	  618.00	  618.38	-1717.87	  451.17
     11.9700	  645.00	  630.80	-1703.28	  451.26
     12.0700	  664.00	  643.25	-1696.74	  451.34
     12.1700	  670.00	  651.30	-1698.79	  451.41
     12.2700	  654.00	  648.59	-1712.08	  451.48
     12.3700	  626.00	  632.89	-1724.37	  451.54
     12.4700	  633.00	  612.04	-1696.53	  451.59
     12.5700	  625.00	  594.55	-1687.04	  451.64
     12.6700	  621.00	  582.91	-1679.39	  451.68
     12.7700	  544.00	  576.17	-1749.66	  451.72
     12.8700	  536.00	  572.52	-1754.01	  451.75
     12.9700	  573.00	  570.50	-1714.98	  451.77
     13.0700	  571.00	  569.25	-1715.73	  451.79
     13.1700	  545.00	  568.39	-1740.87	  451.80
     13.2700	  533.00	  567.75	-1752.23	  451.80
     13.3700	  579.00	  567.25	-1705.74	  451.80
     13.4700	  550.00	  566.86	-1734.34	  451.79
     13.5700	  556.00	  566.53	-1728.02	  451.78
     13.6700	  560.00	  566.26	-1723.75	  451.76
     13.7700	  537.00	  566.03	-1746.52	  451.74
     13.8700	  548.00	  565.83	-1735.31	  451.71
     13.9700	  576.00	  565.65	-1707.13	  451.67
     14.0700	  569.00	  565.48	-1713.97	  451.63
     14.1700	  546.00	  565.33	-1736.82	  451.59
     14.2700	  570.00	  565.19	-1712.67	  451.53
     14.3700	  547.00	  565.05	-1735.54	  451.48
     14.4700	  542.00	  564.95	-1740.44	  451.42
     14.5700	  595.00	  564.82	-1687.31	  451.35
     14.6700	  539.00	  564.70	-1743.18	  451.28
     14.7700	  540.00	  564.57	-1742.06	  451.20
     14.8700	  553.00	  564.45	-1728.93	  451.12
     14.9700	  527.00	  564.32	-1754.81	  451.03
     15.0700	  536.00	  564.20	-1745.68	  450.94
     15.1700	  562.00	  564.07	-1719.55	  450.84
     15.2700	  535.00	  563.94	-1746.42	  450.74
     15.3700	  560.00	  563.81	-1721.29	  450.63
     15.4700	  566.00	  563.67	-1715.16	  450.52
     15.5700	  558.00	  563.53	-1723.02	  450.40
     15.6700	  548.00	  563.40	-1732.88	  450.28
     15.7700	  523.00	  563.25	-1757.74	  450.16
     15.8700	  590.00	  563.11	-1690.59	  450.03
     15.9700	  526.00	  562.96	-1754.44	  449.89
     16.0700	  609.00	  562.81	-1671.29	  449.75
     16.1700	  578.00	  562.65	-1702.14	  449.61
     16.2700	  529.00	  562.49	-1750.98	  449.46
     16.3700	  539.00	  562.33	-1740.82	  449.31
     16.4700	  526.00	  562.17	-1753.65	  449.16
     16.5700	  503.00	  562.00	-1776.49	  449.00
     16.6700	  536.00	  561.83	-1743.31	  448.83
     16.7700	  539.00	  561.65	-1740.14	  448.67
     16.8700	  558.00	  561.47	-1720.96	  448.49
     16.9700	  534.00	  561.29	-1744.78	  448.32
     17.0700	  547.00	  561.11	-1731.59	  448.14
     17.1700	  542.00	  560.92	-1736.41	  447.95
     17.2700	  528.00	  560.73	-1750.21	  447.77
     17.3700	  534.00	  560.53	-1744.02	  447.58
     17.4700	  560.00	  560.33	-1717.82	  447.38
     17.5700	  575.00	  560.13	-1702.62	  447.18
     17.6700	  545.00	  559.93	-1732.41	  446.98
     17.7700	  579.00	  559.83	-1698.32	  446.78
     17.8700	  568.00	  559.62	-1709.11	  446.57
     17.9700	  547.00	  559.41	-1729.90	  446.36
     18.0700	  558.00	  559.19	-1718.68	  446.14
     18.1700	  511.00	  558.98	-1765.46	  445.92
     18.2700	  562.00	  558.76	-1714.24	  445.70
     18.3700	  562.00	  558.62	-1714.11	  445.47
     18.4700	  566.00	  558.40	-1709.88	  445.25
     18.5700	  541.00	  558.17	-1734.66	  445.01
     18.6700	  558.00	  557.94	-1717.43	  444.78
     18.7700	  542.00	  557.71	-1733.19	  444.54
     18.8700	  515.00	  557.47	-1759.96	  444.30
     18.9700	  576.00	  557.23	-1698.72	  444.06
     19.0700	  539.00	  556.99	-1735.48	  443.81
     19.1700	  533.00	  556.75	-1741.24	  443.56
     19.2700	  567.00	  556.51	-1706.99	  443.31
     19.3700	  558.00	  556.26	-1715.74	  443.05
     19.4700	  538.00	  556.01	-1735.49	  442.79
     19.5700	  541.00	  555.76	-1732.24	  442.53
     19.6700	  549.00	  555.50	-1723.99	  442.27
     19.7700	  582.00	  555.25	-1690.73	  442.00
     19.8700	  551.00	  554.99	-1721.47	  441.73
     19.9700	  538.00	  554.73	-1734.21	  441.46
     20.0700	  551.00	  554.50	-1720.99	  441.19
     20.1700	  571.00	  554.24	-1700.72	  440.91
     20.2700	  571.00	  553.97	-1700.46	  440.63
     20.3700	  572.00	  553.71	-1699.19	  440.35
     20.4700	  561.00	  553.44	-1709.93	  440.07
     20.5700	  589.00	  553.17	-1681.66	  439.78
     20.6700	  558.00	  552.90	-1712.39	  439.50
     20.7700	  582.00	  552.63	-1688.12	  439.20
     20.8700	  571.00	  552.36	-1698.84	  438.91
     20.9700	  550.00	  552.09	-1719.57	  438.62
     21.0700	  562.00	  551.81	-1707.30	  438.32
     21.1700	  573.00	  551.54	-1696.02	  438.02
     21.2700	  552.00	  551.26	-1716.75	  437.72
     21.3700	  563.00	  550.99	-1705.48	  437.42
     21.4700	  505.00	  550.72	-1763.20	  437.12
     21.5700	  542.00	  550.44	-1725.93	  436.81
     21.6700	  550.00	  550.17	-1717.65	  436.50
     21.7700	  554.00	  549.90	-1713.38	  436.19
     21.8700	  531.00	  549.63	-1736.11	  435.88
     21.9700	  566.00	  549.36	-1700.84	  435.57
     22.0700	  557.00	  549.09	-1709.58	  435.25
     22.1700	  577.00	  548.83	-1689.31	  434.93
     22.2700	  552.00	  548.57	-1714.05	  434.62
     22.3700	  561.00	  548.27	-1704.75	  434.30
     22.4700	  539.00	  548.02	-1726.50	  433.97
     22.5700	  564.00	  547.77	-1701.26	  433.65
     22.6700	  517.00	  547.69	-1748.18	  433.33
     22.7700	  519.00	  547.47	-1745.95	  433.00
     22.8700	  540.00	  547.26	-1724.74	  432.67
     22.9700	  530.00	  547.06	-1734.55	  432.34
     23.0700	  530.00	  546.88	-1734.37	  432.01
     23.1700	  547.00	  546.73	-1717.21	  431.68
     23.2700	  557.00	  546.61	-1707.09	  431.35
     23.3700	  526.00	  546.52	-1738.01	  431.02
     23.4700	  570.00	  546.49	-1693.97	  430.68
     23.5700	  524.00	  546.53	-1740.01	  430.35
     23.6700	  567.00	  546.67	-1697.15	  430.01
     23.7700	  541.00	  546.97	-1723.45	  429.67
     23.8700	  536.00	  547.55	-1729.03	  429.33
     23.9700	  538.00	  548.60	-1728.09	  428.99
     24.0700	  525.00	  550.49	-1742.98	  428.65
     24.1700	  568.00	  553.73	-1703.22	  428.31
     24.2700	  565.00	  558.99	-1711.48	  427.96
     24.3700	  553.00	  566.92	-1731.41	  427.62
     24.4700	  563.00	  577.92	-1732.40	  427.27
     24.5700	  573.00	  591.58	-1736.06	  426.93
     24.6700	  595.00	  605.85	-1728.34	  426.58
     24.7700	  616.00	  616.27	-1717.75	  426.23
     24.8700	  619.00	  616.57	-1715.06	  425.88
     24.9700	  627.00	  604.27	-1694.76	  425.53
     25.0700	  620.00	  585.96	-1683.45	  425.19
     25.1700	  633.00	  569.53	-1654.02	  424.83
     25.2700	  573.00	  557.93	-1702.42	  424.48
     25.3700	  546.00	  550.85	-1722.34	  424.13
     25.4700	  553.00	  546.87	-1711.35	  423.78
     25.5700	  569.00	  544.61	-1693.10	  423.43
     25.6700	  570.00	  543.23	-1690.71	  423.07
     25.7700	  582.00	  542.28	-1677.77	  422.72
     25.8700	  583.00	  541.58	-1676.07	  422.37
     25.9700	  571.00	  541.06	-1687.55	  422.01
     26.0700	  617.00	  540.67	-1641.15	  421.66
     26.1700	  603.00	  540.39	-1654.87	  421.30
     26.2700	  565.00	  540.21	-1692.69	  420.95
     26.3700	  585.00	  540.13	-1672.61	  420.59
     26.4700	  546.00	  540.15	-1711.63	  420.24
     26.5700	  524.00	  540.28	-1733.76	  419.88
     26.6700	  489.00	  540.54	-1769.02	  419.52
     26.7700	  547.00	  540.95	-1711.43	  419.17
     26.8700	  542.00	  541.54	-1717.03	  418.81
     26.9700	  573.00	  542.37	-1686.86	  418.45
     27.0700	  579.00	  543.52	-1682.00	  418.10
     27.1700	  538.00	  545.10	-1724.58	  417.74
     27.2700	  571.00	  547.35	-1693.84	  417.38
     27.3700	  575.00	  550.72	-1693.20	  417.02
     27.4700	  598.00	  556.07	-1675.55	  416.67
     27.5700	  588.00	  564.95	-1694.43	  416.31
     27.6700	  591.00	  579.85	-1706.34	  415.95
     27.7700	  561.00	  604.15	-1760.63	  415.60
     27.8700	  615.00	  641.06	-1743.54	  415.24
     27.9700	  647.00	  691.52	-1762.01	  414.88
     28.0700	  780.00	  751.32	-1688.81	  414.53
     28.1700	  837.00	  808.33	-1688.81	  414.17
     28.2700	  928.00	  842.05	-1631.53	  413.81
     28.3700	  907.00	  834.15	-1644.64	  413.46
     28.4700	  834.00	  794.75	-1678.23	  413.10
     28.5700	  743.00	  757.91	-1732.39	  412.75
     28.6700	  708.00	  745.44	-1754.92	  412.39
     28.7700	  749.00	  758.17	-1726.66	  412.04
     28.8700	  781.00	  781.78	-1718.27	  411.68
     28.9700	  849.00	  792.57	-1661.06	  411.33
     29.0700	  790.00	  769.51	-1696.99	  410.98
     29.1700	  728.00	  716.52	-1706.01	  410.62
     29.2700	  665.00	  658.25	-1710.73	  410.27
     29.3700	  565.00	  611.56	-1764.04	  409.92
     29.4700	  577.00	  580.31	-1720.80	  409.57
     29.5700	  583.00	  561.75	-1696.23	  409.21
     29.6700	  568.00	  551.35	-1700.83	  408.86
     29.7700	  599.00	  545.46	-1663.94	  408.51
     29.8700	  617.00	  541.85	-1642.33	  408.16
     29.9700	  589.00	  539.55	-1668.03	  407.81
     30.0700	  541.00	  538.21	-1714.70	  407.47
     30.1700	  617.00	  537.85	-1638.34	  407.12
     30.2700	  558.00	  538.82	-1698.31	  406.77
     30.3700	  561.00	  541.81	-1698.29	  406.42
     30.4700	  645.00	  547.89	-1620.38	  406.08
     30.5700	  594.00	  558.20	-1681.69	  405.73
     30.6700	  570.00	  573.13	-1720.62	  405.39
     30.7700	  594.00	  591.25	-1714.74	  405.05
     30.8700	  591.00	  608.45	-1734.94	  404.70
     30.9700	  584.00	  617.84	-1751.32	  404.36
     31.0700	  593.00	  612.77	-1737.25	  404.02
     31.1700	  590.00	  594.61	-1722.10	  403.68
     31.2700	  594.00	  572.71	-1696.20	  403.34
     31.3700	  594.00	  554.27	-1677.76	  403.00
     31.4700	  558.00	  541.46	-1700.95	  402.66
     31.5700	  518.00	  533.64	-1733.12	  402.33
     31.6700	  552.00	  529.19	-1694.68	  401.99
     31.7700	  518.00	  526.67	-1726.16	  401.66
     31.8700	  545.00	  525.15	-1697.64	  401.32
     31.9700	  551.00	  524.15	-1690.64	  400.99
     32.0700	  526.00	  523.47	-1714.96	  400.66
     32.1700	  493.00	  523.03	-1747.51	  400.33
     32.2700	  538.00	  522.79	-1702.27	  400.00
     32.3700	  548.00	  522.73	-1692.22	  399.67
     32.4700	  529.00	  522.87	-1711.36	  399.34
     32.5700	  542.00	  523.22	-1698.71	  399.01
     32.6700	  539.00	  523.82	-1702.31	  398.69
     32.7700	  511.00	  524.72	-1731.20	  398.36
     32.8700	  508.00	  526.00	-1735.48	  398.04
     32.9700	  530.00	  527.79	-1715.28	  397.72
     33.0700	  562.00	  530.35	-1685.84	  397.39
     33.1700	  559.00	  534.17	-1692.65	  397.07
     33.2700	  521.00	  540.22	-1736.71	  396.76
     33.3700	  562.00	  550.49	-1705.98	  396.44
     33.4700	  541.00	  568.42	-1744.91	  396.12
     33.5700	  651.00	  599.16	-1665.64	  395.81
     33.6700	  581.00	  648.45	-1784.94	  395.49
     33.7700	  748.00	  719.20	-1688.68	  395.18
     33.8700	  852.00	  806.21	-1671.70	  394.87
     33.9700	  902.00	  891.78	-1707.27	  394.56
     34.0700	 1030.00	  945.65	-1633.14	  394.25
     34.1700	 1044.00	  936.72	-1610.21	  393.94
     34.2700	  887.00	  864.85	-1695.33	  393.63
     34.3700	  757.00	  767.65	-1728.13	  393.33
     34.4700	  676.00	  679.98	-1721.47	  393.03
     34.5700	  581.00	  615.75	-1752.23	  392.72
     34.6700	  590.00	  574.79	-1702.27	  392.42
     34.7700	  546.00	  551.01	-1722.49	  392.12
     34.8700	  518.00	  537.63	-1737.12	  391.83
     34.9700	  521.00	  529.76	-1726.25	  391.53
     35.0700	  525.00	  524.64	-1717.13	  391.23
     35.1700	  505.00	  520.96	-1733.45	  390.94
     35.2700	  539.00	  518.12	-1696.61	  390.65
     35.3700	  497.00	  515.81	-1736.30	  390.36
     35.4700	  493.00	  513.94	-1738.42	  390.07
     35.5700	  519.00	  512.37	-1710.85	  389.78
     35.6700	  495.00	  511.03	-1733.51	  389.49
     35.7700	  480.00	  510.34	-1747.83	  389.21
     35.8700	  506.00	  509.34	-1720.82	  388.93
     35.9700	  508.00	  508.45	-1717.94	  388.64
     36.0700	  503.00	  507.66	-1722.15	  388.36
     36.1700	  507.00	  506.95	-1717.44	  388.09
     36.2700	  512.00	  506.32	-1711.80	  387.81
     36.3700	  470.00	  505.75	-1753.24	  387.53
     36.4700	  521.00	  505.24	-1701.72	  387.26
     36.5700	  496.00	  504.77	-1726.26	  386.99
     36.6700	  458.00	  504.37	-1763.85	  386.72
     36.7700	  497.00	  504.03	-1724.51	  386.45
     36.8700	  516.00	  503.77	-1705.26	  386.18
     36.9700	  528.00	  503.67	-1693.15	  385.91
     37.0700	  491.00	  503.80	-1730.29	  385.65
     37.1700	  503.00	  504.34	-1718.83	  385.39
     37.2700	  500.00	  505.49	-1722.97	  385.13
     37.3700	  521.00	  507.41	-1703.90	  384.87
     37.4700	  480.00	  510.09	-1747.58	  384.61
     37.5700	  473.00	  513.10	-1757.59	  384.35
     37.6700	  500.00	  515.58	-1733.07	  384.10
     37.7700	  547.00	  516.34	-1686.83	  383.85
     37.8700	  529.00	  514.73	-1703.22	  383.60
     37.9700	  542.00	  511.43	-1686.92	  383.35
     38.0700	  465.00	  507.77	-1760.26	  383.10
     38.1700	  469.00	  504.75	-1753.24	  382.85
     38.2700	  485.00	  502.31	-1734.80	  382.61
     38.3700	  490.00	  500.60	-1728.08	  382.37
     38.4700	  473.00	  499.45	-1743.93	  382.13
     38.5700	  532.00	  498.66	-1684.15	  381.89
     38.6700	  514.00	  498.09	-1701.57	  381.65
     38.7700	  503.00	  497.64	-1712.13	  381.42
     38.8700	  497.00	  497.26	-1717.75	  381.18
     38.9700	  511.00	  496.82	-1703.31	  380.95
     39.0700	  477.00	  496.52	-1737.01	  380.72
     39.1700	  485.00	  496.24	-1728.73	  380.50
     39.2700	  489.00	  495.98	-1724.47	  380.27
     39.3700	  477.00	  495.74	-1736.22	  380.04
     39.4700	  493.00	  495.50	-1719.99	  379.82
     39.5700	  475.00	  495.28	-1737.77	  379.60
     39.6700	  487.00	  495.08	-1725.56	  379.38
     39.7700	  507.00	  494.79	-1705.28	  379.17
     39.8700	  527.00	  494.61	-1685.09	  378.95
     39.9700	  476.00	  494.43	-1735.92	  378.74
     40.0700	  496.00	  494.27	-1715.76	  378.53
     40.1700	  504.00	  494.12	-1707.61	  378.32
     40.2700	  490.00	  493.99	-1721.47	  378.11
     40.3700	  486.00	  493.87	-1725.35	  377.90
     40.4700	  456.00	  493.76	-1755.24	  377.70
     40.5700	  473.00	  493.67	-1738.15	  377.50
     40.6700	  466.00	  494.10	-1745.58	  377.30
     40.7700	  483.00	  494.06	-1728.54	  377.10
