MSG Master    CELL:    5.89504   5.89504  23.16461   90.0000   90.0000  120.0000   SPGR: P 63/m m c             TEMP:    713.35
  2   1280     2.52000     0.00000    -0.11333     0.00000     0.00000    0
    96    96     0     0     2
       0.00000      10.00000
     125.00000     130.00000
 2Theta	Yobs	Ycal	Yobs-Ycal	Backg	Posr	(hkl)	K
      0.7700	    0.00	  582.39	-1809.05	  466.69
      0.8700	    0.00	  583.51	-1809.05	  467.82
      0.9700	   36.00	  584.62	-1809.05	  468.92
      1.0700	   57.00	  585.71	-1809.05	  470.02
      1.1700	   37.00	  586.79	-1809.05	  471.10
      1.2700	   50.00	  587.86	-1809.05	  472.16
      1.3700	   50.00	  588.91	-1809.05	  473.21
      1.4700	   92.00	  589.94	-1809.05	  474.25
      1.5700	  285.00	  590.96	-1809.05	  475.27
      1.6700	  430.00	  591.97	-1809.05	  476.27
      1.7700	  565.00	  592.96	-1809.05	  477.27
      1.8700	  652.00	  593.94	-1809.05	  478.25
      1.9700	  720.00	  594.91	-1809.05	  479.21
      2.0700	  735.00	  595.86	-1809.05	  480.16
      2.1700	  841.00	  596.80	-1809.05	  481.10
      2.2700	  762.00	  597.72	-1809.05	  482.02
      2.3700	  773.00	  598.63	-1809.05	  482.93
      2.4700	  729.00	  599.53	-1809.05	  483.83
      2.5700	  701.00	  600.41	-1809.05	  484.71
      2.6700	  677.00	  601.28	-1809.05	  485.58
      2.7700	  664.00	  602.14	-1809.05	  486.44
      2.8700	  645.00	  602.98	-1809.05	  487.28
      2.9700	  688.00	  603.81	-1809.05	  488.11
      3.0700	  580.00	  604.63	-1809.05	  488.93
      3.1700	  607.00	  605.43	-1809.05	  489.74
      3.2700	  692.00	  606.22	-1809.05	  490.53
      3.3700	  921.00	  607.00	-1809.05	  491.31
      3.4700	  968.00	  607.77	-1809.05	  492.07
      3.5700	 1141.00	  608.52	-1809.05	  492.83
      3.6700	 1259.00	  609.27	-1809.05	  493.57
      3.7700	 1384.00	  610.00	-1809.05	  494.30
      3.8700	 1383.00	  610.71	-1809.05	  495.02
      3.9700	 1564.00	  611.42	-1809.05	  495.72
      4.0700	 1597.00	  612.11	-1809.05	  496.42
      4.1700	 1603.00	  612.79	-1809.05	  497.10
      4.2700	 1602.00	  613.46	-1809.05	  497.77
      4.3700	 1572.00	  614.12	-1809.05	  498.42
      4.4700	 1491.00	  614.76	-1809.05	  499.07
      4.5700	 1479.00	  615.40	-1809.05	  499.70
      4.6700	 1388.00	  616.02	-1809.05	  500.32
      4.7700	 1445.00	  616.63	-1809.05	  500.94
      4.8700	 1295.00	  617.23	-1809.05	  501.53
      4.9700	 1297.00	  617.82	-1809.05	  502.12
      5.0700	 1207.00	  618.39	-1809.05	  502.70
      5.1700	 1239.00	  618.96	-1809.05	  503.27
      5.2700	 1195.00	  619.52	-1809.05	  503.82
      5.3700	 1149.00	  620.06	-1809.05	  504.36
      5.4700	 1131.00	  620.59	-1809.05	  504.90
      5.5700	 1070.00	  621.11	-1809.05	  505.42
      5.6700	 1098.00	  621.62	-1809.05	  505.93
      5.7700	 1051.00	  622.12	-1809.05	  506.43
      5.8700	 1059.00	  622.61	-1809.05	  506.92
      5.9700	  981.00	  623.09	-1809.05	  507.40
      6.0700	  965.00	  623.56	-1809.05	  507.87
      6.1700	  980.00	  624.02	-1809.05	  508.33
      6.2700	 1030.00	  624.47	-1809.05	  508.77
      6.3700	  927.00	  624.91	-1809.05	  509.21
      6.4700	  964.00	  625.34	-1809.05	  509.64
      6.5700	  893.00	  625.75	-1809.05	  510.06
      6.6700	  898.00	  626.16	-1809.05	  510.47
      6.7700	  855.00	  626.56	-1809.05	  510.86
      6.8700	  848.00	  626.95	-1809.05	  511.25
      6.9700	  866.00	  627.33	-1809.05	  511.63
      7.0700	  864.00	  627.69	-1809.05	  512.00
      7.1700	  767.00	  628.05	-1809.05	  512.36
      7.2700	  765.00	  628.40	-1809.05	  512.71
      7.3700	  767.00	  628.74	-1809.05	  513.05
      7.4700	  717.00	  629.07	-1809.05	  513.38
      7.5700	  828.00	  629.40	-1809.05	  513.70
      7.6700	  763.00	  629.71	-1809.05	  514.01
      7.7700	  779.00	  630.01	-1809.05	  514.32
      7.8700	  812.00	  630.31	-1809.05	  514.61
      7.9700	  738.00	  630.59	-1809.05	  514.90
      8.0700	  769.00	  630.87	-1809.05	  515.17
      8.1700	  724.00	  631.13	-1809.05	  515.44
      8.2700	  712.00	  631.39	-1809.05	  515.70
      8.3700	  736.00	  631.64	-1809.05	  515.95
      8.4700	  713.00	  631.88	-1809.05	  516.19
      8.5700	  742.00	  632.12	-1809.05	  516.42
      8.6700	  722.00	  632.34	-1809.05	  516.64
      8.7700	  727.00	  632.56	-1809.05	  516.86
      8.8700	  629.00	  632.76	-1809.05	  517.07
      8.9700	  724.00	  632.96	-1809.05	  517.27
      9.0700	  661.00	  633.15	-1809.05	  517.46
      9.1700	  707.00	  633.34	-1809.05	  517.64
      9.2700	  707.00	  633.51	-1809.05	  517.81
      9.3700	  667.00	  633.68	-1809.05	  517.98
      9.4700	  673.00	  633.84	-1809.05	  518.14
      9.5700	  678.00	  633.99	-1809.05	  518.29
      9.6700	  698.00	  634.13	-1809.05	  518.43
      9.7700	  721.00	  634.26	-1809.05	  518.57
      9.8700	  701.00	  634.39	-1809.05	  518.70
      9.9700	  636.00	  634.51	-1809.05	  518.82
     10.0700	  681.00	  636.85	-1764.89	  518.93
     10.1700	  630.00	  637.21	-1816.25	  519.03
     10.2700	  633.00	  637.61	-1813.66	  519.13
     10.3700	  698.00	  638.09	-1749.13	  519.22
     10.4700	  667.00	  638.66	-1780.71	  519.30
     10.5700	  666.00	  639.40	-1782.44	  519.38
     10.6700	  672.00	  640.37	-1777.42	  519.45
     10.7700	  670.00	  641.68	-1780.72	  519.51
     10.8700	  678.00	  643.42	-1774.47	  519.57
     10.9700	  660.00	  645.66	-1794.71	  519.61
     11.0700	  694.00	  648.43	-1763.48	  519.65
     11.1700	  666.00	  651.73	-1794.78	  519.69
     11.2700	  739.00	  655.61	-1725.66	  519.71
     11.3700	  689.00	  660.13	-1780.18	  519.73
     11.4700	  659.00	  665.44	-1815.48	  519.75
     11.5700	  674.00	  671.72	-1806.77	  519.76
     11.6700	  634.00	  679.28	-1854.33	  519.76
     11.7700	  712.00	  688.47	-1785.52	  519.75
     11.8700	  782.00	  699.55	-1726.59	  519.74
     11.9700	  750.00	  712.30	-1771.35	  519.72
     12.0700	  733.00	  725.51	-1801.56	  519.70
     12.1700	  737.00	  736.28	-1808.33	  519.66
     12.2700	  801.00	  739.71	-1747.76	  519.63
     12.3700	  786.00	  731.08	-1754.13	  519.58
     12.4700	  757.00	  712.08	-1764.13	  519.53
     12.5700	  646.00	  690.84	-1853.89	  519.48
     12.6700	  660.00	  673.32	-1822.36	  519.42
     12.7700	  623.00	  660.93	-1846.97	  519.35
     12.8700	  641.00	  652.90	-1820.95	  519.28
     12.9700	  619.00	  647.95	-1837.99	  519.20
     13.0700	  706.00	  644.81	-1747.86	  519.12
     13.1700	  669.00	  642.73	-1782.78	  519.03
     13.2700	  636.00	  641.24	-1814.29	  518.93
     13.3700	  605.00	  640.11	-1844.15	  518.83
     13.4700	  616.00	  639.20	-1832.25	  518.73
     13.5700	  598.00	  638.45	-1849.50	  518.61
     13.6700	  585.00	  637.82	-1861.87	  518.50
     13.7700	  634.00	  637.28	-1812.33	  518.37
     13.8700	  596.00	  636.81	-1849.85	  518.25
     13.9700	  660.00	  636.38	-1785.43	  518.11
     14.0700	  636.00	  636.00	-1809.04	  517.98
     14.1700	  633.00	  635.64	-1811.69	  517.83
     14.2700	  620.00	  635.31	-1824.36	  517.69
     14.3700	  583.00	  635.00	-1861.05	  517.53
     14.4700	  610.00	  634.71	-1833.76	  517.38
     14.5700	  599.00	  634.43	-1844.47	  517.22
     14.6700	  631.00	  634.15	-1812.20	  517.05
     14.7700	  641.00	  633.89	-1801.93	  516.88
     14.8700	  596.00	  633.63	-1846.67	  516.70
     14.9700	  652.00	  633.37	-1790.42	  516.52
     15.0700	  615.00	  633.12	-1827.17	  516.33
     15.1700	  598.00	  632.87	-1843.92	  516.14
     15.2700	  615.00	  632.62	-1826.67	  515.95
     15.3700	  638.00	  632.37	-1803.42	  515.75
     15.4700	  591.00	  632.12	-1850.17	  515.55
     15.5700	  606.00	  631.88	-1834.92	  515.34
     15.6700	  622.00	  631.63	-1818.67	  515.13
     15.7700	  601.00	  631.38	-1839.42	  514.91
     15.8700	  632.00	  631.12	-1808.17	  514.69
     15.9700	  632.00	  630.87	-1807.92	  514.47
     16.0700	  632.00	  630.62	-1807.66	  514.24
     16.1700	  609.00	  630.36	-1830.41	  514.01
     16.2700	  612.00	  630.10	-1827.15	  513.77
     16.3700	  648.00	  629.84	-1790.89	  513.53
     16.4700	  614.00	  629.58	-1824.62	  513.29
     16.5700	  632.00	  629.31	-1806.36	  513.04
     16.6700	  590.00	  629.05	-1848.09	  512.79
     16.7700	  610.00	  628.77	-1827.82	  512.53
     16.8700	  621.00	  628.50	-1816.55	  512.27
     16.9700	  648.00	  628.23	-1789.27	  512.01
     17.0700	  611.00	  627.95	-1826.00	  511.75
     17.1700	  639.00	  627.67	-1797.71	  511.48
     17.2700	  613.00	  627.39	-1823.43	  511.20
     17.3700	  544.00	  627.10	-1892.15	  510.93
     17.4700	  594.00	  626.81	-1841.86	  510.65
     17.5700	  624.00	  626.52	-1811.57	  510.36
     17.6700	  637.00	  626.23	-1798.27	  510.08
     17.7700	  573.00	  626.46	-1862.51	  509.79
     17.8700	  631.00	  626.17	-1804.22	  509.50
     17.9700	  627.00	  625.88	-1807.93	  509.20
     18.0700	  578.00	  625.95	-1857.00	  508.90
     18.1700	  611.00	  625.66	-1823.71	  508.60
     18.2700	  623.00	  625.37	-1811.42	  508.29
     18.3700	  570.00	  625.08	-1864.13	  507.99
     18.4700	  620.00	  624.79	-1813.83	  507.68
     18.5700	  631.00	  624.49	-1802.54	  507.36
     18.6700	  611.00	  624.19	-1822.24	  507.05
     18.7700	  612.00	  623.89	-1820.94	  506.73
     18.8700	  626.00	  623.59	-1806.64	  506.40
     18.9700	  597.00	  623.29	-1835.33	  506.08
     19.0700	  583.00	  622.98	-1849.03	  505.75
     19.1700	  592.00	  622.68	-1839.72	  505.42
     19.2700	  607.00	  622.37	-1824.42	  505.09
     19.3700	  588.00	  622.06	-1843.11	  504.76
     19.4700	  601.00	  621.82	-1829.86	  504.42
     19.5700	  583.00	  621.51	-1847.55	  504.08
     19.6700	  611.00	  621.19	-1819.24	  503.74
     19.7700	  588.00	  620.88	-1841.93	  503.39
     19.8700	  598.00	  620.57	-1831.62	  503.04
     19.9700	  594.00	  620.26	-1835.30	  502.69
     20.0700	  633.00	  619.94	-1795.99	  502.34
     20.1700	  613.00	  619.63	-1815.68	  501.99
     20.2700	  614.00	  619.32	-1814.36	  501.63
     20.3700	  610.00	  619.00	-1818.05	  501.28
     20.4700	  544.00	  618.69	-1883.73	  500.92
     20.5700	  624.00	  618.37	-1803.42	  500.55
     20.6700	  605.00	  618.06	-1822.11	  500.19
     20.7700	  581.00	  617.75	-1845.79	  499.82
     20.8700	  621.00	  617.43	-1805.48	  499.46
     20.9700	  656.00	  617.12	-1770.17	  499.09
     21.0700	  636.00	  616.81	-1789.86	  498.71
     21.1700	  613.00	  616.50	-1812.55	  498.34
     21.2700	  607.00	  616.20	-1818.24	  497.96
     21.3700	  643.00	  615.89	-1781.94	  497.59
     21.4700	  613.00	  615.59	-1811.64	  497.21
     21.5700	  636.00	  615.29	-1788.34	  496.83
     21.6700	  618.00	  614.99	-1806.04	  496.45
     21.7700	  608.00	  614.70	-1815.75	  496.06
     21.8700	  617.00	  614.58	-1806.63	  495.68
     21.9700	  665.00	  614.30	-1758.35	  495.29
     22.0700	  618.00	  614.02	-1805.07	  494.90
     22.1700	  578.00	  613.75	-1844.80	  494.51
     22.2700	  653.00	  613.49	-1769.54	  494.12
     22.3700	  611.00	  613.23	-1811.28	  493.73
     22.4700	  608.00	  612.99	-1814.04	  493.34
     22.5700	  588.00	  612.75	-1833.80	  492.94
     22.6700	  564.00	  612.53	-1857.58	  492.55
     22.7700	  606.00	  612.32	-1815.37	  492.15
     22.8700	  648.00	  612.13	-1773.18	  491.75
     22.9700	  591.00	  611.96	-1830.01	  491.35
     23.0700	  610.00	  611.81	-1810.86	  490.95
     23.1700	  622.00	  611.69	-1798.74	  490.55
     23.2700	  627.00	  611.61	-1793.65	  490.14
     23.3700	  578.00	  611.57	-1842.61	  489.74
     23.4700	  613.00	  611.58	-1807.63	  489.34
     23.5700	  611.00	  611.66	-1809.71	  488.93
     23.6700	  612.00	  611.84	-1808.89	  488.52
     23.7700	  646.00	  612.15	-1775.20	  488.11
     23.8700	  562.00	  612.61	-1859.65	  487.71
     23.9700	  610.00	  613.43	-1812.48	  487.30
     24.0700	  634.00	  614.76	-1789.81	  486.89
     24.1700	  626.00	  616.89	-1799.93	  486.47
     24.2700	  646.00	  620.19	-1783.24	  486.06
     24.3700	  620.00	  625.15	-1814.20	  485.65
     24.4700	  648.00	  632.13	-1793.17	  485.24
     24.5700	  631.00	  641.15	-1819.20	  484.82
     24.6700	  644.00	  651.66	-1816.71	  484.41
     24.7700	  685.00	  662.12	-1786.16	  483.99
     24.8700	  693.00	  669.61	-1785.66	  483.58
     24.9700	  718.00	  670.34	-1761.39	  483.16
     25.0700	  653.00	  662.70	-1818.75	  482.74
     25.1700	  661.00	  650.24	-1798.28	  482.33
     25.2700	  715.00	  638.02	-1732.07	  481.91
     25.3700	  669.00	  628.53	-1768.58	  481.49
     25.4700	  689.00	  622.09	-1742.14	  481.07
     25.5700	  641.00	  618.12	-1786.17	  480.65
     25.6700	  663.00	  615.88	-1761.92	  480.23
     25.7700	  687.00	  614.71	-1736.75	  479.81
     25.8700	  624.00	  614.20	-1799.25	  479.40
     25.9700	  635.00	  614.14	-1788.19	  478.98
     26.0700	  637.00	  614.41	-1786.45	  478.55
     26.1700	  609.00	  614.96	-1815.01	  478.13
     26.2700	  621.00	  615.80	-1803.85	  477.71
     26.3700	  677.00	  616.94	-1748.99	  477.29
     26.4700	  623.00	  618.41	-1804.45	  476.87
     26.5700	  662.00	  620.25	-1767.30	  476.45
     26.6700	  673.00	  622.53	-1758.58	  476.03
     26.7700	  687.00	  625.36	-1747.40	  475.61
     26.8700	  744.00	  628.84	-1693.89	  475.19
     26.9700	  672.00	  633.17	-1770.22	  474.77
     27.0700	  663.00	  638.59	-1784.64	  474.35
     27.1700	  734.00	  645.48	-1720.53	  473.92
     27.2700	  690.00	  654.45	-1773.49	  473.50
     27.3700	  698.00	  666.60	-1777.65	  473.08
     27.4700	  747.00	  684.09	-1746.14	  472.66
     27.5700	  743.00	  711.05	-1777.10	  472.24
     27.6700	  750.00	  754.90	-1813.95	  471.82
     27.7700	  827.00	  827.57	-1809.61	  471.40
     27.8700	  849.00	  945.16	-1905.20	  470.98
     27.9700	  982.00	 1123.11	-1950.16	  470.56
     28.0700	 1229.00	 1365.85	-1945.89	  470.14
     28.1700	 1597.00	 1653.05	-1865.10	  469.72
     28.2700	 2060.00	 1926.53	-1675.58	  469.31
     28.3700	 2298.00	 2087.64	-1598.69	  468.89
     28.4700	 2236.00	 2045.54	-1618.58	  468.47
     28.5700	 1882.00	 1841.66	-1768.70	  468.05
     28.6700	 1545.00	 1634.29	-1898.34	  467.63
     28.7700	 1356.00	 1528.04	-1981.09	  467.22
     28.8700	 1419.00	 1532.87	-1922.91	  466.80
     28.9700	 1542.00	 1594.98	-1862.02	  466.39
     29.0700	 1662.00	 1624.51	-1771.56	  465.97
     29.1700	 1607.00	 1540.20	-1742.24	  465.56
     29.2700	 1463.00	 1347.42	-1693.46	  465.14
     29.3700	 1088.00	 1129.96	-1851.01	  464.73
     29.4700	  959.00	  950.45	-1800.49	  464.31
     29.5700	  812.00	  825.77	-1822.82	  463.90
     29.6700	  822.00	  748.42	-1735.47	  463.49
     29.7700	  804.00	  703.24	-1708.29	  463.08
     29.8700	  723.00	  676.72	-1762.77	  462.67
     29.9700	  728.00	  660.19	-1741.23	  462.26
     30.0700	  726.00	  649.17	-1732.21	  461.85
     30.1700	  692.00	  641.72	-1758.77	  461.44
     30.2700	  740.00	  637.26	-1706.30	  461.03
     30.3700	  665.00	  635.98	-1780.03	  460.63
     30.4700	  716.00	  638.81	-1731.86	  460.22
     30.5700	  651.00	  647.22	-1805.26	  459.81
     30.6700	  660.00	  662.74	-1811.78	  459.41
     30.7700	  716.00	  685.76	-1778.81	  459.01
     30.8700	  704.00	  714.04	-1819.08	  458.60
     30.9700	  731.00	  741.43	-1819.48	  458.20
     31.0700	  738.00	  757.65	-1828.70	  457.80
     31.1700	  747.00	  751.96	-1814.00	  457.40
     31.2700	  724.00	  724.33	-1809.38	  457.00
     31.3700	  670.00	  688.11	-1827.15	  456.60
     31.4700	  701.00	  655.55	-1763.60	  456.21
     31.5700	  610.00	  631.33	-1830.37	  455.81
     31.6700	  622.00	  615.31	-1802.36	  455.41
     31.7700	  634.00	  605.45	-1780.49	  455.02
     31.8700	  664.00	  599.48	-1744.52	  454.63
     31.9700	  610.00	  595.71	-1794.76	  454.23
     32.0700	  607.00	  593.16	-1795.21	  453.84
     32.1700	  622.00	  591.33	-1778.38	  453.45
     32.2700	  597.00	  589.99	-1802.04	  453.06
     32.3700	  606.00	  589.04	-1792.08	  452.67
     32.4700	  629.00	  588.42	-1768.46	  452.29
     32.5700	  602.00	  588.11	-1795.16	  451.90
     32.6700	  638.00	  588.17	-1759.21	  451.52
     32.7700	  644.00	  588.54	-1753.59	  451.13
     32.8700	  582.00	  589.32	-1816.36	  450.75
     32.9700	  619.00	  590.60	-1780.64	  450.37
     33.0700	  592.00	  592.53	-1809.57	  449.99
     33.1700	  620.00	  595.40	-1784.44	  449.61
     33.2700	  584.00	  599.73	-1824.78	  449.23
     33.3700	  591.00	  606.56	-1824.61	  448.86
     33.4700	  556.00	  617.75	-1870.79	  448.48
     33.5700	  648.00	  636.36	-1797.41	  448.11
     33.6700	  667.00	  666.71	-1808.76	  447.74
     33.7700	  761.00	  713.45	-1761.50	  447.37
     33.8700	  747.00	  779.04	-1841.09	  447.00
     33.9700	  897.00	  859.79	-1771.83	  446.63
     34.0700	 1028.00	  942.25	-1723.29	  446.26
     34.1700	 1094.00	 1002.01	-1717.05	  445.89
     34.2700	 1132.00	 1010.28	-1687.32	  445.53
     34.3700	 1043.00	  957.62	-1723.67	  445.17
     34.4700	  857.00	  870.02	-1822.07	  444.80
     34.5700	  776.00	  781.66	-1814.71	  444.44
     34.6700	  707.00	  710.51	-1812.56	  444.09
     34.7700	  615.00	  660.42	-1854.47	  443.73
     34.8700	  671.00	  628.28	-1766.33	  443.37
     34.9700	  629.00	  608.70	-1788.75	  443.02
     35.0700	  646.00	  596.78	-1759.83	  442.66
     35.1700	  576.00	  589.13	-1822.18	  442.31
     35.2700	  595.00	  583.80	-1797.85	  441.96
     35.3700	  577.00	  579.80	-1811.85	  441.61
     35.4700	  576.00	  576.65	-1809.69	  441.27
     35.5700	  548.00	  574.07	-1835.12	  440.92
     35.6700	  567.00	  571.93	-1813.98	  440.58
     35.7700	  556.00	  570.12	-1823.17	  440.23
     35.8700	  585.00	  569.07	-1793.11	  439.89
     35.9700	  574.00	  567.73	-1802.78	  439.55
     36.0700	  536.00	  566.57	-1839.61	  439.21
     36.1700	  580.00	  565.55	-1794.59	  438.88
     36.2700	  560.00	  564.65	-1813.70	  438.54
     36.3700	  539.00	  563.86	-1833.91	  438.21
     36.4700	  546.00	  563.18	-1826.22	  437.88
     36.5700	  538.00	  562.58	-1833.63	  437.55
     36.6700	  492.00	  562.09	-1879.13	  437.22
     36.7700	  586.00	  561.69	-1784.74	  436.89
     36.8700	  557.00	  561.41	-1813.46	  436.57
     36.9700	  528.00	  561.45	-1842.50	  436.24
     37.0700	  564.00	  561.54	-1806.58	  435.92
     37.1700	  574.00	  561.94	-1796.98	  435.60
     37.2700	  533.00	  562.82	-1838.87	  435.28
     37.3700	  509.00	  564.43	-1864.48	  434.96
     37.4700	  535.00	  567.09	-1841.14	  434.65
     37.5700	  531.00	  571.15	-1849.20	  434.33
     37.6700	  539.00	  576.88	-1846.93	  434.02
     37.7700	  581.00	  584.25	-1812.29	  433.71
     37.8700	  591.00	  592.70	-1810.75	  433.40
     37.9700	  624.00	  601.10	-1786.14	  433.10
     38.0700	  553.00	  607.95	-1864.00	  432.79
     38.1700	  591.00	  611.50	-1829.54	  432.49
     38.2700	  596.00	  609.70	-1822.75	  432.19
     38.3700	  578.00	  602.06	-1833.11	  431.89
     38.4700	  568.00	  591.17	-1832.22	  431.59
     38.5700	  577.00	  580.23	-1812.28	  431.29
     38.6700	  572.00	  571.16	-1808.21	  431.00
     38.7700	  565.00	  564.45	-1808.50	  430.70
     38.8700	  554.00	  559.85	-1814.89	  430.41
     38.9700	  537.00	  556.82	-1828.87	  430.12
     39.0700	  507.00	  554.83	-1856.88	  429.83
     39.1700	  559.00	  553.46	-1803.51	  429.55
     39.2700	  560.00	  551.95	-1800.99	  429.26
     39.3700	  555.00	  551.15	-1805.19	  428.98
     39.4700	  531.00	  550.48	-1828.53	  428.70
     39.5700	  559.00	  549.90	-1799.95	  428.42
     39.6700	  572.00	  549.39	-1786.44	  428.14
     39.7700	  591.00	  548.94	-1766.99	  427.87
     39.8700	  562.00	  548.53	-1795.58	  427.59
     39.9700	  564.00	  548.16	-1793.21	  427.32
     40.0700	  544.00	  548.38	-1813.42	  427.05
     40.1700	  550.00	  548.08	-1807.12	  426.78
     40.2700	  504.00	  547.80	-1852.85	  426.52
     40.3700	  532.00	  547.21	-1824.26	  426.25
     40.4700	  528.00	  546.99	-1828.04	  425.99
     40.5700	  507.00	  546.81	-1848.85	  425.73
     40.6700	  504.00	  546.64	-1851.69	  425.47
     40.7700	  522.00	  546.51	-1833.56	  425.21
