MSG Master    CELL:    5.91114   5.91114  23.23385   90.0000   90.0000  120.0000   SPGR: P 63/m m c             TEMP:    938.95
  1   1280     2.52000     0.00000    -0.13409     0.00000     0.00000    0
    98     0     2
       0.00000      10.00000
     125.00000     130.00000
 2Theta	Yobs	Ycal	Yobs-Ycal	Backg	Posr	(hkl)	K
      0.7700	    0.00	  463.16	-1738.25	  352.58
      0.8700	    0.00	  464.78	-1738.25	  354.20
      0.9700	   46.00	  466.39	-1738.25	  355.81
      1.0700	   48.00	  467.97	-1738.25	  357.39
      1.1700	   40.00	  469.54	-1738.25	  358.96
      1.2700	   37.00	  471.09	-1738.25	  360.51
      1.3700	   39.00	  472.63	-1738.25	  362.05
      1.4700	   97.00	  474.14	-1738.25	  363.56
      1.5700	  291.00	  475.64	-1738.25	  365.06
      1.6700	  478.00	  477.13	-1738.25	  366.54
      1.7700	  559.00	  478.59	-1738.25	  368.01
      1.8700	  677.00	  480.04	-1738.25	  369.46
      1.9700	  711.00	  481.47	-1738.25	  370.89
      2.0700	  750.00	  482.89	-1738.25	  372.30
      2.1700	  778.00	  484.28	-1738.25	  373.70
      2.2700	  771.00	  485.66	-1738.25	  375.08
      2.3700	  744.00	  487.03	-1738.25	  376.45
      2.4700	  673.00	  488.38	-1738.25	  377.80
      2.5700	  711.00	  489.71	-1738.25	  379.13
      2.6700	  700.00	  491.03	-1738.25	  380.45
      2.7700	  642.00	  492.33	-1738.25	  381.75
      2.8700	  651.00	  493.61	-1738.25	  383.03
      2.9700	  583.00	  494.88	-1738.25	  384.30
      3.0700	  630.00	  496.14	-1738.25	  385.55
      3.1700	  596.00	  497.37	-1738.25	  386.79
      3.2700	  721.00	  498.60	-1738.25	  388.01
      3.3700	  783.00	  499.80	-1738.25	  389.22
      3.4700	  823.00	  500.99	-1738.25	  390.41
      3.5700	  876.00	  502.17	-1738.25	  391.59
      3.6700	  937.00	  503.33	-1738.25	  392.75
      3.7700	 1020.00	  504.48	-1738.25	  393.90
      3.8700	 1100.00	  505.61	-1738.25	  395.03
      3.9700	 1129.00	  506.73	-1738.25	  396.15
      4.0700	 1136.00	  507.83	-1738.25	  397.25
      4.1700	 1180.00	  508.92	-1738.25	  398.33
      4.2700	 1269.00	  509.99	-1738.25	  399.41
      4.3700	 1207.00	  511.05	-1738.25	  400.47
      4.4700	 1136.00	  512.09	-1738.25	  401.51
      4.5700	 1175.00	  513.12	-1738.25	  402.54
      4.6700	 1059.00	  514.14	-1738.25	  403.56
      4.7700	  968.00	  515.14	-1738.25	  404.56
      4.8700	 1036.00	  516.13	-1738.25	  405.55
      4.9700	 1012.00	  517.10	-1738.25	  406.52
      5.0700	 1011.00	  518.06	-1738.25	  407.48
      5.1700	  982.00	  519.01	-1738.25	  408.43
      5.2700	  960.00	  519.94	-1738.25	  409.36
      5.3700	  866.00	  520.86	-1738.25	  410.28
      5.4700	  967.00	  521.77	-1738.25	  411.19
      5.5700	  862.00	  522.66	-1738.25	  412.08
      5.6700	  931.00	  523.54	-1738.25	  412.96
      5.7700	  875.00	  524.41	-1738.25	  413.83
      5.8700	  854.00	  525.26	-1738.25	  414.68
      5.9700	  797.00	  526.11	-1738.25	  415.52
      6.0700	  795.00	  526.93	-1738.25	  416.35
      6.1700	  790.00	  527.75	-1738.25	  417.17
      6.2700	  776.00	  528.55	-1738.25	  417.97
      6.3700	  698.00	  529.34	-1738.25	  418.76
      6.4700	  818.00	  530.12	-1738.25	  419.54
      6.5700	  756.00	  530.89	-1738.25	  420.30
      6.6700	  731.00	  531.64	-1738.25	  421.06
      6.7700	  767.00	  532.38	-1738.25	  421.80
      6.8700	  729.00	  533.11	-1738.25	  422.53
      6.9700	  718.00	  533.83	-1738.25	  423.24
      7.0700	  722.00	  534.53	-1738.25	  423.95
      7.1700	  691.00	  535.22	-1738.25	  424.64
      7.2700	  656.00	  535.91	-1738.25	  425.32
      7.3700	  661.00	  536.58	-1738.25	  425.99
      7.4700	  640.00	  537.23	-1738.25	  426.65
      7.5700	  662.00	  537.88	-1738.25	  427.30
      7.6700	  661.00	  538.52	-1738.25	  427.93
      7.7700	  647.00	  539.14	-1738.25	  428.56
      7.8700	  646.00	  539.75	-1738.25	  429.17
      7.9700	  645.00	  540.35	-1738.25	  429.77
      8.0700	  617.00	  540.94	-1738.25	  430.36
      8.1700	  656.00	  541.52	-1738.25	  430.94
      8.2700	  601.00	  542.09	-1738.25	  431.51
      8.3700	  663.00	  542.65	-1738.25	  432.07
      8.4700	  580.00	  543.20	-1738.25	  432.61
      8.5700	  639.00	  543.73	-1738.25	  433.15
      8.6700	  651.00	  544.26	-1738.25	  433.68
      8.7700	  605.00	  544.77	-1738.25	  434.19
      8.8700	  637.00	  545.28	-1738.25	  434.70
      8.9700	  606.00	  545.77	-1738.25	  435.19
      9.0700	  614.00	  546.26	-1738.25	  435.67
      9.1700	  597.00	  546.73	-1738.25	  436.15
      9.2700	  634.00	  547.19	-1738.25	  436.61
      9.3700	  581.00	  547.65	-1738.25	  437.07
      9.4700	  605.00	  548.09	-1738.25	  437.51
      9.5700	  594.00	  548.53	-1738.25	  437.94
      9.6700	  575.00	  548.95	-1738.25	  438.37
      9.7700	  565.00	  549.37	-1738.25	  438.78
      9.8700	  622.00	  549.77	-1738.25	  439.19
      9.9700	  585.00	  550.17	-1738.25	  439.58
     10.0700	  566.00	  552.26	-1724.51	  439.97
     10.1700	  592.00	  552.82	-1699.07	  440.35
     10.2700	  583.00	  553.42	-1708.67	  440.71
     10.3700	  584.00	  554.08	-1708.33	  441.07
     10.4700	  540.00	  554.82	-1753.07	  441.42
     10.5700	  547.00	  555.73	-1746.98	  441.76
     10.6700	  596.00	  556.86	-1699.11	  442.09
     10.7700	  596.00	  558.34	-1700.59	  442.41
     10.8700	  584.00	  560.21	-1714.46	  442.72
     10.9700	  545.00	  562.52	-1755.77	  443.03
     11.0700	  558.00	  565.25	-1745.50	  443.32
     11.1700	  589.00	  568.42	-1717.67	  443.61
     11.2700	  597.00	  572.06	-1713.31	  443.89
     11.3700	  607.00	  576.27	-1707.52	  444.16
     11.4700	  595.00	  581.19	-1724.44	  444.42
     11.5700	  629.00	  587.05	-1696.30	  444.67
     11.6700	  595.00	  594.19	-1737.44	  444.92
     11.7700	  594.00	  603.05	-1747.30	  445.15
     11.8700	  629.00	  613.95	-1723.20	  445.38
     11.9700	  658.00	  626.53	-1706.78	  445.60
     12.0700	  636.00	  638.92	-1741.17	  445.81
     12.1700	  704.00	  646.93	-1681.18	  446.02
     12.2700	  653.00	  644.66	-1729.91	  446.21
     12.3700	  635.00	  629.82	-1733.07	  446.40
     12.4700	  566.00	  609.40	-1781.65	  446.58
     12.5700	  639.00	  591.64	-1690.89	  446.75
     12.6700	  571.00	  579.34	-1746.59	  446.92
     12.7700	  572.00	  571.89	-1738.14	  447.08
     12.8700	  565.00	  567.71	-1740.96	  447.23
     12.9700	  565.00	  565.37	-1738.62	  447.37
     13.0700	  557.00	  563.97	-1745.22	  447.51
     13.1700	  546.00	  563.06	-1755.31	  447.64
     13.2700	  537.00	  562.41	-1763.66	  447.76
     13.3700	  551.00	  561.94	-1749.19	  447.87
     13.4700	  583.00	  561.58	-1716.83	  447.98
     13.5700	  567.00	  561.31	-1732.56	  448.08
     13.6700	  533.00	  561.10	-1766.35	  448.17
     13.7700	  536.00	  560.94	-1763.19	  448.26
     13.8700	  533.00	  560.82	-1766.07	  448.34
     13.9700	  548.00	  560.72	-1750.97	  448.41
     14.0700	  574.00	  560.66	-1724.91	  448.48
     14.1700	  540.00	  560.60	-1758.85	  448.54
     14.2700	  564.00	  560.54	-1734.79	  448.59
     14.3700	  548.00	  560.49	-1750.74	  448.64
     14.4700	  602.00	  560.45	-1696.70	  448.68
     14.5700	  571.00	  560.41	-1727.66	  448.71
     14.6700	  499.00	  560.38	-1799.63	  448.74
     14.7700	  563.00	  560.34	-1735.59	  448.76
     14.8700	  590.00	  560.31	-1708.56	  448.78
     14.9700	  537.00	  560.27	-1761.52	  448.79
     15.0700	  515.00	  560.23	-1783.48	  448.79
     15.1700	  561.00	  560.19	-1737.44	  448.79
     15.2700	  554.00	  560.15	-1744.40	  448.78
     15.3700	  537.00	  560.11	-1761.36	  448.77
     15.4700	  559.00	  560.06	-1739.31	  448.75
     15.5700	  549.00	  560.01	-1749.26	  448.72
     15.6700	  552.00	  559.96	-1746.21	  448.69
     15.7700	  478.00	  559.90	-1820.15	  448.65
     15.8700	  511.00	  559.84	-1787.09	  448.61
     15.9700	  532.00	  559.77	-1766.02	  448.56
     16.0700	  540.00	  559.70	-1757.95	  448.51
     16.1700	  524.00	  559.63	-1773.88	  448.45
     16.2700	  593.00	  559.55	-1704.80	  448.38
     16.3700	  552.00	  559.47	-1745.72	  448.31
     16.4700	  540.00	  559.38	-1757.63	  448.24
     16.5700	  530.00	  559.29	-1767.54	  448.16
     16.6700	  565.00	  559.20	-1732.45	  448.08
     16.7700	  562.00	  559.10	-1735.35	  447.99
     16.8700	  570.00	  559.00	-1727.25	  447.89
     16.9700	  531.00	  558.89	-1766.14	  447.79
     17.0700	  539.00	  558.78	-1758.03	  447.69
     17.1700	  582.00	  558.66	-1714.91	  447.58
     17.2700	  573.00	  558.54	-1723.79	  447.46
     17.3700	  540.00	  558.42	-1756.67	  447.35
     17.4700	  548.00	  558.29	-1748.54	  447.22
     17.5700	  551.00	  558.16	-1745.41	  447.09
     17.6700	  561.00	  558.02	-1735.27	  446.96
     17.7700	  562.00	  557.98	-1734.23	  446.82
     17.8700	  528.00	  557.84	-1768.09	  446.68
     17.9700	  527.00	  557.69	-1768.94	  446.54
     18.0700	  510.00	  557.54	-1785.79	  446.39
     18.1700	  530.00	  557.39	-1765.64	  446.23
     18.2700	  572.00	  557.33	-1723.58	  446.08
     18.3700	  546.00	  557.17	-1749.42	  445.91
     18.4700	  600.00	  557.01	-1695.26	  445.75
     18.5700	  544.00	  556.84	-1751.09	  445.58
     18.6700	  576.00	  556.67	-1718.92	  445.40
     18.7700	  567.00	  556.50	-1727.75	  445.22
     18.8700	  566.00	  556.32	-1728.57	  445.04
     18.9700	  548.00	  556.14	-1746.39	  444.85
     19.0700	  543.00	  555.96	-1751.21	  444.66
     19.1700	  546.00	  555.77	-1748.02	  444.47
     19.2700	  583.00	  555.58	-1710.83	  444.27
     19.3700	  548.00	  555.38	-1745.63	  444.07
     19.4700	  541.00	  555.19	-1752.44	  443.87
     19.5700	  558.00	  554.99	-1735.24	  443.66
     19.6700	  540.00	  554.79	-1753.04	  443.45
     19.7700	  516.00	  554.58	-1776.83	  443.23
     19.8700	  570.00	  554.40	-1722.65	  443.01
     19.9700	  528.00	  554.19	-1764.44	  442.79
     20.0700	  553.00	  553.98	-1739.23	  442.57
     20.1700	  554.00	  553.77	-1738.02	  442.34
     20.2700	  603.00	  553.55	-1688.80	  442.11
     20.3700	  519.00	  553.33	-1772.58	  441.87
     20.4700	  517.00	  553.11	-1774.36	  441.63
     20.5700	  558.00	  552.88	-1733.13	  441.39
     20.6700	  542.00	  552.66	-1748.91	  441.15
     20.7700	  533.00	  552.43	-1757.68	  440.90
     20.8700	  579.00	  552.20	-1711.45	  440.65
     20.9700	  552.00	  551.97	-1738.22	  440.40
     21.0700	  549.00	  551.74	-1740.99	  440.15
     21.1700	  512.00	  551.50	-1777.75	  439.89
     21.2700	  517.00	  551.27	-1772.52	  439.63
     21.3700	  562.00	  551.03	-1727.28	  439.36
     21.4700	  521.00	  550.80	-1768.05	  439.10
     21.5700	  548.00	  550.56	-1740.81	  438.83
     21.6700	  576.00	  550.33	-1712.58	  438.56
     21.7700	  552.00	  550.09	-1736.34	  438.28
     21.8700	  569.00	  549.86	-1719.11	  438.01
     21.9700	  541.00	  549.62	-1746.87	  437.73
     22.0700	  543.00	  549.39	-1744.64	  437.45
     22.1700	  551.00	  549.16	-1736.41	  437.16
     22.2700	  546.00	  548.94	-1741.19	  436.88
     22.3700	  524.00	  548.71	-1762.96	  436.59
     22.4700	  530.00	  548.65	-1756.90	  436.30
     22.5700	  527.00	  548.44	-1759.69	  436.01
     22.6700	  557.00	  548.24	-1729.49	  435.71
     22.7700	  537.00	  548.00	-1749.25	  435.41
     22.8700	  538.00	  547.82	-1748.07	  435.12
     22.9700	  546.00	  547.66	-1739.91	  434.82
     23.0700	  519.00	  547.51	-1766.76	  434.51
     23.1700	  562.00	  547.39	-1723.64	  434.21
     23.2700	  516.00	  547.30	-1769.55	  433.90
     23.3700	  565.00	  547.24	-1720.49	  433.59
     23.4700	  548.00	  547.24	-1737.49	  433.28
     23.5700	  555.00	  547.31	-1730.56	  432.97
     23.6700	  563.00	  547.48	-1722.73	  432.66
     23.7700	  537.00	  547.81	-1749.06	  432.34
     23.8700	  560.00	  548.41	-1726.66	  432.02
     23.9700	  553.00	  549.45	-1734.70	  431.71
     24.0700	  568.00	  551.26	-1721.51	  431.38
     24.1700	  536.00	  554.28	-1756.53	  431.06
     24.2700	  527.00	  559.09	-1770.34	  430.74
     24.3700	  561.00	  566.25	-1743.50	  430.41
     24.4700	  599.00	  576.05	-1715.30	  430.09
     24.5700	  565.00	  588.12	-1761.37	  429.76
     24.6700	  611.00	  600.76	-1728.01	  429.43
     24.7700	  654.00	  610.37	-1694.62	  429.10
     24.8700	  646.00	  611.72	-1703.97	  428.77
     24.9700	  585.00	  602.11	-1755.36	  428.44
     25.0700	  613.00	  586.32	-1711.57	  428.10
     25.1700	  544.00	  571.29	-1765.54	  427.77
     25.2700	  557.00	  560.12	-1741.37	  427.43
     25.3700	  604.00	  552.92	-1687.17	  427.09
     25.4700	  560.00	  548.65	-1726.90	  426.76
     25.5700	  552.00	  546.16	-1732.41	  426.42
     25.6700	  515.00	  544.63	-1767.88	  426.07
     25.7700	  566.00	  543.61	-1715.86	  425.73
     25.8700	  556.00	  542.87	-1725.12	  425.39
     25.9700	  590.00	  542.31	-1690.56	  425.05
     26.0700	  574.00	  541.89	-1706.14	  424.70
     26.1700	  590.00	  541.59	-1689.84	  424.36
     26.2700	  546.00	  541.39	-1733.64	  424.01
     26.3700	  583.00	  541.29	-1696.54	  423.66
     26.4700	  562.00	  541.29	-1717.54	  423.32
     26.5700	  544.00	  541.40	-1735.65	  422.97
     26.6700	  596.00	  541.64	-1683.89	  422.62
     26.7700	  562.00	  542.02	-1718.27	  422.27
     26.8700	  562.00	  542.57	-1718.82	  421.92
     26.9700	  575.00	  543.35	-1706.60	  421.57
     27.0700	  572.00	  544.42	-1710.67	  421.22
     27.1700	  546.00	  545.91	-1738.16	  420.87
     27.2700	  563.00	  548.02	-1723.27	  420.51
     27.3700	  576.00	  551.17	-1713.42	  420.16
     27.4700	  562.00	  556.15	-1732.40	  419.81
     27.5700	  572.00	  564.38	-1730.63	  419.45
     27.6700	  592.00	  578.19	-1724.44	  419.10
     27.7700	  578.00	  600.68	-1760.93	  418.75
     27.8700	  622.00	  634.92	-1751.17	  418.39
     27.9700	  677.00	  681.87	-1743.12	  418.04
     28.0700	  738.00	  737.80	-1738.05	  417.68
     28.1700	  810.00	  791.71	-1719.96	  417.33
     28.2700	  891.00	  824.82	-1672.07	  416.97
     28.3700	  901.00	  820.16	-1657.41	  416.61
     28.4700	  841.00	  786.93	-1684.18	  416.26
     28.5700	  787.00	  757.12	-1708.37	  415.90
     28.6700	  752.00	  751.36	-1737.61	  415.55
     28.7700	  756.00	  770.06	-1752.31	  415.19
     28.8700	  791.00	  798.58	-1745.83	  414.83
     28.9700	  824.00	  812.45	-1726.70	  414.48
     29.0700	  827.00	  789.58	-1700.83	  414.12
     29.1700	  711.00	  733.78	-1761.03	  413.76
     29.2700	  665.00	  671.34	-1744.59	  413.41
     29.3700	  622.00	  620.77	-1737.02	  413.05
     29.4700	  624.00	  586.66	-1700.91	  412.70
     29.5700	  548.00	  566.18	-1756.43	  412.34
     29.6700	  657.00	  554.65	-1635.90	  411.99
     29.7700	  598.00	  548.07	-1688.32	  411.63
     29.8700	  543.00	  544.06	-1739.31	  411.27
     29.9700	  619.00	  541.50	-1660.75	  410.92
     30.0700	  608.00	  539.94	-1670.19	  410.56
     30.1700	  567.00	  539.38	-1710.62	  410.21
     30.2700	  591.00	  540.07	-1687.32	  409.86
     30.3700	  557.00	  542.65	-1723.90	  409.50
     30.4700	  606.00	  548.04	-1680.29	  409.15
     30.5700	  547.00	  557.22	-1748.47	  408.80
     30.6700	  550.00	  570.51	-1758.76	  408.44
     30.7700	  572.00	  586.66	-1752.91	  408.09
     30.8700	  623.00	  602.08	-1717.33	  407.74
     30.9700	  582.00	  610.75	-1767.00	  407.39
     31.0700	  598.00	  606.70	-1746.95	  407.04
     31.1700	  586.00	  590.77	-1743.02	  406.69
     31.2700	  546.00	  571.06	-1763.31	  406.34
     31.3700	  543.00	  554.16	-1749.41	  405.99
     31.4700	  567.00	  542.18	-1713.43	  405.64
     31.5700	  509.00	  534.71	-1763.96	  405.29
     31.6700	  518.00	  530.39	-1750.64	  404.95
     31.7700	  562.00	  527.91	-1704.16	  404.60
     31.8700	  510.00	  526.41	-1754.66	  404.25
     31.9700	  524.00	  525.44	-1739.69	  403.91
     32.0700	  547.00	  524.79	-1716.04	  403.56
     32.1700	  553.00	  524.38	-1709.63	  403.22
     32.2700	  538.00	  524.17	-1724.42	  402.88
     32.3700	  522.00	  524.16	-1740.41	  402.54
     32.4700	  542.00	  524.34	-1720.59	  402.19
     32.5700	  524.00	  524.75	-1739.00	  401.85
     32.6700	  548.00	  525.42	-1715.67	  401.51
     32.7700	  560.00	  526.39	-1704.64	  401.18
     32.8700	  563.00	  527.77	-1703.02	  400.84
     32.9700	  523.00	  529.70	-1744.95	  400.50
     33.0700	  568.00	  532.43	-1702.68	  400.16
     33.1700	  561.00	  536.47	-1713.72	  399.83
     33.2700	  532.00	  542.83	-1749.08	  399.49
     33.3700	  571.00	  553.46	-1720.71	  399.16
     33.4700	  548.00	  571.72	-1761.97	  398.83
     33.5700	  636.00	  602.49	-1704.74	  398.50
     33.6700	  628.00	  651.16	-1761.41	  398.17
     33.7700	  683.00	  720.49	-1775.74	  397.84
     33.8700	  825.00	  805.62	-1718.87	  397.51
     33.9700	  987.00	  890.15	-1641.40	  397.18
     34.0700	 1036.00	  945.48	-1647.73	  396.86
     34.1700	 1001.00	  941.16	-1678.41	  396.53
     34.2700	  947.00	  874.37	-1665.62	  396.21
     34.3700	  824.00	  779.67	-1693.92	  395.89
     34.4700	  691.00	  691.81	-1739.06	  395.56
     34.5700	  612.00	  625.73	-1751.98	  395.24
     34.6700	  652.00	  582.38	-1668.63	  394.92
     34.7700	  561.00	  556.47	-1733.72	  394.61
     34.8700	  552.00	  541.59	-1727.84	  394.29
     34.9700	  572.00	  532.77	-1699.02	  393.97
     35.0700	  505.00	  527.07	-1760.32	  393.66
     35.1700	  532.00	  523.01	-1729.26	  393.35
     35.2700	  508.00	  519.90	-1750.15	  393.04
     35.3700	  517.00	  517.41	-1738.66	  392.72
     35.4700	  516.00	  515.37	-1737.62	  392.42
     35.5700	  500.00	  513.65	-1751.90	  392.11
     35.6700	  550.00	  512.20	-1700.45	  391.80
     35.7700	  447.00	  511.38	-1802.63	  391.50
     35.8700	  483.00	  510.30	-1765.55	  391.19
     35.9700	  500.00	  509.34	-1747.59	  390.89
     36.0700	  519.00	  508.49	-1727.74	  390.59
     36.1700	  505.00	  507.73	-1740.98	  390.29
     36.2700	  475.00	  507.04	-1770.29	  389.99
     36.3700	  532.00	  506.43	-1712.68	  389.69
     36.4700	  475.00	  505.87	-1769.12	  389.40
     36.5700	  497.00	  505.38	-1746.63	  389.11
     36.6700	  482.00	  504.95	-1761.20	  388.81
     36.7700	  517.00	  504.60	-1725.85	  388.52
     36.8700	  512.00	  504.34	-1730.59	  388.23
     36.9700	  509.00	  504.25	-1733.50	  387.94
     37.0700	  524.00	  504.42	-1718.67	  387.66
     37.1700	  494.00	  505.01	-1749.26	  387.37
     37.2700	  483.00	  506.22	-1761.47	  387.09
     37.3700	  494.00	  508.23	-1752.48	  386.81
     37.4700	  522.00	  511.02	-1727.27	  386.53
     37.5700	  494.00	  514.22	-1758.47	  386.25
     37.6700	  507.00	  516.99	-1748.24	  385.97
     37.7700	  495.00	  518.30	-1761.55	  385.70
     37.8700	  519.00	  516.93	-1736.18	  385.42
     37.9700	  526.00	  513.55	-1725.80	  385.15
     38.0700	  492.00	  509.54	-1755.79	  384.88
     38.1700	  460.00	  505.92	-1784.17	  384.61
     38.2700	  498.00	  503.11	-1743.36	  384.34
     38.3700	  542.00	  501.11	-1697.36	  384.08
     38.4700	  488.00	  499.75	-1750.00	  383.81
     38.5700	  500.00	  498.83	-1737.08	  383.55
     38.6700	  501.00	  498.17	-1735.42	  383.29
     38.7700	  522.00	  497.66	-1713.91	  383.03
     38.8700	  489.00	  497.23	-1746.48	  382.77
     38.9700	  473.00	  496.85	-1762.10	  382.51
     39.0700	  486.00	  496.41	-1748.66	  382.26
     39.1700	  465.00	  496.09	-1769.34	  382.01
     39.2700	  470.00	  495.79	-1764.04	  381.76
     39.3700	  488.00	  495.51	-1745.76	  381.51
     39.4700	  465.00	  495.25	-1768.50	  381.26
     39.5700	  522.00	  495.00	-1711.25	  381.02
     39.6700	  467.00	  494.77	-1766.02	  380.77
     39.7700	  458.00	  494.55	-1774.80	  380.53
     39.8700	  473.00	  494.34	-1759.59	  380.29
     39.9700	  520.00	  494.05	-1712.30	  380.05
     40.0700	  465.00	  493.87	-1767.12	  379.81
     40.1700	  499.00	  493.70	-1732.95	  379.58
     40.2700	  501.00	  493.55	-1730.80	  379.35
     40.3700	  515.00	  493.41	-1716.66	  379.11
     40.4700	  481.00	  493.81	-1751.06	  378.88
     40.5700	  462.00	  493.72	-1769.97	  378.66
     40.6700	  474.00	  493.65	-1757.90	  378.43
     40.7700	  521.00	  493.60	-1710.85	  378.21
