MSG Master    CELL:    5.91687   5.91687  23.26666   90.0000   90.0000  120.0000   SPGR: P 63/m m c             TEMP:   1027.85
  1   1280     2.52000     0.00000    -0.12796     0.00000     0.00000    0
    99     0     2
       0.00000      10.00000
     125.00000     130.00000
 2Theta	Yobs	Ycal	Yobs-Ycal	Backg	Posr	(hkl)	K
      0.7700	    0.00	  526.41	-1720.21	  410.61
      0.8700	    0.00	  527.37	-1720.21	  411.56
      0.9700	   40.00	  528.31	-1720.21	  412.50
      1.0700	   49.00	  529.23	-1720.21	  413.43
      1.1700	   42.00	  530.15	-1720.21	  414.34
      1.2700	   45.00	  531.05	-1720.21	  415.24
      1.3700	   47.00	  531.94	-1720.21	  416.13
      1.4700	   98.00	  532.82	-1720.21	  417.01
      1.5700	  301.00	  533.68	-1720.21	  417.87
      1.6700	  506.00	  534.53	-1720.21	  418.72
      1.7700	  583.00	  535.37	-1720.21	  419.56
      1.8700	  647.00	  536.20	-1720.21	  420.39
      1.9700	  745.00	  537.01	-1720.21	  421.21
      2.0700	  822.00	  537.82	-1720.21	  422.01
      2.1700	  806.00	  538.61	-1720.21	  422.80
      2.2700	  800.00	  539.39	-1720.21	  423.58
      2.3700	  747.00	  540.16	-1720.21	  424.35
      2.4700	  744.00	  540.91	-1720.21	  425.10
      2.5700	  676.00	  541.66	-1720.21	  425.85
      2.6700	  667.00	  542.39	-1720.21	  426.58
      2.7700	  642.00	  543.11	-1720.21	  427.30
      2.8700	  652.00	  543.82	-1720.21	  428.01
      2.9700	  653.00	  544.52	-1720.21	  428.71
      3.0700	  600.00	  545.20	-1720.21	  429.40
      3.1700	  587.00	  545.88	-1720.21	  430.07
      3.2700	  650.00	  546.55	-1720.21	  430.74
      3.3700	  704.00	  547.20	-1720.21	  431.39
      3.4700	  804.00	  547.84	-1720.21	  432.03
      3.5700	  875.00	  548.47	-1720.21	  432.67
      3.6700	  879.00	  549.10	-1720.21	  433.29
      3.7700	  943.00	  549.71	-1720.21	  433.90
      3.8700	  989.00	  550.31	-1720.21	  434.50
      3.9700	 1089.00	  550.90	-1720.21	  435.09
      4.0700	 1129.00	  551.47	-1720.21	  435.67
      4.1700	 1120.00	  552.04	-1720.21	  436.24
      4.2700	 1165.00	  552.60	-1720.21	  436.79
      4.3700	 1160.00	  553.15	-1720.21	  437.34
      4.4700	 1109.00	  553.69	-1720.21	  437.88
      4.5700	 1086.00	  554.21	-1720.21	  438.41
      4.6700	  964.00	  554.73	-1720.21	  438.92
      4.7700	 1064.00	  555.24	-1720.21	  439.43
      4.8700	 1048.00	  555.74	-1720.21	  439.93
      4.9700	  950.00	  556.23	-1720.21	  440.42
      5.0700	 1008.00	  556.70	-1720.21	  440.90
      5.1700	  969.00	  557.17	-1720.21	  441.37
      5.2700	  929.00	  557.63	-1720.21	  441.82
      5.3700	  891.00	  558.08	-1720.21	  442.27
      5.4700	  848.00	  558.52	-1720.21	  442.71
      5.5700	  870.00	  558.95	-1720.21	  443.15
      5.6700	  869.00	  559.37	-1720.21	  443.57
      5.7700	  901.00	  559.79	-1720.21	  443.98
      5.8700	  818.00	  560.19	-1720.21	  444.38
      5.9700	  882.00	  560.58	-1720.21	  444.78
      6.0700	  777.00	  560.97	-1720.21	  445.16
      6.1700	  819.00	  561.34	-1720.21	  445.54
      6.2700	  809.00	  561.71	-1720.21	  445.90
      6.3700	  755.00	  562.07	-1720.21	  446.26
      6.4700	  733.00	  562.42	-1720.21	  446.61
      6.5700	  792.00	  562.76	-1720.21	  446.95
      6.6700	  740.00	  563.09	-1720.21	  447.29
      6.7700	  737.00	  563.42	-1720.21	  447.61
      6.8700	  688.00	  563.73	-1720.21	  447.93
      6.9700	  701.00	  564.04	-1720.21	  448.23
      7.0700	  724.00	  564.34	-1720.21	  448.53
      7.1700	  758.00	  564.63	-1720.21	  448.82
      7.2700	  681.00	  564.91	-1720.21	  449.11
      7.3700	  679.00	  565.19	-1720.21	  449.38
      7.4700	  661.00	  565.45	-1720.21	  449.65
      7.5700	  678.00	  565.71	-1720.21	  449.90
      7.6700	  678.00	  565.96	-1720.21	  450.15
      7.7700	  654.00	  566.20	-1720.21	  450.40
      7.8700	  653.00	  566.44	-1720.21	  450.63
      7.9700	  619.00	  566.67	-1720.21	  450.86
      8.0700	  622.00	  566.89	-1720.21	  451.08
      8.1700	  622.00	  567.10	-1720.21	  451.29
      8.2700	  655.00	  567.30	-1720.21	  451.49
      8.3700	  640.00	  567.50	-1720.21	  451.69
      8.4700	  587.00	  567.69	-1720.21	  451.88
      8.5700	  639.00	  567.87	-1720.21	  452.06
      8.6700	  683.00	  568.04	-1720.21	  452.24
      8.7700	  632.00	  568.21	-1720.21	  452.40
      8.8700	  621.00	  568.37	-1720.21	  452.56
      8.9700	  599.00	  568.53	-1720.21	  452.72
      9.0700	  610.00	  568.67	-1720.21	  452.86
      9.1700	  666.00	  568.81	-1720.21	  453.00
      9.2700	  619.00	  568.94	-1720.21	  453.14
      9.3700	  611.00	  569.07	-1720.21	  453.26
      9.4700	  652.00	  569.19	-1720.21	  453.38
      9.5700	  597.00	  569.30	-1720.21	  453.49
      9.6700	  603.00	  569.41	-1720.21	  453.60
      9.7700	  642.00	  569.50	-1720.21	  453.70
      9.8700	  541.00	  569.60	-1720.21	  453.79
      9.9700	  600.00	  569.68	-1720.21	  453.88
     10.0700	  603.00	  571.06	-1688.27	  453.96
     10.1700	  656.00	  571.28	-1635.49	  454.03
     10.2700	  531.00	  571.53	-1760.74	  454.10
     10.3700	  571.00	  571.83	-1721.03	  454.16
     10.4700	  604.00	  572.20	-1688.41	  454.21
     10.5700	  613.00	  572.72	-1679.93	  454.26
     10.6700	  599.00	  573.48	-1694.69	  454.30
     10.7700	  602.00	  574.56	-1692.77	  454.34
     10.8700	  597.00	  576.05	-1699.26	  454.37
     10.9700	  597.00	  577.94	-1701.15	  454.39
     11.0700	  597.00	  580.23	-1703.43	  454.41
     11.1700	  570.00	  582.91	-1733.12	  454.42
     11.2700	  548.00	  586.04	-1758.25	  454.43
     11.3700	  614.00	  589.70	-1695.90	  454.43
     11.4700	  539.00	  594.02	-1775.23	  454.43
     11.5700	  566.00	  599.25	-1753.45	  454.42
     11.6700	  627.00	  605.74	-1698.95	  454.40
     11.7700	  629.00	  614.04	-1705.25	  454.38
     11.8700	  637.00	  624.67	-1707.88	  454.36
     11.9700	  653.00	  637.50	-1704.71	  454.33
     12.0700	  621.00	  650.49	-1749.70	  454.29
     12.1700	  685.00	  658.64	-1693.85	  454.25
     12.2700	  654.00	  654.90	-1721.11	  454.20
     12.3700	  634.00	  637.41	-1723.62	  454.15
     12.4700	  586.00	  615.39	-1749.59	  454.09
     12.5700	  626.00	  597.67	-1691.87	  454.03
     12.6700	  591.00	  586.37	-1715.58	  453.96
     12.7700	  610.00	  580.12	-1690.33	  453.89
     12.8700	  558.00	  576.84	-1739.04	  453.81
     12.9700	  561.00	  574.99	-1734.20	  453.73
     13.0700	  611.00	  573.81	-1683.02	  453.64
     13.1700	  565.00	  572.95	-1728.16	  453.55
     13.2700	  612.00	  572.29	-1680.50	  453.46
     13.3700	  567.00	  571.76	-1724.96	  453.36
     13.4700	  524.00	  571.31	-1767.52	  453.25
     13.5700	  558.00	  570.92	-1733.13	  453.14
     13.6700	  572.00	  570.59	-1718.79	  453.03
     13.7700	  569.00	  570.28	-1721.49	  452.91
     13.8700	  562.00	  570.01	-1728.22	  452.79
     13.9700	  552.00	  569.75	-1737.96	  452.66
     14.0700	  603.00	  569.51	-1686.72	  452.53
     14.1700	  561.00	  569.28	-1728.49	  452.40
     14.2700	  587.00	  569.06	-1702.27	  452.26
     14.3700	  577.00	  568.85	-1712.06	  452.11
     14.4700	  536.00	  568.64	-1752.85	  451.97
     14.5700	  540.00	  568.43	-1748.64	  451.82
     14.6700	  592.00	  568.23	-1696.44	  451.66
     14.7700	  559.00	  568.03	-1729.23	  451.50
     14.8700	  562.00	  567.85	-1726.06	  451.34
     14.9700	  581.00	  567.65	-1706.86	  451.17
     15.0700	  521.00	  567.45	-1766.66	  451.00
     15.1700	  553.00	  567.25	-1734.46	  450.83
     15.2700	  588.00	  567.05	-1699.26	  450.65
     15.3700	  509.00	  566.84	-1778.05	  450.47
     15.4700	  541.00	  566.64	-1745.85	  450.28
     15.5700	  549.00	  566.43	-1737.64	  450.09
     15.6700	  567.00	  566.22	-1719.43	  449.90
     15.7700	  569.00	  566.01	-1717.22	  449.70
     15.8700	  565.00	  565.80	-1721.01	  449.51
     15.9700	  536.00	  565.58	-1749.79	  449.30
     16.0700	  540.00	  565.37	-1745.57	  449.10
     16.1700	  549.00	  565.15	-1736.36	  448.89
     16.2700	  560.00	  564.92	-1725.13	  448.68
     16.3700	  569.00	  564.70	-1715.91	  448.46
     16.4700	  528.00	  564.47	-1756.68	  448.24
     16.5700	  550.00	  564.24	-1734.45	  448.02
     16.6700	  539.00	  564.01	-1745.22	  447.80
     16.7700	  560.00	  563.78	-1723.99	  447.57
     16.8700	  604.00	  563.54	-1679.75	  447.34
     16.9700	  564.00	  563.30	-1719.51	  447.11
     17.0700	  570.00	  563.06	-1713.27	  446.87
     17.1700	  548.00	  562.82	-1735.03	  446.63
     17.2700	  560.00	  562.57	-1722.78	  446.39
     17.3700	  597.00	  562.33	-1685.53	  446.15
     17.4700	  572.00	  562.07	-1710.28	  445.90
     17.5700	  537.00	  561.82	-1745.03	  445.65
     17.6700	  542.00	  561.57	-1739.78	  445.40
     17.7700	  558.00	  561.31	-1723.52	  445.14
     17.8700	  526.00	  561.05	-1755.26	  444.88
     17.9700	  553.00	  560.90	-1728.10	  444.63
     18.0700	  542.00	  560.63	-1738.84	  444.36
     18.1700	  600.00	  560.37	-1680.58	  444.10
     18.2700	  514.00	  560.10	-1766.31	  443.83
     18.3700	  573.00	  559.84	-1707.04	  443.56
     18.4700	  541.00	  559.57	-1738.77	  443.29
     18.5700	  562.00	  559.29	-1717.50	  443.02
     18.6700	  583.00	  559.10	-1696.31	  442.74
     18.7700	  595.00	  558.83	-1684.04	  442.46
     18.8700	  545.00	  558.55	-1733.76	  442.18
     18.9700	  541.00	  558.28	-1737.48	  441.90
     19.0700	  569.00	  558.00	-1709.21	  441.61
     19.1700	  569.00	  557.72	-1708.92	  441.33
     19.2700	  559.00	  557.43	-1718.64	  441.04
     19.3700	  559.00	  557.15	-1718.36	  440.75
     19.4700	  559.00	  556.87	-1718.07	  440.46
     19.5700	  546.00	  556.58	-1730.79	  440.16
     19.6700	  521.00	  556.29	-1755.50	  439.87
     19.7700	  576.00	  556.00	-1700.21	  439.57
     19.8700	  539.00	  555.71	-1736.92	  439.27
     19.9700	  544.00	  555.42	-1731.63	  438.97
     20.0700	  547.00	  555.13	-1728.34	  438.66
     20.1700	  546.00	  554.83	-1729.04	  438.36
     20.2700	  535.00	  554.54	-1739.75	  438.05
     20.3700	  564.00	  554.28	-1710.49	  437.74
     20.4700	  599.00	  553.98	-1675.19	  437.43
     20.5700	  544.00	  553.69	-1729.90	  437.12
     20.6700	  577.00	  553.39	-1696.60	  436.81
     20.7700	  528.00	  553.10	-1745.30	  436.50
     20.8700	  526.00	  552.80	-1747.01	  436.18
     20.9700	  541.00	  552.50	-1731.71	  435.87
     21.0700	  532.00	  552.20	-1740.41	  435.55
     21.1700	  540.00	  551.91	-1732.11	  435.23
     21.2700	  523.00	  551.61	-1748.82	  434.91
     21.3700	  560.00	  551.31	-1711.52	  434.59
     21.4700	  527.00	  551.02	-1744.22	  434.26
     21.5700	  520.00	  550.72	-1750.93	  433.94
     21.6700	  607.00	  550.43	-1663.63	  433.61
     21.7700	  573.00	  550.13	-1697.34	  433.29
     21.8700	  587.00	  549.84	-1683.05	  432.96
     21.9700	  540.00	  549.51	-1729.72	  432.63
     22.0700	  574.00	  549.23	-1695.43	  432.30
     22.1700	  566.00	  548.94	-1703.15	  431.97
     22.2700	  535.00	  548.66	-1733.87	  431.64
     22.3700	  580.00	  548.39	-1688.60	  431.31
     22.4700	  569.00	  548.12	-1699.33	  430.97
     22.5700	  538.00	  547.86	-1730.07	  430.64
     22.6700	  526.00	  547.60	-1741.81	  430.30
     22.7700	  553.00	  547.36	-1714.56	  429.97
     22.8700	  576.00	  547.12	-1691.33	  429.63
     22.9700	  530.00	  546.90	-1737.11	  429.29
     23.0700	  524.00	  546.85	-1743.06	  428.96
     23.1700	  530.00	  546.67	-1736.88	  428.62
     23.2700	  562.00	  546.52	-1704.73	  428.28
     23.3700	  548.00	  546.41	-1718.61	  427.94
     23.4700	  528.00	  546.34	-1738.55	  427.60
     23.5700	  539.00	  546.34	-1727.55	  427.26
     23.6700	  556.00	  546.44	-1710.64	  426.92
     23.7700	  543.00	  546.69	-1723.90	  426.57
     23.8700	  576.00	  547.21	-1691.42	  426.23
     23.9700	  565.00	  548.22	-1703.43	  425.89
     24.0700	  550.00	  550.09	-1720.30	  425.54
     24.1700	  515.00	  553.36	-1758.57	  425.20
     24.2700	  544.00	  558.72	-1734.93	  424.86
     24.3700	  549.00	  566.84	-1738.05	  424.51
     24.4700	  578.00	  578.15	-1720.36	  424.17
     24.5700	  566.00	  592.17	-1746.38	  423.82
     24.6700	  585.00	  606.48	-1741.69	  423.48
     24.7700	  626.00	  615.92	-1710.13	  423.13
     24.8700	  620.00	  613.91	-1714.12	  422.78
     24.9700	  626.00	  599.37	-1693.58	  422.44
     25.0700	  598.00	  580.55	-1702.75	  422.09
     25.1700	  589.00	  564.90	-1696.11	  421.75
     25.2700	  645.00	  554.54	-1629.75	  421.40
     25.3700	  536.00	  548.59	-1732.80	  421.05
     25.4700	  549.00	  545.38	-1716.59	  420.71
     25.5700	  567.00	  543.58	-1696.79	  420.36
     25.6700	  564.00	  542.45	-1698.65	  420.01
     25.7700	  556.00	  541.64	-1705.85	  419.67
     25.8700	  561.00	  541.04	-1700.25	  419.32
     25.9700	  595.00	  540.59	-1665.79	  418.97
     26.0700	  555.00	  540.25	-1705.45	  418.63
     26.1700	  550.00	  540.00	-1710.21	  418.28
     26.2700	  585.00	  539.84	-1675.05	  417.94
     26.3700	  543.00	  539.78	-1716.98	  417.59
     26.4700	  531.00	  539.80	-1729.01	  417.24
     26.5700	  523.00	  539.93	-1737.14	  416.90
     26.6700	  523.00	  540.19	-1737.39	  416.55
     26.7700	  590.00	  540.58	-1670.79	  416.21
     26.8700	  530.00	  541.16	-1731.37	  415.86
     26.9700	  563.00	  541.97	-1699.18	  415.52
     27.0700	  532.00	  543.09	-1731.30	  415.18
     27.1700	  573.00	  544.64	-1691.85	  414.83
     27.2700	  541.00	  546.89	-1726.10	  414.49
     27.3700	  525.00	  550.32	-1745.53	  414.15
     27.4700	  580.00	  555.90	-1696.11	  413.80
     27.5700	  545.00	  565.40	-1740.61	  413.46
     27.6700	  575.00	  581.61	-1726.82	  413.12
     27.7700	  598.00	  608.27	-1730.47	  412.78
     27.8700	  603.00	  648.74	-1765.95	  412.44
     27.9700	  659.00	  703.60	-1764.81	  412.10
     28.0700	  704.00	  767.14	-1783.35	  411.76
     28.1700	  886.00	  824.28	-1658.49	  411.42
     28.2700	  982.00	  851.26	-1589.47	  411.08
     28.3700	  929.00	  831.44	-1622.65	  410.74
     28.4700	  818.00	  783.52	-1685.73	  410.40
     28.5700	  731.00	  744.77	-1733.98	  410.07
     28.6700	  679.00	  734.07	-1775.28	  409.73
     28.7700	  728.00	  748.77	-1740.98	  409.40
     28.8700	  793.00	  771.44	-1698.65	  409.06
     28.9700	  795.00	  776.82	-1702.03	  408.73
     29.0700	  784.00	  746.89	-1683.09	  408.39
     29.1700	  649.00	  691.98	-1763.19	  408.06
     29.2700	  641.00	  637.17	-1716.38	  407.73
     29.3700	  604.00	  595.99	-1712.20	  407.40
     29.4700	  606.00	  569.98	-1684.19	  407.07
     29.5700	  602.00	  555.30	-1673.51	  406.74
     29.6700	  552.00	  547.34	-1715.54	  406.41
     29.7700	  578.00	  542.82	-1685.02	  406.08
     29.8700	  549.00	  540.04	-1711.25	  405.76
     29.9700	  543.00	  538.30	-1715.51	  405.43
     30.0700	  562.00	  537.42	-1695.63	  405.11
     30.1700	  595.00	  537.55	-1662.76	  404.78
     30.2700	  568.00	  539.10	-1691.31	  404.46
     30.3700	  568.00	  542.99	-1695.20	  404.14
     30.4700	  565.00	  550.54	-1705.75	  403.82
     30.5700	  516.00	  563.05	-1767.26	  403.50
     30.6700	  603.00	  580.78	-1697.99	  403.18
     30.7700	  617.00	  601.61	-1704.81	  402.86
     30.8700	  619.00	  620.07	-1721.28	  402.54
     30.9700	  611.00	  627.71	-1736.92	  402.22
     31.0700	  546.00	  618.01	-1792.22	  401.91
     31.1700	  560.00	  595.45	-1755.66	  401.60
     31.2700	  542.00	  571.33	-1749.54	  401.28
     31.3700	  553.00	  552.44	-1719.65	  400.97
     31.4700	  557.00	  540.13	-1703.34	  400.66
     31.5700	  553.00	  533.04	-1700.25	  400.35
     31.6700	  545.00	  529.19	-1704.40	  400.04
     31.7700	  539.00	  527.04	-1708.25	  399.74
     31.8700	  499.00	  525.73	-1746.94	  399.43
     31.9700	  514.00	  524.86	-1731.06	  399.12
     32.0700	  544.00	  524.26	-1700.47	  398.82
     32.1700	  568.00	  523.89	-1676.10	  398.52
     32.2700	  528.00	  523.71	-1715.92	  398.22
     32.3700	  566.00	  523.70	-1677.91	  397.92
     32.4700	  490.00	  523.89	-1754.10	  397.62
     32.5700	  508.00	  524.29	-1736.50	  397.32
     32.6700	  537.00	  524.93	-1708.14	  397.03
     32.7700	  550.00	  525.87	-1696.08	  396.73
     32.8700	  511.00	  527.21	-1736.41	  396.44
     32.9700	  554.00	  529.08	-1695.28	  396.15
     33.0700	  572.00	  531.75	-1679.96	  395.85
     33.1700	  564.00	  535.79	-1692.00	  395.57
     33.2700	  505.00	  542.37	-1757.58	  395.28
     33.3700	  538.00	  553.82	-1736.03	  394.99
     33.4700	  562.00	  574.32	-1732.53	  394.71
     33.5700	  593.00	  609.97	-1737.18	  394.42
     33.6700	  589.00	  667.24	-1798.44	  394.14
     33.7700	  731.00	  748.34	-1737.55	  393.86
     33.8700	  876.00	  844.84	-1689.05	  393.58
     33.9700	 1037.00	  933.40	-1616.61	  393.30
     34.0700	 1089.00	  977.59	-1608.80	  393.02
     34.1700	  992.00	  947.50	-1675.71	  392.75
     34.2700	  897.00	  856.37	-1679.58	  392.47
     34.3700	  775.00	  750.54	-1695.75	  392.20
     34.4700	  638.00	  662.65	-1744.86	  391.93
     34.5700	  609.00	  602.44	-1713.65	  391.66
     34.6700	  566.00	  566.42	-1720.63	  391.39
     34.7700	  550.00	  546.57	-1716.78	  391.13
     34.8700	  540.00	  535.67	-1715.88	  390.86
     34.9700	  560.00	  529.16	-1689.37	  390.60
     35.0700	  563.00	  524.81	-1682.02	  390.34
     35.1700	  483.00	  521.61	-1758.82	  390.08
     35.2700	  528.00	  519.10	-1711.31	  389.82
     35.3700	  493.00	  517.08	-1744.29	  389.56
     35.4700	  529.00	  515.41	-1706.62	  389.31
     35.5700	  549.00	  514.00	-1685.21	  389.05
     35.6700	  546.00	  512.81	-1687.02	  388.80
     35.7700	  505.00	  511.77	-1726.98	  388.55
     35.8700	  542.00	  510.87	-1689.08	  388.30
     35.9700	  518.00	  510.53	-1712.74	  388.05
     36.0700	  539.00	  509.83	-1691.03	  387.81
     36.1700	  469.00	  509.20	-1760.41	  387.56
     36.2700	  504.00	  508.64	-1724.85	  387.32
     36.3700	  524.00	  508.13	-1704.34	  387.08
     36.4700	  485.00	  507.69	-1742.89	  386.84
     36.5700	  535.00	  507.29	-1692.50	  386.60
     36.6700	  534.00	  506.96	-1693.17	  386.37
     36.7700	  481.00	  506.70	-1745.91	  386.13
     36.8700	  481.00	  506.53	-1745.74	  385.90
     36.9700	  519.00	  506.55	-1707.76	  385.67
     37.0700	  543.00	  506.88	-1684.09	  385.44
     37.1700	  495.00	  507.74	-1732.95	  385.21
     37.2700	  546.00	  509.41	-1683.62	  384.99
     37.3700	  551.00	  512.07	-1681.28	  384.76
     37.4700	  522.00	  515.59	-1713.80	  384.54
     37.5700	  498.00	  519.30	-1741.51	  384.32
     37.6700	  494.00	  521.96	-1748.17	  384.10
     37.7700	  558.00	  522.16	-1684.37	  383.89
     37.8700	  510.00	  519.52	-1729.73	  383.67
     37.9700	  493.00	  515.37	-1742.57	  383.46
     38.0700	  484.00	  511.20	-1747.41	  383.25
     38.1700	  493.00	  507.78	-1734.99	  383.04
     38.2700	  506.00	  505.29	-1719.50	  382.83
     38.3700	  467.00	  503.62	-1756.83	  382.62
     38.4700	  473.00	  502.70	-1749.90	  382.42
     38.5700	  453.00	  501.97	-1769.18	  382.21
     38.6700	  523.00	  501.45	-1698.66	  382.01
     38.7700	  537.00	  500.95	-1684.16	  381.81
     38.8700	  559.00	  500.61	-1661.82	  381.62
     38.9700	  517.00	  500.32	-1703.53	  381.42
     39.0700	  480.00	  500.06	-1740.27	  381.23
     39.1700	  469.00	  499.82	-1751.03	  381.03
     39.2700	  499.00	  499.59	-1720.80	  380.84
     39.3700	  520.00	  499.38	-1699.59	  380.66
     39.4700	  553.00	  499.19	-1666.40	  380.47
     39.5700	  557.00	  498.93	-1662.14	  380.29
     39.6700	  508.00	  498.76	-1710.97	  380.10
     39.7700	  525.00	  498.60	-1693.81	  379.92
     39.8700	  545.00	  498.45	-1673.66	  379.74
     39.9700	  479.00	  498.31	-1739.52	  379.56
     40.0700	  455.00	  498.19	-1763.40	  379.39
     40.1700	  486.00	  498.08	-1732.28	  379.22
     40.2700	  512.00	  497.98	-1706.18	  379.04
     40.3700	  495.00	  497.89	-1723.10	  378.87
     40.4700	  472.00	  497.82	-1746.03	  378.71
     40.5700	  501.00	  497.77	-1716.98	  378.54
     40.6700	  476.00	  497.73	-1741.94	  378.37
     40.7700	  453.00	  497.73	-1764.93	  378.21
