MSG Master    CELL:    5.87955   5.87955  23.09595   90.0000   90.0000  120.0000   SPGR: P 63/m m c             TEMP:    506.85
  2   1280     2.52000     0.00000    -0.08456     0.00000     0.00000    0
    96    96     0     0     2
       0.00000      10.00000
     125.00000     130.00000
 2Theta	Yobs	Ycal	Yobs-Ycal	Backg	Posr	(hkl)	K
      0.7700	    0.00	  897.25	-2110.25	  761.80
      0.8700	    0.00	  894.69	-2110.25	  759.25
      0.9700	   45.00	  892.15	-2110.25	  756.71
      1.0700	   45.00	  889.63	-2110.25	  754.18
      1.1700	   50.00	  887.12	-2110.25	  751.67
      1.2700	   55.00	  884.62	-2110.25	  749.18
      1.3700	   40.00	  882.14	-2110.25	  746.70
      1.4700	  104.00	  879.68	-2110.25	  744.23
      1.5700	  289.00	  877.23	-2110.25	  741.78
      1.6700	  459.00	  874.79	-2110.25	  739.35
      1.7700	  545.00	  872.37	-2110.25	  736.92
      1.8700	  718.00	  869.96	-2110.25	  734.52
      1.9700	  686.00	  867.57	-2110.25	  732.12
      2.0700	  748.00	  865.19	-2110.25	  729.75
      2.1700	  728.00	  862.83	-2110.25	  727.38
      2.2700	  814.00	  860.48	-2110.25	  725.03
      2.3700	  729.00	  858.14	-2110.25	  722.70
      2.4700	  716.00	  855.82	-2110.25	  720.38
      2.5700	  641.00	  853.51	-2110.25	  718.07
      2.6700	  699.00	  851.22	-2110.25	  715.78
      2.7700	  608.00	  848.94	-2110.25	  713.50
      2.8700	  626.00	  846.68	-2110.25	  711.23
      2.9700	  649.00	  844.42	-2110.25	  708.98
      3.0700	  615.00	  842.19	-2110.25	  706.74
      3.1700	  613.00	  839.96	-2110.25	  704.52
      3.2700	  773.00	  837.75	-2110.25	  702.31
      3.3700	  916.00	  835.56	-2110.25	  700.11
      3.4700	 1037.00	  833.38	-2110.25	  697.93
      3.5700	 1158.00	  831.21	-2110.25	  695.76
      3.6700	 1368.00	  829.05	-2110.25	  693.61
      3.7700	 1423.00	  826.91	-2110.25	  691.46
      3.8700	 1435.00	  824.78	-2110.25	  689.33
      3.9700	 1511.00	  822.66	-2110.25	  687.22
      4.0700	 1595.00	  820.56	-2110.25	  685.12
      4.1700	 1699.00	  818.47	-2110.25	  683.03
      4.2700	 1708.00	  816.40	-2110.25	  680.95
      4.3700	 1627.00	  814.33	-2110.25	  678.89
      4.4700	 1632.00	  812.29	-2110.25	  676.84
      4.5700	 1582.00	  810.25	-2110.25	  674.80
      4.6700	 1543.00	  808.23	-2110.25	  672.78
      4.7700	 1510.00	  806.21	-2110.25	  670.77
      4.8700	 1419.00	  804.22	-2110.25	  668.77
      4.9700	 1368.00	  802.23	-2110.25	  666.79
      5.0700	 1413.00	  800.26	-2110.25	  664.81
      5.1700	 1281.00	  798.30	-2110.25	  662.85
      5.2700	 1280.00	  796.35	-2110.25	  660.91
      5.3700	 1311.00	  794.42	-2110.25	  658.97
      5.4700	 1222.00	  792.50	-2110.25	  657.05
      5.5700	 1212.00	  790.59	-2110.25	  655.14
      5.6700	 1185.00	  788.69	-2110.25	  653.25
      5.7700	 1243.00	  786.81	-2110.25	  651.36
      5.8700	 1126.00	  784.93	-2110.25	  649.49
      5.9700	 1080.00	  783.07	-2110.25	  647.63
      6.0700	 1147.00	  781.23	-2110.25	  645.78
      6.1700	 1062.00	  779.39	-2110.25	  643.95
      6.2700	 1043.00	  777.57	-2110.25	  642.12
      6.3700	 1045.00	  775.76	-2110.25	  640.31
      6.4700	  970.00	  773.96	-2110.25	  638.51
      6.5700	 1009.00	  772.17	-2110.25	  636.72
      6.6700	  894.00	  770.39	-2110.25	  634.95
      6.7700	  984.00	  768.63	-2110.25	  633.18
      6.8700	  930.00	  766.88	-2110.25	  631.43
      6.9700	  958.00	  765.14	-2110.25	  629.69
      7.0700	  886.00	  763.41	-2110.25	  627.96
      7.1700	  920.00	  761.69	-2110.25	  626.25
      7.2700	  878.00	  759.99	-2110.25	  624.54
      7.3700	  845.00	  758.29	-2110.25	  622.85
      7.4700	  831.00	  756.61	-2110.25	  621.17
      7.5700	  880.00	  754.94	-2110.25	  619.50
      7.6700	  798.00	  753.28	-2110.25	  617.84
      7.7700	  797.00	  751.63	-2110.25	  616.19
      7.8700	  778.00	  750.00	-2110.25	  614.55
      7.9700	  820.00	  748.37	-2110.25	  612.93
      8.0700	  851.00	  746.76	-2110.25	  611.31
      8.1700	  844.00	  745.16	-2110.25	  609.71
      8.2700	  806.00	  743.56	-2110.25	  608.12
      8.3700	  819.00	  741.98	-2110.25	  606.54
      8.4700	  747.00	  740.41	-2110.25	  604.97
      8.5700	  756.00	  738.85	-2110.25	  603.41
      8.6700	  820.00	  737.31	-2110.25	  601.86
      8.7700	  813.00	  735.77	-2110.25	  600.32
      8.8700	  803.00	  734.24	-2110.25	  598.80
      8.9700	  760.00	  732.73	-2110.25	  597.28
      9.0700	  754.00	  731.22	-2110.25	  595.78
      9.1700	  777.00	  729.73	-2110.25	  594.28
      9.2700	  804.00	  728.24	-2110.25	  592.80
      9.3700	  730.00	  726.77	-2110.25	  591.33
      9.4700	  720.00	  725.31	-2110.25	  589.86
      9.5700	  770.00	  723.86	-2110.25	  588.41
      9.6700	  765.00	  722.42	-2110.25	  586.97
      9.7700	  757.00	  720.98	-2110.25	  585.54
      9.8700	  695.00	  719.56	-2110.25	  584.12
      9.9700	  731.00	  718.15	-2110.25	  582.71
     10.0700	  763.00	  718.95	-2066.20	  581.31
     10.1700	  680.00	  717.79	-2148.04	  579.92
     10.2700	  712.00	  716.69	-2114.94	  578.54
     10.3700	  715.00	  715.67	-2110.92	  577.17
     10.4700	  703.00	  714.74	-2121.99	  575.81
     10.5700	  721.00	  713.94	-2103.19	  574.46
     10.6700	  732.00	  713.34	-2091.59	  573.12
     10.7700	  713.00	  713.02	-2110.27	  571.79
     10.8700	  737.00	  713.06	-2086.31	  570.47
     10.9700	  752.00	  713.57	-2071.82	  569.16
     11.0700	  713.00	  714.59	-2111.84	  567.86
     11.1700	  725.00	  716.15	-2101.40	  566.57
     11.2700	  744.00	  718.27	-2084.52	  565.29
     11.3700	  691.00	  720.99	-2140.24	  564.01
     11.4700	  735.00	  724.39	-2099.65	  562.75
     11.5700	  732.00	  728.64	-2106.89	  561.50
     11.6700	  772.00	  733.95	-2072.20	  560.26
     11.7700	  757.00	  740.60	-2093.85	  559.02
     11.8700	  751.00	  748.86	-2108.11	  557.80
     11.9700	  773.00	  758.79	-2096.04	  556.59
     12.0700	  830.00	  769.86	-2050.11	  555.38
     12.1700	  841.00	  780.43	-2049.68	  554.18
     12.2700	  859.00	  787.23	-2038.48	  553.00
     12.3700	  828.00	  785.56	-2067.81	  551.82
     12.4700	  820.00	  772.68	-2062.93	  550.65
     12.5700	  758.00	  752.63	-2104.88	  549.49
     12.6700	  702.00	  732.61	-2140.86	  548.34
     12.7700	  688.00	  716.57	-2138.82	  547.20
     12.8700	  679.00	  705.02	-2136.27	  546.07
     12.9700	  677.00	  697.12	-2130.37	  544.94
     13.0700	  666.00	  691.72	-2135.98	  543.83
     13.1700	  654.00	  687.88	-2144.13	  542.72
     13.2700	  618.00	  684.94	-2177.19	  541.63
     13.3700	  674.00	  682.54	-2118.79	  540.54
     13.4700	  656.00	  680.47	-2134.72	  539.46
     13.5700	  612.00	  678.63	-2176.88	  538.39
     13.6700	  632.00	  676.95	-2155.20	  537.33
     13.7700	  688.00	  675.39	-2097.64	  536.27
     13.8700	  650.00	  673.93	-2134.18	  535.23
     13.9700	  665.00	  672.55	-2117.80	  534.19
     14.0700	  685.00	  671.24	-2096.49	  533.16
     14.1700	  723.00	  669.97	-2057.22	  532.14
     14.2700	  684.00	  668.75	-2095.00	  531.13
     14.3700	  628.00	  667.56	-2149.81	  530.13
     14.4700	  639.00	  666.41	-2137.66	  529.13
     14.5700	  626.00	  665.29	-2149.54	  528.15
     14.6700	  640.00	  664.19	-2134.44	  527.17
     14.7700	  642.00	  663.11	-2131.36	  526.20
     14.8700	  715.00	  662.05	-2057.30	  525.24
     14.9700	  598.00	  661.01	-2173.26	  524.28
     15.0700	  648.00	  659.99	-2122.24	  523.34
     15.1700	  665.00	  658.99	-2104.24	  522.40
     15.2700	  630.00	  658.00	-2138.25	  521.47
     15.3700	  633.00	  657.02	-2134.27	  520.55
     15.4700	  651.00	  656.05	-2115.30	  519.63
     15.5700	  664.00	  655.10	-2101.35	  518.72
     15.6700	  673.00	  654.16	-2091.41	  517.83
     15.7700	  667.00	  653.23	-2096.48	  516.93
     15.8700	  648.00	  652.31	-2114.56	  516.05
     15.9700	  651.00	  651.41	-2110.66	  515.18
     16.0700	  660.00	  650.51	-2100.76	  514.31
     16.1700	  672.00	  649.62	-2087.87	  513.45
     16.2700	  660.00	  648.74	-2098.99	  512.59
     16.3700	  670.00	  647.87	-2088.12	  511.75
     16.4700	  652.00	  647.02	-2105.27	  510.91
     16.5700	  634.00	  646.17	-2122.42	  510.08
     16.6700	  662.00	  645.32	-2093.57	  509.26
     16.7700	  635.00	  644.49	-2119.74	  508.44
     16.8700	  643.00	  643.67	-2110.92	  507.63
     16.9700	  640.00	  642.85	-2113.10	  506.83
     17.0700	  598.00	  642.04	-2154.29	  506.04
     17.1700	  617.00	  641.24	-2134.50	  505.25
     17.2700	  653.00	  640.45	-2097.70	  504.47
     17.3700	  637.00	  639.67	-2112.92	  503.70
     17.4700	  658.00	  638.90	-2091.15	  502.93
     17.5700	  656.00	  638.13	-2092.38	  502.17
     17.6700	  632.00	  637.37	-2115.62	  501.42
     17.7700	  573.00	  636.62	-2173.87	  500.68
     17.8700	  635.00	  635.87	-2111.12	  499.94
     17.9700	  626.00	  635.13	-2119.38	  499.21
     18.0700	  630.00	  634.40	-2114.65	  498.49
     18.1700	  617.00	  633.68	-2126.93	  497.77
     18.2700	  675.00	  632.97	-2068.22	  497.06
     18.3700	  668.00	  632.26	-2074.51	  496.35
     18.4700	  640.00	  631.56	-2101.81	  495.66
     18.5700	  669.00	  630.86	-2072.11	  494.97
     18.6700	  616.00	  630.18	-2124.43	  494.28
     18.7700	  647.00	  629.50	-2092.75	  493.61
     18.8700	  624.00	  628.83	-2115.08	  492.94
     18.9700	  592.00	  628.16	-2146.41	  492.27
     19.0700	  623.00	  628.66	-2115.91	  491.61
     19.1700	  586.00	  630.02	-2154.27	  490.96
     19.2700	  623.00	  629.45	-2116.70	  490.32
     19.3700	  662.00	  628.88	-2077.13	  489.68
     19.4700	  613.00	  628.32	-2125.57	  489.05
     19.5700	  599.00	  627.77	-2139.02	  488.42
     19.6700	  623.00	  627.23	-2114.48	  487.80
     19.7700	  625.00	  626.70	-2111.95	  487.19
     19.8700	  653.00	  626.17	-2083.42	  486.58
     19.9700	  599.00	  625.66	-2136.91	  485.98
     20.0700	  645.00	  625.16	-2090.41	  485.39
     20.1700	  647.00	  624.72	-2087.97	  484.80
     20.2700	  650.00	  624.24	-2084.49	  484.21
     20.3700	  612.00	  623.76	-2122.01	  483.64
     20.4700	  636.00	  623.30	-2097.55	  483.07
     20.5700	  618.00	  622.85	-2115.10	  482.50
     20.6700	  636.00	  622.41	-2096.66	  481.94
     20.7700	  650.00	  621.98	-2082.23	  481.39
     20.8700	  599.00	  621.56	-2132.81	  480.84
     20.9700	  631.00	  621.16	-2100.41	  480.30
     21.0700	  603.00	  620.76	-2128.01	  479.76
     21.1700	  645.00	  620.38	-2085.63	  479.23
     21.2700	  688.00	  620.01	-2042.26	  478.71
     21.3700	  630.00	  619.65	-2099.90	  478.19
     21.4700	  651.00	  619.30	-2078.55	  477.68
     21.5700	  608.00	  618.97	-2121.22	  477.17
     21.6700	  629.00	  618.65	-2099.90	  476.67
     21.7700	  625.00	  618.35	-2103.60	  476.17
     21.8700	  614.00	  618.07	-2114.32	  475.68
     21.9700	  627.00	  617.80	-2101.05	  475.19
     22.0700	  651.00	  617.54	-2076.79	  474.71
     22.1700	  608.00	  617.31	-2119.56	  474.24
     22.2700	  621.00	  617.09	-2106.34	  473.77
     22.3700	  638.00	  617.11	-2089.36	  473.31
     22.4700	  658.00	  616.94	-2069.19	  472.85
     22.5700	  663.00	  616.80	-2064.05	  472.39
     22.6700	  629.00	  616.68	-2097.93	  471.94
     22.7700	  636.00	  616.58	-2090.83	  471.50
     22.8700	  631.00	  616.52	-2095.77	  471.06
     22.9700	  564.00	  616.49	-2162.74	  470.63
     23.0700	  599.00	  616.50	-2127.75	  470.20
     23.1700	  606.00	  616.55	-2120.80	  469.78
     23.2700	  607.00	  616.64	-2119.89	  469.36
     23.3700	  626.00	  616.79	-2101.04	  468.95
     23.4700	  650.00	  617.01	-2077.26	  468.54
     23.5700	  685.00	  617.30	-2042.55	  468.14
     23.6700	  639.00	  617.69	-2088.94	  467.74
     23.7700	  606.00	  618.20	-2122.45	  467.35
     23.8700	  588.00	  618.87	-2141.12	  466.96
     23.9700	  642.00	  619.77	-2088.02	  466.57
     24.0700	  630.00	  621.01	-2101.26	  466.19
     24.1700	  650.00	  622.77	-2083.02	  465.82
     24.2700	  605.00	  625.32	-2130.57	  465.45
     24.3700	  683.00	  629.04	-2056.29	  465.09
     24.4700	  696.00	  634.28	-2048.53	  464.73
     24.5700	  627.00	  641.46	-2124.71	  464.37
     24.6700	  674.00	  650.55	-2086.80	  464.02
     24.7700	  692.00	  661.01	-2079.26	  463.67
     24.8700	  717.00	  671.43	-2064.68	  463.33
     24.9700	  707.00	  679.25	-2082.50	  462.99
     25.0700	  766.00	  681.10	-2025.35	  462.66
     25.1700	  740.00	  675.40	-2045.65	  462.33
     25.2700	  687.00	  665.10	-2088.35	  462.01
     25.3700	  704.00	  654.82	-2061.07	  461.69
     25.4700	  706.00	  646.85	-2051.10	  461.37
     25.5700	  661.00	  641.74	-2090.99	  461.06
     25.6700	  643.00	  639.08	-2106.33	  460.75
     25.7700	  720.00	  638.24	-2028.49	  460.45
     25.8700	  626.00	  638.67	-2122.92	  460.15
     25.9700	  555.00	  640.00	-2195.25	  459.86
     26.0700	  639.00	  642.01	-2113.26	  459.57
     26.1700	  615.00	  644.63	-2139.88	  459.28
     26.2700	  631.00	  647.85	-2127.10	  459.00
     26.3700	  631.00	  651.72	-2130.97	  458.72
     26.4700	  643.00	  656.32	-2123.57	  458.45
     26.5700	  621.00	  661.76	-2151.01	  458.18
     26.6700	  653.00	  668.20	-2125.45	  457.91
     26.7700	  642.00	  675.86	-2144.11	  457.65
     26.8700	  667.00	  685.01	-2128.26	  457.39
     26.9700	  736.00	  696.03	-2070.28	  457.14
     27.0700	  661.00	  709.45	-2158.70	  456.89
     27.1700	  676.00	  725.98	-2160.23	  456.64
     27.2700	  686.00	  746.67	-2170.92	  456.40
     27.3700	  743.00	  773.20	-2140.45	  456.16
     27.4700	  709.00	  808.62	-2209.87	  455.92
     27.5700	  808.00	  859.47	-2161.72	  455.69
     27.6700	  816.00	  940.15	-2234.40	  455.46
     27.7700	  911.00	 1080.34	-2279.59	  455.24
     27.8700	 1083.00	 1333.79	-2361.04	  455.02
     27.9700	 1285.00	 1783.31	-2608.56	  454.80
     28.0700	 1963.00	 2529.00	-2676.25	  454.59
     28.1700	 3191.00	 3642.82	-2562.07	  454.38
     28.2700	 5239.00	 5077.05	-1948.30	  454.17
     28.3700	 7512.00	 6539.59	-1137.84	  453.97
     28.4700	 8441.00	 7446.66	-1115.91	  453.77
     28.5700	 7711.00	 7190.26	-1589.51	  453.58
     28.6700	 5860.00	 5927.72	-2177.97	  453.38
     28.7700	 4451.00	 4603.15	-2262.40	  453.19
     28.8700	 3482.00	 3863.17	-2491.42	  453.01
     28.9700	 3833.00	 3781.39	-2058.64	  452.83
     29.0700	 4275.00	 4070.07	-1905.32	  452.65
     29.1700	 4693.00	 4285.54	-1702.79	  452.47
     29.2700	 4269.00	 4034.14	-1875.39	  452.30
     29.3700	 3272.00	 3300.43	-2138.68	  452.13
     29.4700	 2273.00	 2449.38	-2286.63	  451.96
     29.5700	 1576.00	 1764.04	-2298.29	  451.80
     29.6700	 1223.00	 1315.57	-2202.82	  451.64
     29.7700	 1006.00	 1060.01	-2164.26	  451.48
     29.8700	  876.00	  923.29	-2157.54	  451.33
     29.9700	  869.00	  847.39	-2088.64	  451.18
     30.0700	  783.00	  800.20	-2127.45	  451.03
     30.1700	  776.00	  767.44	-2101.69	  450.89
     30.2700	  749.00	  743.31	-2104.56	  450.75
     30.3700	  763.00	  725.40	-2072.65	  450.61
     30.4700	  654.00	  712.81	-2169.06	  450.47
     30.5700	  746.00	  705.66	-2069.91	  450.34
     30.6700	  728.00	  704.93	-2087.18	  450.21
     30.7700	  740.00	  712.07	-2082.32	  450.08
     30.8700	  726.00	  727.88	-2112.13	  449.96
     30.9700	  746.00	  750.82	-2115.07	  449.84
     31.0700	  747.00	  775.39	-2138.64	  449.72
     31.1700	  823.00	  791.54	-2078.79	  449.61
     31.2700	  782.00	  787.39	-2115.64	  449.49
     31.3700	  789.00	  760.24	-2081.49	  449.38
     31.4700	  728.00	  722.76	-2105.01	  449.28
     31.5700	  666.00	  688.58	-2132.83	  449.17
     31.6700	  753.00	  663.23	-2020.48	  449.07
     31.7700	  645.00	  646.66	-2111.91	  448.97
     31.8700	  661.00	  636.55	-2085.80	  448.87
     31.9700	  665.00	  630.38	-2075.63	  448.78
     32.0700	  675.00	  626.35	-2061.60	  448.69
     32.1700	  604.00	  623.51	-2129.76	  448.60
     32.2700	  625.00	  621.38	-2106.63	  448.51
     32.3700	  639.00	  619.78	-2091.02	  448.43
     32.4700	  632.00	  618.59	-2096.84	  448.35
     32.5700	  621.00	  617.80	-2107.05	  448.27
     32.6700	  668.00	  617.37	-2059.62	  448.19
     32.7700	  637.00	  617.36	-2090.61	  448.12
     32.8700	  680.00	  617.73	-2047.98	  448.04
     32.9700	  668.00	  618.57	-2060.82	  447.97
     33.0700	  667.00	  619.98	-2063.23	  447.91
     33.1700	  669.00	  622.11	-2063.36	  447.84
     33.2700	  686.00	  625.25	-2049.50	  447.78
     33.3700	  631.00	  629.92	-2109.17	  447.72
     33.4700	  654.00	  637.15	-2093.40	  447.66
     33.5700	  701.00	  648.93	-2058.18	  447.60
     33.6700	  704.00	  668.80	-2075.05	  447.55
     33.7700	  687.00	  702.15	-2125.40	  447.50
     33.8700	  799.00	  755.68	-2066.93	  447.45
     33.9700	  841.00	  834.55	-2103.80	  447.40
     34.0700	  957.00	  937.23	-2090.48	  447.36
     34.1700	 1141.00	 1049.75	-2019.00	  447.31
     34.2700	 1240.00	 1142.67	-2012.92	  447.27
     34.3700	 1306.00	 1175.85	-1980.10	  447.23
     34.4700	 1226.00	 1125.00	-2009.25	  447.19
     34.5700	 1048.00	 1014.76	-2077.01	  447.16
     34.6700	  904.00	  894.23	-2100.48	  447.13
     34.7700	  795.00	  794.11	-2109.36	  447.10
     34.8700	  750.00	  723.03	-2083.28	  447.07
     34.9700	  679.00	  677.80	-2109.05	  447.04
     35.0700	  680.00	  650.91	-2081.16	  447.01
     35.1700	  635.00	  635.14	-2110.39	  446.99
     35.2700	  659.00	  625.45	-2076.70	  446.97
     35.3700	  614.00	  618.96	-2115.21	  446.95
     35.4700	  607.00	  614.25	-2117.50	  446.93
     35.5700	  607.00	  610.66	-2113.91	  446.91
     35.6700	  632.00	  607.82	-2086.07	  446.90
     35.7700	  613.00	  605.54	-2102.79	  446.89
     35.8700	  625.00	  603.70	-2088.95	  446.87
     35.9700	  608.00	  602.19	-2104.44	  446.86
     36.0700	  589.00	  600.96	-2122.21	  446.86
     36.1700	  614.00	  599.97	-2096.22	  446.85
     36.2700	  607.00	  599.17	-2102.42	  446.85
     36.3700	  615.00	  598.54	-2093.79	  446.84
     36.4700	  646.00	  598.12	-2062.37	  446.84
     36.5700	  593.00	  597.81	-2115.06	  446.84
     36.6700	  629.00	  597.64	-2078.89	  446.84
     36.7700	  618.00	  597.63	-2089.88	  446.85
     36.8700	  650.00	  597.79	-2058.04	  446.85
     36.9700	  586.00	  598.36	-2122.61	  446.86
     37.0700	  622.00	  598.98	-2087.23	  446.87
     37.1700	  587.00	  599.94	-2123.19	  446.88
     37.2700	  628.00	  601.89	-2084.14	  446.89
     37.3700	  604.00	  604.08	-2110.33	  446.90
     37.4700	  624.00	  607.46	-2093.71	  446.91
     37.5700	  642.00	  612.72	-2080.97	  446.93
     37.6700	  597.00	  621.01	-2134.26	  446.94
     37.7700	  637.00	  633.77	-2107.02	  446.96
     37.8700	  666.00	  652.47	-2096.72	  446.98
     37.9700	  672.00	  677.90	-2116.15	  447.00
     38.0700	  757.00	  707.13	-2060.38	  447.02
     38.1700	  739.00	  739.94	-2111.19	  447.05
     38.2700	  709.00	  766.98	-2168.23	  447.07
     38.3700	  788.00	  778.02	-2100.27	  447.10
     38.4700	  752.00	  765.93	-2124.18	  447.12
     38.5700	  728.00	  735.24	-2117.49	  447.15
     38.6700	  686.00	  698.59	-2122.84	  447.18
     38.7700	  651.00	  665.69	-2124.94	  447.21
     38.8700	  608.00	  640.45	-2142.70	  447.24
     38.9700	  605.00	  623.06	-2128.31	  447.27
     39.0700	  598.00	  611.97	-2124.22	  447.31
     39.1700	  571.00	  605.19	-2144.44	  447.34
     39.2700	  575.00	  601.03	-2136.28	  447.38
     39.3700	  612.00	  598.35	-2096.60	  447.42
     39.4700	  578.00	  596.49	-2128.74	  447.45
     39.5700	  611.00	  594.04	-2093.29	  447.49
     39.6700	  579.00	  593.01	-2124.26	  447.53
     39.7700	  601.00	  592.20	-2101.45	  447.57
     39.8700	  585.00	  591.56	-2116.81	  447.62
     39.9700	  603.00	  591.05	-2098.30	  447.66
     40.0700	  576.00	  590.64	-2124.89	  447.70
     40.1700	  606.00	  590.33	-2094.58	  447.75
     40.2700	  573.00	  590.08	-2127.33	  447.79
     40.3700	  587.00	  589.89	-2113.14	  447.84
     40.4700	  577.00	  589.76	-2123.01	  447.89
     40.5700	  598.00	  589.68	-2101.93	  447.94
     40.6700	  618.00	  589.64	-2081.89	  447.99
     40.7700	  636.00	  590.18	-2064.43	  448.04
