MSG Master    CELL:    5.91961   5.91961  23.27494   90.0000   90.0000  120.0000   SPGR: P 63/m m c             TEMP:   1074.85
  1   1280     2.52000     0.00000    -0.13037     0.00000     0.00000    0
    99     0     2
       0.00000      10.00000
     125.00000     130.00000
 2Theta	Yobs	Ycal	Yobs-Ycal	Backg	Posr	(hkl)	K
      0.7700	    0.00	  556.91	-1717.44	  438.64
      0.8700	    0.00	  557.53	-1717.44	  439.26
      0.9700	   43.00	  558.13	-1717.44	  439.87
      1.0700	   39.00	  558.73	-1717.44	  440.46
      1.1700	   46.00	  559.32	-1717.44	  441.05
      1.2700	   41.00	  559.89	-1717.44	  441.63
      1.3700	   46.00	  560.46	-1717.44	  442.19
      1.4700	   92.00	  561.02	-1717.44	  442.75
      1.5700	  323.00	  561.57	-1717.44	  443.30
      1.6700	  476.00	  562.10	-1717.44	  443.84
      1.7700	  550.00	  562.63	-1717.44	  444.36
      1.8700	  671.00	  563.15	-1717.44	  444.88
      1.9700	  743.00	  563.66	-1717.44	  445.39
      2.0700	  778.00	  564.16	-1717.44	  445.89
      2.1700	  812.00	  564.65	-1717.44	  446.38
      2.2700	  749.00	  565.13	-1717.44	  446.86
      2.3700	  779.00	  565.60	-1717.44	  447.33
      2.4700	  727.00	  566.06	-1717.44	  447.79
      2.5700	  683.00	  566.51	-1717.44	  448.25
      2.6700	  691.00	  566.96	-1717.44	  448.69
      2.7700	  647.00	  567.39	-1717.44	  449.13
      2.8700	  621.00	  567.82	-1717.44	  449.55
      2.9700	  610.00	  568.24	-1717.44	  449.97
      3.0700	  595.00	  568.64	-1717.44	  450.38
      3.1700	  552.00	  569.04	-1717.44	  450.78
      3.2700	  618.00	  569.44	-1717.44	  451.17
      3.3700	  664.00	  569.82	-1717.44	  451.55
      3.4700	  724.00	  570.19	-1717.44	  451.92
      3.5700	  798.00	  570.56	-1717.44	  452.29
      3.6700	  867.00	  570.91	-1717.44	  452.65
      3.7700	 1009.00	  571.26	-1717.44	  453.00
      3.8700	  966.00	  571.60	-1717.44	  453.34
      3.9700	  980.00	  571.94	-1717.44	  453.67
      4.0700	 1069.00	  572.26	-1717.44	  453.99
      4.1700	 1113.00	  572.58	-1717.44	  454.31
      4.2700	 1121.00	  572.88	-1717.44	  454.62
      4.3700	 1110.00	  573.18	-1717.44	  454.92
      4.4700	 1117.00	  573.48	-1717.44	  455.21
      4.5700	 1050.00	  573.76	-1717.44	  455.49
      4.6700	 1050.00	  574.04	-1717.44	  455.77
      4.7700	  973.00	  574.31	-1717.44	  456.04
      4.8700	  970.00	  574.57	-1717.44	  456.30
      4.9700	  924.00	  574.82	-1717.44	  456.55
      5.0700	  933.00	  575.07	-1717.44	  456.80
      5.1700	  934.00	  575.31	-1717.44	  457.04
      5.2700	  892.00	  575.54	-1717.44	  457.27
      5.3700	  874.00	  575.76	-1717.44	  457.49
      5.4700	  827.00	  575.98	-1717.44	  457.71
      5.5700	  825.00	  576.19	-1717.44	  457.92
      5.6700	  873.00	  576.39	-1717.44	  458.12
      5.7700	  832.00	  576.58	-1717.44	  458.32
      5.8700	  817.00	  576.77	-1717.44	  458.50
      5.9700	  784.00	  576.95	-1717.44	  458.68
      6.0700	  772.00	  577.13	-1717.44	  458.86
      6.1700	  745.00	  577.29	-1717.44	  459.03
      6.2700	  795.00	  577.45	-1717.44	  459.19
      6.3700	  764.00	  577.61	-1717.44	  459.34
      6.4700	  771.00	  577.76	-1717.44	  459.49
      6.5700	  771.00	  577.90	-1717.44	  459.63
      6.6700	  782.00	  578.03	-1717.44	  459.76
      6.7700	  718.00	  578.16	-1717.44	  459.89
      6.8700	  713.00	  578.28	-1717.44	  460.01
      6.9700	  668.00	  578.39	-1717.44	  460.12
      7.0700	  682.00	  578.50	-1717.44	  460.23
      7.1700	  678.00	  578.60	-1717.44	  460.33
      7.2700	  670.00	  578.70	-1717.44	  460.43
      7.3700	  703.00	  578.79	-1717.44	  460.52
      7.4700	  679.00	  578.87	-1717.44	  460.60
      7.5700	  683.00	  578.95	-1717.44	  460.68
      7.6700	  669.00	  579.02	-1717.44	  460.75
      7.7700	  608.00	  579.08	-1717.44	  460.81
      7.8700	  632.00	  579.14	-1717.44	  460.87
      7.9700	  643.00	  579.19	-1717.44	  460.93
      8.0700	  683.00	  579.24	-1717.44	  460.97
      8.1700	  658.00	  579.28	-1717.44	  461.02
      8.2700	  622.00	  579.32	-1717.44	  461.05
      8.3700	  609.00	  579.35	-1717.44	  461.08
      8.4700	  642.00	  579.38	-1717.44	  461.11
      8.5700	  645.00	  579.39	-1717.44	  461.13
      8.6700	  630.00	  579.41	-1717.44	  461.14
      8.7700	  618.00	  579.42	-1717.44	  461.15
      8.8700	  593.00	  579.42	-1717.44	  461.15
      8.9700	  586.00	  579.42	-1717.44	  461.15
      9.0700	  596.00	  579.41	-1717.44	  461.14
      9.1700	  654.00	  579.40	-1717.44	  461.13
      9.2700	  603.00	  579.38	-1717.44	  461.11
      9.3700	  619.00	  579.35	-1717.44	  461.09
      9.4700	  632.00	  579.33	-1717.44	  461.06
      9.5700	  626.00	  579.29	-1717.44	  461.03
      9.6700	  584.00	  579.25	-1717.44	  460.99
      9.7700	  589.00	  579.21	-1717.44	  460.94
      9.8700	  612.00	  579.16	-1717.44	  460.90
      9.9700	  593.00	  579.11	-1717.44	  460.84
     10.0700	  596.00	  579.95	-1701.39	  460.78
     10.1700	  585.00	  579.98	-1712.42	  460.72
     10.2700	  590.00	  580.04	-1707.48	  460.65
     10.3700	  578.00	  580.13	-1719.57	  460.58
     10.4700	  548.00	  580.28	-1749.72	  460.51
     10.5700	  608.00	  580.56	-1690.00	  460.43
     10.6700	  586.00	  581.08	-1712.52	  460.34
     10.7700	  619.00	  581.93	-1680.37	  460.25
     10.8700	  641.00	  583.20	-1659.64	  460.16
     10.9700	  574.00	  584.88	-1728.32	  460.06
     11.0700	  577.00	  586.93	-1727.37	  459.95
     11.1700	  650.00	  589.35	-1656.79	  459.85
     11.2700	  611.00	  592.17	-1698.61	  459.74
     11.3700	  573.00	  595.50	-1739.94	  459.62
     11.4700	  611.00	  599.47	-1705.91	  459.50
     11.5700	  625.00	  604.30	-1696.74	  459.38
     11.6700	  579.00	  610.39	-1748.83	  459.25
     11.7700	  626.00	  618.40	-1709.84	  459.12
     11.8700	  629.00	  629.25	-1717.69	  458.98
     11.9700	  669.00	  643.45	-1691.89	  458.84
     12.0700	  671.00	  659.01	-1705.45	  458.70
     12.1700	  674.00	  669.30	-1712.74	  458.55
     12.2700	  709.00	  664.48	-1672.92	  458.40
     12.3700	  671.00	  642.51	-1688.95	  458.25
     12.4700	  635.00	  616.66	-1699.10	  458.09
     12.5700	  650.00	  597.86	-1665.30	  457.92
     12.6700	  587.00	  587.51	-1717.95	  457.76
     12.7700	  554.00	  582.67	-1746.11	  457.59
     12.8700	  617.00	  580.40	-1680.84	  457.42
     12.9700	  547.00	  579.12	-1749.56	  457.24
     13.0700	  566.00	  578.23	-1729.67	  457.06
     13.1700	  546.00	  577.55	-1748.99	  456.88
     13.2700	  536.00	  576.98	-1758.42	  456.69
     13.3700	  556.00	  576.51	-1737.95	  456.50
     13.4700	  544.00	  576.09	-1749.53	  456.31
     13.5700	  542.00	  575.71	-1751.15	  456.11
     13.6700	  549.00	  575.36	-1743.80	  455.92
     13.7700	  547.00	  575.04	-1745.48	  455.71
     13.8700	  595.00	  574.73	-1697.17	  455.51
     13.9700	  608.00	  574.44	-1683.88	  455.30
     14.0700	  552.00	  574.15	-1739.59	  455.09
     14.1700	  580.00	  573.88	-1711.32	  454.87
     14.2700	  567.00	  573.61	-1724.05	  454.66
     14.3700	  574.00	  573.34	-1716.78	  454.44
     14.4700	  611.00	  573.08	-1679.52	  454.21
     14.5700	  590.00	  572.82	-1700.26	  453.99
     14.6700	  555.00	  572.55	-1735.00	  453.76
     14.7700	  569.00	  572.30	-1720.74	  453.53
     14.8700	  557.00	  572.04	-1732.48	  453.30
     14.9700	  604.00	  571.78	-1685.22	  453.06
     15.0700	  562.00	  571.52	-1726.96	  452.82
     15.1700	  590.00	  571.26	-1698.70	  452.58
     15.2700	  478.00	  571.00	-1810.44	  452.33
     15.3700	  547.00	  570.74	-1741.18	  452.09
     15.4700	  551.00	  570.47	-1736.91	  451.84
     15.5700	  547.00	  570.21	-1740.65	  451.59
     15.6700	  546.00	  569.94	-1741.38	  451.33
     15.7700	  567.00	  569.68	-1720.12	  451.08
     15.8700	  551.00	  569.41	-1735.85	  450.82
     15.9700	  559.00	  569.17	-1727.61	  450.56
     16.0700	  592.00	  568.89	-1694.34	  450.30
     16.1700	  575.00	  568.62	-1711.06	  450.03
     16.2700	  569.00	  568.35	-1716.79	  449.76
     16.3700	  544.00	  568.07	-1741.51	  449.49
     16.4700	  546.00	  567.80	-1739.24	  449.22
     16.5700	  576.00	  567.52	-1708.96	  448.95
     16.6700	  569.00	  567.24	-1715.68	  448.67
     16.7700	  565.00	  566.96	-1719.40	  448.40
     16.8700	  578.00	  566.67	-1706.11	  448.12
     16.9700	  578.00	  566.39	-1705.83	  447.83
     17.0700	  582.00	  566.10	-1701.54	  447.55
     17.1700	  532.00	  565.81	-1751.25	  447.27
     17.2700	  571.00	  565.52	-1711.96	  446.98
     17.3700	  525.00	  565.23	-1757.67	  446.69
     17.4700	  552.00	  564.94	-1730.38	  446.40
     17.5700	  611.00	  564.65	-1671.09	  446.11
     17.6700	  570.00	  564.35	-1711.79	  445.82
     17.7700	  567.00	  564.05	-1714.49	  445.52
     17.8700	  486.00	  563.76	-1795.20	  445.22
     17.9700	  584.00	  563.46	-1696.90	  444.92
     18.0700	  543.00	  563.26	-1737.70	  444.62
     18.1700	  539.00	  562.96	-1741.40	  444.32
     18.2700	  565.00	  562.65	-1715.09	  444.02
     18.3700	  576.00	  562.35	-1703.79	  443.72
     18.4700	  565.00	  562.05	-1714.49	  443.41
     18.5700	  555.00	  561.74	-1724.18	  443.10
     18.6700	  536.00	  561.44	-1742.88	  442.79
     18.7700	  528.00	  561.13	-1750.57	  442.48
     18.8700	  558.00	  560.90	-1720.35	  442.17
     18.9700	  554.00	  560.60	-1724.04	  441.86
     19.0700	  569.00	  560.29	-1708.73	  441.55
     19.1700	  514.00	  559.98	-1763.42	  441.23
     19.2700	  552.00	  559.67	-1725.11	  440.92
     19.3700	  566.00	  559.36	-1710.80	  440.60
     19.4700	  569.00	  559.05	-1707.49	  440.28
     19.5700	  575.00	  558.74	-1701.18	  439.96
     19.6700	  569.00	  558.42	-1706.86	  439.64
     19.7700	  542.00	  558.11	-1733.55	  439.32
     19.8700	  593.00	  557.79	-1682.24	  439.00
     19.9700	  563.00	  557.48	-1711.92	  438.68
     20.0700	  506.00	  557.17	-1768.61	  438.35
     20.1700	  570.00	  556.85	-1704.29	  438.03
     20.2700	  541.00	  556.53	-1732.98	  437.70
     20.3700	  543.00	  556.22	-1730.66	  437.37
     20.4700	  569.00	  555.90	-1704.34	  437.05
     20.5700	  557.00	  555.59	-1716.03	  436.72
     20.6700	  570.00	  555.27	-1702.71	  436.39
     20.7700	  534.00	  554.92	-1738.36	  436.06
     20.8700	  560.00	  554.64	-1712.08	  435.73
     20.9700	  579.00	  554.32	-1692.76	  435.40
     21.0700	  571.00	  554.01	-1700.45	  435.07
     21.1700	  550.00	  553.70	-1721.14	  434.73
     21.2700	  510.00	  553.38	-1760.82	  434.40
     21.3700	  536.00	  553.07	-1734.51	  434.07
     21.4700	  555.00	  552.76	-1715.20	  433.73
     21.5700	  554.00	  552.45	-1715.89	  433.40
     21.6700	  573.00	  552.14	-1696.58	  433.06
     21.7700	  586.00	  551.83	-1683.27	  432.73
     21.8700	  508.00	  551.53	-1760.97	  432.39
     21.9700	  548.00	  551.22	-1720.66	  432.06
     22.0700	  534.00	  550.92	-1734.36	  431.72
     22.1700	  547.00	  550.62	-1721.06	  431.38
     22.2700	  590.00	  550.33	-1677.77	  431.05
     22.3700	  532.00	  550.03	-1735.48	  430.71
     22.4700	  533.00	  549.75	-1734.19	  430.37
     22.5700	  539.00	  549.47	-1727.91	  430.03
     22.6700	  552.00	  549.19	-1714.63	  429.69
     22.7700	  567.00	  548.92	-1699.36	  429.36
     22.8700	  565.00	  548.66	-1701.10	  429.02
     22.9700	  560.00	  548.41	-1705.85	  428.68
     23.0700	  554.00	  548.18	-1711.62	  428.34
     23.1700	  580.00	  547.96	-1685.40	  428.00
     23.2700	  570.00	  547.76	-1695.20	  427.66
     23.3700	  533.00	  547.60	-1732.04	  427.32
     23.4700	  559.00	  547.46	-1705.91	  426.98
     23.5700	  547.00	  547.38	-1717.82	  426.64
     23.6700	  572.00	  547.52	-1692.96	  426.30
     23.7700	  561.00	  547.63	-1704.07	  425.96
     23.8700	  546.00	  547.98	-1719.42	  425.63
     23.9700	  544.00	  548.80	-1722.24	  425.29
     24.0700	  559.00	  550.50	-1708.94	  424.95
     24.1700	  535.00	  553.75	-1736.19	  424.61
     24.2700	  559.00	  559.36	-1717.80	  424.27
     24.3700	  586.00	  568.25	-1699.69	  423.93
     24.4700	  604.00	  581.33	-1694.77	  423.59
     24.5700	  587.00	  598.56	-1729.00	  423.25
     24.6700	  633.00	  616.92	-1701.36	  422.92
     24.7700	  618.00	  628.78	-1728.22	  422.58
     24.8700	  641.00	  624.54	-1700.99	  422.24
     24.9700	  652.00	  604.07	-1669.51	  421.90
     25.0700	  617.00	  580.21	-1680.65	  421.57
     25.1700	  601.00	  562.49	-1678.93	  421.23
     25.2700	  563.00	  552.39	-1706.83	  420.90
     25.3700	  528.00	  547.51	-1736.95	  420.56
     25.4700	  524.00	  545.22	-1738.66	  420.22
     25.5700	  535.00	  543.97	-1726.42	  419.89
     25.6700	  543.00	  543.16	-1717.60	  419.55
     25.7700	  554.00	  542.56	-1706.00	  419.22
     25.8700	  592.00	  542.10	-1667.54	  418.89
     25.9700	  530.00	  541.74	-1729.18	  418.55
     26.0700	  586.00	  541.48	-1672.92	  418.22
     26.1700	  567.00	  541.29	-1691.73	  417.89
     26.2700	  585.00	  541.18	-1673.62	  417.56
     26.3700	  561.00	  541.15	-1697.59	  417.23
     26.4700	  529.00	  541.20	-1729.64	  416.90
     26.5700	  557.00	  541.35	-1701.79	  416.57
     26.6700	  546.00	  541.61	-1713.05	  416.24
     26.7700	  548.00	  542.00	-1711.44	  415.91
     26.8700	  536.00	  542.57	-1724.01	  415.58
     26.9700	  547.00	  543.35	-1713.79	  415.25
     27.0700	  542.00	  544.43	-1719.87	  414.93
     27.1700	  538.00	  545.95	-1725.39	  414.60
     27.2700	  549.00	  548.15	-1716.59	  414.28
     27.3700	  558.00	  551.53	-1710.97	  413.95
     27.4700	  623.00	  557.09	-1651.53	  413.63
     27.5700	  496.00	  566.59	-1788.03	  413.30
     27.6700	  594.00	  582.77	-1706.21	  412.98
     27.7700	  556.00	  609.14	-1770.58	  412.66
     27.8700	  604.00	  648.62	-1762.06	  412.34
     27.9700	  666.00	  701.09	-1752.53	  412.02
     28.0700	  762.00	  760.14	-1715.58	  411.70
     28.1700	  917.00	  810.44	-1610.88	  411.38
     28.2700	  915.00	  829.65	-1632.09	  411.07
     28.3700	  887.00	  806.45	-1636.89	  410.75
     28.4700	  833.00	  764.04	-1648.48	  410.44
     28.5700	  657.00	  736.42	-1796.86	  410.12
     28.6700	  677.00	  737.83	-1778.27	  409.81
     28.7700	  746.00	  762.40	-1733.84	  409.50
     28.8700	  815.00	  789.72	-1692.16	  409.18
     28.9700	  822.00	  792.10	-1687.54	  408.87
     29.0700	  749.00	  753.70	-1722.14	  408.56
     29.1700	  688.00	  691.77	-1721.21	  408.26
     29.2700	  626.00	  634.00	-1725.45	  407.95
     29.3700	  613.00	  592.82	-1697.26	  407.64
     29.4700	  569.00	  568.10	-1716.54	  407.34
     29.5700	  559.00	  554.76	-1713.20	  407.03
     29.6700	  598.00	  547.68	-1667.12	  406.73
     29.7700	  605.00	  543.64	-1656.08	  406.43
     29.8700	  566.00	  541.09	-1692.53	  406.13
     29.9700	  617.00	  539.45	-1639.89	  405.83
     30.0700	  553.00	  538.58	-1703.02	  405.53
     30.1700	  578.00	  538.63	-1678.07	  405.23
     30.2700	  547.00	  540.09	-1710.53	  404.93
     30.3700	  563.00	  543.92	-1698.36	  404.64
     30.4700	  536.00	  551.54	-1732.98	  404.35
     30.5700	  581.00	  564.36	-1700.80	  404.05
     30.6700	  585.00	  582.65	-1715.09	  403.76
     30.7700	  588.00	  603.91	-1733.35	  403.47
     30.8700	  604.00	  621.86	-1735.30	  403.18
     30.9700	  625.00	  627.27	-1719.71	  402.89
     31.0700	  605.00	  614.39	-1726.83	  402.61
     31.1700	  600.00	  590.17	-1707.61	  402.32
     31.2700	  543.00	  566.42	-1740.86	  402.04
     31.3700	  557.00	  549.06	-1709.50	  401.75
     31.4700	  511.00	  538.54	-1744.98	  401.47
     31.5700	  529.00	  532.90	-1721.34	  401.19
     31.6700	  510.00	  529.97	-1737.41	  400.91
     31.7700	  516.00	  528.34	-1729.78	  400.64
     31.8700	  547.00	  527.31	-1697.75	  400.36
     31.9700	  523.00	  526.60	-1721.04	  400.09
     32.0700	  495.00	  526.11	-1748.55	  399.81
     32.1700	  529.00	  525.79	-1714.23	  399.54
     32.2700	  524.00	  525.63	-1719.07	  399.27
     32.3700	  578.00	  525.62	-1665.06	  399.00
     32.4700	  533.00	  525.76	-1710.20	  398.73
     32.5700	  538.00	  526.09	-1705.53	  398.47
     32.6700	  541.00	  526.62	-1703.06	  398.20
     32.7700	  540.00	  527.41	-1704.86	  397.94
     32.8700	  550.00	  528.54	-1695.98	  397.68
     32.9700	  538.00	  530.14	-1709.58	  397.42
     33.0700	  590.00	  532.44	-1659.88	  397.16
     33.1700	  565.00	  535.97	-1688.41	  396.90
     33.2700	  518.00	  541.91	-1741.35	  396.64
     33.3700	  540.00	  552.76	-1730.20	  396.39
     33.4700	  535.00	  573.23	-1755.67	  396.13
     33.5700	  651.00	  610.60	-1677.04	  395.88
     33.6700	  645.00	  672.84	-1745.28	  395.63
     33.7700	  740.00	  762.73	-1740.17	  395.38
     33.8700	  910.00	  869.42	-1676.86	  395.14
     33.9700	 1003.00	  963.36	-1677.80	  394.89
     34.0700	 1094.00	 1000.75	-1624.19	  394.65
     34.1700	 1002.00	  952.10	-1667.54	  394.40
     34.2700	  878.00	  843.36	-1682.80	  394.16
     34.3700	  740.00	  729.19	-1706.63	  393.92
     34.4700	  646.00	  641.59	-1713.03	  393.69
     34.5700	  554.00	  586.60	-1750.04	  393.45
     34.6700	  546.00	  556.67	-1728.11	  393.21
     34.7700	  517.00	  541.50	-1741.94	  392.98
     34.8700	  537.00	  533.49	-1713.93	  392.75
     34.9700	  533.00	  528.67	-1713.11	  392.52
     35.0700	  536.00	  525.35	-1706.79	  392.29
     35.1700	  528.00	  522.83	-1712.27	  392.06
     35.2700	  522.00	  520.84	-1716.28	  391.84
     35.3700	  550.00	  519.22	-1686.66	  391.62
     35.4700	  556.00	  517.88	-1679.32	  391.39
     35.5700	  541.00	  516.75	-1693.19	  391.17
     35.6700	  562.00	  515.78	-1671.22	  390.96
     35.7700	  476.00	  514.94	-1756.38	  390.74
     35.8700	  543.00	  514.20	-1688.64	  390.52
     35.9700	  526.00	  513.55	-1704.99	  390.31
     36.0700	  533.00	  513.43	-1697.87	  390.10
     36.1700	  523.00	  512.91	-1707.35	  389.89
     36.2700	  517.00	  512.44	-1712.88	  389.68
     36.3700	  515.00	  512.02	-1714.46	  389.47
     36.4700	  513.00	  511.64	-1716.08	  389.27
     36.5700	  500.00	  511.30	-1728.74	  389.06
     36.6700	  523.00	  511.00	-1705.44	  388.86
     36.7700	  525.00	  510.76	-1703.20	  388.66
     36.8700	  519.00	  510.58	-1709.02	  388.46
     36.9700	  530.00	  510.55	-1697.99	  388.27
     37.0700	  522.00	  510.79	-1706.23	  388.07
     37.1700	  539.00	  511.56	-1690.00	  387.88
     37.2700	  512.00	  513.21	-1718.65	  387.69
     37.3700	  483.00	  516.02	-1750.46	  387.50
     37.4700	  520.00	  519.91	-1717.35	  387.31
     37.5700	  510.00	  524.04	-1731.48	  387.13
     37.6700	  522.00	  526.87	-1722.31	  386.94
     37.7700	  500.00	  526.79	-1744.23	  386.76
     37.8700	  483.00	  523.68	-1758.12	  386.58
     37.9700	  518.00	  519.24	-1718.68	  386.40
     38.0700	  479.00	  515.08	-1753.52	  386.22
     38.1700	  486.00	  511.86	-1743.30	  386.04
     38.2700	  513.00	  509.63	-1714.07	  385.87
     38.3700	  472.00	  508.20	-1753.64	  385.70
     38.4700	  537.00	  507.30	-1687.74	  385.53
     38.5700	  497.00	  506.71	-1727.15	  385.36
     38.6700	  507.00	  506.20	-1716.64	  385.19
     38.7700	  525.00	  505.88	-1698.32	  385.03
     38.8700	  513.00	  505.63	-1710.07	  384.86
     38.9700	  497.00	  505.40	-1725.84	  384.70
     39.0700	  515.00	  505.19	-1707.63	  384.54
     39.1700	  499.00	  505.00	-1723.44	  384.38
     39.2700	  513.00	  504.75	-1709.19	  384.23
     39.3700	  535.00	  504.58	-1687.03	  384.07
     39.4700	  526.00	  504.57	-1696.01	  383.92
     39.5700	  509.00	  504.43	-1712.87	  383.77
     39.6700	  500.00	  504.29	-1721.73	  383.62
     39.7700	  497.00	  504.17	-1724.61	  383.47
     39.8700	  484.00	  504.05	-1737.49	  383.33
     39.9700	  528.00	  503.95	-1693.39	  383.18
     40.0700	  512.00	  503.85	-1709.29	  383.04
     40.1700	  515.00	  503.76	-1706.21	  382.90
     40.2700	  505.00	  503.69	-1716.13	  382.76
     40.3700	  551.00	  503.62	-1670.07	  382.63
     40.4700	  491.00	  503.57	-1730.01	  382.49
     40.5700	  466.00	  503.54	-1754.98	  382.36
     40.6700	  461.00	  503.52	-1759.96	  382.23
     40.7700	  519.00	  503.52	-1701.96	  382.10
