MSG Master    CELL:    5.91847   5.91847  23.26289   90.0000   90.0000  120.0000   SPGR: P 63/m m c             TEMP:   1056.75
  1   1280     2.52000     0.00000    -0.13059     0.00000     0.00000    0
    99     0     2
       0.00000      10.00000
     125.00000     130.00000
 2Theta	Yobs	Ycal	Yobs-Ycal	Backg	Posr	(hkl)	K
      0.7700	    0.00	  580.33	-1746.25	  463.70
      0.8700	    0.00	  580.62	-1746.25	  464.00
      0.9700	   41.00	  580.91	-1746.25	  464.29
      1.0700	   47.00	  581.19	-1746.25	  464.56
      1.1700	   45.00	  581.46	-1746.25	  464.84
      1.2700	   44.00	  581.73	-1746.25	  465.10
      1.3700	   40.00	  581.98	-1746.25	  465.36
      1.4700	   92.00	  582.23	-1746.25	  465.61
      1.5700	  296.00	  582.48	-1746.25	  465.85
      1.6700	  476.00	  582.71	-1746.25	  466.09
      1.7700	  588.00	  582.94	-1746.25	  466.32
      1.8700	  615.00	  583.16	-1746.25	  466.54
      1.9700	  745.00	  583.38	-1746.25	  466.75
      2.0700	  755.00	  583.58	-1746.25	  466.96
      2.1700	  797.00	  583.79	-1746.25	  467.16
      2.2700	  798.00	  583.98	-1746.25	  467.36
      2.3700	  746.00	  584.17	-1746.25	  467.54
      2.4700	  725.00	  584.35	-1746.25	  467.72
      2.5700	  695.00	  584.52	-1746.25	  467.90
      2.6700	  665.00	  584.69	-1746.25	  468.07
      2.7700	  655.00	  584.85	-1746.25	  468.23
      2.8700	  631.00	  585.01	-1746.25	  468.38
      2.9700	  656.00	  585.16	-1746.25	  468.53
      3.0700	  588.00	  585.30	-1746.25	  468.67
      3.1700	  584.00	  585.43	-1746.25	  468.81
      3.2700	  635.00	  585.56	-1746.25	  468.94
      3.3700	  648.00	  585.69	-1746.25	  469.06
      3.4700	  726.00	  585.80	-1746.25	  469.18
      3.5700	  821.00	  585.92	-1746.25	  469.29
      3.6700	  837.00	  586.02	-1746.25	  469.40
      3.7700	  978.00	  586.12	-1746.25	  469.49
      3.8700	  891.00	  586.21	-1746.25	  469.59
      3.9700	  986.00	  586.30	-1746.25	  469.68
      4.0700	 1051.00	  586.38	-1746.25	  469.76
      4.1700	 1017.00	  586.46	-1746.25	  469.83
      4.2700	 1066.00	  586.53	-1746.25	  469.90
      4.3700	 1094.00	  586.59	-1746.25	  469.97
      4.4700	 1080.00	  586.65	-1746.25	  470.02
      4.5700	 1057.00	  586.70	-1746.25	  470.08
      4.6700	 1011.00	  586.75	-1746.25	  470.13
      4.7700	 1020.00	  586.79	-1746.25	  470.17
      4.8700	 1016.00	  586.83	-1746.25	  470.20
      4.9700	  938.00	  586.86	-1746.25	  470.23
      5.0700	  933.00	  586.89	-1746.25	  470.26
      5.1700	  941.00	  586.91	-1746.25	  470.28
      5.2700	  869.00	  586.92	-1746.25	  470.30
      5.3700	  879.00	  586.93	-1746.25	  470.31
      5.4700	  851.00	  586.94	-1746.25	  470.31
      5.5700	  885.00	  586.94	-1746.25	  470.31
      5.6700	  830.00	  586.93	-1746.25	  470.31
      5.7700	  851.00	  586.92	-1746.25	  470.29
      5.8700	  779.00	  586.90	-1746.25	  470.28
      5.9700	  847.00	  586.88	-1746.25	  470.26
      6.0700	  778.00	  586.86	-1746.25	  470.23
      6.1700	  793.00	  586.83	-1746.25	  470.20
      6.2700	  772.00	  586.79	-1746.25	  470.17
      6.3700	  725.00	  586.75	-1746.25	  470.13
      6.4700	  778.00	  586.71	-1746.25	  470.09
      6.5700	  733.00	  586.66	-1746.25	  470.04
      6.6700	  764.00	  586.61	-1746.25	  469.98
      6.7700	  755.00	  586.55	-1746.25	  469.93
      6.8700	  718.00	  586.49	-1746.25	  469.86
      6.9700	  727.00	  586.42	-1746.25	  469.80
      7.0700	  695.00	  586.35	-1746.25	  469.72
      7.1700	  690.00	  586.27	-1746.25	  469.65
      7.2700	  711.00	  586.19	-1746.25	  469.57
      7.3700	  659.00	  586.11	-1746.25	  469.48
      7.4700	  659.00	  586.02	-1746.25	  469.39
      7.5700	  662.00	  585.93	-1746.25	  469.30
      7.6700	  647.00	  585.83	-1746.25	  469.20
      7.7700	  648.00	  585.73	-1746.25	  469.10
      7.8700	  626.00	  585.62	-1746.25	  469.00
      7.9700	  675.00	  585.51	-1746.25	  468.89
      8.0700	  612.00	  585.40	-1746.25	  468.78
      8.1700	  664.00	  585.28	-1746.25	  468.66
      8.2700	  639.00	  585.16	-1746.25	  468.54
      8.3700	  611.00	  585.04	-1746.25	  468.41
      8.4700	  631.00	  584.91	-1746.25	  468.28
      8.5700	  622.00	  584.77	-1746.25	  468.15
      8.6700	  602.00	  584.64	-1746.25	  468.01
      8.7700	  637.00	  584.50	-1746.25	  467.87
      8.8700	  622.00	  584.35	-1746.25	  467.73
      8.9700	  612.00	  584.21	-1746.25	  467.58
      9.0700	  600.00	  584.05	-1746.25	  467.43
      9.1700	  576.00	  583.90	-1746.25	  467.28
      9.2700	  608.00	  583.74	-1746.25	  467.12
      9.3700	  641.00	  583.58	-1746.25	  466.96
      9.4700	  670.00	  583.41	-1746.25	  466.79
      9.5700	  579.00	  583.25	-1746.25	  466.62
      9.6700	  608.00	  583.07	-1746.25	  466.45
      9.7700	  588.00	  582.90	-1746.25	  466.27
      9.8700	  609.00	  582.72	-1746.25	  466.10
      9.9700	  628.00	  582.54	-1746.25	  465.91
     10.0700	  648.00	  583.01	-1681.26	  465.73
     10.1700	  654.00	  582.89	-1675.14	  465.54
     10.2700	  596.00	  582.78	-1733.03	  465.35
     10.3700	  623.00	  582.69	-1705.94	  465.16
     10.4700	  614.00	  582.64	-1714.89	  464.96
     10.5700	  627.00	  582.69	-1701.94	  464.76
     10.6700	  563.00	  582.93	-1766.18	  464.56
     10.7700	  590.00	  583.46	-1739.71	  464.35
     10.8700	  555.00	  584.36	-1775.61	  464.14
     10.9700	  556.00	  585.61	-1775.86	  463.93
     11.0700	  562.00	  587.18	-1771.43	  463.71
     11.1700	  589.00	  589.05	-1746.30	  463.50
     11.2700	  612.00	  591.26	-1725.51	  463.28
     11.3700	  636.00	  593.88	-1704.13	  463.05
     11.4700	  552.00	  597.03	-1791.28	  462.83
     11.5700	  653.00	  600.89	-1694.14	  462.60
     11.6700	  574.00	  605.78	-1778.03	  462.37
     11.7700	  649.00	  612.28	-1709.53	  462.13
     11.8700	  612.00	  621.33	-1755.58	  461.90
     11.9700	  655.00	  633.85	-1725.10	  461.66
     12.0700	  641.00	  648.69	-1753.94	  461.42
     12.1700	  680.00	  659.70	-1725.95	  461.18
     12.2700	  678.00	  656.64	-1724.89	  460.93
     12.3700	  632.00	  636.21	-1750.46	  460.68
     12.4700	  639.00	  611.41	-1718.66	  460.43
     12.5700	  612.00	  593.84	-1728.09	  460.18
     12.6700	  595.00	  584.83	-1736.08	  459.92
     12.7700	  599.00	  580.99	-1728.24	  459.67
     12.8700	  598.00	  579.28	-1727.53	  459.41
     12.9700	  580.00	  578.27	-1744.52	  459.14
     13.0700	  553.00	  577.53	-1770.78	  458.88
     13.1700	  545.00	  576.92	-1778.17	  458.62
     13.2700	  537.00	  576.40	-1785.65	  458.35
     13.3700	  599.00	  575.93	-1723.18	  458.08
     13.4700	  503.00	  575.51	-1818.76	  457.81
     13.5700	  534.00	  575.11	-1787.36	  457.53
     13.6700	  570.00	  574.74	-1750.99	  457.26
     13.7700	  552.00	  574.38	-1768.63	  456.98
     13.8700	  542.00	  574.03	-1778.28	  456.70
     13.9700	  550.00	  573.69	-1769.94	  456.42
     14.0700	  548.00	  573.36	-1771.61	  456.13
     14.1700	  600.00	  573.04	-1719.29	  455.85
     14.2700	  533.00	  572.71	-1785.96	  455.56
     14.3700	  578.00	  572.39	-1740.64	  455.27
     14.4700	  552.00	  572.08	-1766.33	  454.98
     14.5700	  563.00	  571.76	-1755.01	  454.69
     14.6700	  603.00	  571.45	-1714.70	  454.40
     14.7700	  604.00	  571.13	-1713.38	  454.10
     14.8700	  575.00	  570.82	-1742.07	  453.81
     14.9700	  547.00	  570.51	-1769.76	  453.51
     15.0700	  576.00	  570.19	-1740.44	  453.21
     15.1700	  613.00	  569.88	-1703.13	  452.91
     15.2700	  545.00	  569.57	-1770.82	  452.61
     15.3700	  565.00	  569.25	-1750.50	  452.30
     15.4700	  601.00	  568.94	-1714.19	  452.00
     15.5700	  563.00	  568.62	-1751.87	  451.69
     15.6700	  550.00	  568.31	-1764.56	  451.38
     15.7700	  585.00	  567.99	-1729.24	  451.07
     15.8700	  539.00	  567.68	-1774.93	  450.76
     15.9700	  561.00	  567.36	-1752.61	  450.45
     16.0700	  565.00	  567.04	-1748.29	  450.14
     16.1700	  580.00	  566.72	-1732.97	  449.82
     16.2700	  561.00	  566.40	-1751.65	  449.51
     16.3700	  550.00	  566.08	-1762.33	  449.19
     16.4700	  531.00	  565.76	-1781.01	  448.87
     16.5700	  567.00	  565.46	-1744.71	  448.56
     16.6700	  560.00	  565.14	-1751.39	  448.24
     16.7700	  599.00	  564.82	-1712.07	  447.92
     16.8700	  555.00	  564.49	-1755.74	  447.59
     16.9700	  544.00	  564.17	-1766.42	  447.27
     17.0700	  543.00	  563.84	-1767.09	  446.95
     17.1700	  574.00	  563.52	-1735.77	  446.62
     17.2700	  550.00	  563.19	-1759.44	  446.30
     17.3700	  531.00	  562.86	-1778.11	  445.97
     17.4700	  534.00	  562.53	-1774.78	  445.65
     17.5700	  573.00	  562.20	-1735.45	  445.32
     17.6700	  549.00	  561.88	-1759.13	  444.99
     17.7700	  550.00	  561.55	-1757.80	  444.66
     17.8700	  567.00	  561.32	-1740.57	  444.33
     17.9700	  587.00	  560.99	-1720.24	  444.00
     18.0700	  550.00	  560.66	-1756.91	  443.67
     18.1700	  547.00	  560.33	-1759.58	  443.34
     18.2700	  540.00	  560.00	-1766.25	  443.00
     18.3700	  537.00	  559.67	-1768.92	  442.67
     18.4700	  565.00	  559.34	-1740.59	  442.34
     18.5700	  552.00	  559.01	-1753.26	  442.00
     18.6700	  536.00	  558.67	-1768.92	  441.67
     18.7700	  570.00	  558.34	-1734.59	  441.33
     18.8700	  549.00	  558.10	-1755.35	  441.00
     18.9700	  565.00	  557.77	-1739.02	  440.66
     19.0700	  549.00	  557.43	-1754.68	  440.32
     19.1700	  516.00	  557.10	-1787.35	  439.99
     19.2700	  568.00	  556.77	-1735.02	  439.65
     19.3700	  591.00	  556.44	-1711.69	  439.31
     19.4700	  569.00	  556.11	-1733.36	  438.97
     19.5700	  568.00	  555.78	-1734.03	  438.63
     19.6700	  525.00	  555.45	-1776.70	  438.29
     19.7700	  508.00	  555.11	-1793.36	  437.95
     19.8700	  533.00	  554.78	-1768.03	  437.61
     19.9700	  581.00	  554.45	-1719.70	  437.28
     20.0700	  578.00	  554.12	-1722.37	  436.94
     20.1700	  487.00	  553.79	-1813.04	  436.60
     20.2700	  539.00	  553.44	-1760.69	  436.25
     20.3700	  566.00	  553.11	-1733.36	  435.91
     20.4700	  517.00	  552.78	-1782.03	  435.57
     20.5700	  560.00	  552.45	-1738.70	  435.23
     20.6700	  585.00	  552.12	-1713.37	  434.89
     20.7700	  502.00	  551.80	-1796.05	  434.55
     20.8700	  535.00	  551.47	-1762.72	  434.21
     20.9700	  556.00	  551.18	-1741.43	  433.87
     21.0700	  551.00	  550.86	-1746.11	  433.53
     21.1700	  563.00	  550.54	-1733.79	  433.19
     21.2700	  554.00	  550.21	-1742.46	  432.85
     21.3700	  598.00	  549.89	-1698.14	  432.51
     21.4700	  525.00	  549.57	-1770.82	  432.17
     21.5700	  591.00	  549.26	-1704.51	  431.83
     21.6700	  523.00	  548.94	-1772.19	  431.49
     21.7700	  544.00	  548.63	-1750.88	  431.14
     21.8700	  545.00	  548.31	-1749.56	  430.80
     21.9700	  571.00	  548.00	-1723.25	  430.46
     22.0700	  528.00	  547.70	-1765.95	  430.13
     22.1700	  569.00	  547.39	-1724.64	  429.79
     22.2700	  533.00	  547.09	-1760.34	  429.45
     22.3700	  562.00	  546.79	-1731.04	  429.11
     22.4700	  579.00	  546.50	-1713.75	  428.77
     22.5700	  494.00	  546.21	-1798.46	  428.43
     22.6700	  542.00	  545.93	-1750.18	  428.09
     22.7700	  565.00	  545.65	-1726.90	  427.75
     22.8700	  570.00	  545.39	-1721.64	  427.42
     22.9700	  514.00	  545.13	-1777.38	  427.08
     23.0700	  581.00	  544.88	-1710.13	  426.74
     23.1700	  557.00	  544.65	-1733.90	  426.41
     23.2700	  571.00	  544.43	-1719.68	  426.07
     23.3700	  527.00	  544.24	-1763.49	  425.74
     23.4700	  564.00	  544.08	-1726.33	  425.40
     23.5700	  514.00	  543.96	-1776.21	  425.07
     23.6700	  571.00	  543.90	-1719.15	  424.73
     23.7700	  565.00	  543.93	-1725.18	  424.40
     23.8700	  575.00	  544.27	-1715.52	  424.07
     23.9700	  559.00	  544.88	-1732.13	  423.73
     24.0700	  548.00	  546.32	-1744.57	  423.40
     24.1700	  547.00	  549.29	-1748.54	  423.07
     24.2700	  556.00	  554.67	-1744.92	  422.74
     24.3700	  570.00	  563.48	-1739.73	  422.41
     24.4700	  586.00	  576.97	-1737.22	  422.08
     24.5700	  578.00	  595.87	-1764.12	  421.75
     24.6700	  614.00	  617.73	-1749.98	  421.42
     24.7700	  629.00	  633.93	-1751.18	  421.09
     24.8700	  671.00	  632.04	-1707.29	  420.77
     24.9700	  556.00	  609.36	-1799.61	  420.44
     25.0700	  629.00	  581.00	-1698.25	  420.12
     25.1700	  576.00	  560.04	-1730.29	  419.79
     25.2700	  556.00	  548.75	-1739.00	  419.47
     25.3700	  499.00	  543.80	-1791.05	  419.14
     25.4700	  539.00	  541.70	-1748.95	  418.82
     25.5700	  554.00	  540.63	-1732.88	  418.50
     25.6700	  557.00	  539.93	-1729.18	  418.18
     25.7700	  542.00	  539.42	-1743.67	  417.86
     25.8700	  562.00	  539.04	-1723.29	  417.54
     25.9700	  569.00	  538.76	-1716.01	  417.22
     26.0700	  590.00	  538.56	-1694.81	  416.90
     26.1700	  534.00	  538.44	-1750.69	  416.59
     26.2700	  518.00	  538.38	-1766.64	  416.27
     26.3700	  562.00	  538.41	-1722.66	  415.95
     26.4700	  515.00	  538.53	-1769.78	  415.64
     26.5700	  559.00	  538.74	-1725.99	  415.33
     26.6700	  529.00	  539.06	-1756.31	  415.02
     26.7700	  539.00	  539.53	-1746.78	  414.70
     26.8700	  567.00	  540.18	-1719.43	  414.39
     26.9700	  533.00	  541.06	-1754.31	  414.08
     27.0700	  557.00	  542.26	-1731.51	  413.78
     27.1700	  579.00	  543.91	-1711.16	  413.47
     27.2700	  566.00	  546.27	-1726.52	  413.16
     27.3700	  582.00	  549.87	-1714.12	  412.86
     27.4700	  574.00	  555.71	-1727.96	  412.55
     27.5700	  582.00	  565.56	-1729.81	  412.25
     27.6700	  534.00	  582.21	-1794.46	  411.95
     27.7700	  564.00	  609.17	-1791.42	  411.65
     27.8700	  643.00	  649.41	-1752.66	  411.35
     27.9700	  691.00	  702.85	-1758.10	  411.05
     28.0700	  743.00	  763.23	-1766.48	  410.75
     28.1700	  907.00	  815.51	-1654.76	  410.45
     28.2700	 1013.00	  837.38	-1570.63	  410.16
     28.3700	  939.00	  816.27	-1623.52	  409.86
     28.4700	  805.00	  773.91	-1715.16	  409.57
     28.5700	  710.00	  745.24	-1781.49	  409.28
     28.6700	  696.00	  746.11	-1796.36	  408.98
     28.7700	  749.00	  771.53	-1768.78	  408.69
     28.8700	  848.00	  801.10	-1699.35	  408.41
     28.9700	  830.00	  805.89	-1722.14	  408.12
     29.0700	  764.00	  767.62	-1749.87	  407.83
     29.1700	  671.00	  702.66	-1777.91	  407.55
     29.2700	  616.00	  640.81	-1771.06	  407.26
     29.3700	  635.00	  596.23	-1707.48	  406.98
     29.4700	  601.00	  569.34	-1714.59	  406.70
     29.5700	  586.00	  554.83	-1715.08	  406.42
     29.6700	  619.00	  547.20	-1674.45	  406.14
     29.7700	  593.00	  542.90	-1696.15	  405.86
     29.8700	  598.00	  540.26	-1688.51	  405.59
     29.9700	  564.00	  538.62	-1720.87	  405.31
     30.0700	  567.00	  537.83	-1717.08	  405.04
     30.1700	  554.00	  538.10	-1730.35	  404.77
     30.2700	  575.00	  540.02	-1711.27	  404.49
     30.3700	  549.00	  544.82	-1742.07	  404.22
     30.4700	  572.00	  554.35	-1728.60	  403.96
     30.5700	  554.00	  570.60	-1762.85	  403.69
     30.6700	  547.00	  594.24	-1793.49	  403.42
     30.7700	  589.00	  622.45	-1779.70	  403.16
     30.8700	  625.00	  647.24	-1768.49	  402.90
     30.9700	  612.00	  656.31	-1790.56	  402.63
     31.0700	  623.00	  641.09	-1764.34	  402.37
     31.1700	  585.00	  609.60	-1770.85	  402.12
     31.2700	  574.00	  577.93	-1750.18	  401.86
     31.3700	  577.00	  554.69	-1723.94	  401.60
     31.4700	  550.00	  540.67	-1736.92	  401.35
     31.5700	  531.00	  533.28	-1748.53	  401.09
     31.6700	  531.00	  529.53	-1744.78	  400.84
     31.7700	  504.00	  527.48	-1769.73	  400.59
     31.8700	  585.00	  526.20	-1687.45	  400.34
     31.9700	  524.00	  525.30	-1747.55	  400.10
     32.0700	  500.00	  524.66	-1770.91	  399.85
     32.1700	  514.00	  524.21	-1756.46	  399.61
     32.2700	  492.00	  523.92	-1778.17	  399.36
     32.3700	  559.00	  523.79	-1711.04	  399.12
     32.4700	  569.00	  523.81	-1701.06	  398.88
     32.5700	  558.00	  524.00	-1712.25	  398.64
     32.6700	  542.00	  524.37	-1728.62	  398.40
     32.7700	  514.00	  524.97	-1757.22	  398.17
     32.8700	  565.00	  525.86	-1707.11	  397.93
     32.9700	  545.00	  527.14	-1728.39	  397.70
     33.0700	  511.00	  529.00	-1764.25	  397.47
     33.1700	  562.00	  531.86	-1716.11	  397.24
     33.2700	  505.00	  536.68	-1777.93	  397.01
     33.3700	  559.00	  545.57	-1732.82	  396.79
     33.4700	  512.00	  562.82	-1797.07	  396.56
     33.5700	  623.00	  595.35	-1718.60	  396.34
     33.6700	  676.00	  651.55	-1721.80	  396.12
     33.7700	  783.00	  735.83	-1699.08	  395.90
     33.8700	  880.00	  839.86	-1706.11	  395.68
     33.9700	 1003.00	  936.13	-1679.38	  395.46
     34.0700	  991.00	  981.14	-1736.39	  395.25
     34.1700	 1042.00	  941.34	-1645.59	  395.03
     34.2700	  876.00	  836.99	-1707.24	  394.82
     34.3700	  719.00	  723.38	-1750.63	  394.61
     34.4700	  661.00	  635.54	-1720.79	  394.40
     34.5700	  568.00	  580.90	-1759.15	  394.19
     34.6700	  547.00	  551.85	-1751.10	  393.98
     34.7700	  583.00	  537.58	-1700.83	  393.78
     34.8700	  536.00	  530.28	-1740.53	  393.58
     34.9700	  508.00	  525.97	-1764.22	  393.38
     35.0700	  482.00	  523.00	-1787.25	  393.18
     35.1700	  524.00	  520.77	-1743.02	  392.98
     35.2700	  505.00	  519.00	-1760.25	  392.78
     35.3700	  527.00	  517.57	-1736.82	  392.59
     35.4700	  532.00	  516.41	-1730.66	  392.39
     35.5700	  561.00	  515.41	-1700.66	  392.20
     35.6700	  506.00	  514.56	-1754.81	  392.01
     35.7700	  557.00	  513.82	-1703.07	  391.82
     35.8700	  529.00	  513.66	-1730.91	  391.64
     35.9700	  509.00	  513.10	-1750.35	  391.45
     36.0700	  479.00	  512.59	-1779.84	  391.27
     36.1700	  478.00	  512.14	-1780.39	  391.09
     36.2700	  493.00	  511.74	-1764.99	  390.91
     36.3700	  461.00	  511.37	-1796.62	  390.73
     36.4700	  506.00	  511.04	-1751.29	  390.55
     36.5700	  498.00	  510.75	-1759.00	  390.38
     36.6700	  515.00	  510.49	-1741.74	  390.20
     36.7700	  486.00	  510.27	-1770.52	  390.03
     36.8700	  548.00	  510.10	-1708.35	  389.86
     36.9700	  497.00	  510.02	-1759.27	  389.69
     37.0700	  515.00	  510.14	-1741.39	  389.53
     37.1700	  546.00	  510.63	-1710.88	  389.36
     37.2700	  500.00	  511.84	-1758.09	  389.20
     37.3700	  541.00	  514.17	-1719.42	  389.03
     37.4700	  543.00	  517.81	-1721.06	  388.87
     37.5700	  536.00	  522.40	-1732.65	  388.72
     37.6700	  494.00	  526.82	-1779.07	  388.56
     37.7700	  551.00	  529.56	-1724.81	  388.40
     37.8700	  529.00	  529.84	-1747.09	  388.25
     37.9700	  486.00	  528.25	-1788.50	  388.10
     38.0700	  503.00	  525.34	-1768.59	  387.95
     38.1700	  501.00	  521.27	-1766.52	  387.80
     38.2700	  524.00	  516.79	-1739.04	  387.65
     38.3700	  465.00	  512.92	-1794.17	  387.51
     38.4700	  513.00	  510.10	-1743.35	  387.36
     38.5700	  510.00	  508.31	-1744.56	  387.22
     38.6700	  515.00	  507.28	-1738.53	  387.08
     38.7700	  463.00	  506.59	-1789.84	  386.94
     38.8700	  496.00	  506.22	-1756.47	  386.81
     38.9700	  525.00	  505.95	-1727.20	  386.67
     39.0700	  512.00	  505.73	-1739.98	  386.54
     39.1700	  501.00	  505.45	-1750.70	  386.41
     39.2700	  492.00	  505.28	-1759.53	  386.28
     39.3700	  505.00	  505.13	-1746.38	  386.15
     39.4700	  488.00	  504.99	-1763.24	  386.02
     39.5700	  519.00	  504.86	-1732.11	  385.90
     39.6700	  513.00	  504.75	-1738.00	  385.77
     39.7700	  551.00	  504.64	-1699.89	  385.65
     39.8700	  501.00	  504.66	-1749.91	  385.53
     39.9700	  490.00	  504.58	-1760.83	  385.42
     40.0700	  483.00	  504.50	-1767.75	  385.30
     40.1700	  559.00	  504.44	-1691.69	  385.18
     40.2700	  528.00	  504.38	-1722.63	  385.07
     40.3700	  537.00	  504.34	-1713.59	  384.96
     40.4700	  489.00	  504.31	-1761.56	  384.85
     40.5700	  485.00	  504.30	-1765.55	  384.74
     40.6700	  480.00	  504.30	-1770.55	  384.63
     40.7700	  486.00	  504.32	-1764.57	  384.53
