MSG Master    CELL:    5.91900   5.91900  23.26741   90.0000   90.0000  120.0000   SPGR: P 63/m m c             TEMP:   1074.95
  1   1280     2.52000     0.00000    -0.13040     0.00000     0.00000    0
    99     0     2
       0.00000      10.00000
     125.00000     130.00000
 2Theta	Yobs	Ycal	Yobs-Ycal	Backg	Posr	(hkl)	K
      0.7700	    0.00	  542.74	-1730.76	  425.35
      0.8700	    0.00	  543.46	-1730.76	  426.07
      0.9700	   51.00	  544.17	-1730.76	  426.78
      1.0700	   38.00	  544.86	-1730.76	  427.47
      1.1700	   33.00	  545.55	-1730.76	  428.16
      1.2700	   44.00	  546.23	-1730.76	  428.84
      1.3700	   37.00	  546.89	-1730.76	  429.50
      1.4700	   96.00	  547.55	-1730.76	  430.16
      1.5700	  259.00	  548.19	-1730.76	  430.80
      1.6700	  474.00	  548.83	-1730.76	  431.44
      1.7700	  558.00	  549.45	-1730.76	  432.06
      1.8700	  664.00	  550.06	-1730.76	  432.68
      1.9700	  763.00	  550.67	-1730.76	  433.28
      2.0700	  807.00	  551.26	-1730.76	  433.87
      2.1700	  779.00	  551.85	-1730.76	  434.46
      2.2700	  812.00	  552.42	-1730.76	  435.03
      2.3700	  745.00	  552.99	-1730.76	  435.60
      2.4700	  689.00	  553.54	-1730.76	  436.15
      2.5700	  659.00	  554.09	-1730.76	  436.70
      2.6700	  650.00	  554.63	-1730.76	  437.24
      2.7700	  642.00	  555.15	-1730.76	  437.76
      2.8700	  632.00	  555.67	-1730.76	  438.28
      2.9700	  618.00	  556.18	-1730.76	  438.79
      3.0700	  588.00	  556.68	-1730.76	  439.29
      3.1700	  579.00	  557.17	-1730.76	  439.78
      3.2700	  630.00	  557.65	-1730.76	  440.26
      3.3700	  662.00	  558.12	-1730.76	  440.73
      3.4700	  784.00	  558.58	-1730.76	  441.19
      3.5700	  823.00	  559.04	-1730.76	  441.65
      3.6700	  826.00	  559.48	-1730.76	  442.09
      3.7700	  888.00	  559.92	-1730.76	  442.53
      3.8700	  948.00	  560.35	-1730.76	  442.96
      3.9700	  985.00	  560.76	-1730.76	  443.37
      4.0700	 1101.00	  561.17	-1730.76	  443.78
      4.1700	 1107.00	  561.58	-1730.76	  444.19
      4.2700	 1086.00	  561.97	-1730.76	  444.58
      4.3700	 1104.00	  562.35	-1730.76	  444.96
      4.4700	 1086.00	  562.73	-1730.76	  445.34
      4.5700	 1103.00	  563.10	-1730.76	  445.71
      4.6700	  988.00	  563.46	-1730.76	  446.07
      4.7700	 1007.00	  563.81	-1730.76	  446.42
      4.8700	  964.00	  564.15	-1730.76	  446.77
      4.9700	  909.00	  564.49	-1730.76	  447.10
      5.0700	  972.00	  564.82	-1730.76	  447.43
      5.1700	  905.00	  565.14	-1730.76	  447.75
      5.2700	  887.00	  565.45	-1730.76	  448.06
      5.3700	  889.00	  565.76	-1730.76	  448.37
      5.4700	  833.00	  566.05	-1730.76	  448.66
      5.5700	  852.00	  566.34	-1730.76	  448.95
      5.6700	  843.00	  566.62	-1730.76	  449.23
      5.7700	  782.00	  566.90	-1730.76	  449.51
      5.8700	  814.00	  567.16	-1730.76	  449.77
      5.9700	  793.00	  567.42	-1730.76	  450.03
      6.0700	  878.00	  567.68	-1730.76	  450.29
      6.1700	  784.00	  567.92	-1730.76	  450.53
      6.2700	  815.00	  568.16	-1730.76	  450.77
      6.3700	  758.00	  568.39	-1730.76	  451.00
      6.4700	  758.00	  568.61	-1730.76	  451.22
      6.5700	  741.00	  568.83	-1730.76	  451.44
      6.6700	  749.00	  569.04	-1730.76	  451.65
      6.7700	  732.00	  569.24	-1730.76	  451.85
      6.8700	  702.00	  569.43	-1730.76	  452.04
      6.9700	  706.00	  569.62	-1730.76	  452.23
      7.0700	  660.00	  569.80	-1730.76	  452.41
      7.1700	  658.00	  569.98	-1730.76	  452.59
      7.2700	  666.00	  570.15	-1730.76	  452.76
      7.3700	  619.00	  570.31	-1730.76	  452.92
      7.4700	  635.00	  570.47	-1730.76	  453.08
      7.5700	  636.00	  570.61	-1730.76	  453.23
      7.6700	  666.00	  570.76	-1730.76	  453.37
      7.7700	  657.00	  570.89	-1730.76	  453.50
      7.8700	  628.00	  571.02	-1730.76	  453.63
      7.9700	  616.00	  571.15	-1730.76	  453.76
      8.0700	  631.00	  571.26	-1730.76	  453.88
      8.1700	  647.00	  571.38	-1730.76	  453.99
      8.2700	  616.00	  571.48	-1730.76	  454.09
      8.3700	  611.00	  571.58	-1730.76	  454.19
      8.4700	  618.00	  571.67	-1730.76	  454.28
      8.5700	  598.00	  571.76	-1730.76	  454.37
      8.6700	  602.00	  571.84	-1730.76	  454.45
      8.7700	  588.00	  571.92	-1730.76	  454.53
      8.8700	  628.00	  571.99	-1730.76	  454.60
      8.9700	  626.00	  572.05	-1730.76	  454.66
      9.0700	  630.00	  572.11	-1730.76	  454.72
      9.1700	  627.00	  572.17	-1730.76	  454.78
      9.2700	  589.00	  572.21	-1730.76	  454.82
      9.3700	  612.00	  572.26	-1730.76	  454.87
      9.4700	  622.00	  572.29	-1730.76	  454.90
      9.5700	  668.00	  572.32	-1730.76	  454.93
      9.6700	  620.00	  572.35	-1730.76	  454.96
      9.7700	  617.00	  572.37	-1730.76	  454.98
      9.8700	  625.00	  572.39	-1730.76	  455.00
      9.9700	  595.00	  572.40	-1730.76	  455.01
     10.0700	  582.00	  573.13	-1721.89	  455.01
     10.1700	  590.00	  573.21	-1713.97	  455.01
     10.2700	  593.00	  573.30	-1711.06	  455.01
     10.3700	  571.00	  573.41	-1733.17	  455.00
     10.4700	  594.00	  573.57	-1710.33	  454.98
     10.5700	  562.00	  573.84	-1742.60	  454.96
     10.6700	  600.00	  574.31	-1705.07	  454.94
     10.7700	  593.00	  575.08	-1712.85	  454.91
     10.8700	  573.00	  576.24	-1734.00	  454.88
     10.9700	  588.00	  577.77	-1720.53	  454.84
     11.0700	  616.00	  579.63	-1694.39	  454.79
     11.1700	  570.00	  581.82	-1742.58	  454.75
     11.2700	  577.00	  584.36	-1738.12	  454.69
     11.3700	  595.00	  587.35	-1723.11	  454.64
     11.4700	  570.00	  590.89	-1751.65	  454.58
     11.5700	  565.00	  595.20	-1760.96	  454.51
     11.6700	  662.00	  600.62	-1669.38	  454.44
     11.7700	  647.00	  607.73	-1691.50	  454.37
     11.8700	  598.00	  617.52	-1750.28	  454.29
     11.9700	  688.00	  630.74	-1673.50	  454.21
     12.0700	  689.00	  645.93	-1687.69	  454.12
     12.1700	  656.00	  656.77	-1731.53	  454.03
     12.2700	  687.00	  653.21	-1696.97	  453.93
     12.3700	  678.00	  632.41	-1685.17	  453.83
     12.4700	  637.00	  607.43	-1701.19	  453.73
     12.5700	  561.00	  589.59	-1759.35	  453.62
     12.6700	  540.00	  580.25	-1771.01	  453.51
     12.7700	  545.00	  576.19	-1761.95	  453.40
     12.8700	  566.00	  574.40	-1739.16	  453.28
     12.9700	  558.00	  573.41	-1746.17	  453.16
     13.0700	  556.00	  572.73	-1747.49	  453.03
     13.1700	  597.00	  572.20	-1705.96	  452.90
     13.2700	  545.00	  571.78	-1757.54	  452.77
     13.3700	  554.00	  571.41	-1748.17	  452.63
     13.4700	  591.00	  571.10	-1710.86	  452.49
     13.5700	  559.00	  570.81	-1742.57	  452.35
     13.6700	  544.00	  570.55	-1757.31	  452.20
     13.7700	  585.00	  570.30	-1716.06	  452.05
     13.8700	  564.00	  570.07	-1736.83	  451.90
     13.9700	  578.00	  569.85	-1722.61	  451.74
     14.0700	  553.00	  569.63	-1747.39	  451.58
     14.1700	  570.00	  569.42	-1730.18	  451.41
     14.2700	  553.00	  569.21	-1746.97	  451.25
     14.3700	  550.00	  569.00	-1749.77	  451.08
     14.4700	  556.00	  568.80	-1743.56	  450.90
     14.5700	  561.00	  568.60	-1738.36	  450.73
     14.6700	  558.00	  568.39	-1741.15	  450.55
     14.7700	  529.00	  568.19	-1769.95	  450.37
     14.8700	  557.00	  567.98	-1741.74	  450.18
     14.9700	  548.00	  567.78	-1750.54	  449.99
     15.0700	  511.00	  567.57	-1787.33	  449.80
     15.1700	  552.00	  567.36	-1746.12	  449.61
     15.2700	  551.00	  567.15	-1746.91	  449.41
     15.3700	  570.00	  566.94	-1727.70	  449.21
     15.4700	  560.00	  566.73	-1737.49	  449.01
     15.5700	  549.00	  566.51	-1748.28	  448.81
     15.6700	  549.00	  566.30	-1748.06	  448.60
     15.7700	  602.00	  566.08	-1694.84	  448.39
     15.8700	  602.00	  565.86	-1694.62	  448.18
     15.9700	  574.00	  565.64	-1722.40	  447.96
     16.0700	  520.00	  565.41	-1776.18	  447.74
     16.1700	  557.00	  565.19	-1738.95	  447.52
     16.2700	  578.00	  564.96	-1717.72	  447.30
     16.3700	  575.00	  564.76	-1720.52	  447.08
     16.4700	  555.00	  564.52	-1740.29	  446.85
     16.5700	  608.00	  564.29	-1687.05	  446.62
     16.6700	  532.00	  564.06	-1762.82	  446.39
     16.7700	  546.00	  563.82	-1748.58	  446.15
     16.8700	  529.00	  563.58	-1765.34	  445.92
     16.9700	  558.00	  563.34	-1736.10	  445.68
     17.0700	  533.00	  563.10	-1760.86	  445.44
     17.1700	  523.00	  562.85	-1770.61	  445.20
     17.2700	  525.00	  562.61	-1768.37	  444.95
     17.3700	  584.00	  562.36	-1709.12	  444.71
     17.4700	  550.00	  562.11	-1742.87	  444.46
     17.5700	  534.00	  561.86	-1758.62	  444.21
     17.6700	  507.00	  561.60	-1785.36	  443.96
     17.7700	  547.00	  561.35	-1745.11	  443.70
     17.8700	  552.00	  561.09	-1739.85	  443.45
     17.9700	  528.00	  560.93	-1763.69	  443.19
     18.0700	  551.00	  560.67	-1740.43	  442.93
     18.1700	  608.00	  560.41	-1683.17	  442.67
     18.2700	  542.00	  560.15	-1748.91	  442.40
     18.3700	  607.00	  559.89	-1683.65	  442.14
     18.4700	  535.00	  559.62	-1755.39	  441.87
     18.5700	  569.00	  559.36	-1721.12	  441.60
     18.6700	  601.00	  559.09	-1688.85	  441.34
     18.7700	  552.00	  558.82	-1737.58	  441.06
     18.8700	  608.00	  558.64	-1681.40	  440.79
     18.9700	  577.00	  558.37	-1712.13	  440.52
     19.0700	  525.00	  558.10	-1763.86	  440.24
     19.1700	  589.00	  557.83	-1699.59	  439.97
     19.2700	  546.00	  557.56	-1742.32	  439.69
     19.3700	  582.00	  557.28	-1706.05	  439.41
     19.4700	  599.00	  557.01	-1688.77	  439.13
     19.5700	  539.00	  556.73	-1748.50	  438.85
     19.6700	  572.00	  556.46	-1715.22	  438.56
     19.7700	  576.00	  556.18	-1710.94	  438.28
     19.8700	  578.00	  555.90	-1708.66	  437.99
     19.9700	  590.00	  555.63	-1696.39	  437.71
     20.0700	  551.00	  555.35	-1735.11	  437.42
     20.1700	  579.00	  555.07	-1706.83	  437.13
     20.2700	  533.00	  554.79	-1752.55	  436.84
     20.3700	  584.00	  554.51	-1701.27	  436.55
     20.4700	  549.00	  554.20	-1735.96	  436.25
     20.5700	  548.00	  553.91	-1736.68	  435.96
     20.6700	  535.00	  553.63	-1749.39	  435.67
     20.7700	  538.00	  553.35	-1746.11	  435.37
     20.8700	  494.00	  553.07	-1789.83	  435.08
     20.9700	  584.00	  552.83	-1699.59	  434.78
     21.0700	  559.00	  552.54	-1724.30	  434.48
     21.1700	  546.00	  552.26	-1737.02	  434.18
     21.2700	  595.00	  551.98	-1687.74	  433.88
     21.3700	  539.00	  551.70	-1743.46	  433.58
     21.4700	  507.00	  551.42	-1775.18	  433.28
     21.5700	  538.00	  551.14	-1743.90	  432.98
     21.6700	  529.00	  550.87	-1752.63	  432.68
     21.7700	  553.00	  550.59	-1728.35	  432.38
     21.8700	  582.00	  550.31	-1699.07	  432.07
     21.9700	  535.00	  550.04	-1745.80	  431.77
     22.0700	  544.00	  549.77	-1736.53	  431.46
     22.1700	  553.00	  549.50	-1727.26	  431.16
     22.2700	  525.00	  549.23	-1754.99	  430.85
     22.3700	  514.00	  548.96	-1765.72	  430.55
     22.4700	  552.00	  548.70	-1727.46	  430.24
     22.5700	  530.00	  548.45	-1749.21	  429.93
     22.6700	  539.00	  548.19	-1739.96	  429.63
     22.7700	  555.00	  547.95	-1723.71	  429.32
     22.8700	  557.00	  547.71	-1721.47	  429.01
     22.9700	  535.00	  547.48	-1743.24	  428.70
     23.0700	  574.00	  547.27	-1704.03	  428.39
     23.1700	  563.00	  547.06	-1714.82	  428.08
     23.2700	  556.00	  546.88	-1721.64	  427.77
     23.3700	  568.00	  546.72	-1709.48	  427.46
     23.4700	  566.00	  546.59	-1711.35	  427.15
     23.5700	  523.00	  546.50	-1754.26	  426.84
     23.6700	  530.00	  546.47	-1747.23	  426.53
     23.7700	  547.00	  546.67	-1730.43	  426.22
     23.8700	  570.00	  546.94	-1707.70	  425.91
     23.9700	  525.00	  547.62	-1753.38	  425.60
     24.0700	  549.00	  549.11	-1730.88	  425.29
     24.1700	  571.00	  552.09	-1711.85	  424.98
     24.2700	  515.00	  557.37	-1773.13	  424.67
     24.3700	  551.00	  565.92	-1745.68	  424.36
     24.4700	  614.00	  578.82	-1695.58	  424.05
     24.5700	  599.00	  596.51	-1728.27	  423.74
     24.6700	  577.00	  616.37	-1770.13	  423.43
     24.7700	  593.00	  630.44	-1768.20	  423.12
     24.8700	  614.00	  627.75	-1744.51	  422.81
     24.9700	  576.00	  606.65	-1761.41	  422.50
     25.0700	  609.00	  580.94	-1702.70	  422.19
     25.1700	  557.00	  561.90	-1735.66	  421.88
     25.2700	  519.00	  551.42	-1763.18	  421.57
     25.3700	  576.00	  546.66	-1701.42	  421.26
     25.4700	  580.00	  544.56	-1695.32	  420.95
     25.5700	  622.00	  543.46	-1652.22	  420.64
     25.6700	  561.00	  542.75	-1712.51	  420.33
     25.7700	  521.00	  542.23	-1751.99	  420.02
     25.8700	  540.00	  541.83	-1732.59	  419.71
     25.9700	  542.00	  541.54	-1730.30	  419.40
     26.0700	  550.00	  541.32	-1722.08	  419.10
     26.1700	  587.00	  541.18	-1684.94	  418.79
     26.2700	  552.00	  541.11	-1719.88	  418.48
     26.3700	  522.00	  541.12	-1749.88	  418.18
     26.4700	  580.00	  541.21	-1691.97	  417.87
     26.5700	  636.00	  541.38	-1636.14	  417.56
     26.6700	  516.00	  541.67	-1756.43	  417.26
     26.7700	  535.00	  542.09	-1737.85	  416.95
     26.8700	  537.00	  542.68	-1736.44	  416.65
     26.9700	  557.00	  543.48	-1717.25	  416.35
     27.0700	  591.00	  544.58	-1684.34	  416.04
     27.1700	  500.00	  546.10	-1776.86	  415.74
     27.2700	  583.00	  548.30	-1696.06	  415.44
     27.3700	  535.00	  551.65	-1747.41	  415.14
     27.4700	  567.00	  557.10	-1720.86	  414.84
     27.5700	  564.00	  566.32	-1733.08	  414.54
     27.6700	  610.00	  581.92	-1702.68	  414.24
     27.7700	  607.00	  607.22	-1730.98	  413.94
     27.8700	  595.00	  644.96	-1780.72	  413.64
     27.9700	  692.00	  695.04	-1733.80	  413.34
     28.0700	  789.00	  751.49	-1693.25	  413.05
     28.1700	  864.00	  800.07	-1666.84	  412.75
     28.2700	  922.00	  819.91	-1628.67	  412.45
     28.3700	  908.00	  799.84	-1622.60	  412.16
     28.4700	  748.00	  761.06	-1743.82	  411.87
     28.5700	  693.00	  736.18	-1773.94	  411.57
     28.6700	  706.00	  739.43	-1764.19	  411.28
     28.7700	  747.00	  765.46	-1749.22	  410.99
     28.8700	  814.00	  794.37	-1711.13	  410.70
     28.9700	  826.00	  798.35	-1703.11	  410.41
     29.0700	  764.00	  760.58	-1727.34	  410.12
     29.1700	  686.00	  697.75	-1742.51	  409.83
     29.2700	  600.00	  638.42	-1769.18	  409.55
     29.3700	  609.00	  595.85	-1717.61	  409.26
     29.4700	  637.00	  570.21	-1663.97	  408.97
     29.5700	  646.00	  556.38	-1641.14	  408.69
     29.6700	  632.00	  549.09	-1647.85	  408.41
     29.7700	  623.00	  544.97	-1652.73	  408.12
     29.8700	  602.00	  542.42	-1671.18	  407.84
     29.9700	  578.00	  540.82	-1693.58	  407.56
     30.0700	  528.00	  540.04	-1742.80	  407.28
     30.1700	  554.00	  540.25	-1717.01	  407.00
     30.2700	  580.00	  542.02	-1692.78	  406.73
     30.3700	  638.00	  546.45	-1639.21	  406.45
     30.4700	  540.00	  555.23	-1745.99	  406.18
     30.5700	  561.00	  570.09	-1739.85	  405.90
     30.6700	  585.00	  591.52	-1737.28	  405.63
     30.7700	  565.00	  616.80	-1782.56	  405.36
     30.8700	  640.00	  638.66	-1729.42	  405.09
     30.9700	  663.00	  646.07	-1713.83	  404.82
     31.0700	  544.00	  631.74	-1818.50	  404.55
     31.1700	  588.00	  603.34	-1746.10	  404.28
     31.2700	  565.00	  575.06	-1740.82	  404.01
     31.3700	  558.00	  554.33	-1727.09	  403.75
     31.4700	  527.00	  541.81	-1745.57	  403.48
     31.5700	  541.00	  535.17	-1724.93	  403.22
     31.6700	  538.00	  531.77	-1724.53	  402.96
     31.7700	  565.00	  529.89	-1695.65	  402.70
     31.8700	  569.00	  528.71	-1690.47	  402.44
     31.9700	  513.00	  527.89	-1745.65	  402.18
     32.0700	  549.00	  527.30	-1709.07	  401.93
     32.1700	  559.00	  526.90	-1698.66	  401.67
     32.2700	  544.00	  526.66	-1713.42	  401.42
     32.3700	  575.00	  526.57	-1682.33	  401.16
     32.4700	  565.00	  526.63	-1692.39	  400.91
     32.5700	  523.00	  526.85	-1734.61	  400.66
     32.6700	  581.00	  527.27	-1677.03	  400.41
     32.7700	  562.00	  527.92	-1696.68	  400.16
     32.8700	  559.00	  528.87	-1700.64	  399.92
     32.9700	  515.00	  530.24	-1746.00	  399.67
     33.0700	  550.00	  532.22	-1712.98	  399.43
     33.1700	  525.00	  535.26	-1741.03	  399.19
     33.2700	  497.00	  540.39	-1774.15	  398.95
     33.3700	  556.00	  549.85	-1724.61	  398.71
     33.4700	  567.00	  567.97	-1731.73	  398.47
     33.5700	  580.00	  601.70	-1752.46	  398.23
     33.6700	  619.00	  659.16	-1770.92	  398.00
     33.7700	  724.00	  744.06	-1750.82	  397.76
     33.8700	  873.00	  847.24	-1705.00	  397.53
     33.9700	  996.00	  940.84	-1675.60	  397.30
     34.0700	 1102.00	  982.04	-1610.80	  397.07
     34.1700	 1071.00	  939.45	-1599.21	  396.84
     34.2700	  885.00	  835.26	-1681.02	  396.61
     34.3700	  734.00	  723.56	-1720.32	  396.39
     34.4700	  589.00	  637.53	-1779.29	  396.17
     34.5700	  578.00	  583.82	-1736.58	  395.94
     34.6700	  558.00	  555.02	-1727.78	  395.72
     34.7700	  537.00	  540.69	-1734.45	  395.50
     34.8700	  545.00	  533.26	-1719.03	  395.29
     34.9700	  542.00	  528.84	-1717.60	  395.07
     35.0700	  538.00	  525.79	-1718.55	  394.85
     35.1700	  491.00	  523.48	-1763.24	  394.64
     35.2700	  537.00	  521.66	-1715.42	  394.43
     35.3700	  528.00	  520.20	-1722.96	  394.22
     35.4700	  482.00	  518.97	-1767.73	  394.01
     35.5700	  533.00	  517.94	-1715.70	  393.80
     35.6700	  511.00	  517.05	-1736.82	  393.60
     35.7700	  493.00	  516.29	-1754.05	  393.39
     35.8700	  503.00	  515.61	-1743.37	  393.19
     35.9700	  537.00	  515.50	-1709.26	  392.99
     36.0700	  524.00	  514.97	-1721.73	  392.79
     36.1700	  515.00	  514.50	-1730.26	  392.59
     36.2700	  520.00	  514.07	-1724.83	  392.40
     36.3700	  492.00	  513.69	-1752.45	  392.20
     36.4700	  534.00	  513.34	-1710.11	  392.01
     36.5700	  486.00	  513.04	-1757.80	  391.82
     36.6700	  526.00	  512.77	-1717.53	  391.63
     36.7700	  529.00	  512.55	-1714.31	  391.44
     36.8700	  452.00	  512.39	-1791.15	  391.25
     36.9700	  509.00	  512.34	-1734.10	  391.07
     37.0700	  523.00	  512.53	-1720.30	  390.88
     37.1700	  528.00	  513.20	-1715.96	  390.70
     37.2700	  501.00	  514.71	-1744.47	  390.52
     37.3700	  532.00	  517.47	-1716.24	  390.34
     37.4700	  555.00	  521.62	-1697.38	  390.17
     37.5700	  535.00	  526.59	-1722.35	  389.99
     37.6700	  530.00	  531.04	-1731.80	  389.82
     37.7700	  507.00	  533.26	-1757.02	  389.65
     37.8700	  532.00	  532.61	-1731.37	  389.48
     37.9700	  517.00	  530.04	-1743.80	  389.31
     38.0700	  544.00	  526.44	-1713.20	  389.14
     38.1700	  510.00	  522.15	-1742.91	  388.97
     38.2700	  512.00	  517.83	-1736.59	  388.81
     38.3700	  538.00	  514.25	-1707.01	  388.65
     38.4700	  488.00	  511.69	-1754.45	  388.49
     38.5700	  491.00	  510.07	-1749.83	  388.33
     38.6700	  537.00	  509.10	-1702.86	  388.17
     38.7700	  459.00	  508.44	-1780.20	  388.02
     38.8700	  494.00	  508.05	-1744.82	  387.86
     38.9700	  512.00	  507.77	-1726.53	  387.71
     39.0700	  485.00	  507.53	-1753.29	  387.56
     39.1700	  485.00	  507.32	-1753.08	  387.41
     39.2700	  494.00	  507.05	-1743.81	  387.27
     39.3700	  489.00	  506.88	-1748.64	  387.12
     39.4700	  502.00	  506.72	-1735.48	  386.98
     39.5700	  555.00	  506.57	-1682.33	  386.84
     39.6700	  520.00	  506.56	-1717.32	  386.70
     39.7700	  524.00	  506.43	-1713.20	  386.56
     39.8700	  542.00	  506.32	-1695.08	  386.42
     39.9700	  461.00	  506.22	-1775.98	  386.29
     40.0700	  534.00	  506.13	-1702.89	  386.15
     40.1700	  529.00	  506.05	-1707.81	  386.02
     40.2700	  474.00	  505.98	-1762.74	  385.89
     40.3700	  475.00	  505.92	-1761.68	  385.77
     40.4700	  493.00	  505.88	-1743.64	  385.64
     40.5700	  503.00	  505.84	-1733.61	  385.51
     40.6700	  483.00	  505.83	-1753.59	  385.39
     40.7700	  502.00	  505.84	-1734.60	  385.27
