MSG Master    CELL:    5.91907   5.91907  23.27208   90.0000   90.0000  120.0000   SPGR: P 63/m m c             TEMP:   1074.85
  1   1280     2.52000     0.00000    -0.12585     0.00000     0.00000    0
    99     0     2
       0.00000      10.00000
     125.00000     130.00000
 2Theta	Yobs	Ycal	Yobs-Ycal	Backg	Posr	(hkl)	K
      0.7700	    0.00	  565.02	-1790.00	  446.34
      0.8700	    0.00	  565.52	-1790.00	  446.83
      0.9700	   39.00	  566.01	-1790.00	  447.32
      1.0700	   43.00	  566.48	-1790.00	  447.80
      1.1700	   44.00	  566.95	-1790.00	  448.27
      1.2700	   54.00	  567.41	-1790.00	  448.73
      1.3700	   42.00	  567.87	-1790.00	  449.18
      1.4700	  118.00	  568.31	-1790.00	  449.63
      1.5700	  272.00	  568.74	-1790.00	  450.06
      1.6700	  486.00	  569.17	-1790.00	  450.49
      1.7700	  561.00	  569.59	-1790.00	  450.90
      1.8700	  643.00	  570.00	-1790.00	  451.31
      1.9700	  769.00	  570.40	-1790.00	  451.71
      2.0700	  810.00	  570.79	-1790.00	  452.10
      2.1700	  783.00	  571.17	-1790.00	  452.49
      2.2700	  742.00	  571.55	-1790.00	  452.86
      2.3700	  782.00	  571.91	-1790.00	  453.23
      2.4700	  712.00	  572.27	-1790.00	  453.59
      2.5700	  670.00	  572.62	-1790.00	  453.94
      2.6700	  676.00	  572.96	-1790.00	  454.28
      2.7700	  675.00	  573.30	-1790.00	  454.62
      2.8700	  599.00	  573.62	-1790.00	  454.94
      2.9700	  568.00	  573.94	-1790.00	  455.26
      3.0700	  597.00	  574.25	-1790.00	  455.57
      3.1700	  577.00	  574.56	-1790.00	  455.87
      3.2700	  625.00	  574.85	-1790.00	  456.17
      3.3700	  661.00	  575.14	-1790.00	  456.46
      3.4700	  679.00	  575.42	-1790.00	  456.74
      3.5700	  874.00	  575.69	-1790.00	  457.01
      3.6700	  846.00	  575.96	-1790.00	  457.28
      3.7700	  918.00	  576.22	-1790.00	  457.53
      3.8700	  927.00	  576.47	-1790.00	  457.78
      3.9700	  992.00	  576.71	-1790.00	  458.03
      4.0700	 1062.00	  576.95	-1790.00	  458.26
      4.1700	 1080.00	  577.17	-1790.00	  458.49
      4.2700	 1031.00	  577.40	-1790.00	  458.71
      4.3700	 1074.00	  577.61	-1790.00	  458.93
      4.4700	  978.00	  577.82	-1790.00	  459.13
      4.5700	  986.00	  578.02	-1790.00	  459.34
      4.6700	 1002.00	  578.21	-1790.00	  459.53
      4.7700	 1029.00	  578.40	-1790.00	  459.72
      4.8700	  976.00	  578.58	-1790.00	  459.90
      4.9700	  912.00	  578.75	-1790.00	  460.07
      5.0700	  916.00	  578.92	-1790.00	  460.24
      5.1700	  936.00	  579.08	-1790.00	  460.40
      5.2700	  893.00	  579.23	-1790.00	  460.55
      5.3700	  903.00	  579.38	-1790.00	  460.70
      5.4700	  907.00	  579.52	-1790.00	  460.84
      5.5700	  910.00	  579.65	-1790.00	  460.97
      5.6700	  857.00	  579.78	-1790.00	  461.10
      5.7700	  781.00	  579.90	-1790.00	  461.22
      5.8700	  801.00	  580.02	-1790.00	  461.34
      5.9700	  833.00	  580.13	-1790.00	  461.44
      6.0700	  780.00	  580.23	-1790.00	  461.55
      6.1700	  818.00	  580.33	-1790.00	  461.64
      6.2700	  851.00	  580.42	-1790.00	  461.74
      6.3700	  795.00	  580.50	-1790.00	  461.82
      6.4700	  783.00	  580.58	-1790.00	  461.90
      6.5700	  731.00	  580.65	-1790.00	  461.97
      6.6700	  752.00	  580.72	-1790.00	  462.04
      6.7700	  705.00	  580.78	-1790.00	  462.10
      6.8700	  738.00	  580.84	-1790.00	  462.16
      6.9700	  738.00	  580.89	-1790.00	  462.21
      7.0700	  727.00	  580.93	-1790.00	  462.25
      7.1700	  663.00	  580.97	-1790.00	  462.29
      7.2700	  710.00	  581.01	-1790.00	  462.32
      7.3700	  661.00	  581.03	-1790.00	  462.35
      7.4700	  640.00	  581.06	-1790.00	  462.37
      7.5700	  681.00	  581.07	-1790.00	  462.39
      7.6700	  691.00	  581.09	-1790.00	  462.40
      7.7700	  692.00	  581.09	-1790.00	  462.41
      7.8700	  618.00	  581.09	-1790.00	  462.41
      7.9700	  652.00	  581.09	-1790.00	  462.41
      8.0700	  646.00	  581.08	-1790.00	  462.40
      8.1700	  631.00	  581.07	-1790.00	  462.38
      8.2700	  619.00	  581.05	-1790.00	  462.36
      8.3700	  628.00	  581.02	-1790.00	  462.34
      8.4700	  666.00	  580.99	-1790.00	  462.31
      8.5700	  628.00	  580.96	-1790.00	  462.28
      8.6700	  619.00	  580.92	-1790.00	  462.24
      8.7700	  576.00	  580.88	-1790.00	  462.20
      8.8700	  630.00	  580.83	-1790.00	  462.15
      8.9700	  603.00	  580.78	-1790.00	  462.09
      9.0700	  660.00	  580.72	-1790.00	  462.04
      9.1700	  583.00	  580.66	-1790.00	  461.97
      9.2700	  606.00	  580.59	-1790.00	  461.91
      9.3700	  599.00	  580.52	-1790.00	  461.84
      9.4700	  624.00	  580.44	-1790.00	  461.76
      9.5700	  614.00	  580.36	-1790.00	  461.68
      9.6700	  599.00	  580.28	-1790.00	  461.60
      9.7700	  617.00	  580.19	-1790.00	  461.51
      9.8700	  628.00	  580.10	-1790.00	  461.42
      9.9700	  593.00	  580.00	-1790.00	  461.32
     10.0700	  628.00	  580.65	-1742.65	  461.22
     10.1700	  596.00	  580.62	-1774.62	  461.11
     10.2700	  591.00	  580.60	-1779.60	  461.00
     10.3700	  632.00	  580.61	-1738.61	  460.89
     10.4700	  585.00	  580.68	-1785.68	  460.77
     10.5700	  570.00	  580.84	-1800.84	  460.65
     10.6700	  597.00	  581.21	-1774.21	  460.52
     10.7700	  568.00	  581.88	-1803.88	  460.39
     10.8700	  551.00	  582.93	-1821.93	  460.26
     10.9700	  577.00	  584.35	-1797.35	  460.12
     11.0700	  615.00	  586.10	-1761.10	  459.98
     11.1700	  556.00	  588.18	-1822.18	  459.84
     11.2700	  600.00	  590.63	-1780.63	  459.69
     11.3700	  601.00	  593.50	-1782.50	  459.54
     11.4700	  615.00	  596.94	-1771.94	  459.38
     11.5700	  601.00	  601.14	-1790.14	  459.22
     11.6700	  650.00	  606.43	-1746.43	  459.06
     11.7700	  617.00	  613.40	-1786.40	  458.89
     11.8700	  654.00	  623.00	-1759.00	  458.72
     11.9700	  631.00	  635.95	-1794.95	  458.55
     12.0700	  713.00	  650.83	-1727.83	  458.37
     12.1700	  682.00	  661.54	-1769.54	  458.19
     12.2700	  695.00	  658.25	-1753.25	  458.01
     12.3700	  605.00	  637.92	-1822.92	  457.83
     12.4700	  612.00	  613.13	-1791.13	  457.64
     12.5700	  595.00	  595.17	-1790.17	  457.44
     12.6700	  575.00	  585.59	-1800.59	  457.25
     12.7700	  596.00	  581.31	-1775.31	  457.05
     12.8700	  572.00	  579.37	-1797.37	  456.85
     12.9700	  581.00	  578.27	-1787.27	  456.64
     13.0700	  565.00	  577.49	-1802.49	  456.44
     13.1700	  598.00	  576.87	-1768.87	  456.23
     13.2700	  598.00	  576.36	-1768.36	  456.01
     13.3700	  600.00	  575.91	-1765.91	  455.80
     13.4700	  557.00	  575.51	-1808.51	  455.58
     13.5700	  542.00	  575.14	-1823.14	  455.36
     13.6700	  553.00	  574.80	-1811.80	  455.13
     13.7700	  556.00	  574.47	-1808.47	  454.90
     13.8700	  585.00	  574.16	-1779.16	  454.68
     13.9700	  553.00	  573.86	-1810.86	  454.44
     14.0700	  522.00	  573.57	-1841.57	  454.21
     14.1700	  517.00	  573.28	-1846.28	  453.97
     14.2700	  556.00	  573.00	-1807.00	  453.73
     14.3700	  578.00	  572.72	-1784.72	  453.49
     14.4700	  538.00	  572.44	-1824.44	  453.24
     14.5700	  546.00	  572.17	-1816.17	  453.00
     14.6700	  550.00	  571.89	-1811.89	  452.75
     14.7700	  595.00	  571.62	-1766.62	  452.50
     14.8700	  563.00	  571.35	-1798.35	  452.24
     14.9700	  592.00	  571.07	-1769.07	  451.98
     15.0700	  558.00	  570.80	-1802.80	  451.73
     15.1700	  554.00	  570.52	-1806.52	  451.47
     15.2700	  542.00	  570.25	-1818.25	  451.20
     15.3700	  566.00	  569.97	-1793.97	  450.94
     15.4700	  557.00	  569.69	-1802.69	  450.67
     15.5700	  575.00	  569.41	-1784.41	  450.40
     15.6700	  567.00	  569.13	-1792.13	  450.13
     15.7700	  591.00	  568.85	-1767.85	  449.86
     15.8700	  513.00	  568.57	-1845.57	  449.58
     15.9700	  622.00	  568.28	-1736.28	  449.31
     16.0700	  569.00	  568.00	-1789.00	  449.03
     16.1700	  527.00	  567.71	-1830.71	  448.75
     16.2700	  577.00	  567.45	-1780.45	  448.46
     16.3700	  574.00	  567.16	-1783.16	  448.18
     16.4700	  597.00	  566.87	-1759.87	  447.89
     16.5700	  537.00	  566.58	-1819.58	  447.61
     16.6700	  509.00	  566.28	-1847.28	  447.32
     16.7700	  539.00	  565.99	-1816.99	  447.02
     16.8700	  504.00	  565.69	-1851.69	  446.73
     16.9700	  566.00	  565.40	-1789.40	  446.44
     17.0700	  535.00	  565.10	-1820.10	  446.14
     17.1700	  573.00	  564.80	-1781.80	  445.84
     17.2700	  535.00	  564.50	-1819.50	  445.55
     17.3700	  583.00	  564.20	-1771.20	  445.25
     17.4700	  578.00	  563.89	-1775.89	  444.94
     17.5700	  568.00	  563.59	-1785.59	  444.64
     17.6700	  579.00	  563.28	-1774.28	  444.34
     17.7700	  558.00	  562.98	-1794.98	  444.03
     17.8700	  591.00	  562.67	-1761.67	  443.72
     17.9700	  542.00	  562.46	-1810.46	  443.42
     18.0700	  546.00	  562.15	-1806.15	  443.11
     18.1700	  577.00	  561.84	-1774.84	  442.80
     18.2700	  515.00	  561.53	-1836.53	  442.48
     18.3700	  555.00	  561.22	-1796.22	  442.17
     18.4700	  549.00	  560.91	-1801.91	  441.86
     18.5700	  557.00	  560.60	-1793.60	  441.54
     18.6700	  570.00	  560.28	-1780.28	  441.22
     18.7700	  543.00	  559.97	-1806.97	  440.91
     18.8700	  598.00	  559.65	-1751.65	  440.59
     18.9700	  588.00	  559.42	-1761.42	  440.27
     19.0700	  570.00	  559.10	-1779.10	  439.95
     19.1700	  574.00	  558.79	-1774.79	  439.63
     19.2700	  549.00	  558.47	-1799.47	  439.30
     19.3700	  561.00	  558.16	-1787.16	  438.98
     19.4700	  557.00	  557.84	-1790.84	  438.66
     19.5700	  588.00	  557.52	-1759.52	  438.33
     19.6700	  534.00	  557.20	-1813.20	  438.01
     19.7700	  580.00	  556.88	-1766.88	  437.68
     19.8700	  528.00	  556.56	-1818.56	  437.35
     19.9700	  531.00	  556.24	-1815.24	  437.02
     20.0700	  567.00	  555.92	-1778.92	  436.70
     20.1700	  550.00	  555.60	-1795.60	  436.37
     20.2700	  551.00	  555.28	-1794.28	  436.04
     20.3700	  534.00	  554.96	-1810.96	  435.71
     20.4700	  569.00	  554.64	-1775.64	  435.37
     20.5700	  543.00	  554.29	-1801.29	  435.04
     20.6700	  560.00	  553.97	-1783.97	  434.71
     20.7700	  553.00	  553.66	-1790.66	  434.38
     20.8700	  520.00	  553.34	-1823.34	  434.04
     20.9700	  547.00	  553.05	-1796.05	  433.71
     21.0700	  562.00	  552.74	-1780.74	  433.38
     21.1700	  556.00	  552.42	-1786.42	  433.04
     21.2700	  580.00	  552.10	-1762.10	  432.71
     21.3700	  550.00	  551.79	-1791.79	  432.37
     21.4700	  533.00	  551.47	-1808.47	  432.04
     21.5700	  585.00	  551.16	-1756.16	  431.70
     21.6700	  542.00	  550.85	-1798.85	  431.36
     21.7700	  564.00	  550.54	-1776.54	  431.03
     21.8700	  547.00	  550.23	-1793.23	  430.69
     21.9700	  543.00	  549.92	-1796.92	  430.35
     22.0700	  592.00	  549.61	-1747.61	  430.02
     22.1700	  578.00	  549.31	-1761.31	  429.68
     22.2700	  551.00	  549.01	-1788.01	  429.34
     22.3700	  524.00	  548.71	-1814.71	  429.00
     22.4700	  582.00	  548.42	-1756.42	  428.67
     22.5700	  546.00	  548.13	-1792.13	  428.33
     22.6700	  509.00	  547.85	-1828.85	  427.99
     22.7700	  598.00	  547.57	-1739.57	  427.65
     22.8700	  571.00	  547.31	-1766.31	  427.31
     22.9700	  521.00	  547.05	-1816.05	  426.98
     23.0700	  538.00	  546.80	-1798.80	  426.64
     23.1700	  573.00	  546.57	-1763.57	  426.30
     23.2700	  529.00	  546.35	-1807.35	  425.96
     23.3700	  542.00	  546.16	-1794.16	  425.62
     23.4700	  537.00	  546.00	-1799.00	  425.29
     23.5700	  510.00	  545.88	-1825.88	  424.95
     23.6700	  542.00	  545.82	-1793.82	  424.61
     23.7700	  568.00	  545.98	-1767.98	  424.27
     23.8700	  541.00	  546.21	-1795.21	  423.94
     23.9700	  548.00	  546.83	-1788.83	  423.60
     24.0700	  565.00	  548.23	-1773.23	  423.26
     24.1700	  558.00	  551.04	-1783.04	  422.93
     24.2700	  562.00	  556.03	-1784.03	  422.59
     24.3700	  580.00	  564.11	-1774.11	  422.26
     24.4700	  544.00	  576.28	-1822.28	  421.92
     24.5700	  615.00	  592.90	-1767.90	  421.58
     24.6700	  629.00	  611.44	-1772.44	  421.25
     24.7700	  605.00	  624.46	-1809.46	  420.91
     24.8700	  626.00	  621.78	-1785.78	  420.58
     24.9700	  613.00	  601.97	-1778.97	  420.25
     25.0700	  558.00	  577.88	-1809.89	  419.91
     25.1700	  589.00	  559.99	-1760.99	  419.58
     25.2700	  569.00	  550.05	-1771.05	  419.25
     25.3700	  568.00	  545.47	-1767.47	  418.92
     25.4700	  574.00	  543.42	-1759.42	  418.58
     25.5700	  543.00	  542.33	-1789.33	  418.25
     25.6700	  536.00	  541.61	-1795.61	  417.92
     25.7700	  569.00	  541.09	-1762.09	  417.59
     25.8700	  537.00	  540.69	-1793.69	  417.26
     25.9700	  537.00	  540.38	-1793.38	  416.94
     26.0700	  550.00	  540.16	-1780.16	  416.61
     26.1700	  537.00	  540.01	-1793.01	  416.28
     26.2700	  539.00	  539.93	-1790.93	  415.95
     26.3700	  527.00	  539.93	-1802.93	  415.63
     26.4700	  554.00	  540.01	-1776.01	  415.30
     26.5700	  522.00	  540.19	-1808.19	  414.98
     26.6700	  537.00	  540.48	-1793.48	  414.65
     26.7700	  557.00	  540.90	-1773.90	  414.33
     26.8700	  566.00	  541.50	-1765.50	  414.01
     26.9700	  603.00	  542.32	-1729.32	  413.68
     27.0700	  560.00	  543.45	-1773.45	  413.36
     27.1700	  554.00	  545.01	-1781.01	  413.04
     27.2700	  561.00	  547.27	-1776.27	  412.72
     27.3700	  546.00	  550.72	-1794.72	  412.40
     27.4700	  546.00	  556.36	-1800.36	  412.08
     27.5700	  532.00	  565.96	-1823.96	  411.77
     27.6700	  586.00	  582.33	-1786.33	  411.45
     27.7700	  589.00	  609.09	-1810.09	  411.13
     27.8700	  590.00	  649.41	-1849.41	  410.82
     27.9700	  672.00	  703.42	-1821.42	  410.51
     28.0700	  784.00	  764.97	-1770.97	  410.19
     28.1700	  885.00	  818.64	-1723.64	  409.88
     28.2700	  932.00	  841.19	-1699.19	  409.57
     28.3700	  952.00	  818.79	-1656.79	  409.26
     28.4700	  753.00	  773.00	-1810.00	  408.95
     28.5700	  716.00	  739.89	-1813.89	  408.64
     28.6700	  707.00	  736.13	-1819.13	  408.34
     28.7700	  754.00	  757.33	-1793.33	  408.03
     28.8700	  760.00	  783.94	-1813.94	  407.72
     28.9700	  831.00	  788.39	-1747.39	  407.42
     29.0700	  758.00	  752.93	-1784.93	  407.12
     29.1700	  677.00	  692.36	-1805.35	  406.81
     29.2700	  645.00	  634.51	-1779.51	  406.51
     29.3700	  608.00	  592.79	-1774.79	  406.21
     29.4700	  604.00	  567.60	-1753.60	  405.91
     29.5700	  640.00	  554.02	-1704.02	  405.62
     29.6700	  635.00	  546.85	-1701.85	  405.32
     29.7700	  597.00	  542.80	-1735.80	  405.02
     29.8700	  615.00	  540.28	-1715.28	  404.73
     29.9700	  603.00	  538.68	-1725.68	  404.44
     30.0700	  557.00	  537.87	-1770.87	  404.15
     30.1700	  522.00	  538.01	-1806.01	  403.85
     30.2700	  580.00	  539.63	-1749.63	  403.56
     30.3700	  561.00	  543.81	-1772.81	  403.28
     30.4700	  542.00	  552.15	-1800.15	  402.99
     30.5700	  551.00	  566.41	-1805.41	  402.70
     30.6700	  613.00	  587.10	-1764.10	  402.42
     30.7700	  589.00	  611.74	-1812.74	  402.13
     30.8700	  583.00	  633.34	-1840.34	  401.85
     30.9700	  636.00	  641.18	-1795.18	  401.57
     31.0700	  590.00	  627.80	-1827.80	  401.29
     31.1700	  567.00	  600.23	-1823.23	  401.01
     31.2700	  609.00	  572.44	-1753.44	  400.74
     31.3700	  488.00	  551.94	-1853.94	  400.46
     31.4700	  605.00	  539.52	-1724.52	  400.19
     31.5700	  532.00	  532.92	-1790.92	  399.91
     31.6700	  552.00	  529.54	-1767.54	  399.64
     31.7700	  544.00	  527.68	-1773.68	  399.37
     31.8700	  551.00	  526.50	-1765.50	  399.10
     31.9700	  502.00	  525.68	-1813.68	  398.83
     32.0700	  513.00	  525.10	-1802.10	  398.57
     32.1700	  533.00	  524.69	-1781.69	  398.30
     32.2700	  535.00	  524.44	-1779.44	  398.04
     32.3700	  551.00	  524.33	-1763.33	  397.77
     32.4700	  539.00	  524.37	-1775.37	  397.51
     32.5700	  574.00	  524.58	-1740.58	  397.25
     32.6700	  525.00	  524.97	-1789.97	  397.00
     32.7700	  535.00	  525.60	-1780.60	  396.74
     32.8700	  574.00	  526.51	-1742.51	  396.48
     32.9700	  504.00	  527.83	-1813.83	  396.23
     33.0700	  533.00	  529.75	-1786.75	  395.98
     33.1700	  530.00	  532.70	-1792.70	  395.73
     33.2700	  520.00	  537.67	-1807.67	  395.48
     33.3700	  600.00	  546.82	-1736.82	  395.23
     33.4700	  530.00	  564.38	-1824.38	  394.98
     33.5700	  586.00	  597.11	-1801.11	  394.74
     33.6700	  647.00	  653.01	-1796.01	  394.49
     33.7700	  730.00	  735.90	-1795.90	  394.25
     33.8700	  848.00	  837.13	-1779.13	  394.01
     33.9700	  981.00	  929.70	-1738.70	  393.77
     34.0700	 1124.00	  971.68	-1637.68	  393.54
     34.1700	 1000.00	  931.52	-1721.52	  393.30
     34.2700	  925.00	  829.83	-1694.83	  393.06
     34.3700	  764.00	  719.76	-1745.76	  392.83
     34.4700	  616.00	  634.54	-1808.54	  392.60
     34.5700	  558.00	  581.14	-1813.14	  392.37
     34.6700	  559.00	  552.43	-1783.43	  392.14
     34.7700	  548.00	  538.13	-1780.13	  391.92
     34.8700	  545.00	  530.73	-1775.73	  391.69
     34.9700	  529.00	  526.33	-1787.33	  391.47
     35.0700	  497.00	  523.30	-1816.30	  391.25
     35.1700	  539.00	  521.01	-1772.01	  391.03
     35.2700	  539.00	  519.20	-1770.20	  390.81
     35.3700	  543.00	  517.75	-1764.75	  390.59
     35.4700	  523.00	  516.53	-1783.53	  390.38
     35.5700	  524.00	  515.50	-1781.50	  390.16
     35.6700	  485.00	  514.62	-1819.62	  389.95
     35.7700	  546.00	  513.85	-1757.85	  389.74
     35.8700	  511.00	  513.18	-1792.18	  389.53
     35.9700	  517.00	  513.06	-1786.06	  389.32
     36.0700	  555.00	  512.53	-1747.53	  389.12
     36.1700	  480.00	  512.05	-1822.05	  388.91
     36.2700	  533.00	  511.62	-1768.62	  388.71
     36.3700	  496.00	  511.24	-1805.24	  388.51
     36.4700	  536.00	  510.89	-1764.89	  388.31
     36.5700	  505.00	  510.57	-1795.57	  388.11
     36.6700	  488.00	  510.30	-1812.30	  387.92
     36.7700	  483.00	  510.07	-1817.07	  387.72
     36.8700	  481.00	  509.90	-1818.90	  387.53
     36.9700	  489.00	  509.84	-1810.84	  387.34
     37.0700	  549.00	  510.00	-1751.00	  387.15
     37.1700	  536.00	  510.61	-1764.61	  386.96
     37.2700	  514.00	  511.99	-1787.99	  386.78
     37.3700	  557.00	  514.51	-1747.51	  386.60
     37.4700	  493.00	  518.28	-1815.28	  386.41
     37.5700	  519.00	  522.80	-1793.80	  386.23
     37.6700	  501.00	  526.86	-1815.86	  386.05
     37.7700	  517.00	  529.00	-1802.00	  385.88
     37.8700	  521.00	  528.64	-1797.64	  385.70
     37.9700	  522.00	  526.59	-1794.59	  385.53
     38.0700	  525.00	  523.48	-1788.48	  385.36
     38.1700	  522.00	  519.50	-1787.50	  385.19
     38.2700	  540.00	  515.31	-1765.31	  385.02
     38.3700	  501.00	  511.76	-1800.76	  384.85
     38.4700	  526.00	  509.19	-1773.19	  384.68
     38.5700	  519.00	  507.54	-1778.54	  384.52
     38.6700	  503.00	  506.56	-1793.56	  384.36
     38.7700	  483.00	  505.88	-1812.88	  384.20
     38.8700	  497.00	  505.49	-1798.49	  384.04
     38.9700	  483.00	  505.20	-1812.20	  383.89
     39.0700	  484.00	  504.96	-1810.96	  383.73
     39.1700	  499.00	  504.74	-1795.74	  383.58
     39.2700	  524.00	  504.47	-1770.47	  383.43
     39.3700	  469.00	  504.29	-1825.29	  383.28
     39.4700	  556.00	  504.13	-1738.13	  383.13
     39.5700	  497.00	  503.98	-1796.98	  382.98
     39.6700	  511.00	  503.97	-1782.97	  382.84
     39.7700	  516.00	  503.84	-1777.84	  382.70
     39.8700	  480.00	  503.72	-1813.72	  382.55
     39.9700	  506.00	  503.62	-1787.62	  382.42
     40.0700	  489.00	  503.52	-1804.52	  382.28
     40.1700	  507.00	  503.43	-1786.43	  382.14
     40.2700	  490.00	  503.36	-1803.36	  382.01
     40.3700	  465.00	  503.29	-1828.29	  381.88
     40.4700	  500.00	  503.24	-1793.24	  381.75
     40.5700	  530.00	  503.21	-1763.21	  381.62
     40.6700	  477.00	  503.19	-1816.19	  381.49
     40.7700	  499.00	  503.18	-1794.18	  381.37
