MSG Master    CELL:    5.91148   5.91148  23.24188   90.0000   90.0000  120.0000   SPGR: P 63/m m c             TEMP:    944.05
  1   1280     2.52000     0.00000    -0.12472     0.00000     0.00000    0
    98     0     2
       0.00000      10.00000
     125.00000     130.00000
 2Theta	Yobs	Ycal	Yobs-Ycal	Backg	Posr	(hkl)	K
      0.7700	    0.00	  482.58	-1722.50	  369.57
      0.8700	    0.00	  483.98	-1722.50	  370.97
      0.9700	   38.00	  485.36	-1722.50	  372.35
      1.0700	   33.00	  486.72	-1722.50	  373.71
      1.1700	   41.00	  488.07	-1722.50	  375.06
      1.2700	   46.00	  489.40	-1722.50	  376.40
      1.3700	   43.00	  490.72	-1722.50	  377.71
      1.4700	   88.00	  492.02	-1722.50	  379.01
      1.5700	  315.00	  493.31	-1722.50	  380.30
      1.6700	  447.00	  494.58	-1722.50	  381.57
      1.7700	  564.00	  495.83	-1722.50	  382.83
      1.8700	  644.00	  497.07	-1722.50	  384.07
      1.9700	  718.00	  498.30	-1722.50	  385.29
      2.0700	  763.00	  499.51	-1722.50	  386.50
      2.1700	  841.00	  500.70	-1722.50	  387.69
      2.2700	  769.00	  501.88	-1722.50	  388.87
      2.3700	  757.00	  503.05	-1722.50	  390.04
      2.4700	  728.00	  504.20	-1722.50	  391.19
      2.5700	  743.00	  505.33	-1722.50	  392.33
      2.6700	  679.00	  506.46	-1722.50	  393.45
      2.7700	  642.00	  507.56	-1722.50	  394.56
      2.8700	  638.00	  508.66	-1722.50	  395.65
      2.9700	  603.00	  509.73	-1722.50	  396.73
      3.0700	  575.00	  510.80	-1722.50	  397.79
      3.1700	  619.00	  511.85	-1722.50	  398.84
      3.2700	  665.00	  512.89	-1722.50	  399.88
      3.3700	  759.00	  513.91	-1722.50	  400.90
      3.4700	  808.00	  514.92	-1722.50	  401.91
      3.5700	  892.00	  515.92	-1722.50	  402.91
      3.6700	  982.00	  516.90	-1722.50	  403.89
      3.7700	 1055.00	  517.87	-1722.50	  404.86
      3.8700	 1030.00	  518.82	-1722.50	  405.82
      3.9700	 1147.00	  519.77	-1722.50	  406.76
      4.0700	 1159.00	  520.69	-1722.50	  407.69
      4.1700	 1182.00	  521.61	-1722.50	  408.60
      4.2700	 1217.00	  522.51	-1722.50	  409.51
      4.3700	 1188.00	  523.40	-1722.50	  410.40
      4.4700	 1173.00	  524.28	-1722.50	  411.28
      4.5700	 1145.00	  525.15	-1722.50	  412.14
      4.6700	 1086.00	  526.00	-1722.50	  412.99
      4.7700	 1048.00	  526.84	-1722.50	  413.83
      4.8700	 1030.00	  527.66	-1722.50	  414.66
      4.9700	  975.00	  528.48	-1722.50	  415.47
      5.0700	  948.00	  529.28	-1722.50	  416.28
      5.1700	  974.00	  530.07	-1722.50	  417.07
      5.2700	  936.00	  530.85	-1722.50	  417.84
      5.3700	  935.00	  531.62	-1722.50	  418.61
      5.4700	  934.00	  532.37	-1722.50	  419.36
      5.5700	  949.00	  533.11	-1722.50	  420.11
      5.6700	  842.00	  533.84	-1722.50	  420.84
      5.7700	  849.00	  534.56	-1722.50	  421.55
      5.8700	  855.00	  535.27	-1722.50	  422.26
      5.9700	  795.00	  535.96	-1722.50	  422.96
      6.0700	  854.00	  536.65	-1722.50	  423.64
      6.1700	  763.00	  537.32	-1722.50	  424.31
      6.2700	  778.00	  537.98	-1722.50	  424.97
      6.3700	  845.00	  538.63	-1722.50	  425.62
      6.4700	  787.00	  539.27	-1722.50	  426.26
      6.5700	  798.00	  539.90	-1722.50	  426.89
      6.6700	  723.00	  540.51	-1722.50	  427.51
      6.7700	  764.00	  541.12	-1722.50	  428.11
      6.8700	  731.00	  541.72	-1722.50	  428.71
      6.9700	  714.00	  542.30	-1722.50	  429.29
      7.0700	  705.00	  542.87	-1722.50	  429.87
      7.1700	  670.00	  543.44	-1722.50	  430.43
      7.2700	  715.00	  543.99	-1722.50	  430.98
      7.3700	  701.00	  544.53	-1722.50	  431.53
      7.4700	  659.00	  545.06	-1722.50	  432.06
      7.5700	  656.00	  545.59	-1722.50	  432.58
      7.6700	  662.00	  546.10	-1722.50	  433.09
      7.7700	  642.00	  546.60	-1722.50	  433.59
      7.8700	  620.00	  547.09	-1722.50	  434.08
      7.9700	  628.00	  547.57	-1722.50	  434.57
      8.0700	  664.00	  548.04	-1722.50	  435.04
      8.1700	  658.00	  548.51	-1722.50	  435.50
      8.2700	  592.00	  548.96	-1722.50	  435.95
      8.3700	  619.00	  549.40	-1722.50	  436.39
      8.4700	  627.00	  549.83	-1722.50	  436.83
      8.5700	  601.00	  550.26	-1722.50	  437.25
      8.6700	  588.00	  550.67	-1722.50	  437.66
      8.7700	  626.00	  551.07	-1722.50	  438.07
      8.8700	  627.00	  551.47	-1722.50	  438.46
      8.9700	  627.00	  551.86	-1722.50	  438.85
      9.0700	  628.00	  552.23	-1722.50	  439.23
      9.1700	  662.00	  552.60	-1722.50	  439.59
      9.2700	  572.00	  552.96	-1722.50	  439.95
      9.3700	  643.00	  553.31	-1722.50	  440.30
      9.4700	  573.00	  553.65	-1722.50	  440.64
      9.5700	  578.00	  553.98	-1722.50	  440.98
      9.6700	  611.00	  554.31	-1722.50	  441.30
      9.7700	  629.00	  554.62	-1722.50	  441.62
      9.8700	  565.00	  554.93	-1722.50	  441.92
      9.9700	  600.00	  555.23	-1722.50	  442.22
     10.0700	  591.00	  557.13	-1688.63	  442.51
     10.1700	  611.00	  557.59	-1669.09	  442.79
     10.2700	  583.00	  558.08	-1697.58	  443.06
     10.3700	  572.00	  558.62	-1709.12	  443.33
     10.4700	  618.00	  559.26	-1663.76	  443.59
     10.5700	  633.00	  560.04	-1649.54	  443.83
     10.6700	  616.00	  561.06	-1667.56	  444.07
     10.7700	  563.00	  562.42	-1721.92	  444.31
     10.8700	  564.00	  564.19	-1722.69	  444.53
     10.9700	  552.00	  566.41	-1736.91	  444.75
     11.0700	  601.00	  569.07	-1690.57	  444.96
     11.1700	  570.00	  572.16	-1724.66	  445.16
     11.2700	  579.00	  575.74	-1719.24	  445.35
     11.3700	  548.00	  579.89	-1754.39	  445.54
     11.4700	  622.00	  584.75	-1685.25	  445.72
     11.5700	  593.00	  590.55	-1720.05	  445.89
     11.6700	  668.00	  597.66	-1652.16	  446.05
     11.7700	  602.00	  606.55	-1727.05	  446.21
     11.8700	  640.00	  617.67	-1700.17	  446.36
     11.9700	  685.00	  630.82	-1668.32	  446.50
     12.0700	  674.00	  644.16	-1692.66	  446.64
     12.1700	  686.00	  653.32	-1689.82	  446.77
     12.2700	  662.00	  651.73	-1712.23	  446.89
     12.3700	  675.00	  636.29	-1683.79	  447.00
     12.4700	  654.00	  614.34	-1682.84	  447.11
     12.5700	  627.00	  595.21	-1690.71	  447.21
     12.6700	  570.00	  582.11	-1734.61	  447.31
     12.7700	  525.00	  574.34	-1771.84	  447.40
     12.8700	  507.00	  570.08	-1785.58	  447.48
     12.9700	  526.00	  567.72	-1764.22	  447.55
     13.0700	  588.00	  566.30	-1700.80	  447.62
     13.1700	  593.00	  565.34	-1694.84	  447.68
     13.2700	  567.00	  564.66	-1720.16	  447.74
     13.3700	  573.00	  564.14	-1713.64	  447.79
     13.4700	  540.00	  563.73	-1746.23	  447.83
     13.5700	  563.00	  563.41	-1722.91	  447.87
     13.6700	  525.00	  563.15	-1760.65	  447.90
     13.7700	  530.00	  562.94	-1755.44	  447.92
     13.8700	  560.00	  562.76	-1725.26	  447.94
     13.9700	  519.00	  562.61	-1766.11	  447.96
     14.0700	  539.00	  562.47	-1745.97	  447.96
     14.1700	  563.00	  562.35	-1721.85	  447.96
     14.2700	  548.00	  562.24	-1736.74	  447.96
     14.3700	  543.00	  562.17	-1741.67	  447.95
     14.4700	  555.00	  562.08	-1729.58	  447.93
     14.5700	  564.00	  561.99	-1720.49	  447.91
     14.6700	  588.00	  561.90	-1696.40	  447.89
     14.7700	  533.00	  561.81	-1751.31	  447.86
     14.8700	  568.00	  561.72	-1716.22	  447.82
     14.9700	  528.00	  561.64	-1756.14	  447.78
     15.0700	  512.00	  561.55	-1772.05	  447.73
     15.1700	  559.00	  561.46	-1724.96	  447.67
     15.2700	  548.00	  561.37	-1735.87	  447.62
     15.3700	  551.00	  561.28	-1732.78	  447.55
     15.4700	  576.00	  561.19	-1707.69	  447.48
     15.5700	  520.00	  561.09	-1763.59	  447.41
     15.6700	  541.00	  560.99	-1742.49	  447.33
     15.7700	  583.00	  560.89	-1700.39	  447.25
     15.8700	  521.00	  560.78	-1762.28	  447.16
     15.9700	  544.00	  560.67	-1739.17	  447.07
     16.0700	  556.00	  560.56	-1727.06	  446.97
     16.1700	  557.00	  560.44	-1725.94	  446.87
     16.2700	  538.00	  560.32	-1744.82	  446.76
     16.3700	  555.00	  560.20	-1727.70	  446.65
     16.4700	  543.00	  560.07	-1739.57	  446.53
     16.5700	  582.00	  559.94	-1700.44	  446.41
     16.6700	  562.00	  559.81	-1720.31	  446.29
     16.7700	  541.00	  559.67	-1741.17	  446.16
     16.8700	  529.00	  559.53	-1753.03	  446.03
     16.9700	  523.00	  559.38	-1758.88	  445.89
     17.0700	  564.00	  559.23	-1717.73	  445.75
     17.1700	  541.00	  559.08	-1740.58	  445.60
     17.2700	  537.00	  558.93	-1744.43	  445.45
     17.3700	  510.00	  558.77	-1771.27	  445.30
     17.4700	  544.00	  558.60	-1737.10	  445.14
     17.5700	  546.00	  558.44	-1734.94	  444.98
     17.6700	  531.00	  558.27	-1749.77	  444.81
     17.7700	  546.00	  558.20	-1734.70	  444.64
     17.8700	  537.00	  558.03	-1743.53	  444.47
     17.9700	  529.00	  557.85	-1751.35	  444.29
     18.0700	  536.00	  557.67	-1744.17	  444.11
     18.1700	  544.00	  557.49	-1735.99	  443.92
     18.2700	  535.00	  557.30	-1744.80	  443.74
     18.3700	  534.00	  557.19	-1745.69	  443.54
     18.4700	  529.00	  557.00	-1750.50	  443.35
     18.5700	  566.00	  556.80	-1713.30	  443.15
     18.6700	  540.00	  556.60	-1739.10	  442.95
     18.7700	  553.00	  556.40	-1725.90	  442.74
     18.8700	  555.00	  556.20	-1723.70	  442.53
     18.9700	  523.00	  555.99	-1755.49	  442.32
     19.0700	  549.00	  555.78	-1729.28	  442.11
     19.1700	  534.00	  555.57	-1744.07	  441.89
     19.2700	  538.00	  555.35	-1739.85	  441.67
     19.3700	  535.00	  555.14	-1742.64	  441.44
     19.4700	  559.00	  554.92	-1718.42	  441.21
     19.5700	  542.00	  554.69	-1735.19	  440.98
     19.6700	  550.00	  554.47	-1726.97	  440.75
     19.7700	  548.00	  554.24	-1728.74	  440.51
     19.8700	  527.00	  554.01	-1749.51	  440.27
     19.9700	  515.00	  553.78	-1761.28	  440.03
     20.0700	  567.00	  553.58	-1709.08	  439.78
     20.1700	  543.00	  553.34	-1732.84	  439.54
     20.2700	  560.00	  553.11	-1715.61	  439.29
     20.3700	  515.00	  552.87	-1760.37	  439.03
     20.4700	  557.00	  552.63	-1718.13	  438.78
     20.5700	  512.00	  552.38	-1762.88	  438.52
     20.6700	  505.00	  552.14	-1769.64	  438.26
     20.7700	  557.00	  551.89	-1717.39	  437.99
     20.8700	  552.00	  551.65	-1722.15	  437.73
     20.9700	  551.00	  551.40	-1722.90	  437.46
     21.0700	  540.00	  551.15	-1733.65	  437.19
     21.1700	  559.00	  550.90	-1714.40	  436.92
     21.2700	  567.00	  550.65	-1706.15	  436.64
     21.3700	  543.00	  550.40	-1729.90	  436.36
     21.4700	  558.00	  550.15	-1714.65	  436.08
     21.5700	  530.00	  549.90	-1742.40	  435.80
     21.6700	  521.00	  549.65	-1751.15	  435.52
     21.7700	  531.00	  549.40	-1740.90	  435.23
     21.8700	  579.00	  549.15	-1692.65	  434.94
     21.9700	  588.00	  548.90	-1683.40	  434.65
     22.0700	  551.00	  548.65	-1720.15	  434.36
     22.1700	  506.00	  548.41	-1764.91	  434.07
     22.2700	  552.00	  548.17	-1718.67	  433.77
     22.3700	  591.00	  547.93	-1679.43	  433.47
     22.4700	  593.00	  547.65	-1677.15	  433.17
     22.5700	  601.00	  547.42	-1668.92	  432.87
     22.6700	  578.00	  547.36	-1691.86	  432.57
     22.7700	  540.00	  547.16	-1729.66	  432.27
     22.8700	  555.00	  546.96	-1714.46	  431.96
     22.9700	  541.00	  546.78	-1728.28	  431.65
     23.0700	  571.00	  546.61	-1698.11	  431.34
     23.1700	  576.00	  546.47	-1692.97	  431.03
     23.2700	  507.00	  546.35	-1761.85	  430.72
     23.3700	  529.00	  546.27	-1739.77	  430.40
     23.4700	  537.00	  546.23	-1731.73	  430.09
     23.5700	  567.00	  546.26	-1701.76	  429.77
     23.6700	  530.00	  546.39	-1738.89	  429.45
     23.7700	  507.00	  546.66	-1762.16	  429.13
     23.8700	  604.00	  547.17	-1665.67	  428.81
     23.9700	  547.00	  548.10	-1723.60	  428.49
     24.0700	  564.00	  549.75	-1708.25	  428.17
     24.1700	  555.00	  552.58	-1720.08	  427.84
     24.2700	  544.00	  557.16	-1735.66	  427.52
     24.3700	  612.00	  564.10	-1674.60	  427.19
     24.4700	  553.00	  573.75	-1743.25	  426.86
     24.5700	  590.00	  585.82	-1718.32	  426.53
     24.6700	  569.00	  598.66	-1752.16	  426.20
     24.7700	  630.00	  608.57	-1701.07	  425.87
     24.8700	  599.00	  610.09	-1733.59	  425.54
     24.9700	  663.00	  600.29	-1659.79	  425.21
     25.0700	  612.00	  584.17	-1694.67	  424.87
     25.1700	  546.00	  569.00	-1745.50	  424.54
     25.2700	  591.00	  557.94	-1689.44	  424.20
     25.3700	  573.00	  550.99	-1700.49	  423.86
     25.4700	  548.00	  546.98	-1721.48	  423.53
     25.5700	  599.00	  544.70	-1668.20	  423.19
     25.6700	  540.00	  543.31	-1725.81	  422.85
     25.7700	  597.00	  542.37	-1667.87	  422.51
     25.8700	  542.00	  541.69	-1722.19	  422.17
     25.9700	  578.00	  541.18	-1685.68	  421.83
     26.0700	  580.00	  540.80	-1683.30	  421.49
     26.1700	  546.00	  540.52	-1717.02	  421.15
     26.2700	  567.00	  540.35	-1695.85	  420.81
     26.3700	  575.00	  540.27	-1687.77	  420.46
     26.4700	  573.00	  540.28	-1689.78	  420.12
     26.5700	  570.00	  540.41	-1692.91	  419.78
     26.6700	  555.00	  540.65	-1708.15	  419.43
     26.7700	  574.00	  541.05	-1689.55	  419.09
     26.8700	  548.00	  541.61	-1716.11	  418.74
     26.9700	  574.00	  542.41	-1690.91	  418.40
     27.0700	  580.00	  543.50	-1686.00	  418.05
     27.1700	  563.00	  545.00	-1704.50	  417.71
     27.2700	  564.00	  547.14	-1705.64	  417.36
     27.3700	  525.00	  550.32	-1747.82	  417.01
     27.4700	  564.00	  555.35	-1713.85	  416.67
     27.5700	  553.00	  563.71	-1733.21	  416.32
     27.6700	  574.00	  577.81	-1726.31	  415.97
     27.7700	  567.00	  600.96	-1756.46	  415.63
     27.8700	  568.00	  636.56	-1791.06	  415.28
     27.9700	  618.00	  685.90	-1790.40	  414.93
     28.0700	  772.00	  745.41	-1695.91	  414.59
     28.1700	  854.00	  803.63	-1672.13	  414.24
     28.2700	  947.00	  840.36	-1615.86	  413.89
     28.3700	  926.00	  835.57	-1632.07	  413.55
     28.4700	  853.00	  795.78	-1665.28	  413.20
     28.5700	  778.00	  754.66	-1699.16	  412.85
     28.6700	  761.00	  736.23	-1697.73	  412.51
     28.7700	  726.00	  743.35	-1739.85	  412.16
     28.8700	  755.00	  763.54	-1731.04	  411.81
     28.9700	  838.00	  774.90	-1659.40	  411.47
     29.0700	  784.00	  756.50	-1695.00	  411.12
     29.1700	  707.00	  709.00	-1724.50	  410.78
     29.2700	  666.00	  654.52	-1711.02	  410.43
     29.3700	  572.00	  609.90	-1760.40	  410.09
     29.4700	  575.00	  579.61	-1727.11	  409.74
     29.5700	  603.00	  561.45	-1680.95	  409.40
     29.6700	  555.00	  551.28	-1718.78	  409.05
     29.7700	  603.00	  545.50	-1665.00	  408.71
     29.8700	  555.00	  542.02	-1709.52	  408.36
     29.9700	  579.00	  539.83	-1683.33	  408.02
     30.0700	  579.00	  538.59	-1682.09	  407.68
     30.1700	  585.00	  538.31	-1675.81	  407.34
     30.2700	  588.00	  539.31	-1673.81	  407.00
     30.3700	  548.00	  542.31	-1716.81	  406.65
     30.4700	  600.00	  548.36	-1670.86	  406.31
     30.5700	  551.00	  558.67	-1730.17	  405.97
     30.6700	  544.00	  573.76	-1752.26	  405.63
     30.7700	  597.00	  592.36	-1717.86	  405.30
     30.8700	  606.00	  610.55	-1727.05	  404.96
     30.9700	  603.00	  621.47	-1740.97	  404.62
     31.0700	  586.00	  617.93	-1754.43	  404.28
     31.1700	  556.00	  600.23	-1766.73	  403.95
     31.2700	  577.00	  577.62	-1723.12	  403.61
     31.3700	  583.00	  558.05	-1697.55	  403.28
     31.4700	  551.00	  544.22	-1715.72	  402.94
     31.5700	  520.00	  535.66	-1738.16	  402.61
     31.6700	  515.00	  530.78	-1738.28	  402.28
     31.7700	  544.00	  528.03	-1706.53	  401.95
     31.8700	  564.00	  526.39	-1684.89	  401.61
     31.9700	  537.00	  525.33	-1710.83	  401.28
     32.0700	  575.00	  524.63	-1672.13	  400.96
     32.1700	  530.00	  524.18	-1716.68	  400.63
     32.2700	  562.00	  523.94	-1684.44	  400.30
     32.3700	  550.00	  523.90	-1696.40	  399.97
     32.4700	  547.00	  524.06	-1699.56	  399.65
     32.5700	  550.00	  524.44	-1696.94	  399.32
     32.6700	  539.00	  525.08	-1708.58	  399.00
     32.7700	  527.00	  526.02	-1721.52	  398.68
     32.8700	  547.00	  527.36	-1702.86	  398.35
     32.9700	  561.00	  529.23	-1690.73	  398.03
     33.0700	  549.00	  531.87	-1705.37	  397.71
     33.1700	  563.00	  535.77	-1695.27	  397.40
     33.2700	  545.00	  541.89	-1719.39	  397.08
     33.3700	  511.00	  552.16	-1763.66	  396.76
     33.4700	  549.00	  569.99	-1743.49	  396.45
     33.5700	  626.00	  600.51	-1697.01	  396.13
     33.6700	  673.00	  649.66	-1699.16	  395.82
     33.7700	  746.00	  720.89	-1697.39	  395.51
     33.8700	  829.00	  809.83	-1703.33	  395.19
     33.9700	  957.00	  899.76	-1665.26	  394.88
     34.0700	 1017.00	  960.66	-1666.16	  394.58
     34.1700	 1051.00	  959.37	-1630.87	  394.27
     34.2700	  961.00	  890.83	-1652.33	  393.96
     34.3700	  796.00	  791.14	-1717.64	  393.66
     34.4700	  728.00	  698.19	-1692.69	  393.35
     34.5700	  652.00	  628.55	-1699.05	  393.05
     34.6700	  519.00	  583.30	-1786.80	  392.75
     34.7700	  566.00	  556.66	-1713.16	  392.45
     34.8700	  556.00	  541.59	-1708.09	  392.15
     34.9700	  551.00	  532.78	-1704.28	  391.85
     35.0700	  518.00	  527.13	-1731.63	  391.56
     35.1700	  523.00	  523.10	-1722.60	  391.26
     35.2700	  510.00	  520.03	-1732.53	  390.97
     35.3700	  502.00	  517.57	-1738.07	  390.68
     35.4700	  495.00	  515.56	-1743.06	  390.39
     35.5700	  488.00	  513.85	-1748.35	  390.10
     35.6700	  492.00	  512.42	-1742.92	  389.81
     35.7700	  506.00	  511.65	-1728.15	  389.52
     35.8700	  522.00	  510.58	-1711.08	  389.24
     35.9700	  510.00	  509.65	-1722.15	  388.95
     36.0700	  512.00	  508.81	-1719.31	  388.67
     36.1700	  528.00	  508.08	-1702.58	  388.39
     36.2700	  509.00	  507.42	-1720.92	  388.11
     36.3700	  508.00	  506.81	-1721.31	  387.83
     36.4700	  497.00	  506.28	-1731.78	  387.56
     36.5700	  518.00	  505.79	-1710.29	  387.28
     36.6700	  498.00	  505.37	-1729.87	  387.01
     36.7700	  460.00	  505.02	-1767.52	  386.74
     36.8700	  515.00	  504.76	-1712.26	  386.47
     36.9700	  457.00	  504.64	-1770.14	  386.20
     37.0700	  468.00	  504.77	-1759.27	  385.93
     37.1700	  533.00	  505.29	-1694.79	  385.66
     37.2700	  493.00	  506.43	-1735.93	  385.40
     37.3700	  533.00	  508.34	-1697.84	  385.14
     37.4700	  534.00	  511.04	-1699.54	  384.88
     37.5700	  522.00	  514.16	-1714.66	  384.62
     37.6700	  488.00	  516.86	-1751.36	  384.36
     37.7700	  494.00	  517.96	-1746.46	  384.10
     37.8700	  458.00	  516.63	-1781.13	  383.85
     37.9700	  508.00	  513.39	-1727.89	  383.60
     38.0700	  472.00	  509.76	-1760.26	  383.35
     38.1700	  527.00	  506.34	-1701.84	  383.10
     38.2700	  559.00	  503.67	-1667.17	  382.85
     38.3700	  478.00	  501.76	-1746.26	  382.60
     38.4700	  464.00	  500.47	-1758.97	  382.36
     38.5700	  483.00	  499.60	-1739.10	  382.11
     38.6700	  455.00	  498.97	-1766.47	  381.87
     38.7700	  486.00	  498.49	-1734.99	  381.63
     38.8700	  491.00	  498.08	-1729.58	  381.40
     38.9700	  496.00	  497.73	-1724.23	  381.16
     39.0700	  520.00	  497.31	-1699.81	  380.93
     39.1700	  478.00	  497.01	-1741.51	  380.69
     39.2700	  502.00	  496.74	-1717.24	  380.46
     39.3700	  478.00	  496.49	-1740.99	  380.23
     39.4700	  510.00	  496.25	-1708.75	  380.01
     39.5700	  492.00	  496.02	-1726.52	  379.78
     39.6700	  524.00	  495.80	-1694.30	  379.56
     39.7700	  492.00	  495.60	-1726.10	  379.33
     39.8700	  506.00	  495.33	-1711.83	  379.11
     39.9700	  478.00	  495.15	-1739.65	  378.90
     40.0700	  516.00	  494.98	-1701.48	  378.68
     40.1700	  503.00	  494.83	-1714.33	  378.46
     40.2700	  505.00	  494.69	-1712.19	  378.25
     40.3700	  526.00	  494.56	-1691.06	  378.04
     40.4700	  504.00	  494.45	-1712.95	  377.83
     40.5700	  502.00	  494.36	-1714.86	  377.62
     40.6700	  506.00	  494.79	-1711.29	  377.42
     40.7700	  480.00	  494.75	-1737.25	  377.21
