MSG Master    CELL:    5.91454   5.91454  23.23985   90.0000   90.0000  120.0000   SPGR: P 63/m m c             TEMP:    987.75
  1   1280     2.52000     0.00000    -0.12899     0.00000     0.00000    0
    99     0     2
       0.00000      10.00000
     125.00000     130.00000
 2Theta	Yobs	Ycal	Yobs-Ycal	Backg	Posr	(hkl)	K
      0.7700	    0.00	  522.06	-1830.50	  408.12
      0.8700	    0.00	  523.00	-1830.50	  409.07
      0.9700	   42.00	  523.94	-1830.50	  410.00
      1.0700	   51.00	  524.86	-1830.50	  410.92
      1.1700	   34.00	  525.77	-1830.50	  411.83
      1.2700	   46.00	  526.67	-1830.50	  412.73
      1.3700	   50.00	  527.55	-1830.50	  413.61
      1.4700	  104.00	  528.43	-1830.50	  414.49
      1.5700	  291.00	  529.29	-1830.50	  415.35
      1.6700	  410.00	  530.14	-1830.50	  416.20
      1.7700	  560.00	  530.98	-1830.50	  417.04
      1.8700	  647.00	  531.80	-1830.50	  417.87
      1.9700	  728.00	  532.62	-1830.50	  418.68
      2.0700	  733.00	  533.42	-1830.50	  419.48
      2.1700	  756.00	  534.21	-1830.50	  420.28
      2.2700	  788.00	  534.99	-1830.50	  421.06
      2.3700	  750.00	  535.76	-1830.50	  421.83
      2.4700	  697.00	  536.52	-1830.50	  422.59
      2.5700	  660.00	  537.27	-1830.50	  423.33
      2.6700	  662.00	  538.01	-1830.50	  424.07
      2.7700	  671.00	  538.73	-1830.50	  424.80
      2.8700	  658.00	  539.45	-1830.50	  425.51
      2.9700	  613.00	  540.15	-1830.50	  426.21
      3.0700	  585.00	  540.85	-1830.50	  426.91
      3.1700	  610.00	  541.53	-1830.50	  427.59
      3.2700	  644.00	  542.20	-1830.50	  428.26
      3.3700	  659.00	  542.86	-1830.50	  428.92
      3.4700	  712.00	  543.51	-1830.50	  429.58
      3.5700	  790.00	  544.15	-1830.50	  430.22
      3.6700	  852.00	  544.78	-1830.50	  430.85
      3.7700	  914.00	  545.40	-1830.50	  431.47
      3.8700	  980.00	  546.01	-1830.50	  432.08
      3.9700	 1043.00	  546.61	-1830.50	  432.68
      4.0700	 1003.00	  547.20	-1830.50	  433.27
      4.1700	 1065.00	  547.78	-1830.50	  433.85
      4.2700	 1009.00	  548.35	-1830.50	  434.42
      4.3700	 1078.00	  548.91	-1830.50	  434.98
      4.4700	 1069.00	  549.47	-1830.50	  435.53
      4.5700	  983.00	  550.01	-1830.50	  436.07
      4.6700	 1003.00	  550.54	-1830.50	  436.60
      4.7700	  931.00	  551.06	-1830.50	  437.12
      4.8700	  936.00	  551.57	-1830.50	  437.64
      4.9700	  930.00	  552.08	-1830.50	  438.14
      5.0700	  964.00	  552.57	-1830.50	  438.63
      5.1700	  936.00	  553.05	-1830.50	  439.12
      5.2700	  917.00	  553.53	-1830.50	  439.59
      5.3700	  880.00	  554.00	-1830.50	  440.06
      5.4700	  882.00	  554.45	-1830.50	  440.52
      5.5700	  851.00	  554.90	-1830.50	  440.96
      5.6700	  842.00	  555.34	-1830.50	  441.40
      5.7700	  886.00	  555.77	-1830.50	  441.83
      5.8700	  839.00	  556.19	-1830.50	  442.26
      5.9700	  801.00	  556.61	-1830.50	  442.67
      6.0700	  750.00	  557.01	-1830.50	  443.07
      6.1700	  785.00	  557.41	-1830.50	  443.47
      6.2700	  763.00	  557.79	-1830.50	  443.86
      6.3700	  718.00	  558.17	-1830.50	  444.24
      6.4700	  737.00	  558.54	-1830.50	  444.61
      6.5700	  773.00	  558.90	-1830.50	  444.97
      6.6700	  693.00	  559.26	-1830.50	  445.32
      6.7700	  726.00	  559.60	-1830.50	  445.67
      6.8700	  696.00	  559.94	-1830.50	  446.00
      6.9700	  714.00	  560.27	-1830.50	  446.33
      7.0700	  762.00	  560.59	-1830.50	  446.66
      7.1700	  710.00	  560.91	-1830.50	  446.97
      7.2700	  670.00	  561.21	-1830.50	  447.27
      7.3700	  649.00	  561.51	-1830.50	  447.57
      7.4700	  653.00	  561.80	-1830.50	  447.86
      7.5700	  632.00	  562.08	-1830.50	  448.15
      7.6700	  619.00	  562.36	-1830.50	  448.42
      7.7700	  649.00	  562.62	-1830.50	  448.69
      7.8700	  590.00	  562.88	-1830.50	  448.95
      7.9700	  628.00	  563.14	-1830.50	  449.20
      8.0700	  631.00	  563.38	-1830.50	  449.44
      8.1700	  629.00	  563.62	-1830.50	  449.68
      8.2700	  636.00	  563.85	-1830.50	  449.91
      8.3700	  607.00	  564.07	-1830.50	  450.13
      8.4700	  606.00	  564.29	-1830.50	  450.35
      8.5700	  593.00	  564.50	-1830.50	  450.56
      8.6700	  589.00	  564.70	-1830.50	  450.76
      8.7700	  582.00	  564.89	-1830.50	  450.96
      8.8700	  587.00	  565.08	-1830.50	  451.14
      8.9700	  625.00	  565.26	-1830.50	  451.32
      9.0700	  626.00	  565.44	-1830.50	  451.50
      9.1700	  628.00	  565.60	-1830.50	  451.67
      9.2700	  555.00	  565.76	-1830.50	  451.83
      9.3700	  584.00	  565.92	-1830.50	  451.98
      9.4700	  641.00	  566.07	-1830.50	  452.13
      9.5700	  576.00	  566.21	-1830.50	  452.27
      9.6700	  609.00	  566.34	-1830.50	  452.40
      9.7700	  608.00	  566.47	-1830.50	  452.53
      9.8700	  589.00	  566.59	-1830.50	  452.65
      9.9700	  612.00	  566.71	-1830.50	  452.77
     10.0700	  590.00	  567.68	-1808.18	  452.88
     10.1700	  601.00	  567.86	-1797.36	  452.98
     10.2700	  582.00	  568.06	-1816.56	  453.08
     10.3700	  610.00	  568.27	-1788.77	  453.17
     10.4700	  567.00	  568.53	-1832.03	  453.26
     10.5700	  598.00	  568.88	-1801.38	  453.33
     10.6700	  606.00	  569.41	-1793.91	  453.41
     10.7700	  584.00	  570.24	-1816.74	  453.47
     10.8700	  570.00	  571.44	-1831.94	  453.54
     10.9700	  570.00	  573.02	-1833.52	  453.59
     11.0700	  610.00	  574.95	-1795.45	  453.64
     11.1700	  570.00	  577.21	-1837.71	  453.69
     11.2700	  572.00	  579.82	-1838.32	  453.73
     11.3700	  615.00	  582.86	-1798.36	  453.76
     11.4700	  591.00	  586.45	-1825.95	  453.79
     11.5700	  576.00	  590.77	-1845.27	  453.81
     11.6700	  604.00	  596.14	-1822.64	  453.83
     11.7700	  608.00	  603.12	-1825.62	  453.84
     11.8700	  657.00	  612.60	-1786.10	  453.84
     11.9700	  624.00	  625.43	-1831.93	  453.84
     12.0700	  632.00	  640.64	-1839.14	  453.84
     12.1700	  633.00	  652.80	-1850.30	  453.83
     12.2700	  655.00	  652.17	-1827.67	  453.82
     12.3700	  619.00	  633.71	-1845.21	  453.80
     12.4700	  602.00	  608.50	-1837.00	  453.77
     12.5700	  606.00	  589.21	-1813.71	  453.74
     12.6700	  609.00	  578.58	-1800.08	  453.71
     12.7700	  550.00	  573.83	-1854.33	  453.67
     12.8700	  500.00	  571.80	-1902.30	  453.63
     12.9700	  586.00	  570.75	-1815.25	  453.58
     13.0700	  532.00	  570.08	-1868.58	  453.53
     13.1700	  547.00	  569.59	-1853.09	  453.47
     13.2700	  526.00	  569.20	-1873.70	  453.41
     13.3700	  568.00	  568.89	-1831.39	  453.34
     13.4700	  589.00	  568.63	-1810.13	  453.27
     13.5700	  556.00	  568.40	-1842.90	  453.19
     13.6700	  598.00	  568.19	-1800.69	  453.11
     13.7700	  568.00	  568.01	-1830.51	  453.03
     13.8700	  552.00	  567.83	-1846.33	  452.94
     13.9700	  531.00	  567.67	-1867.17	  452.85
     14.0700	  543.00	  567.51	-1855.01	  452.75
     14.1700	  500.00	  567.36	-1897.86	  452.65
     14.2700	  557.00	  567.21	-1840.71	  452.54
     14.3700	  548.00	  567.06	-1849.56	  452.43
     14.4700	  594.00	  566.91	-1803.41	  452.32
     14.5700	  603.00	  566.77	-1794.27	  452.20
     14.6700	  554.00	  566.62	-1843.12	  452.08
     14.7700	  554.00	  566.47	-1842.97	  451.96
     14.8700	  557.00	  566.32	-1839.82	  451.83
     14.9700	  580.00	  566.17	-1816.67	  451.70
     15.0700	  595.00	  566.02	-1801.52	  451.56
     15.1700	  549.00	  565.86	-1847.36	  451.42
     15.2700	  569.00	  565.70	-1827.20	  451.27
     15.3700	  584.00	  565.54	-1812.04	  451.13
     15.4700	  564.00	  565.38	-1831.88	  450.98
     15.5700	  572.00	  565.22	-1823.72	  450.82
     15.6700	  567.00	  565.05	-1828.55	  450.66
     15.7700	  539.00	  564.88	-1856.38	  450.50
     15.8700	  540.00	  564.71	-1855.21	  450.34
     15.9700	  588.00	  564.53	-1807.03	  450.17
     16.0700	  556.00	  564.35	-1838.85	  450.00
     16.1700	  496.00	  564.17	-1898.67	  449.82
     16.2700	  581.00	  564.01	-1813.51	  449.64
     16.3700	  601.00	  563.83	-1793.33	  449.46
     16.4700	  573.00	  563.64	-1821.14	  449.28
     16.5700	  555.00	  563.45	-1838.95	  449.09
     16.6700	  574.00	  563.25	-1819.75	  448.90
     16.7700	  539.00	  563.06	-1854.56	  448.71
     16.8700	  542.00	  562.86	-1851.36	  448.51
     16.9700	  583.00	  562.65	-1810.15	  448.31
     17.0700	  574.00	  562.45	-1818.95	  448.11
     17.1700	  549.00	  562.24	-1843.74	  447.90
     17.2700	  555.00	  562.03	-1837.53	  447.69
     17.3700	  534.00	  561.82	-1858.32	  447.48
     17.4700	  570.00	  561.60	-1822.10	  447.27
     17.5700	  533.00	  561.39	-1858.89	  447.05
     17.6700	  578.00	  561.17	-1813.67	  446.83
     17.7700	  573.00	  560.94	-1818.44	  446.61
     17.8700	  590.00	  560.72	-1801.22	  446.39
     17.9700	  550.00	  560.49	-1840.99	  446.16
     18.0700	  555.00	  560.37	-1835.87	  445.93
     18.1700	  553.00	  560.14	-1837.64	  445.70
     18.2700	  555.00	  559.90	-1835.40	  445.46
     18.3700	  554.00	  559.67	-1836.17	  445.23
     18.4700	  547.00	  559.43	-1842.93	  444.99
     18.5700	  526.00	  559.19	-1863.69	  444.75
     18.6700	  555.00	  558.95	-1834.45	  444.50
     18.7700	  563.00	  558.71	-1826.21	  444.26
     18.8700	  527.00	  558.46	-1861.96	  444.01
     18.9700	  606.00	  558.30	-1782.80	  443.76
     19.0700	  546.00	  558.06	-1842.56	  443.51
     19.1700	  529.00	  557.81	-1859.31	  443.25
     19.2700	  525.00	  557.56	-1863.06	  442.99
     19.3700	  565.00	  557.31	-1822.81	  442.74
     19.4700	  541.00	  557.05	-1846.55	  442.47
     19.5700	  575.00	  556.80	-1812.30	  442.21
     19.6700	  564.00	  556.54	-1823.04	  441.95
     19.7700	  586.00	  556.28	-1800.78	  441.68
     19.8700	  506.00	  556.02	-1880.52	  441.41
     19.9700	  541.00	  555.76	-1845.26	  441.14
     20.0700	  526.00	  555.50	-1860.00	  440.87
     20.1700	  556.00	  555.23	-1829.73	  440.60
     20.2700	  558.00	  554.97	-1827.47	  440.32
     20.3700	  528.00	  554.70	-1857.20	  440.04
     20.4700	  521.00	  554.43	-1863.93	  439.76
     20.5700	  526.00	  554.14	-1858.64	  439.48
     20.6700	  519.00	  553.87	-1865.37	  439.20
     20.7700	  552.00	  553.60	-1832.10	  438.92
     20.8700	  551.00	  553.33	-1832.83	  438.63
     20.9700	  602.00	  553.09	-1781.59	  438.35
     21.0700	  571.00	  552.82	-1812.32	  438.06
     21.1700	  519.00	  552.55	-1864.05	  437.77
     21.2700	  517.00	  552.27	-1865.77	  437.48
     21.3700	  558.00	  552.00	-1824.50	  437.18
     21.4700	  517.00	  551.73	-1865.23	  436.89
     21.5700	  538.00	  551.46	-1843.96	  436.60
     21.6700	  556.00	  551.19	-1825.69	  436.30
     21.7700	  527.00	  550.91	-1854.41	  436.00
     21.8700	  553.00	  550.64	-1828.14	  435.70
     21.9700	  543.00	  550.37	-1837.87	  435.40
     22.0700	  543.00	  550.11	-1837.61	  435.10
     22.1700	  550.00	  549.84	-1830.34	  434.80
     22.2700	  545.00	  549.58	-1835.08	  434.50
     22.3700	  534.00	  549.31	-1845.81	  434.19
     22.4700	  556.00	  549.05	-1823.55	  433.89
     22.5700	  564.00	  548.80	-1815.30	  433.58
     22.6700	  551.00	  548.55	-1828.05	  433.27
     22.7700	  550.00	  548.30	-1828.80	  432.96
     22.8700	  562.00	  548.06	-1816.56	  432.65
     22.9700	  559.00	  547.83	-1819.33	  432.34
     23.0700	  564.00	  547.62	-1814.12	  432.03
     23.1700	  549.00	  547.41	-1828.91	  431.72
     23.2700	  547.00	  547.22	-1830.72	  431.41
     23.3700	  582.00	  547.05	-1795.55	  431.09
     23.4700	  585.00	  546.92	-1792.42	  430.78
     23.5700	  504.00	  546.82	-1873.32	  430.46
     23.6700	  555.00	  546.78	-1822.28	  430.15
     23.7700	  536.00	  546.82	-1841.32	  429.83
     23.8700	  551.00	  547.16	-1826.66	  429.51
     23.9700	  558.00	  547.70	-1820.20	  429.20
     24.0700	  556.00	  548.91	-1823.41	  428.88
     24.1700	  533.00	  551.38	-1848.88	  428.56
     24.2700	  577.00	  555.91	-1809.41	  428.24
     24.3700	  611.00	  563.41	-1782.91	  427.92
     24.4700	  565.00	  574.94	-1840.44	  427.60
     24.5700	  619.00	  591.27	-1802.77	  427.28
     24.6700	  613.00	  611.00	-1828.50	  426.96
     24.7700	  616.00	  627.93	-1842.43	  426.64
     24.8700	  623.00	  631.41	-1838.91	  426.31
     24.9700	  623.00	  615.21	-1822.71	  425.99
     25.0700	  570.00	  589.39	-1849.89	  425.67
     25.1700	  613.00	  567.67	-1785.17	  425.34
     25.2700	  571.00	  554.54	-1814.04	  425.02
     25.3700	  572.00	  548.19	-1806.69	  424.70
     25.4700	  557.00	  545.38	-1818.88	  424.37
     25.5700	  558.00	  544.00	-1816.50	  424.05
     25.6700	  574.00	  543.16	-1799.66	  423.73
     25.7700	  565.00	  542.56	-1808.06	  423.40
     25.8700	  566.00	  542.11	-1806.61	  423.08
     25.9700	  585.00	  541.77	-1787.27	  422.75
     26.0700	  616.00	  541.52	-1756.02	  422.43
     26.1700	  523.00	  541.35	-1848.85	  422.10
     26.2700	  592.00	  541.26	-1779.76	  421.78
     26.3700	  540.00	  541.24	-1831.74	  421.45
     26.4700	  539.00	  541.31	-1832.81	  421.13
     26.5700	  549.00	  541.46	-1822.96	  420.80
     26.6700	  558.00	  541.73	-1814.23	  420.48
     26.7700	  540.00	  542.14	-1832.64	  420.15
     26.8700	  604.00	  542.71	-1769.21	  419.83
     26.9700	  581.00	  543.49	-1792.99	  419.50
     27.0700	  545.00	  544.56	-1830.06	  419.18
     27.1700	  568.00	  546.04	-1808.54	  418.85
     27.2700	  578.00	  548.16	-1800.66	  418.53
     27.3700	  597.00	  551.35	-1784.85	  418.20
     27.4700	  541.00	  556.51	-1846.01	  417.88
     27.5700	  584.00	  565.24	-1811.74	  417.56
     27.6700	  552.00	  580.19	-1858.69	  417.23
     27.7700	  591.00	  604.92	-1844.42	  416.91
     27.8700	  598.00	  642.91	-1875.41	  416.59
     27.9700	  675.00	  695.15	-1850.65	  416.26
     28.0700	  739.00	  756.93	-1848.43	  415.94
     28.1700	  876.00	  814.57	-1769.07	  415.62
     28.2700	  982.00	  845.51	-1694.01	  415.30
     28.3700	  945.00	  831.56	-1717.06	  414.98
     28.4700	  830.00	  787.63	-1788.13	  414.66
     28.5700	  659.00	  751.24	-1922.74	  414.34
     28.6700	  694.00	  743.95	-1880.45	  414.02
     28.7700	  740.00	  764.74	-1855.24	  413.70
     28.8700	  770.00	  795.70	-1856.20	  413.38
     28.9700	  852.00	  808.42	-1786.92	  413.06
     29.0700	  800.00	  779.55	-1810.05	  412.74
     29.1700	  719.00	  717.78	-1829.28	  412.43
     29.2700	  636.00	  653.62	-1848.12	  412.11
     29.3700	  624.00	  605.15	-1811.65	  411.79
     29.4700	  604.00	  575.00	-1801.50	  411.48
     29.5700	  583.00	  558.47	-1805.97	  411.16
     29.6700	  606.00	  549.79	-1774.29	  410.85
     29.7700	  594.00	  544.96	-1781.46	  410.53
     29.8700	  603.00	  541.98	-1769.48	  410.22
     29.9700	  556.00	  540.04	-1814.54	  409.91
     30.0700	  580.00	  538.88	-1789.38	  409.60
     30.1700	  598.00	  538.59	-1771.09	  409.29
     30.2700	  591.00	  539.55	-1779.05	  408.98
     30.3700	  532.00	  542.62	-1841.12	  408.67
     30.4700	  539.00	  549.21	-1840.71	  408.36
     30.5700	  541.00	  560.97	-1850.47	  408.05
     30.6700	  561.00	  578.86	-1848.36	  407.74
     30.7700	  588.00	  601.36	-1843.86	  407.44
     30.8700	  576.00	  623.04	-1877.54	  407.13
     30.9700	  581.00	  634.42	-1883.92	  406.82
     31.0700	  597.00	  626.69	-1860.19	  406.52
     31.1700	  569.00	  602.84	-1864.34	  406.22
     31.2700	  555.00	  575.87	-1851.37	  405.92
     31.3700	  584.00	  554.72	-1801.22	  405.61
     31.4700	  531.00	  541.34	-1840.84	  405.31
     31.5700	  546.00	  534.02	-1818.52	  405.01
     31.6700	  558.00	  530.26	-1802.76	  404.72
     31.7700	  533.00	  528.23	-1825.73	  404.42
     31.8700	  579.00	  526.98	-1778.48	  404.12
     31.9700	  523.00	  526.11	-1833.61	  403.83
     32.0700	  554.00	  525.49	-1801.99	  403.53
     32.1700	  532.00	  525.04	-1823.54	  403.24
     32.2700	  576.00	  524.75	-1779.25	  402.95
     32.3700	  491.00	  524.61	-1864.11	  402.65
     32.4700	  528.00	  524.61	-1827.11	  402.36
     32.5700	  578.00	  524.77	-1777.27	  402.07
     32.6700	  526.00	  525.11	-1829.60	  401.79
     32.7700	  533.00	  525.66	-1823.16	  401.50
     32.8700	  534.00	  526.50	-1823.00	  401.21
     32.9700	  527.00	  527.70	-1831.20	  400.93
     33.0700	  564.00	  529.44	-1795.94	  400.64
     33.1700	  557.00	  532.07	-1805.57	  400.36
     33.2700	  551.00	  536.38	-1815.88	  400.08
     33.3700	  560.00	  544.14	-1814.64	  399.80
     33.4700	  574.00	  558.95	-1815.45	  399.52
     33.5700	  563.00	  587.02	-1854.52	  399.24
     33.6700	  602.00	  636.51	-1865.01	  398.96
     33.7700	  726.00	  713.56	-1818.06	  398.69
     33.8700	  916.00	  814.03	-1728.53	  398.41
     33.9700	  937.00	  916.11	-1809.61	  398.14
     34.0700	 1110.00	  980.02	-1700.52	  397.87
     34.1700	 1096.00	  965.26	-1699.76	  397.60
     34.2700	  956.00	  874.35	-1748.85	  397.33
     34.3700	  739.00	  758.58	-1850.08	  397.06
     34.4700	  690.00	  661.20	-1801.70	  396.79
     34.5700	  582.00	  596.49	-1844.99	  396.53
     34.6700	  500.00	  560.21	-1890.71	  396.26
     34.7700	  554.00	  541.88	-1818.38	  396.00
     34.8700	  549.00	  532.61	-1814.11	  395.74
     34.9700	  516.00	  527.35	-1841.85	  395.48
     35.0700	  533.00	  523.85	-1821.35	  395.22
     35.1700	  495.00	  521.27	-1856.77	  394.96
     35.2700	  520.00	  519.24	-1829.74	  394.70
     35.3700	  519.00	  517.61	-1829.11	  394.45
     35.4700	  547.00	  516.25	-1799.75	  394.20
     35.5700	  512.00	  515.10	-1833.60	  393.94
     35.6700	  538.00	  514.11	-1806.61	  393.69
     35.7700	  521.00	  513.25	-1822.75	  393.44
     35.8700	  489.00	  512.50	-1854.00	  393.20
     35.9700	  554.00	  511.82	-1788.32	  392.95
     36.0700	  514.00	  511.70	-1828.20	  392.70
     36.1700	  508.00	  511.15	-1833.65	  392.46
     36.2700	  528.00	  510.66	-1813.16	  392.22
     36.3700	  464.00	  510.20	-1876.70	  391.98
     36.4700	  476.00	  509.79	-1864.29	  391.74
     36.5700	  530.00	  509.41	-1809.91	  391.50
     36.6700	  498.00	  509.07	-1841.57	  391.26
     36.7700	  543.00	  508.76	-1796.26	  391.03
     36.8700	  483.00	  508.51	-1856.01	  390.79
     36.9700	  484.00	  508.33	-1854.83	  390.56
     37.0700	  506.00	  508.30	-1832.80	  390.33
     37.1700	  514.00	  508.57	-1825.07	  390.10
     37.2700	  505.00	  509.43	-1834.93	  389.88
     37.3700	  491.00	  511.23	-1850.73	  389.65
     37.4700	  552.00	  514.20	-1792.70	  389.43
     37.5700	  482.00	  518.11	-1866.61	  389.20
     37.6700	  530.00	  522.02	-1822.52	  388.98
     37.7700	  511.00	  524.39	-1843.89	  388.76
     37.8700	  491.00	  524.04	-1863.54	  388.54
     37.9700	  517.00	  521.41	-1834.91	  388.33
     38.0700	  538.00	  517.86	-1810.36	  388.11
     38.1700	  512.00	  514.21	-1832.71	  387.90
     38.2700	  506.00	  510.86	-1835.36	  387.69
     38.3700	  499.00	  508.19	-1839.69	  387.48
     38.4700	  533.00	  506.28	-1803.78	  387.27
     38.5700	  503.00	  505.01	-1832.51	  387.06
     38.6700	  540.00	  504.20	-1794.70	  386.86
     38.7700	  494.00	  503.57	-1840.07	  386.65
     38.8700	  487.00	  503.19	-1846.69	  386.45
     38.9700	  468.00	  502.89	-1865.39	  386.25
     39.0700	  465.00	  502.62	-1868.12	  386.05
     39.1700	  456.00	  502.38	-1876.88	  385.85
     39.2700	  527.00	  502.07	-1805.57	  385.66
     39.3700	  514.00	  501.86	-1818.36	  385.46
     39.4700	  489.00	  501.67	-1843.17	  385.27
     39.5700	  473.00	  501.48	-1858.98	  385.08
     39.6700	  473.00	  501.43	-1858.93	  384.89
     39.7700	  500.00	  501.26	-1831.76	  384.70
     39.8700	  497.00	  501.10	-1834.60	  384.52
     39.9700	  494.00	  500.96	-1837.46	  384.33
     40.0700	  491.00	  500.82	-1840.32	  384.15
     40.1700	  513.00	  500.69	-1818.19	  383.97
     40.2700	  506.00	  500.57	-1825.07	  383.79
     40.3700	  469.00	  500.47	-1861.97	  383.61
     40.4700	  518.00	  500.38	-1812.88	  383.44
     40.5700	  455.00	  500.30	-1875.80	  383.26
     40.6700	  528.00	  500.23	-1802.73	  383.09
     40.7700	  461.00	  500.19	-1869.69	  382.92
