MSG Master    CELL:    5.91745   5.91745  23.26184   90.0000   90.0000  120.0000   SPGR: P 63/m m c             TEMP:   1036.65
  1   1280     2.52000     0.00000    -0.12166     0.00000     0.00000    0
    99     0     2
       0.00000      10.00000
     125.00000     130.00000
 2Theta	Yobs	Ycal	Yobs-Ycal	Backg	Posr	(hkl)	K
      0.7700	    0.00	  549.88	-1802.50	  434.79
      0.8700	    0.00	  550.55	-1802.50	  435.46
      0.9700	   51.00	  551.21	-1802.50	  436.12
      1.0700	   37.00	  551.86	-1802.50	  436.77
      1.1700	   51.00	  552.51	-1802.50	  437.41
      1.2700	   46.00	  553.14	-1802.50	  438.04
      1.3700	   45.00	  553.76	-1802.50	  438.66
      1.4700	   99.00	  554.37	-1802.50	  439.27
      1.5700	  274.00	  554.96	-1802.50	  439.87
      1.6700	  453.00	  555.55	-1802.50	  440.46
      1.7700	  599.00	  556.13	-1802.50	  441.04
      1.8700	  651.00	  556.70	-1802.50	  441.61
      1.9700	  721.00	  557.26	-1802.50	  442.17
      2.0700	  848.00	  557.81	-1802.50	  442.72
      2.1700	  812.00	  558.35	-1802.50	  443.26
      2.2700	  736.00	  558.88	-1802.50	  443.79
      2.3700	  710.00	  559.40	-1802.50	  444.31
      2.4700	  694.00	  559.92	-1802.50	  444.82
      2.5700	  694.00	  560.42	-1802.50	  445.32
      2.6700	  671.00	  560.91	-1802.50	  445.82
      2.7700	  691.00	  561.39	-1802.50	  446.30
      2.8700	  640.00	  561.87	-1802.50	  446.77
      2.9700	  643.00	  562.33	-1802.50	  447.24
      3.0700	  592.00	  562.79	-1802.50	  447.69
      3.1700	  580.00	  563.23	-1802.50	  448.14
      3.2700	  618.00	  563.67	-1802.50	  448.58
      3.3700	  681.00	  564.10	-1802.50	  449.01
      3.4700	  791.00	  564.52	-1802.50	  449.43
      3.5700	  788.00	  564.93	-1802.50	  449.84
      3.6700	  805.00	  565.33	-1802.50	  450.24
      3.7700	  930.00	  565.73	-1802.50	  450.63
      3.8700	  978.00	  566.11	-1802.50	  451.02
      3.9700	 1047.00	  566.49	-1802.50	  451.39
      4.0700	 1049.00	  566.85	-1802.50	  451.76
      4.1700	 1022.00	  567.21	-1802.50	  452.12
      4.2700	 1114.00	  567.57	-1802.50	  452.47
      4.3700	 1088.00	  567.91	-1802.50	  452.82
      4.4700	 1051.00	  568.24	-1802.50	  453.15
      4.5700	 1055.00	  568.57	-1802.50	  453.48
      4.6700	 1033.00	  568.89	-1802.50	  453.80
      4.7700	  985.00	  569.20	-1802.50	  454.11
      4.8700	  990.00	  569.50	-1802.50	  454.41
      4.9700	  973.00	  569.80	-1802.50	  454.70
      5.0700	  888.00	  570.08	-1802.50	  454.99
      5.1700	  997.00	  570.36	-1802.50	  455.27
      5.2700	  893.00	  570.63	-1802.50	  455.54
      5.3700	  945.00	  570.90	-1802.50	  455.80
      5.4700	  889.00	  571.15	-1802.50	  456.06
      5.5700	  820.00	  571.40	-1802.50	  456.31
      5.6700	  854.00	  571.64	-1802.50	  456.55
      5.7700	  796.00	  571.88	-1802.50	  456.78
      5.8700	  797.00	  572.10	-1802.50	  457.01
      5.9700	  842.00	  572.32	-1802.50	  457.23
      6.0700	  808.00	  572.53	-1802.50	  457.44
      6.1700	  776.00	  572.74	-1802.50	  457.65
      6.2700	  780.00	  572.94	-1802.50	  457.84
      6.3700	  789.00	  573.13	-1802.50	  458.03
      6.4700	  791.00	  573.31	-1802.50	  458.22
      6.5700	  731.00	  573.49	-1802.50	  458.39
      6.6700	  740.00	  573.66	-1802.50	  458.56
      6.7700	  752.00	  573.82	-1802.50	  458.73
      6.8700	  699.00	  573.98	-1802.50	  458.88
      6.9700	  663.00	  574.13	-1802.50	  459.03
      7.0700	  722.00	  574.27	-1802.50	  459.18
      7.1700	  709.00	  574.41	-1802.50	  459.31
      7.2700	  663.00	  574.53	-1802.50	  459.44
      7.3700	  682.00	  574.66	-1802.50	  459.57
      7.4700	  632.00	  574.78	-1802.50	  459.68
      7.5700	  630.00	  574.89	-1802.50	  459.79
      7.6700	  643.00	  574.99	-1802.50	  459.90
      7.7700	  643.00	  575.09	-1802.50	  460.00
      7.8700	  608.00	  575.18	-1802.50	  460.09
      7.9700	  597.00	  575.27	-1802.50	  460.17
      8.0700	  634.00	  575.35	-1802.50	  460.25
      8.1700	  632.00	  575.42	-1802.50	  460.33
      8.2700	  634.00	  575.49	-1802.50	  460.40
      8.3700	  645.00	  575.55	-1802.50	  460.46
      8.4700	  586.00	  575.61	-1802.50	  460.51
      8.5700	  607.00	  575.66	-1802.50	  460.57
      8.6700	  625.00	  575.70	-1802.50	  460.61
      8.7700	  656.00	  575.74	-1802.50	  460.65
      8.8700	  606.00	  575.77	-1802.50	  460.68
      8.9700	  633.00	  575.80	-1802.50	  460.71
      9.0700	  651.00	  575.82	-1802.50	  460.73
      9.1700	  634.00	  575.84	-1802.50	  460.75
      9.2700	  588.00	  575.85	-1802.50	  460.76
      9.3700	  609.00	  575.86	-1802.50	  460.77
      9.4700	  558.00	  575.86	-1802.50	  460.77
      9.5700	  582.00	  575.85	-1802.50	  460.76
      9.6700	  549.00	  575.84	-1802.50	  460.75
      9.7700	  623.00	  575.83	-1802.50	  460.74
      9.8700	  564.00	  575.81	-1802.50	  460.72
      9.9700	  541.00	  575.78	-1802.50	  460.69
     10.0700	  584.00	  576.47	-1794.97	  460.66
     10.1700	  555.00	  576.50	-1824.00	  460.63
     10.2700	  585.00	  576.55	-1794.05	  460.59
     10.3700	  565.00	  576.61	-1814.11	  460.54
     10.4700	  608.00	  576.72	-1771.22	  460.49
     10.5700	  616.00	  576.92	-1763.42	  460.44
     10.6700	  613.00	  577.29	-1766.79	  460.38
     10.7700	  609.00	  577.95	-1771.45	  460.32
     10.8700	  580.00	  578.95	-1801.45	  460.25
     10.9700	  572.00	  580.31	-1810.81	  460.17
     11.0700	  600.00	  581.99	-1784.49	  460.10
     11.1700	  588.00	  583.97	-1798.47	  460.01
     11.2700	  607.00	  586.29	-1781.79	  459.93
     11.3700	  531.00	  589.01	-1860.51	  459.84
     11.4700	  598.00	  592.24	-1796.74	  459.74
     11.5700	  620.00	  596.17	-1778.67	  459.64
     11.6700	  620.00	  601.08	-1783.58	  459.54
     11.7700	  611.00	  607.52	-1799.02	  459.43
     11.8700	  609.00	  616.34	-1809.84	  459.32
     11.9700	  657.00	  628.37	-1773.87	  459.20
     12.0700	  708.00	  642.62	-1737.12	  459.08
     12.1700	  693.00	  653.75	-1763.25	  458.96
     12.2700	  652.00	  652.39	-1802.89	  458.83
     12.3700	  685.00	  634.27	-1751.77	  458.70
     12.4700	  604.00	  610.43	-1808.93	  458.57
     12.5700	  600.00	  592.59	-1795.09	  458.43
     12.6700	  569.00	  582.93	-1816.43	  458.28
     12.7700	  593.00	  578.64	-1788.14	  458.14
     12.8700	  583.00	  576.76	-1796.26	  457.98
     12.9700	  543.00	  575.73	-1835.23	  457.83
     13.0700	  578.00	  575.03	-1799.53	  457.67
     13.1700	  601.00	  574.48	-1775.98	  457.51
     13.2700	  547.00	  574.03	-1829.53	  457.35
     13.3700	  527.00	  573.64	-1849.14	  457.18
     13.4700	  574.00	  573.29	-1801.79	  457.01
     13.5700	  529.00	  572.98	-1846.48	  456.83
     13.6700	  560.00	  572.69	-1815.19	  456.65
     13.7700	  559.00	  572.42	-1815.92	  456.47
     13.8700	  580.00	  572.16	-1794.66	  456.29
     13.9700	  552.00	  571.91	-1822.41	  456.10
     14.0700	  544.00	  571.66	-1830.16	  455.91
     14.1700	  557.00	  571.42	-1816.92	  455.71
     14.2700	  530.00	  571.18	-1843.68	  455.51
     14.3700	  605.00	  570.95	-1768.45	  455.31
     14.4700	  594.00	  570.71	-1779.21	  455.11
     14.5700	  576.00	  570.48	-1796.98	  454.90
     14.6700	  544.00	  570.25	-1828.75	  454.69
     14.7700	  572.00	  570.02	-1800.52	  454.48
     14.8700	  570.00	  569.78	-1802.28	  454.27
     14.9700	  562.00	  569.55	-1810.05	  454.05
     15.0700	  582.00	  569.31	-1789.81	  453.83
     15.1700	  567.00	  569.07	-1804.57	  453.60
     15.2700	  529.00	  568.84	-1842.34	  453.38
     15.3700	  545.00	  568.60	-1826.10	  453.15
     15.4700	  564.00	  568.35	-1806.85	  452.92
     15.5700	  583.00	  568.11	-1787.61	  452.68
     15.6700	  540.00	  567.87	-1830.37	  452.45
     15.7700	  520.00	  567.62	-1850.12	  452.21
     15.8700	  563.00	  567.37	-1806.87	  451.97
     15.9700	  556.00	  567.12	-1813.62	  451.72
     16.0700	  549.00	  566.87	-1820.37	  451.48
     16.1700	  577.00	  566.61	-1792.11	  451.23
     16.2700	  591.00	  566.36	-1777.86	  450.98
     16.3700	  552.00	  566.13	-1816.63	  450.72
     16.4700	  582.00	  565.87	-1786.37	  450.47
     16.5700	  502.00	  565.61	-1866.11	  450.21
     16.6700	  611.00	  565.34	-1756.84	  449.95
     16.7700	  572.00	  565.08	-1795.58	  449.69
     16.8700	  570.00	  564.81	-1797.31	  449.43
     16.9700	  561.00	  564.54	-1806.04	  449.16
     17.0700	  527.00	  564.27	-1839.77	  448.89
     17.1700	  523.00	  564.00	-1843.50	  448.62
     17.2700	  528.00	  563.73	-1838.23	  448.35
     17.3700	  561.00	  563.45	-1804.95	  448.08
     17.4700	  559.00	  563.18	-1806.68	  447.80
     17.5700	  569.00	  562.90	-1796.40	  447.52
     17.6700	  588.00	  562.62	-1777.12	  447.24
     17.7700	  574.00	  562.34	-1790.84	  446.96
     17.8700	  554.00	  562.15	-1810.65	  446.68
     17.9700	  579.00	  561.87	-1785.37	  446.40
     18.0700	  535.00	  561.59	-1829.09	  446.11
     18.1700	  583.00	  561.30	-1780.80	  445.82
     18.2700	  569.00	  561.01	-1794.51	  445.53
     18.3700	  536.00	  560.73	-1827.23	  445.24
     18.4700	  579.00	  560.44	-1783.94	  444.95
     18.5700	  563.00	  560.15	-1799.65	  444.66
     18.6700	  523.00	  559.85	-1839.35	  444.36
     18.7700	  596.00	  559.56	-1766.06	  444.07
     18.8700	  551.00	  559.36	-1810.86	  443.77
     18.9700	  553.00	  559.07	-1808.57	  443.47
     19.0700	  581.00	  558.77	-1780.27	  443.17
     19.1700	  552.00	  558.48	-1808.98	  442.87
     19.2700	  542.00	  558.18	-1818.68	  442.56
     19.3700	  526.00	  557.88	-1834.38	  442.26
     19.4700	  579.00	  557.58	-1781.08	  441.95
     19.5700	  562.00	  557.29	-1797.79	  441.65
     19.6700	  535.00	  556.99	-1824.49	  441.34
     19.7700	  562.00	  556.68	-1797.18	  441.03
     19.8700	  532.00	  556.38	-1826.88	  440.72
     19.9700	  563.00	  556.08	-1795.58	  440.41
     20.0700	  545.00	  555.78	-1813.28	  440.09
     20.1700	  597.00	  555.47	-1760.97	  439.78
     20.2700	  568.00	  555.17	-1789.67	  439.47
     20.3700	  548.00	  554.84	-1809.34	  439.15
     20.4700	  507.00	  554.54	-1850.04	  438.84
     20.5700	  578.00	  554.23	-1778.73	  438.52
     20.6700	  518.00	  553.93	-1838.43	  438.20
     20.7700	  525.00	  553.62	-1831.12	  437.88
     20.8700	  524.00	  553.36	-1831.86	  437.56
     20.9700	  556.00	  553.05	-1799.55	  437.24
     21.0700	  546.00	  552.75	-1809.25	  436.92
     21.1700	  613.00	  552.45	-1741.95	  436.60
     21.2700	  538.00	  552.14	-1816.64	  436.28
     21.3700	  553.00	  551.84	-1801.34	  435.96
     21.4700	  544.00	  551.54	-1810.04	  435.63
     21.5700	  567.00	  551.24	-1786.74	  435.31
     21.6700	  539.00	  550.94	-1814.44	  434.98
     21.7700	  569.00	  550.64	-1784.14	  434.66
     21.8700	  562.00	  550.35	-1790.85	  434.33
     21.9700	  555.00	  550.05	-1797.55	  434.01
     22.0700	  489.00	  549.76	-1863.26	  433.68
     22.1700	  523.00	  549.47	-1828.97	  433.35
     22.2700	  562.00	  549.18	-1789.68	  433.02
     22.3700	  568.00	  548.90	-1783.40	  432.70
     22.4700	  531.00	  548.62	-1820.12	  432.37
     22.5700	  574.00	  548.34	-1776.84	  432.04
     22.6700	  549.00	  548.07	-1801.57	  431.71
     22.7700	  530.00	  547.81	-1820.31	  431.38
     22.8700	  553.00	  547.55	-1797.05	  431.05
     22.9700	  578.00	  547.30	-1771.80	  430.72
     23.0700	  546.00	  547.07	-1803.57	  430.39
     23.1700	  554.00	  546.85	-1795.35	  430.06
     23.2700	  523.00	  546.65	-1826.15	  429.73
     23.3700	  547.00	  546.47	-1801.97	  429.40
     23.4700	  491.00	  546.33	-1857.83	  429.07
     23.5700	  574.00	  546.22	-1774.72	  428.74
     23.6700	  581.00	  546.18	-1767.68	  428.41
     23.7700	  578.00	  546.36	-1770.86	  428.08
     23.8700	  543.00	  546.60	-1806.10	  427.75
     23.9700	  555.00	  547.22	-1794.72	  427.42
     24.0700	  550.00	  548.62	-1801.12	  427.09
     24.1700	  549.00	  551.46	-1804.96	  426.76
     24.2700	  549.00	  556.58	-1810.08	  426.43
     24.3700	  570.00	  564.98	-1797.48	  426.09
     24.4700	  539.00	  577.78	-1841.28	  425.76
     24.5700	  573.00	  595.64	-1825.14	  425.43
     24.6700	  663.00	  616.47	-1755.97	  425.10
     24.7700	  596.00	  632.78	-1839.28	  424.77
     24.8700	  643.00	  633.05	-1792.55	  424.44
     24.9700	  582.00	  613.11	-1833.61	  424.12
     25.0700	  569.00	  585.92	-1819.42	  423.79
     25.1700	  561.00	  564.65	-1806.15	  423.46
     25.2700	  599.00	  552.49	-1755.99	  423.13
     25.3700	  576.00	  546.84	-1773.34	  422.80
     25.4700	  578.00	  544.37	-1768.87	  422.47
     25.5700	  561.00	  543.12	-1784.62	  422.14
     25.6700	  525.00	  542.33	-1819.83	  421.82
     25.7700	  536.00	  541.77	-1808.27	  421.49
     25.8700	  563.00	  541.34	-1780.84	  421.16
     25.9700	  555.00	  541.02	-1788.52	  420.84
     26.0700	  555.00	  540.79	-1788.29	  420.51
     26.1700	  561.00	  540.63	-1782.13	  420.19
     26.2700	  565.00	  540.56	-1778.06	  419.86
     26.3700	  544.00	  540.56	-1799.06	  419.54
     26.4700	  543.00	  540.64	-1800.14	  419.22
     26.5700	  586.00	  540.83	-1757.33	  418.89
     26.6700	  590.00	  541.12	-1753.62	  418.57
     26.7700	  529.00	  541.56	-1815.06	  418.25
     26.8700	  530.00	  542.16	-1814.66	  417.93
     26.9700	  573.00	  542.99	-1772.49	  417.61
     27.0700	  571.00	  544.12	-1775.62	  417.29
     27.1700	  480.00	  545.67	-1868.17	  416.97
     27.2700	  543.00	  547.88	-1807.38	  416.65
     27.3700	  517.00	  551.20	-1836.70	  416.33
     27.4700	  538.00	  556.53	-1821.03	  416.01
     27.5700	  589.00	  565.46	-1778.96	  415.70
     27.6700	  572.00	  580.51	-1811.01	  415.38
     27.7700	  581.00	  605.00	-1826.50	  415.07
     27.8700	  565.00	  641.93	-1879.43	  414.75
     27.9700	  699.00	  691.77	-1795.27	  414.44
     28.0700	  766.00	  749.55	-1786.05	  414.12
     28.1700	  919.00	  802.27	-1685.77	  413.81
     28.2700	  969.00	  829.41	-1662.91	  413.50
     28.3700	  929.00	  816.33	-1689.83	  413.19
     28.4700	  827.00	  779.44	-1754.94	  412.88
     28.5700	  735.00	  753.02	-1820.52	  412.57
     28.6700	  734.00	  755.23	-1823.73	  412.27
     28.7700	  783.00	  783.14	-1802.64	  411.96
     28.8700	  789.00	  817.51	-1831.01	  411.65
     28.9700	  840.00	  828.83	-1791.33	  411.35
     29.0700	  784.00	  794.70	-1813.20	  411.05
     29.1700	  711.00	  727.59	-1819.09	  410.74
     29.2700	  721.00	  659.79	-1741.29	  410.44
     29.3700	  596.00	  609.13	-1815.63	  410.14
     29.4700	  615.00	  577.65	-1765.15	  409.84
     29.5700	  659.00	  560.33	-1703.83	  409.54
     29.6700	  609.00	  551.17	-1744.67	  409.24
     29.7700	  581.00	  546.05	-1767.55	  408.95
     29.8700	  607.00	  542.91	-1738.41	  408.65
     29.9700	  596.00	  540.90	-1747.40	  408.36
     30.0700	  599.00	  539.78	-1743.28	  408.06
     30.1700	  552.00	  539.64	-1790.14	  407.77
     30.2700	  574.00	  540.98	-1769.48	  407.48
     30.3700	  563.00	  544.78	-1784.28	  407.19
     30.4700	  571.00	  552.62	-1784.12	  406.90
     30.5700	  578.00	  566.27	-1790.77	  406.61
     30.6700	  572.00	  586.52	-1817.02	  406.33
     30.7700	  597.00	  611.29	-1816.79	  406.04
     30.8700	  619.00	  634.19	-1817.69	  405.76
     30.9700	  618.00	  644.69	-1829.19	  405.48
     31.0700	  631.00	  634.05	-1805.55	  405.20
     31.1700	  554.00	  607.17	-1855.67	  404.91
     31.2700	  519.00	  578.28	-1861.78	  404.64
     31.3700	  565.00	  556.12	-1793.62	  404.36
     31.4700	  514.00	  542.27	-1830.77	  404.08
     31.5700	  523.00	  534.73	-1814.23	  403.81
     31.6700	  548.00	  530.85	-1785.35	  403.53
     31.7700	  517.00	  528.73	-1814.23	  403.26
     31.8700	  536.00	  527.42	-1793.92	  402.99
     31.9700	  532.00	  526.52	-1797.02	  402.72
     32.0700	  556.00	  525.87	-1772.37	  402.45
     32.1700	  533.00	  525.41	-1794.91	  402.18
     32.2700	  517.00	  525.12	-1810.62	  401.92
     32.3700	  549.00	  524.99	-1778.49	  401.65
     32.4700	  563.00	  525.01	-1764.51	  401.39
     32.5700	  542.00	  525.19	-1785.69	  401.13
     32.6700	  574.00	  525.56	-1754.06	  400.87
     32.7700	  547.00	  526.17	-1781.67	  400.61
     32.8700	  540.00	  527.06	-1789.56	  400.35
     32.9700	  531.00	  528.35	-1799.85	  400.09
     33.0700	  515.00	  530.22	-1817.72	  399.84
     33.1700	  524.00	  533.05	-1811.55	  399.59
     33.2700	  552.00	  537.75	-1788.25	  399.33
     33.3700	  514.00	  546.25	-1834.75	  399.08
     33.4700	  575.00	  562.53	-1790.03	  398.84
     33.5700	  591.00	  593.04	-1804.54	  398.59
     33.6700	  616.00	  645.86	-1832.36	  398.34
     33.7700	  724.00	  725.92	-1804.42	  398.10
     33.8700	  847.00	  826.90	-1782.40	  397.86
     33.9700	 1021.00	  924.52	-1706.02	  397.61
     34.0700	 1142.00	  977.92	-1638.42	  397.37
     34.1700	 1059.00	  950.64	-1694.14	  397.14
     34.2700	  919.00	  854.08	-1737.58	  396.90
     34.3700	  759.00	  740.93	-1784.43	  396.67
     34.4700	  648.00	  649.42	-1803.92	  396.43
     34.5700	  608.00	  590.16	-1784.66	  396.20
     34.6700	  539.00	  557.47	-1820.97	  395.97
     34.7700	  523.00	  541.02	-1820.52	  395.74
     34.8700	  577.00	  532.59	-1758.09	  395.51
     34.9700	  584.00	  527.71	-1746.21	  395.29
     35.0700	  561.00	  524.41	-1765.91	  395.06
     35.1700	  513.00	  521.95	-1811.45	  394.84
     35.2700	  503.00	  520.02	-1819.52	  394.62
     35.3700	  476.00	  518.47	-1844.97	  394.40
     35.4700	  518.00	  517.18	-1801.68	  394.18
     35.5700	  530.00	  516.09	-1788.59	  393.97
     35.6700	  518.00	  515.16	-1799.66	  393.75
     35.7700	  474.00	  514.35	-1842.85	  393.54
     35.8700	  543.00	  514.14	-1773.64	  393.33
     35.9700	  523.00	  513.52	-1793.02	  393.12
     36.0700	  502.00	  512.97	-1813.47	  392.91
     36.1700	  525.00	  512.47	-1789.97	  392.71
     36.2700	  486.00	  512.02	-1828.52	  392.50
     36.3700	  519.00	  511.61	-1795.11	  392.30
     36.4700	  506.00	  511.24	-1807.74	  392.10
     36.5700	  521.00	  510.91	-1792.41	  391.90
     36.6700	  506.00	  510.62	-1807.12	  391.70
     36.7700	  522.00	  510.37	-1790.87	  391.51
     36.8700	  562.00	  510.17	-1750.67	  391.31
     36.9700	  464.00	  510.07	-1848.57	  391.12
     37.0700	  518.00	  510.15	-1794.65	  390.93
     37.1700	  535.00	  510.62	-1778.12	  390.74
     37.2700	  521.00	  511.78	-1793.28	  390.55
     37.3700	  495.00	  514.02	-1821.52	  390.37
     37.4700	  467.00	  517.52	-1853.02	  390.18
     37.5700	  526.00	  521.91	-1798.41	  390.00
     37.6700	  525.00	  526.05	-1803.55	  389.82
     37.7700	  505.00	  528.42	-1825.92	  389.64
     37.8700	  540.00	  528.12	-1790.62	  389.47
     37.9700	  543.00	  525.90	-1785.40	  389.29
     38.0700	  530.00	  522.71	-1795.21	  389.12
     38.1700	  498.00	  518.93	-1823.43	  388.95
     38.2700	  509.00	  515.04	-1808.54	  388.78
     38.3700	  508.00	  511.73	-1806.23	  388.61
     38.4700	  503.00	  509.31	-1808.81	  388.44
     38.5700	  494.00	  507.73	-1816.23	  388.28
     38.6700	  521.00	  506.77	-1788.27	  388.11
     38.7700	  480.00	  506.19	-1828.69	  387.95
     38.8700	  518.00	  505.80	-1790.30	  387.79
     38.9700	  493.00	  505.41	-1814.91	  387.64
     39.0700	  489.00	  505.17	-1818.67	  387.48
     39.1700	  515.00	  504.96	-1792.46	  387.33
     39.2700	  503.00	  504.77	-1804.27	  387.17
     39.3700	  501.00	  504.50	-1806.00	  387.02
     39.4700	  472.00	  504.34	-1834.84	  386.88
     39.5700	  526.00	  504.19	-1780.69	  386.73
     39.6700	  526.00	  504.17	-1780.67	  386.58
     39.7700	  493.00	  504.04	-1813.54	  386.44
     39.8700	  484.00	  503.93	-1822.43	  386.30
     39.9700	  566.00	  503.82	-1740.32	  386.16
     40.0700	  492.00	  503.72	-1814.22	  386.02
     40.1700	  531.00	  503.63	-1775.13	  385.89
     40.2700	  508.00	  503.55	-1798.05	  385.75
     40.3700	  493.00	  503.49	-1812.99	  385.62
     40.4700	  512.00	  503.43	-1793.93	  385.49
     40.5700	  481.00	  503.39	-1824.89	  385.36
     40.6700	  510.00	  503.37	-1795.87	  385.23
     40.7700	  522.00	  503.36	-1783.86	  385.11
