MSG Master    CELL:    5.91943   5.91943  23.27626   90.0000   90.0000  120.0000   SPGR: P 63/m m c             TEMP:   1074.85
  1   1280     2.52000     0.00000    -0.12654     0.00000     0.00000    0
    99     0     2
       0.00000      10.00000
     125.00000     130.00000
 2Theta	Yobs	Ycal	Yobs-Ycal	Backg	Posr	(hkl)	K
      0.7700	    0.00	  543.87	-1724.25	  424.10
      0.8700	    0.00	  544.60	-1724.25	  424.83
      0.9700	   39.00	  545.32	-1724.25	  425.55
      1.0700	   39.00	  546.03	-1724.25	  426.26
      1.1700	   61.00	  546.72	-1724.25	  426.96
      1.2700	   30.00	  547.41	-1724.25	  427.64
      1.3700	   46.00	  548.09	-1724.25	  428.32
      1.4700	   92.00	  548.75	-1724.25	  428.99
      1.5700	  287.00	  549.41	-1724.25	  429.64
      1.6700	  446.00	  550.05	-1724.25	  430.28
      1.7700	  585.00	  550.69	-1724.25	  430.92
      1.8700	  629.00	  551.31	-1724.25	  431.54
      1.9700	  682.00	  551.92	-1724.25	  432.15
      2.0700	  779.00	  552.52	-1724.25	  432.76
      2.1700	  769.00	  553.12	-1724.25	  433.35
      2.2700	  731.00	  553.70	-1724.25	  433.93
      2.3700	  745.00	  554.27	-1724.25	  434.50
      2.4700	  732.00	  554.83	-1724.25	  435.07
      2.5700	  698.00	  555.39	-1724.25	  435.62
      2.6700	  713.00	  555.93	-1724.25	  436.16
      2.7700	  645.00	  556.46	-1724.25	  436.70
      2.8700	  656.00	  556.99	-1724.25	  437.22
      2.9700	  611.00	  557.50	-1724.25	  437.73
      3.0700	  625.00	  558.00	-1724.25	  438.24
      3.1700	  561.00	  558.50	-1724.25	  438.73
      3.2700	  609.00	  558.99	-1724.25	  439.22
      3.3700	  690.00	  559.46	-1724.25	  439.69
      3.4700	  732.00	  559.93	-1724.25	  440.16
      3.5700	  817.00	  560.39	-1724.25	  440.62
      3.6700	  910.00	  560.83	-1724.25	  441.07
      3.7700	  905.00	  561.27	-1724.25	  441.51
      3.8700	  991.00	  561.70	-1724.25	  441.94
      3.9700	 1032.00	  562.13	-1724.25	  442.36
      4.0700	 1058.00	  562.54	-1724.25	  442.77
      4.1700	 1124.00	  562.94	-1724.25	  443.18
      4.2700	 1096.00	  563.34	-1724.25	  443.57
      4.3700	 1060.00	  563.73	-1724.25	  443.96
      4.4700	 1066.00	  564.10	-1724.25	  444.34
      4.5700	 1002.00	  564.47	-1724.25	  444.71
      4.6700	 1050.00	  564.83	-1724.25	  445.07
      4.7700	  992.00	  565.19	-1724.25	  445.42
      4.8700	  990.00	  565.53	-1724.25	  445.76
      4.9700	  962.00	  565.87	-1724.25	  446.10
      5.0700	  965.00	  566.20	-1724.25	  446.43
      5.1700	  889.00	  566.51	-1724.25	  446.75
      5.2700	  885.00	  566.83	-1724.25	  447.06
      5.3700	  850.00	  567.13	-1724.25	  447.36
      5.4700	  892.00	  567.43	-1724.25	  447.66
      5.5700	  866.00	  567.71	-1724.25	  447.95
      5.6700	  872.00	  567.99	-1724.25	  448.23
      5.7700	  811.00	  568.27	-1724.25	  448.50
      5.8700	  802.00	  568.53	-1724.25	  448.76
      5.9700	  791.00	  568.79	-1724.25	  449.02
      6.0700	  768.00	  569.04	-1724.25	  449.27
      6.1700	  822.00	  569.28	-1724.25	  449.51
      6.2700	  752.00	  569.51	-1724.25	  449.75
      6.3700	  767.00	  569.74	-1724.25	  449.97
      6.4700	  764.00	  569.96	-1724.25	  450.19
      6.5700	  786.00	  570.17	-1724.25	  450.41
      6.6700	  689.00	  570.38	-1724.25	  450.61
      6.7700	  734.00	  570.58	-1724.25	  450.81
      6.8700	  739.00	  570.77	-1724.25	  451.00
      6.9700	  680.00	  570.95	-1724.25	  451.19
      7.0700	  689.00	  571.13	-1724.25	  451.36
      7.1700	  709.00	  571.30	-1724.25	  451.53
      7.2700	  648.00	  571.46	-1724.25	  451.70
      7.3700	  692.00	  571.62	-1724.25	  451.85
      7.4700	  660.00	  571.77	-1724.25	  452.00
      7.5700	  626.00	  571.91	-1724.25	  452.15
      7.6700	  627.00	  572.05	-1724.25	  452.28
      7.7700	  662.00	  572.18	-1724.25	  452.41
      7.8700	  648.00	  572.31	-1724.25	  452.54
      7.9700	  599.00	  572.42	-1724.25	  452.66
      8.0700	  651.00	  572.53	-1724.25	  452.77
      8.1700	  631.00	  572.64	-1724.25	  452.87
      8.2700	  665.00	  572.74	-1724.25	  452.97
      8.3700	  646.00	  572.83	-1724.25	  453.06
      8.4700	  615.00	  572.91	-1724.25	  453.15
      8.5700	  601.00	  572.99	-1724.25	  453.23
      8.6700	  614.00	  573.07	-1724.25	  453.30
      8.7700	  612.00	  573.14	-1724.25	  453.37
      8.8700	  648.00	  573.20	-1724.25	  453.43
      8.9700	  579.00	  573.25	-1724.25	  453.49
      9.0700	  611.00	  573.30	-1724.25	  453.54
      9.1700	  609.00	  573.35	-1724.25	  453.58
      9.2700	  600.00	  573.39	-1724.25	  453.62
      9.3700	  598.00	  573.42	-1724.25	  453.65
      9.4700	  610.00	  573.45	-1724.25	  453.68
      9.5700	  709.00	  573.47	-1724.25	  453.70
      9.6700	  613.00	  573.49	-1724.25	  453.72
      9.7700	  554.00	  573.50	-1724.25	  453.73
      9.8700	  603.00	  573.50	-1724.25	  453.74
      9.9700	  605.00	  573.50	-1724.25	  453.74
     10.0700	  615.00	  574.33	-1683.58	  453.73
     10.1700	  594.00	  574.41	-1704.66	  453.72
     10.2700	  603.00	  574.51	-1695.76	  453.71
     10.3700	  607.00	  574.63	-1691.88	  453.68
     10.4700	  572.00	  574.82	-1727.06	  453.66
     10.5700	  562.00	  575.11	-1737.36	  453.63
     10.6700	  623.00	  575.62	-1676.87	  453.59
     10.7700	  526.00	  576.44	-1774.69	  453.55
     10.8700	  599.00	  577.65	-1702.90	  453.51
     10.9700	  570.00	  579.23	-1733.48	  453.46
     11.0700	  585.00	  581.16	-1720.41	  453.40
     11.1700	  605.00	  583.43	-1702.68	  453.34
     11.2700	  612.00	  586.08	-1698.33	  453.28
     11.3700	  616.00	  589.18	-1697.43	  453.21
     11.4700	  548.00	  592.88	-1769.13	  453.13
     11.5700	  597.00	  597.37	-1724.62	  453.06
     11.6700	  596.00	  603.01	-1731.26	  452.97
     11.7700	  608.00	  610.40	-1726.65	  452.89
     11.8700	  626.00	  620.43	-1718.68	  452.79
     11.9700	  669.00	  633.62	-1688.87	  452.70
     12.0700	  674.00	  648.25	-1698.50	  452.60
     12.1700	  678.00	  658.25	-1704.50	  452.49
     12.2700	  666.00	  654.35	-1712.60	  452.39
     12.3700	  665.00	  634.18	-1693.43	  452.27
     12.4700	  627.00	  609.94	-1707.19	  452.16
     12.5700	  568.00	  592.19	-1748.44	  452.04
     12.6700	  542.00	  582.41	-1764.66	  451.91
     12.7700	  522.00	  577.88	-1780.13	  451.78
     12.8700	  570.00	  575.79	-1730.04	  451.65
     12.9700	  569.00	  574.62	-1729.88	  451.51
     13.0700	  567.00	  573.83	-1731.08	  451.37
     13.1700	  556.00	  573.22	-1741.47	  451.23
     13.2700	  567.00	  572.73	-1729.98	  451.08
     13.3700	  584.00	  572.31	-1712.56	  450.93
     13.4700	  591.00	  571.94	-1705.19	  450.77
     13.5700	  600.00	  571.62	-1695.87	  450.61
     13.6700	  535.00	  571.32	-1760.57	  450.45
     13.7700	  563.00	  571.04	-1732.29	  450.29
     13.8700	  562.00	  570.78	-1733.03	  450.12
     13.9700	  597.00	  570.53	-1697.78	  449.94
     14.0700	  590.00	  570.29	-1704.54	  449.77
     14.1700	  617.00	  570.05	-1677.30	  449.59
     14.2700	  568.00	  569.82	-1726.07	  449.41
     14.3700	  583.00	  569.59	-1710.84	  449.22
     14.4700	  570.00	  569.36	-1723.61	  449.03
     14.5700	  524.00	  569.14	-1769.39	  448.84
     14.6700	  548.00	  568.91	-1745.16	  448.64
     14.7700	  532.00	  568.69	-1760.94	  448.44
     14.8700	  517.00	  568.46	-1775.71	  448.24
     14.9700	  594.00	  568.24	-1698.49	  448.04
     15.0700	  587.00	  568.01	-1705.26	  447.83
     15.1700	  560.00	  567.78	-1732.03	  447.62
     15.2700	  560.00	  567.55	-1731.80	  447.40
     15.3700	  560.00	  567.32	-1731.57	  447.19
     15.4700	  543.00	  567.09	-1748.34	  446.97
     15.5700	  552.00	  566.86	-1739.11	  446.75
     15.6700	  555.00	  566.62	-1735.87	  446.52
     15.7700	  569.00	  566.39	-1721.64	  446.30
     15.8700	  548.00	  566.15	-1742.40	  446.07
     15.9700	  571.00	  565.91	-1719.16	  445.83
     16.0700	  570.00	  565.69	-1719.94	  445.60
     16.1700	  594.00	  565.45	-1695.70	  445.36
     16.2700	  539.00	  565.20	-1750.45	  445.12
     16.3700	  562.00	  564.95	-1727.20	  444.88
     16.4700	  563.00	  564.70	-1725.95	  444.63
     16.5700	  559.00	  564.45	-1729.70	  444.39
     16.6700	  507.00	  564.20	-1781.45	  444.14
     16.7700	  529.00	  563.94	-1759.19	  443.88
     16.8700	  588.00	  563.68	-1699.93	  443.63
     16.9700	  594.00	  563.42	-1693.67	  443.37
     17.0700	  604.00	  563.16	-1683.41	  443.12
     17.1700	  592.00	  562.90	-1695.15	  442.85
     17.2700	  584.00	  562.63	-1702.88	  442.59
     17.3700	  574.00	  562.37	-1712.62	  442.33
     17.4700	  554.00	  562.10	-1732.35	  442.06
     17.5700	  583.00	  561.83	-1703.08	  441.79
     17.6700	  553.00	  561.55	-1732.80	  441.52
     17.7700	  539.00	  561.28	-1746.53	  441.25
     17.8700	  559.00	  561.00	-1726.25	  440.97
     17.9700	  536.00	  560.73	-1748.98	  440.70
     18.0700	  576.00	  560.55	-1708.80	  440.42
     18.1700	  562.00	  560.28	-1722.53	  440.14
     18.2700	  557.00	  560.00	-1727.25	  439.86
     18.3700	  563.00	  559.71	-1720.96	  439.57
     18.4700	  597.00	  559.43	-1686.68	  439.29
     18.5700	  554.00	  559.15	-1729.40	  439.00
     18.6700	  527.00	  558.86	-1756.11	  438.71
     18.7700	  545.00	  558.57	-1737.82	  438.42
     18.8700	  577.00	  558.28	-1705.53	  438.13
     18.9700	  536.00	  558.07	-1746.32	  437.84
     19.0700	  544.00	  557.78	-1738.03	  437.54
     19.1700	  493.00	  557.49	-1788.74	  437.24
     19.2700	  564.00	  557.20	-1717.45	  436.95
     19.3700	  544.00	  556.91	-1737.16	  436.65
     19.4700	  517.00	  556.61	-1763.86	  436.35
     19.5700	  547.00	  556.32	-1733.57	  436.05
     19.6700	  572.00	  556.02	-1708.27	  435.74
     19.7700	  561.00	  555.73	-1718.98	  435.44
     19.8700	  569.00	  555.43	-1710.68	  435.13
     19.9700	  508.00	  555.13	-1771.38	  434.83
     20.0700	  588.00	  554.83	-1691.08	  434.52
     20.1700	  536.00	  554.53	-1742.78	  434.21
     20.2700	  573.00	  554.23	-1705.48	  433.90
     20.3700	  571.00	  553.93	-1707.18	  433.59
     20.4700	  516.00	  553.63	-1761.88	  433.28
     20.5700	  545.00	  553.33	-1732.58	  432.96
     20.6700	  549.00	  553.03	-1728.28	  432.65
     20.7700	  538.00	  552.69	-1738.94	  432.33
     20.8700	  547.00	  552.43	-1729.68	  432.02
     20.9700	  527.00	  552.13	-1749.38	  431.70
     21.0700	  556.00	  551.83	-1720.08	  431.38
     21.1700	  514.00	  551.53	-1761.78	  431.07
     21.2700	  550.00	  551.22	-1725.47	  430.75
     21.3700	  564.00	  550.93	-1711.18	  430.43
     21.4700	  507.00	  550.63	-1767.88	  430.10
     21.5700	  593.00	  550.33	-1681.58	  429.78
     21.6700	  509.00	  550.03	-1765.28	  429.46
     21.7700	  577.00	  549.73	-1696.98	  429.14
     21.8700	  514.00	  549.44	-1759.69	  428.81
     21.9700	  580.00	  549.15	-1693.40	  428.49
     22.0700	  506.00	  548.85	-1767.10	  428.17
     22.1700	  548.00	  548.57	-1724.82	  427.84
     22.2700	  518.00	  548.28	-1754.53	  427.51
     22.3700	  498.00	  548.00	-1774.25	  427.19
     22.4700	  536.00	  547.72	-1735.97	  426.86
     22.5700	  538.00	  547.44	-1733.69	  426.53
     22.6700	  572.00	  547.17	-1699.42	  426.21
     22.7700	  515.00	  546.91	-1756.16	  425.88
     22.8700	  602.00	  546.66	-1668.91	  425.55
     22.9700	  513.00	  546.41	-1757.66	  425.22
     23.0700	  583.00	  546.18	-1687.43	  424.89
     23.1700	  541.00	  545.96	-1729.21	  424.56
     23.2700	  539.00	  545.77	-1731.02	  424.23
     23.3700	  499.00	  545.60	-1770.84	  423.90
     23.4700	  544.00	  545.46	-1725.71	  423.57
     23.5700	  575.00	  545.36	-1694.61	  423.24
     23.6700	  530.00	  545.47	-1739.72	  422.91
     23.7700	  554.00	  545.56	-1715.81	  422.58
     23.8700	  572.00	  545.85	-1698.10	  422.25
     23.9700	  543.00	  546.56	-1727.81	  421.92
     24.0700	  553.00	  548.08	-1719.33	  421.59
     24.1700	  587.00	  551.02	-1688.27	  421.26
     24.2700	  575.00	  556.12	-1705.37	  420.93
     24.3700	  623.00	  564.24	-1665.49	  420.60
     24.4700	  544.00	  576.23	-1756.48	  420.26
     24.5700	  586.00	  592.15	-1730.40	  419.93
     24.6700	  605.00	  609.29	-1728.54	  419.60
     24.7700	  615.00	  620.61	-1729.86	  419.27
     24.8700	  619.00	  617.08	-1722.33	  418.94
     24.9700	  628.00	  598.22	-1694.47	  418.61
     25.0700	  546.00	  575.94	-1754.19	  418.28
     25.1700	  568.00	  559.31	-1715.56	  417.95
     25.2700	  525.00	  549.84	-1749.08	  417.62
     25.3700	  556.00	  545.28	-1713.53	  417.29
     25.4700	  562.00	  543.15	-1705.40	  416.96
     25.5700	  523.00	  542.00	-1743.25	  416.63
     25.6700	  569.00	  541.24	-1696.49	  416.30
     25.7700	  549.00	  540.69	-1715.94	  415.97
     25.8700	  541.00	  540.27	-1723.52	  415.65
     25.9700	  547.00	  539.95	-1717.20	  415.32
     26.0700	  583.00	  539.72	-1680.97	  414.99
     26.1700	  538.00	  539.56	-1725.81	  414.66
     26.2700	  552.00	  539.47	-1711.72	  414.34
     26.3700	  510.00	  539.47	-1753.72	  414.01
     26.4700	  573.00	  539.55	-1690.80	  413.68
     26.5700	  562.00	  539.72	-1701.97	  413.36
     26.6700	  587.00	  540.01	-1677.26	  413.03
     26.7700	  555.00	  540.44	-1709.69	  412.71
     26.8700	  540.00	  541.05	-1725.30	  412.39
     26.9700	  563.00	  541.88	-1703.13	  412.06
     27.0700	  528.00	  543.02	-1739.27	  411.74
     27.1700	  553.00	  544.62	-1715.87	  411.42
     27.2700	  549.00	  546.92	-1722.17	  411.10
     27.3700	  576.00	  550.46	-1698.71	  410.77
     27.4700	  558.00	  556.28	-1722.53	  410.45
     27.5700	  567.00	  566.26	-1723.51	  410.13
     27.6700	  546.00	  583.38	-1761.63	  409.82
     27.7700	  555.00	  611.48	-1780.73	  409.50
     27.8700	  602.00	  653.93	-1776.18	  409.18
     27.9700	  698.00	  710.88	-1737.13	  408.86
     28.0700	  782.00	  775.66	-1717.91	  408.55
     28.1700	  888.00	  831.58	-1667.83	  408.23
     28.2700	  978.00	  853.65	-1599.90	  407.92
     28.3700	  902.00	  827.41	-1649.66	  407.60
     28.4700	  774.00	  776.36	-1726.61	  407.29
     28.5700	  709.00	  738.34	-1753.59	  406.98
     28.6700	  713.00	  730.35	-1741.60	  406.67
     28.7700	  801.00	  747.81	-1671.06	  406.36
     28.8700	  773.00	  771.25	-1722.50	  406.05
     28.9700	  734.00	  773.90	-1764.15	  405.74
     29.0700	  747.00	  739.18	-1716.43	  405.43
     29.1700	  692.00	  681.62	-1713.87	  405.12
     29.2700	  601.00	  627.23	-1750.48	  404.82
     29.3700	  601.00	  588.21	-1711.46	  404.51
     29.4700	  612.00	  564.73	-1676.98	  404.21
     29.5700	  624.00	  552.06	-1652.31	  403.91
     29.6700	  616.00	  545.36	-1653.61	  403.60
     29.7700	  560.00	  541.54	-1705.79	  403.30
     29.8700	  608.00	  539.15	-1655.40	  403.00
     29.9700	  568.00	  537.63	-1693.88	  402.71
     30.0700	  581.00	  536.88	-1680.13	  402.41
     30.1700	  579.00	  537.05	-1682.30	  402.11
     30.2700	  584.00	  538.68	-1678.93	  401.81
     30.3700	  515.00	  542.79	-1752.04	  401.52
     30.4700	  578.00	  550.93	-1697.18	  401.23
     30.5700	  528.00	  564.70	-1760.95	  400.93
     30.6700	  634.00	  584.50	-1674.75	  400.64
     30.7700	  565.00	  607.80	-1767.05	  400.35
     30.8700	  631.00	  627.91	-1721.16	  400.07
     30.9700	  620.00	  634.71	-1738.96	  399.78
     31.0700	  607.00	  621.47	-1738.72	  399.49
     31.1700	  613.00	  595.21	-1706.46	  399.21
     31.2700	  558.00	  569.06	-1735.31	  398.92
     31.3700	  537.00	  549.83	-1737.08	  398.64
     31.4700	  555.00	  538.16	-1707.41	  398.36
     31.5700	  550.00	  531.92	-1706.17	  398.08
     31.6700	  518.00	  528.71	-1734.96	  397.80
     31.7700	  568.00	  526.94	-1683.19	  397.52
     31.8700	  525.00	  525.82	-1725.07	  397.24
     31.9700	  570.00	  525.04	-1679.29	  396.97
     32.0700	  562.00	  524.50	-1686.75	  396.70
     32.1700	  563.00	  524.14	-1685.39	  396.42
     32.2700	  536.00	  523.93	-1712.18	  396.15
     32.3700	  563.00	  523.87	-1685.12	  395.88
     32.4700	  556.00	  523.98	-1692.23	  395.61
     32.5700	  523.00	  524.25	-1725.50	  395.35
     32.6700	  532.00	  524.73	-1716.98	  395.08
     32.7700	  524.00	  525.45	-1725.70	  394.82
     32.8700	  553.00	  526.50	-1697.75	  394.55
     32.9700	  575.00	  527.99	-1677.24	  394.29
     33.0700	  559.00	  530.14	-1695.39	  394.03
     33.1700	  575.00	  533.45	-1682.70	  393.77
     33.2700	  508.00	  539.00	-1755.25	  393.52
     33.3700	  552.00	  549.15	-1721.40	  393.26
     33.4700	  541.00	  568.41	-1751.66	  393.01
     33.5700	  617.00	  603.83	-1711.08	  392.75
     33.6700	  626.00	  663.39	-1761.64	  392.50
     33.7700	  705.00	  750.39	-1769.64	  392.25
     33.8700	  876.00	  855.02	-1703.27	  392.00
     33.9700	 1069.00	  948.99	-1604.24	  391.76
     34.0700	 1029.00	  989.26	-1684.51	  391.51
     34.1700	  967.00	  944.98	-1702.23	  391.27
     34.2700	  903.00	  839.28	-1660.53	  391.03
     34.3700	  744.00	  726.35	-1706.60	  390.79
     34.4700	  611.00	  639.07	-1752.32	  390.55
     34.5700	  597.00	  584.11	-1711.36	  390.31
     34.6700	  561.00	  554.24	-1717.49	  390.07
     34.7700	  554.00	  539.16	-1709.41	  389.84
     34.8700	  530.00	  531.27	-1725.52	  389.61
     34.9700	  564.00	  526.54	-1686.79	  389.37
     35.0700	  548.00	  523.28	-1699.53	  389.14
     35.1700	  503.00	  520.84	-1742.09	  388.92
     35.2700	  524.00	  518.90	-1719.15	  388.69
     35.3700	  514.00	  517.32	-1727.57	  388.47
     35.4700	  556.00	  516.01	-1684.26	  388.24
     35.5700	  517.00	  514.91	-1722.16	  388.02
     35.6700	  544.00	  513.96	-1694.21	  387.80
     35.7700	  490.00	  513.14	-1747.39	  387.58
     35.8700	  567.00	  512.41	-1669.67	  387.37
     35.9700	  491.00	  511.77	-1745.02	  387.15
     36.0700	  543.00	  511.66	-1692.91	  386.94
     36.1700	  530.00	  511.15	-1705.40	  386.73
     36.2700	  517.00	  510.69	-1717.94	  386.52
     36.3700	  516.00	  510.28	-1718.53	  386.31
     36.4700	  432.00	  509.90	-1802.15	  386.10
     36.5700	  501.00	  509.57	-1732.82	  385.90
     36.6700	  472.00	  509.27	-1761.52	  385.69
     36.7700	  513.00	  509.02	-1720.27	  385.49
     36.8700	  457.00	  508.84	-1776.09	  385.29
     36.9700	  487.00	  508.79	-1746.04	  385.09
     37.0700	  534.00	  508.98	-1699.23	  384.90
     37.1700	  546.00	  509.63	-1687.88	  384.70
     37.2700	  520.00	  511.07	-1715.32	  384.51
     37.3700	  516.00	  513.59	-1721.84	  384.32
     37.4700	  511.00	  517.16	-1730.41	  384.13
     37.5700	  526.00	  521.14	-1719.39	  383.94
     37.6700	  544.00	  524.27	-1704.52	  383.75
     37.7700	  576.00	  525.13	-1673.38	  383.57
     37.8700	  533.00	  523.45	-1714.70	  383.39
     37.9700	  485.00	  520.40	-1759.65	  383.21
     38.0700	  500.00	  516.99	-1741.24	  383.03
     38.1700	  514.00	  513.60	-1723.85	  382.85
     38.2700	  481.00	  510.59	-1753.84	  382.67
     38.3700	  504.00	  508.26	-1728.51	  382.50
     38.4700	  531.00	  506.63	-1699.88	  382.33
     38.5700	  533.00	  505.57	-1696.82	  382.16
     38.6700	  498.00	  504.80	-1731.05	  381.99
     38.7700	  539.00	  504.36	-1689.61	  381.82
     38.8700	  503.00	  504.04	-1725.29	  381.66
     38.9700	  531.00	  503.78	-1697.03	  381.49
     39.0700	  507.00	  503.55	-1720.80	  381.33
     39.1700	  512.00	  503.27	-1715.52	  381.17
     39.2700	  514.00	  503.08	-1713.33	  381.02
     39.3700	  500.00	  502.91	-1727.16	  380.86
     39.4700	  497.00	  502.88	-1730.13	  380.71
     39.5700	  475.00	  502.73	-1751.98	  380.55
     39.6700	  514.00	  502.59	-1712.84	  380.40
     39.7700	  517.00	  502.46	-1709.71	  380.25
     39.8700	  527.00	  502.34	-1699.59	  380.11
     39.9700	  524.00	  502.23	-1702.48	  379.96
     40.0700	  443.00	  502.13	-1783.39	  379.82
     40.1700	  464.00	  502.05	-1762.30	  379.68
     40.2700	  483.00	  501.97	-1743.22	  379.54
     40.3700	  504.00	  501.90	-1722.15	  379.40
     40.4700	  498.00	  501.85	-1728.10	  379.26
     40.5700	  514.00	  501.81	-1712.06	  379.13
     40.6700	  476.00	  501.79	-1750.04	  379.00
     40.7700	  481.00	  501.78	-1745.03	  378.87
