MSG Master    CELL:    5.90728   5.90728  23.21044   90.0000   90.0000  120.0000   SPGR: P 63/m m c             TEMP:    874.85
  1   1280     2.52000     0.00000    -0.12254     0.00000     0.00000    0
    98     0     2
       0.00000      10.00000
     125.00000     130.00000
 2Theta	Yobs	Ycal	Yobs-Ycal	Backg	Posr	(hkl)	K
      0.7700	    0.00	  475.67	-1744.01	  366.44
      0.8700	    0.00	  477.19	-1744.01	  367.97
      0.9700	   43.00	  478.70	-1744.01	  369.47
      1.0700	   31.00	  480.19	-1744.01	  370.96
      1.1700	   49.00	  481.66	-1744.01	  372.43
      1.2700	   46.00	  483.11	-1744.01	  373.89
      1.3700	   49.00	  484.55	-1744.01	  375.32
      1.4700	  109.00	  485.97	-1744.01	  376.74
      1.5700	  308.00	  487.38	-1744.01	  378.15
      1.6700	  456.00	  488.76	-1744.01	  379.54
      1.7700	  587.00	  490.13	-1744.01	  380.91
      1.8700	  702.00	  491.49	-1744.01	  382.26
      1.9700	  704.00	  492.83	-1744.01	  383.60
      2.0700	  771.00	  494.15	-1744.01	  384.92
      2.1700	  805.00	  495.45	-1744.01	  386.23
      2.2700	  760.00	  496.74	-1744.01	  387.52
      2.3700	  717.00	  498.02	-1744.01	  388.79
      2.4700	  735.00	  499.28	-1744.01	  390.05
      2.5700	  711.00	  500.52	-1744.01	  391.29
      2.6700	  642.00	  501.75	-1744.01	  392.52
      2.7700	  624.00	  502.96	-1744.01	  393.73
      2.8700	  623.00	  504.16	-1744.01	  394.93
      2.9700	  616.00	  505.34	-1744.01	  396.11
      3.0700	  610.00	  506.50	-1744.01	  397.28
      3.1700	  589.00	  507.65	-1744.01	  398.43
      3.2700	  666.00	  508.79	-1744.01	  399.56
      3.3700	  814.00	  509.91	-1744.01	  400.68
      3.4700	  859.00	  511.02	-1744.01	  401.79
      3.5700	  976.00	  512.11	-1744.01	  402.88
      3.6700	 1100.00	  513.18	-1744.01	  403.96
      3.7700	 1080.00	  514.25	-1744.01	  405.02
      3.8700	 1167.00	  515.30	-1744.01	  406.07
      3.9700	 1206.00	  516.33	-1744.01	  407.10
      4.0700	 1277.00	  517.35	-1744.01	  408.12
      4.1700	 1279.00	  518.35	-1744.01	  409.13
      4.2700	 1273.00	  519.35	-1744.01	  410.12
      4.3700	 1265.00	  520.32	-1744.01	  411.10
      4.4700	 1219.00	  521.29	-1744.01	  412.06
      4.5700	 1170.00	  522.24	-1744.01	  413.01
      4.6700	 1179.00	  523.17	-1744.01	  413.95
      4.7700	 1151.00	  524.10	-1744.01	  414.87
      4.8700	 1066.00	  525.01	-1744.01	  415.78
      4.9700	 1020.00	  525.90	-1744.01	  416.68
      5.0700	 1012.00	  526.78	-1744.01	  417.56
      5.1700	  993.00	  527.65	-1744.01	  418.43
      5.2700	 1013.00	  528.51	-1744.01	  419.28
      5.3700	  984.00	  529.35	-1744.01	  420.13
      5.4700	  915.00	  530.18	-1744.01	  420.96
      5.5700	  925.00	  531.00	-1744.01	  421.78
      5.6700	  901.00	  531.81	-1744.01	  422.58
      5.7700	  915.00	  532.60	-1744.01	  423.37
      5.8700	  888.00	  533.38	-1744.01	  424.15
      5.9700	  830.00	  534.15	-1744.01	  424.92
      6.0700	  830.00	  534.90	-1744.01	  425.68
      6.1700	  808.00	  535.65	-1744.01	  426.42
      6.2700	  790.00	  536.38	-1744.01	  427.15
      6.3700	  780.00	  537.10	-1744.01	  427.87
      6.4700	  765.00	  537.80	-1744.01	  428.58
      6.5700	  778.00	  538.50	-1744.01	  429.27
      6.6700	  746.00	  539.18	-1744.01	  429.95
      6.7700	  781.00	  539.85	-1744.01	  430.62
      6.8700	  716.00	  540.51	-1744.01	  431.28
      6.9700	  736.00	  541.16	-1744.01	  431.93
      7.0700	  737.00	  541.79	-1744.01	  432.57
      7.1700	  755.00	  542.42	-1744.01	  433.19
      7.2700	  680.00	  543.03	-1744.01	  433.81
      7.3700	  703.00	  543.64	-1744.01	  434.41
      7.4700	  656.00	  544.23	-1744.01	  435.00
      7.5700	  698.00	  544.81	-1744.01	  435.58
      7.6700	  666.00	  545.38	-1744.01	  436.15
      7.7700	  651.00	  545.93	-1744.01	  436.71
      7.8700	  693.00	  546.48	-1744.01	  437.26
      7.9700	  660.00	  547.02	-1744.01	  437.79
      8.0700	  661.00	  547.54	-1744.01	  438.32
      8.1700	  627.00	  548.06	-1744.01	  438.83
      8.2700	  614.00	  548.57	-1744.01	  439.34
      8.3700	  644.00	  549.06	-1744.01	  439.83
      8.4700	  618.00	  549.54	-1744.01	  440.32
      8.5700	  660.00	  550.02	-1744.01	  440.79
      8.6700	  620.00	  550.48	-1744.01	  441.26
      8.7700	  577.00	  550.94	-1744.01	  441.71
      8.8700	  603.00	  551.38	-1744.01	  442.15
      8.9700	  613.00	  551.81	-1744.01	  442.59
      9.0700	  582.00	  552.24	-1744.01	  443.01
      9.1700	  602.00	  552.65	-1744.01	  443.43
      9.2700	  613.00	  553.06	-1744.01	  443.83
      9.3700	  610.00	  553.45	-1744.01	  444.23
      9.4700	  598.00	  553.84	-1744.01	  444.61
      9.5700	  622.00	  554.21	-1744.01	  444.99
      9.6700	  617.00	  554.58	-1744.01	  445.35
      9.7700	  617.00	  554.94	-1744.01	  445.71
      9.8700	  573.00	  555.29	-1744.01	  446.06
      9.9700	  628.00	  555.62	-1744.01	  446.40
     10.0700	  577.00	  557.65	-1724.66	  446.73
     10.1700	  589.00	  558.14	-1713.15	  447.05
     10.2700	  595.00	  558.66	-1707.67	  447.36
     10.3700	  544.00	  559.22	-1759.23	  447.66
     10.4700	  633.00	  559.87	-1670.87	  447.96
     10.5700	  624.00	  560.63	-1680.64	  448.24
     10.6700	  603.00	  561.60	-1702.61	  448.52
     10.7700	  575.00	  562.86	-1731.87	  448.79
     10.8700	  627.00	  564.49	-1681.50	  449.05
     10.9700	  577.00	  566.52	-1733.53	  449.30
     11.0700	  569.00	  568.95	-1743.96	  449.54
     11.1700	  598.00	  571.79	-1717.80	  449.78
     11.2700	  535.00	  575.07	-1784.08	  450.00
     11.3700	  587.00	  578.86	-1735.87	  450.22
     11.4700	  584.00	  583.28	-1743.29	  450.43
     11.5700	  575.00	  588.52	-1757.53	  450.64
     11.6700	  610.00	  594.88	-1728.89	  450.83
     11.7700	  654.00	  602.75	-1692.76	  451.02
     11.8700	  610.00	  612.49	-1746.50	  451.20
     11.9700	  672.00	  623.97	-1695.98	  451.37
     12.0700	  653.00	  635.85	-1726.85	  451.53
     12.1700	  640.00	  644.77	-1748.78	  451.69
     12.2700	  715.00	  645.40	-1674.41	  451.84
     12.3700	  638.00	  634.02	-1740.03	  451.98
     12.4700	  601.00	  615.28	-1758.28	  452.11
     12.5700	  589.00	  597.57	-1752.57	  452.24
     12.6700	  630.00	  584.71	-1698.72	  452.36
     12.7700	  593.00	  576.68	-1727.69	  452.47
     12.8700	  508.00	  572.09	-1808.10	  452.57
     12.9700	  572.00	  569.51	-1741.52	  452.67
     13.0700	  547.00	  567.98	-1764.99	  452.76
     13.1700	  555.00	  566.99	-1756.00	  452.85
     13.2700	  573.00	  566.29	-1737.29	  452.92
     13.3700	  544.00	  565.76	-1765.77	  453.00
     13.4700	  576.00	  565.37	-1733.37	  453.06
     13.5700	  538.00	  565.05	-1771.06	  453.12
     13.6700	  546.00	  564.81	-1762.81	  453.17
     13.7700	  567.00	  564.60	-1741.61	  453.21
     13.8700	  563.00	  564.44	-1745.45	  453.25
     13.9700	  558.00	  564.30	-1750.31	  453.28
     14.0700	  563.00	  564.21	-1745.22	  453.31
     14.1700	  517.00	  564.10	-1791.11	  453.32
     14.2700	  556.00	  564.01	-1752.02	  453.34
     14.3700	  506.00	  563.92	-1801.93	  453.34
     14.4700	  559.00	  563.84	-1748.85	  453.34
     14.5700	  529.00	  563.77	-1778.78	  453.34
     14.6700	  562.00	  563.69	-1745.70	  453.33
     14.7700	  564.00	  563.62	-1743.63	  453.31
     14.8700	  563.00	  563.55	-1744.56	  453.29
     14.9700	  571.00	  563.48	-1736.48	  453.26
     15.0700	  562.00	  563.40	-1745.41	  453.22
     15.1700	  564.00	  563.33	-1743.33	  453.18
     15.2700	  536.00	  563.25	-1771.26	  453.14
     15.3700	  591.00	  563.17	-1716.18	  453.09
     15.4700	  583.00	  563.08	-1724.09	  453.03
     15.5700	  504.00	  563.00	-1803.01	  452.97
     15.6700	  560.00	  562.91	-1746.92	  452.90
     15.7700	  529.00	  562.82	-1777.83	  452.83
     15.8700	  509.00	  562.72	-1797.73	  452.75
     15.9700	  500.00	  562.62	-1806.63	  452.67
     16.0700	  555.00	  562.52	-1751.53	  452.58
     16.1700	  588.00	  562.41	-1718.42	  452.48
     16.2700	  567.00	  562.30	-1739.31	  452.39
     16.3700	  557.00	  562.18	-1749.19	  452.28
     16.4700	  551.00	  562.07	-1755.07	  452.18
     16.5700	  537.00	  561.94	-1768.95	  452.06
     16.6700	  531.00	  561.82	-1774.82	  451.94
     16.7700	  555.00	  561.69	-1750.69	  451.82
     16.8700	  573.00	  561.55	-1732.56	  451.70
     16.9700	  548.00	  561.41	-1757.42	  451.56
     17.0700	  558.00	  561.27	-1747.28	  451.43
     17.1700	  572.00	  561.12	-1733.13	  451.29
     17.2700	  544.00	  560.97	-1760.98	  451.14
     17.3700	  540.00	  560.82	-1764.83	  450.99
     17.4700	  513.00	  560.66	-1791.67	  450.84
     17.5700	  525.00	  560.50	-1779.51	  450.68
     17.6700	  586.00	  560.44	-1718.45	  450.52
     17.7700	  522.00	  560.28	-1782.28	  450.35
     17.8700	  545.00	  560.11	-1759.11	  450.18
     17.9700	  518.00	  559.93	-1785.94	  450.01
     18.0700	  522.00	  559.75	-1781.76	  449.83
     18.1700	  524.00	  559.68	-1779.68	  449.65
     18.2700	  524.00	  559.49	-1779.50	  449.46
     18.3700	  591.00	  559.31	-1712.31	  449.27
     18.4700	  510.00	  559.12	-1793.12	  449.08
     18.5700	  562.00	  558.92	-1740.93	  448.88
     18.6700	  552.00	  558.73	-1750.73	  448.68
     18.7700	  551.00	  558.53	-1751.53	  448.47
     18.8700	  543.00	  558.32	-1759.33	  448.26
     18.9700	  590.00	  558.12	-1712.12	  448.05
     19.0700	  533.00	  557.91	-1768.92	  447.83
     19.1700	  518.00	  557.70	-1783.70	  447.61
     19.2700	  529.00	  557.48	-1772.49	  447.39
     19.3700	  538.00	  557.26	-1763.27	  447.17
     19.4700	  525.00	  557.04	-1776.05	  446.94
     19.5700	  506.00	  556.82	-1794.83	  446.70
     19.6700	  552.00	  556.59	-1748.60	  446.47
     19.7700	  554.00	  556.40	-1746.41	  446.23
     19.8700	  537.00	  556.17	-1763.18	  445.99
     19.9700	  544.00	  555.94	-1755.95	  445.74
     20.0700	  533.00	  555.70	-1766.71	  445.49
     20.1700	  564.00	  555.47	-1735.47	  445.24
     20.2700	  575.00	  555.23	-1724.23	  444.99
     20.3700	  541.00	  554.99	-1757.99	  444.73
     20.4700	  543.00	  554.74	-1755.75	  444.47
     20.5700	  541.00	  554.50	-1757.51	  444.21
     20.6700	  576.00	  554.25	-1722.26	  443.94
     20.7700	  537.00	  554.00	-1761.01	  443.67
     20.8700	  568.00	  553.75	-1729.76	  443.40
     20.9700	  571.00	  553.50	-1726.51	  443.13
     21.0700	  562.00	  553.25	-1735.26	  442.85
     21.1700	  519.00	  553.00	-1778.01	  442.58
     21.2700	  571.00	  552.75	-1725.75	  442.29
     21.3700	  544.00	  552.49	-1752.50	  442.01
     21.4700	  554.00	  552.24	-1742.25	  441.72
     21.5700	  525.00	  551.98	-1770.99	  441.44
     21.6700	  573.00	  551.73	-1722.74	  441.15
     21.7700	  549.00	  551.48	-1746.48	  440.85
     21.8700	  580.00	  551.22	-1715.23	  440.56
     21.9700	  547.00	  550.97	-1747.98	  440.26
     22.0700	  561.00	  550.72	-1733.73	  439.96
     22.1700	  536.00	  550.48	-1758.48	  439.66
     22.2700	  541.00	  550.23	-1753.24	  439.36
     22.3700	  536.00	  550.14	-1758.15	  439.05
     22.4700	  566.00	  549.91	-1727.92	  438.74
     22.5700	  591.00	  549.69	-1702.69	  438.43
     22.6700	  545.00	  549.47	-1748.48	  438.12
     22.7700	  544.00	  549.21	-1749.22	  437.81
     22.8700	  583.00	  549.02	-1710.02	  437.49
     22.9700	  513.00	  548.83	-1779.84	  437.18
     23.0700	  521.00	  548.67	-1771.67	  436.86
     23.1700	  556.00	  548.52	-1736.53	  436.54
     23.2700	  548.00	  548.40	-1744.41	  436.22
     23.3700	  555.00	  548.32	-1737.33	  435.89
     23.4700	  564.00	  548.29	-1728.30	  435.57
     23.5700	  562.00	  548.32	-1730.33	  435.24
     23.6700	  555.00	  548.44	-1737.45	  434.91
     23.7700	  595.00	  548.69	-1697.70	  434.58
     23.8700	  492.00	  549.16	-1801.17	  434.25
     23.9700	  550.00	  550.00	-1744.01	  433.92
     24.0700	  618.00	  551.47	-1677.47	  433.59
     24.1700	  549.00	  553.95	-1748.96	  433.25
     24.2700	  570.00	  558.00	-1732.01	  432.91
     24.3700	  568.00	  564.19	-1740.20	  432.58
     24.4700	  587.00	  572.95	-1729.96	  432.24
     24.5700	  618.00	  584.20	-1710.21	  431.90
     24.6700	  625.00	  596.83	-1715.84	  431.56
     24.7700	  618.00	  608.01	-1734.02	  431.21
     24.8700	  640.00	  612.98	-1716.99	  430.87
     24.9700	  627.00	  607.37	-1724.38	  430.53
     25.0700	  607.00	  593.12	-1730.13	  430.18
     25.1700	  628.00	  577.36	-1693.37	  429.83
     25.2700	  616.00	  564.73	-1692.73	  429.49
     25.3700	  564.00	  556.18	-1736.18	  429.14
     25.4700	  581.00	  550.97	-1713.98	  428.79
     25.5700	  589.00	  547.94	-1702.95	  428.44
     25.6700	  569.00	  546.14	-1721.14	  428.09
     25.7700	  568.00	  544.97	-1720.98	  427.74
     25.8700	  562.00	  544.15	-1726.16	  427.38
     25.9700	  585.00	  543.55	-1702.56	  427.03
     26.0700	  574.00	  543.11	-1713.12	  426.68
     26.1700	  602.00	  542.80	-1684.81	  426.32
     26.2700	  539.00	  542.60	-1747.61	  425.97
     26.3700	  551.00	  542.51	-1735.52	  425.61
     26.4700	  570.00	  542.52	-1716.53	  425.25
     26.5700	  567.00	  542.65	-1719.66	  424.90
     26.6700	  571.00	  542.91	-1715.92	  424.54
     26.7700	  568.00	  543.33	-1719.33	  424.18
     26.8700	  556.00	  543.92	-1731.93	  423.82
     26.9700	  582.00	  544.75	-1706.76	  423.47
     27.0700	  576.00	  545.88	-1713.89	  423.11
     27.1700	  511.00	  547.43	-1780.44	  422.75
     27.2700	  549.00	  549.58	-1744.59	  422.39
     27.3700	  590.00	  552.73	-1706.73	  422.03
     27.4700	  556.00	  557.57	-1745.58	  421.67
     27.5700	  584.00	  565.44	-1725.45	  421.31
     27.6700	  609.00	  578.51	-1713.52	  420.95
     27.7700	  581.00	  599.88	-1762.89	  420.59
     27.8700	  581.00	  632.91	-1795.92	  420.23
     27.9700	  661.00	  679.43	-1762.43	  419.86
     28.0700	  685.00	  737.10	-1796.11	  419.50
     28.1700	  782.00	  796.76	-1758.77	  419.14
     28.2700	  955.00	  840.86	-1629.87	  418.78
     28.3700	  974.00	  848.84	-1618.85	  418.42
     28.4700	  885.00	  819.74	-1678.75	  418.06
     28.5700	  805.00	  783.27	-1722.28	  417.70
     28.6700	  711.00	  767.15	-1800.16	  417.34
     28.7700	  724.00	  777.98	-1797.99	  416.98
     28.8700	  779.00	  805.11	-1770.12	  416.62
     28.9700	  836.00	  825.97	-1733.98	  416.25
     29.0700	  847.00	  814.96	-1711.97	  415.89
     29.1700	  765.00	  765.52	-1744.53	  415.53
     29.2700	  688.00	  700.35	-1756.36	  415.17
     29.3700	  649.00	  642.92	-1737.93	  414.81
     29.4700	  625.00	  601.86	-1720.87	  414.45
     29.5700	  588.00	  576.12	-1732.13	  414.10
     29.6700	  584.00	  561.25	-1721.26	  413.74
     29.7700	  544.00	  552.81	-1752.82	  413.38
     29.8700	  578.00	  547.78	-1713.79	  413.02
     29.9700	  617.00	  544.62	-1671.62	  412.66
     30.0700	  604.00	  542.66	-1682.67	  412.30
     30.1700	  566.00	  541.78	-1719.79	  411.95
     30.2700	  586.00	  542.17	-1700.18	  411.59
     30.3700	  566.00	  544.41	-1722.42	  411.24
     30.4700	  561.00	  549.42	-1732.43	  410.88
     30.5700	  600.00	  558.34	-1702.35	  410.53
     30.6700	  601.00	  571.84	-1714.85	  410.17
     30.7700	  604.00	  589.20	-1729.21	  409.82
     30.8700	  607.00	  607.38	-1744.38	  409.46
     30.9700	  601.00	  620.51	-1763.52	  409.11
     31.0700	  616.00	  621.32	-1749.33	  408.76
     31.1700	  607.00	  607.37	-1744.38	  408.41
     31.2700	  605.00	  585.78	-1724.79	  408.06
     31.3700	  589.00	  565.31	-1720.31	  407.71
     31.4700	  529.00	  549.87	-1764.88	  407.36
     31.5700	  522.00	  539.78	-1761.79	  407.01
     31.6700	  545.00	  533.77	-1732.78	  406.66
     31.7700	  584.00	  530.31	-1690.32	  406.32
     31.8700	  527.00	  528.26	-1745.27	  405.97
     31.9700	  517.00	  526.95	-1753.96	  405.63
     32.0700	  552.00	  526.07	-1718.08	  405.28
     32.1700	  553.00	  525.48	-1716.49	  404.94
     32.2700	  514.00	  525.12	-1755.13	  404.60
     32.3700	  526.00	  524.97	-1742.98	  404.26
     32.4700	  538.00	  525.03	-1731.04	  403.91
     32.5700	  547.00	  525.30	-1722.31	  403.57
     32.6700	  554.00	  525.82	-1715.83	  403.24
     32.7700	  541.00	  526.63	-1729.64	  402.90
     32.8700	  492.00	  527.81	-1779.81	  402.56
     32.9700	  577.00	  529.47	-1696.47	  402.23
     33.0700	  558.00	  531.81	-1717.82	  401.89
     33.1700	  569.00	  535.23	-1710.24	  401.56
     33.2700	  531.00	  540.48	-1753.49	  401.23
     33.3700	  562.00	  549.07	-1731.08	  400.89
     33.4700	  590.00	  563.70	-1717.71	  400.56
     33.5700	  591.00	  588.50	-1741.51	  400.23
     33.6700	  588.00	  628.69	-1784.70	  399.91
     33.7700	  655.00	  688.23	-1777.24	  399.58
     33.8700	  793.00	  765.73	-1716.74	  399.25
     33.9700	  860.00	  849.91	-1733.92	  398.93
     34.0700	 1004.00	  917.58	-1657.59	  398.61
     34.1700	 1030.00	  937.95	-1651.96	  398.28
     34.2700	  956.00	  894.54	-1682.54	  397.96
     34.3700	  878.00	  809.15	-1675.16	  397.64
     34.4700	  735.00	  719.29	-1728.30	  397.32
     34.5700	  647.00	  646.59	-1743.60	  397.01
     34.6700	  575.00	  596.26	-1765.26	  396.69
     34.7700	  561.00	  564.99	-1748.00	  396.38
     34.8700	  564.00	  546.74	-1726.75	  396.06
     34.9700	  511.00	  536.09	-1769.10	  395.75
     35.0700	  539.00	  529.44	-1734.45	  395.44
     35.1700	  534.00	  524.87	-1734.88	  395.13
     35.2700	  528.00	  521.46	-1737.47	  394.82
     35.3700	  522.00	  518.78	-1740.78	  394.52
     35.4700	  529.00	  516.59	-1731.60	  394.21
     35.5700	  536.00	  514.77	-1722.78	  393.91
     35.6700	  512.00	  513.70	-1745.71	  393.61
     35.7700	  529.00	  512.36	-1727.36	  393.31
     35.8700	  551.00	  511.23	-1704.24	  393.01
     35.9700	  500.00	  510.22	-1754.23	  392.71
     36.0700	  542.00	  509.34	-1711.34	  392.41
     36.1700	  515.00	  508.54	-1737.55	  392.12
     36.2700	  536.00	  507.83	-1715.84	  391.82
     36.3700	  498.00	  507.19	-1753.20	  391.53
     36.4700	  511.00	  506.61	-1739.62	  391.24
     36.5700	  481.00	  506.09	-1769.10	  390.95
     36.6700	  475.00	  505.63	-1774.64	  390.67
     36.7700	  506.00	  505.24	-1743.24	  390.38
     36.8700	  471.00	  504.92	-1777.93	  390.10
     36.9700	  482.00	  504.72	-1766.73	  389.81
     37.0700	  503.00	  504.70	-1745.71	  389.53
     37.1700	  502.00	  504.99	-1747.00	  389.25
     37.2700	  513.00	  505.75	-1736.76	  388.98
     37.3700	  488.00	  507.16	-1763.17	  388.70
     37.4700	  524.00	  509.32	-1729.32	  388.42
     37.5700	  532.00	  512.08	-1724.09	  388.15
     37.6700	  507.00	  514.93	-1751.94	  387.88
     37.7700	  552.00	  517.13	-1709.14	  387.61
     37.8700	  509.00	  517.27	-1752.27	  387.34
     37.9700	  483.00	  515.24	-1776.25	  387.08
     38.0700	  527.00	  511.95	-1728.96	  386.81
     38.1700	  479.00	  508.49	-1773.50	  386.55
     38.2700	  527.00	  505.46	-1722.47	  386.29
     38.3700	  470.00	  503.07	-1777.08	  386.03
     38.4700	  490.00	  501.34	-1755.35	  385.77
     38.5700	  454.00	  500.12	-1790.13	  385.52
     38.6700	  481.00	  499.27	-1762.28	  385.26
     38.7700	  503.00	  498.64	-1739.65	  385.01
     38.8700	  486.00	  498.15	-1756.15	  384.76
     38.9700	  468.00	  497.73	-1773.74	  384.51
     39.0700	  497.00	  497.37	-1744.38	  384.26
     39.1700	  509.00	  497.04	-1732.05	  384.02
     39.2700	  479.00	  496.64	-1761.64	  383.77
     39.3700	  496.00	  496.36	-1744.36	  383.53
     39.4700	  503.00	  496.09	-1737.10	  383.29
     39.5700	  483.00	  495.84	-1756.85	  383.05
     39.6700	  492.00	  495.61	-1747.62	  382.82
     39.7700	  496.00	  495.39	-1743.40	  382.58
     39.8700	  509.00	  495.18	-1730.19	  382.35
     39.9700	  522.00	  494.99	-1716.99	  382.12
     40.0700	  506.00	  494.80	-1732.81	  381.89
     40.1700	  464.00	  494.53	-1774.54	  381.66
     40.2700	  453.00	  494.38	-1785.39	  381.44
     40.3700	  448.00	  494.24	-1790.25	  381.21
     40.4700	  484.00	  494.64	-1754.65	  380.99
     40.5700	  434.00	  494.54	-1804.55	  380.77
     40.6700	  487.00	  494.47	-1751.47	  380.56
     40.7700	  508.00	  494.41	-1730.42	  380.34
