MSG Master    CELL:    5.87728   5.87728  23.08206   90.0000   90.0000  120.0000   SPGR: P 63/m m c             TEMP:    474.45
  2   1280     2.52000     0.00000    -0.09109     0.00000     0.00000    0
    95    95     0     0     2
       0.00000      10.00000
     125.00000     130.00000
 2Theta	Yobs	Ycal	Yobs-Ycal	Backg	Posr	(hkl)	K
      0.7700	    0.00	  965.79	-2230.25	  826.90
      0.8700	    0.00	  962.56	-2230.25	  823.66
      0.9700	   52.00	  959.34	-2230.25	  820.44
      1.0700	   56.00	  956.14	-2230.25	  817.25
      1.1700	   40.00	  952.97	-2230.25	  814.07
      1.2700	   43.00	  949.81	-2230.25	  810.91
      1.3700	   45.00	  946.68	-2230.25	  807.78
      1.4700	  108.00	  943.56	-2230.25	  804.66
      1.5700	  298.00	  940.46	-2230.25	  801.57
      1.6700	  442.00	  937.39	-2230.25	  798.49
      1.7700	  578.00	  934.33	-2230.25	  795.43
      1.8700	  657.00	  931.29	-2230.25	  792.39
      1.9700	  717.00	  928.27	-2230.25	  789.37
      2.0700	  742.00	  925.27	-2230.25	  786.38
      2.1700	  776.00	  922.29	-2230.25	  783.39
      2.2700	  764.00	  919.33	-2230.25	  780.43
      2.3700	  710.00	  916.39	-2230.25	  777.49
      2.4700	  708.00	  913.47	-2230.25	  774.57
      2.5700	  658.00	  910.56	-2230.25	  771.66
      2.6700	  677.00	  907.68	-2230.25	  768.78
      2.7700	  635.00	  904.81	-2230.25	  765.91
      2.8700	  657.00	  901.96	-2230.25	  763.07
      2.9700	  616.00	  899.13	-2230.25	  760.24
      3.0700	  602.00	  896.32	-2230.25	  757.43
      3.1700	  638.00	  893.53	-2230.25	  754.63
      3.2700	  716.00	  890.76	-2230.25	  751.86
      3.3700	  864.00	  888.00	-2230.25	  749.10
      3.4700	 1053.00	  885.26	-2230.25	  746.37
      3.5700	 1205.00	  882.54	-2230.25	  743.65
      3.6700	 1335.00	  879.84	-2230.25	  740.95
      3.7700	 1413.00	  877.16	-2230.25	  738.26
      3.8700	 1535.00	  874.49	-2230.25	  735.60
      3.9700	 1535.00	  871.85	-2230.25	  732.95
      4.0700	 1656.00	  869.22	-2230.25	  730.32
      4.1700	 1752.00	  866.60	-2230.25	  727.71
      4.2700	 1668.00	  864.01	-2230.25	  725.11
      4.3700	 1615.00	  861.43	-2230.25	  722.53
      4.4700	 1597.00	  858.87	-2230.25	  719.97
      4.5700	 1523.00	  856.33	-2230.25	  717.43
      4.6700	 1460.00	  853.80	-2230.25	  714.91
      4.7700	 1447.00	  851.29	-2230.25	  712.40
      4.8700	 1445.00	  848.80	-2230.25	  709.91
      4.9700	 1387.00	  846.33	-2230.25	  707.43
      5.0700	 1360.00	  843.87	-2230.25	  704.97
      5.1700	 1258.00	  841.43	-2230.25	  702.53
      5.2700	 1291.00	  839.01	-2230.25	  700.11
      5.3700	 1292.00	  836.60	-2230.25	  697.70
      5.4700	 1264.00	  834.21	-2230.25	  695.31
      5.5700	 1148.00	  831.84	-2230.25	  692.94
      5.6700	 1243.00	  829.48	-2230.25	  690.58
      5.7700	 1154.00	  827.14	-2230.25	  688.24
      5.8700	 1139.00	  824.81	-2230.25	  685.92
      5.9700	 1060.00	  822.51	-2230.25	  683.61
      6.0700	 1141.00	  820.21	-2230.25	  681.32
      6.1700	 1110.00	  817.94	-2230.25	  679.04
      6.2700	  996.00	  815.68	-2230.25	  676.78
      6.3700	 1072.00	  813.44	-2230.25	  674.54
      6.4700	  984.00	  811.21	-2230.25	  672.31
      6.5700	 1024.00	  809.00	-2230.25	  670.10
      6.6700	  967.00	  806.80	-2230.25	  667.90
      6.7700	  984.00	  804.62	-2230.25	  665.72
      6.8700	  917.00	  802.45	-2230.25	  663.56
      6.9700	  941.00	  800.31	-2230.25	  661.41
      7.0700	  924.00	  798.17	-2230.25	  659.27
      7.1700	  881.00	  796.05	-2230.25	  657.16
      7.2700	  954.00	  793.95	-2230.25	  655.05
      7.3700	  921.00	  791.86	-2230.25	  652.96
      7.4700	  875.00	  789.79	-2230.25	  650.89
      7.5700	  851.00	  787.73	-2230.25	  648.83
      7.6700	  846.00	  785.69	-2230.25	  646.79
      7.7700	  814.00	  783.66	-2230.25	  644.76
      7.8700	  859.00	  781.65	-2230.25	  642.75
      7.9700	  824.00	  779.65	-2230.25	  640.75
      8.0700	  812.00	  777.67	-2230.25	  638.77
      8.1700	  813.00	  775.70	-2230.25	  636.80
      8.2700	  808.00	  773.75	-2230.25	  634.85
      8.3700	  828.00	  771.81	-2230.25	  632.91
      8.4700	  827.00	  769.88	-2230.25	  630.99
      8.5700	  805.00	  767.97	-2230.25	  629.08
      8.6700	  787.00	  766.08	-2230.25	  627.18
      8.7700	  783.00	  764.20	-2230.25	  625.30
      8.8700	  784.00	  762.33	-2230.25	  623.43
      8.9700	  764.00	  760.47	-2230.25	  621.58
      9.0700	  779.00	  758.64	-2230.25	  619.74
      9.1700	  776.00	  756.81	-2230.25	  617.91
      9.2700	  733.00	  755.00	-2230.25	  616.10
      9.3700	  787.00	  753.20	-2230.25	  614.31
      9.4700	  781.00	  751.42	-2230.25	  612.52
      9.5700	  805.00	  749.65	-2230.25	  610.75
      9.6700	  747.00	  747.89	-2230.25	  609.00
      9.7700	  734.00	  746.15	-2230.25	  607.25
      9.8700	  738.00	  744.42	-2230.25	  605.52
      9.9700	  787.00	  742.71	-2230.25	  603.81
     10.0700	  755.00	  743.12	-2218.37	  602.11
     10.1700	  751.00	  741.66	-2220.91	  600.42
     10.2700	  744.00	  740.27	-2226.52	  598.74
     10.3700	  735.00	  738.94	-2234.19	  597.08
     10.4700	  750.00	  737.71	-2217.96	  595.43
     10.5700	  718.00	  736.62	-2248.87	  593.80
     10.6700	  754.00	  735.73	-2211.98	  592.17
     10.7700	  739.00	  735.10	-2226.35	  590.56
     10.8700	  739.00	  734.83	-2226.08	  588.97
     10.9700	  737.00	  735.02	-2228.27	  587.38
     11.0700	  752.00	  735.71	-2213.96	  585.81
     11.1700	  731.00	  736.92	-2236.17	  584.25
     11.2700	  733.00	  738.67	-2235.92	  582.71
     11.3700	  732.00	  741.02	-2239.27	  581.17
     11.4700	  745.00	  744.04	-2229.29	  579.65
     11.5700	  776.00	  747.87	-2202.12	  578.14
     11.6700	  744.00	  752.74	-2238.99	  576.65
     11.7700	  797.00	  758.90	-2192.15	  575.16
     11.8700	  838.00	  766.60	-2158.85	  573.69
     11.9700	  778.00	  775.89	-2228.14	  572.23
     12.0700	  839.00	  786.25	-2177.50	  570.78
     12.1700	  856.00	  796.11	-2170.36	  569.35
     12.2700	  866.00	  802.37	-2166.62	  567.93
     12.3700	  872.00	  800.57	-2158.82	  566.51
     12.4700	  807.00	  788.08	-2211.33	  565.11
     12.5700	  841.00	  768.59	-2157.84	  563.73
     12.6700	  749.00	  749.04	-2230.29	  562.35
     12.7700	  700.00	  733.22	-2263.47	  560.99
     12.8700	  661.00	  721.71	-2290.96	  559.63
     12.9700	  718.00	  713.71	-2225.96	  558.29
     13.0700	  664.00	  708.15	-2274.40	  556.96
     13.1700	  672.00	  704.11	-2262.36	  555.65
     13.2700	  654.00	  700.98	-2277.23	  554.34
     13.3700	  669.00	  698.38	-2259.63	  553.04
     13.4700	  690.00	  696.11	-2236.36	  551.76
     13.5700	  672.00	  694.08	-2252.33	  550.49
     13.6700	  667.00	  692.20	-2255.45	  549.23
     13.7700	  621.00	  690.46	-2299.71	  547.97
     13.8700	  686.00	  688.81	-2233.06	  546.73
     13.9700	  644.00	  687.24	-2273.49	  545.51
     14.0700	  733.00	  685.74	-2182.99	  544.29
     14.1700	  688.00	  684.29	-2226.54	  543.08
     14.2700	  661.00	  682.88	-2252.13	  541.89
     14.3700	  706.00	  681.52	-2205.77	  540.70
     14.4700	  635.00	  680.19	-2275.44	  539.53
     14.5700	  693.00	  678.88	-2216.14	  538.36
     14.6700	  651.00	  677.61	-2256.86	  537.21
     14.7700	  639.00	  676.36	-2267.61	  536.07
     14.8700	  666.00	  675.14	-2239.39	  534.93
     14.9700	  634.00	  673.93	-2270.18	  533.81
     15.0700	  649.00	  672.74	-2253.99	  532.70
     15.1700	  669.00	  671.57	-2232.82	  531.60
     15.2700	  671.00	  670.42	-2229.67	  530.51
     15.3700	  698.00	  669.29	-2201.54	  529.43
     15.4700	  640.00	  668.17	-2258.42	  528.36
     15.5700	  670.00	  667.06	-2227.31	  527.29
     15.6700	  680.00	  665.97	-2216.22	  526.24
     15.7700	  640.00	  664.89	-2255.14	  525.20
     15.8700	  660.00	  663.82	-2234.07	  524.17
     15.9700	  686.00	  662.77	-2207.02	  523.15
     16.0700	  628.00	  661.73	-2263.98	  522.14
     16.1700	  674.00	  660.70	-2216.95	  521.14
     16.2700	  667.00	  659.68	-2222.93	  520.14
     16.3700	  688.00	  658.68	-2200.93	  519.16
     16.4700	  710.00	  657.69	-2177.94	  518.19
     16.5700	  652.00	  656.70	-2234.95	  517.23
     16.6700	  679.00	  655.73	-2206.98	  516.27
     16.7700	  623.00	  654.77	-2262.02	  515.33
     16.8700	  647.00	  653.82	-2237.07	  514.39
     16.9700	  646.00	  652.88	-2237.13	  513.47
     17.0700	  685.00	  651.95	-2197.20	  512.55
     17.1700	  676.00	  651.03	-2205.28	  511.64
     17.2700	  658.00	  650.12	-2222.37	  510.74
     17.3700	  631.00	  649.22	-2248.47	  509.85
     17.4700	  635.00	  648.33	-2243.58	  508.97
     17.5700	  657.00	  647.45	-2220.70	  508.10
     17.6700	  664.00	  646.58	-2212.83	  507.24
     17.7700	  643.00	  645.72	-2232.97	  506.39
     17.8700	  650.00	  644.86	-2225.11	  505.54
     17.9700	  671.00	  644.02	-2203.27	  504.71
     18.0700	  649.00	  643.19	-2224.44	  503.88
     18.1700	  651.00	  642.36	-2221.61	  503.06
     18.2700	  644.00	  641.55	-2227.80	  502.25
     18.3700	  641.00	  640.74	-2229.99	  501.45
     18.4700	  646.00	  639.95	-2224.20	  500.65
     18.5700	  655.00	  639.16	-2214.41	  499.87
     18.6700	  623.00	  638.38	-2245.63	  499.09
     18.7700	  643.00	  637.61	-2224.86	  498.33
     18.8700	  630.00	  636.85	-2237.10	  497.57
     18.9700	  592.00	  636.10	-2274.35	  496.82
     19.0700	  601.00	  636.59	-2265.84	  496.07
     19.1700	  618.00	  637.93	-2250.18	  495.34
     19.2700	  657.00	  637.27	-2210.52	  494.61
     19.3700	  652.00	  636.63	-2214.88	  493.89
     19.4700	  661.00	  635.99	-2205.24	  493.18
     19.5700	  616.00	  635.37	-2249.62	  492.48
     19.6700	  660.00	  634.75	-2205.00	  491.78
     19.7700	  575.00	  634.15	-2289.40	  491.09
     19.8700	  621.00	  633.56	-2242.81	  490.42
     19.9700	  599.00	  632.98	-2264.23	  489.74
     20.0700	  635.00	  632.41	-2227.66	  489.08
     20.1700	  645.00	  631.91	-2217.16	  488.42
     20.2700	  653.00	  631.36	-2208.61	  487.77
     20.3700	  613.00	  630.83	-2248.08	  487.13
     20.4700	  651.00	  630.31	-2209.56	  486.50
     20.5700	  614.00	  629.80	-2246.05	  485.87
     20.6700	  655.00	  629.31	-2204.56	  485.25
     20.7700	  629.00	  628.82	-2230.07	  484.64
     20.8700	  573.00	  628.35	-2285.60	  484.04
     20.9700	  614.00	  627.89	-2244.14	  483.44
     21.0700	  635.00	  627.45	-2222.70	  482.85
     21.1700	  622.00	  627.02	-2235.27	  482.27
     21.2700	  614.00	  626.60	-2242.85	  481.69
     21.3700	  611.00	  626.20	-2245.45	  481.13
     21.4700	  638.00	  625.81	-2218.06	  480.56
     21.5700	  640.00	  625.44	-2215.69	  480.01
     21.6700	  641.00	  625.09	-2214.34	  479.46
     21.7700	  652.00	  624.75	-2203.00	  478.92
     21.8700	  606.00	  624.42	-2248.67	  478.39
     21.9700	  559.00	  624.12	-2295.37	  477.86
     22.0700	  638.00	  623.83	-2216.08	  477.34
     22.1700	  656.00	  623.57	-2197.82	  476.83
     22.2700	  643.00	  623.32	-2210.57	  476.32
     22.3700	  622.00	  623.31	-2231.56	  475.82
     22.4700	  612.00	  623.11	-2241.36	  475.33
     22.5700	  646.00	  622.94	-2207.19	  474.84
     22.6700	  666.00	  622.80	-2187.05	  474.36
     22.7700	  664.00	  622.68	-2188.93	  473.89
     22.8700	  628.00	  622.60	-2224.85	  473.42
     22.9700	  610.00	  622.55	-2242.80	  472.96
     23.0700	  674.00	  622.54	-2178.79	  472.50
     23.1700	  606.00	  622.57	-2246.82	  472.05
     23.2700	  591.00	  622.66	-2261.91	  471.61
     23.3700	  606.00	  622.79	-2247.04	  471.17
     23.4700	  594.00	  622.99	-2259.24	  470.74
     23.5700	  613.00	  623.27	-2240.52	  470.32
     23.6700	  637.00	  623.65	-2216.90	  469.90
     23.7700	  636.00	  624.14	-2218.39	  469.49
     23.8700	  651.00	  624.79	-2204.04	  469.08
     23.9700	  572.00	  625.66	-2283.91	  468.68
     24.0700	  638.00	  626.86	-2219.11	  468.29
     24.1700	  668.00	  628.55	-2190.80	  467.90
     24.2700	  620.00	  630.99	-2241.24	  467.52
     24.3700	  694.00	  634.47	-2170.72	  467.14
     24.4700	  673.00	  639.49	-2196.74	  466.77
     24.5700	  713.00	  646.32	-2163.57	  466.40
     24.6700	  659.00	  654.98	-2226.23	  466.04
     24.7700	  671.00	  665.00	-2224.25	  465.69
     24.8700	  669.00	  675.12	-2236.37	  465.34
     24.9700	  711.00	  683.00	-2202.25	  464.99
     25.0700	  713.00	  685.43	-2202.68	  464.66
     25.1700	  700.00	  680.67	-2210.92	  464.32
     25.2700	  721.00	  671.21	-2180.46	  464.00
     25.3700	  649.00	  661.29	-2242.54	  463.67
     25.4700	  651.00	  653.51	-2232.76	  463.36
     25.5700	  623.00	  648.47	-2255.72	  463.05
     25.6700	  710.00	  645.83	-2166.08	  462.74
     25.7700	  647.00	  645.01	-2228.26	  462.44
     25.8700	  673.00	  645.50	-2202.75	  462.14
     25.9700	  638.00	  646.90	-2239.15	  461.85
     26.0700	  667.00	  649.01	-2212.26	  461.57
     26.1700	  660.00	  651.75	-2222.00	  461.29
     26.2700	  680.00	  655.11	-2205.36	  461.01
     26.3700	  622.00	  659.13	-2267.38	  460.74
     26.4700	  647.00	  663.90	-2247.15	  460.47
     26.5700	  692.00	  669.54	-2207.79	  460.21
     26.6700	  668.00	  676.20	-2238.45	  459.96
     26.7700	  698.00	  684.11	-2216.36	  459.71
     26.8700	  678.00	  693.55	-2245.80	  459.46
     26.9700	  672.00	  704.92	-2263.17	  459.22
     27.0700	  682.00	  718.73	-2266.98	  458.98
     27.1700	  676.00	  735.72	-2289.97	  458.75
     27.2700	  708.00	  756.95	-2279.20	  458.52
     27.3700	  757.00	  784.11	-2257.36	  458.30
     27.4700	  780.00	  820.25	-2270.50	  458.08
     27.5700	  753.00	  871.87	-2349.12	  457.86
     27.6700	  829.00	  953.42	-2354.67	  457.65
     27.7700	  955.00	 1095.12	-2370.37	  457.45
     27.8700	 1032.00	 1352.39	-2550.64	  457.25
     27.9700	 1330.00	 1811.82	-2712.07	  457.05
     28.0700	 2019.00	 2580.61	-2791.86	  456.86
     28.1700	 3361.00	 3741.10	-2610.35	  456.67
     28.2700	 5396.00	 5255.28	-2089.53	  456.48
     28.3700	 7574.00	 6828.48	-1484.73	  456.30
     28.4700	 8921.00	 7847.33	-1156.58	  456.13
     28.5700	 8169.00	 7642.76	-1704.01	  455.96
     28.6700	 6509.00	 6326.40	-2047.65	  455.79
     28.7700	 4604.00	 4899.90	-2526.15	  455.63
     28.8700	 3741.00	 4088.92	-2578.17	  455.47
     28.9700	 3956.00	 3995.70	-2269.95	  455.31
     29.0700	 4619.00	 4319.92	-1931.17	  455.16
     29.1700	 4981.00	 4584.13	-1833.38	  455.01
     29.2700	 4538.00	 4350.75	-2043.00	  454.87
     29.3700	 3560.00	 3575.21	-2245.46	  454.73
     29.4700	 2434.00	 2647.62	-2443.87	  454.59
     29.5700	 1677.00	 1890.62	-2443.87	  454.46
     29.6700	 1371.00	 1392.00	-2251.25	  454.33
     29.7700	 1100.00	 1107.36	-2237.61	  454.20
     29.8700	  979.00	  955.67	-2206.92	  454.08
     29.9700	  860.00	  872.16	-2242.41	  453.97
     30.0700	  843.00	  820.69	-2207.94	  453.85
     30.1700	  809.00	  785.12	-2206.37	  453.74
     30.2700	  770.00	  758.93	-2219.18	  453.63
     30.3700	  723.00	  739.37	-2246.62	  453.53
     30.4700	  748.00	  725.35	-2207.60	  453.43
     30.5700	  713.00	  716.80	-2234.05	  453.33
     30.6700	  727.00	  714.55	-2217.80	  453.24
     30.7700	  728.00	  719.91	-2222.16	  453.15
     30.8700	  748.00	  733.72	-2215.97	  453.06
     30.9700	  769.00	  754.69	-2215.94	  452.98
     31.0700	  787.00	  777.85	-2221.10	  452.90
     31.1700	  810.00	  793.85	-2214.10	  452.82
     31.2700	  755.00	  791.18	-2266.43	  452.75
     31.3700	  742.00	  766.18	-2254.43	  452.68
     31.4700	  749.00	  730.21	-2211.46	  452.61
     31.5700	  750.00	  696.74	-2176.99	  452.55
     31.6700	  695.00	  671.60	-2206.85	  452.49
     31.7700	  687.00	  655.00	-2198.25	  452.43
     31.8700	  652.00	  644.79	-2223.04	  452.37
     31.9700	  663.00	  638.53	-2205.78	  452.32
     32.0700	  643.00	  634.45	-2221.70	  452.27
     32.1700	  635.00	  631.56	-2226.81	  452.23
     32.2700	  665.00	  629.39	-2194.64	  452.18
     32.3700	  653.00	  627.74	-2204.99	  452.14
     32.4700	  641.00	  626.52	-2215.77	  452.11
     32.5700	  675.00	  625.68	-2180.93	  452.07
     32.6700	  700.00	  625.24	-2155.49	  452.04
     32.7700	  644.00	  625.15	-2211.40	  452.01
     32.8700	  667.00	  625.45	-2188.70	  451.98
     32.9700	  668.00	  626.22	-2188.47	  451.96
     33.0700	  661.00	  627.53	-2196.78	  451.94
     33.1700	  691.00	  629.54	-2168.79	  451.92
     33.2700	  674.00	  632.49	-2188.74	  451.90
     33.3700	  674.00	  636.88	-2193.13	  451.89
     33.4700	  673.00	  643.64	-2200.89	  451.88
     33.5700	  623.00	  654.61	-2261.86	  451.87
     33.6700	  693.00	  673.04	-2210.29	  451.87
     33.7700	  743.00	  704.00	-2191.25	  451.86
     33.8700	  803.00	  753.89	-2181.14	  451.86
     33.9700	  835.00	  828.03	-2223.28	  451.86
     34.0700	  999.00	  925.80	-2157.05	  451.87
     34.1700	 1138.00	 1034.97	-2127.22	  451.87
     34.2700	 1289.00	 1128.53	-2069.78	  451.88
     34.3700	 1295.00	 1167.95	-2103.20	  451.89
     34.4700	 1236.00	 1126.49	-2120.74	  451.90
     34.5700	 1093.00	 1023.20	-2160.46	  451.92
     34.6700	  911.00	  905.66	-2224.91	  451.94
     34.7700	  815.00	  805.95	-2221.20	  451.96
     34.8700	  747.00	  734.17	-2217.42	  451.98
     34.9700	  726.00	  687.99	-2192.24	  452.00
     35.0700	  703.00	  660.37	-2187.62	  452.03
     35.1700	  665.00	  644.19	-2209.44	  452.06
     35.2700	  706.00	  634.32	-2158.57	  452.09
     35.3700	  653.00	  627.79	-2205.04	  452.12
     35.4700	  635.00	  623.10	-2218.35	  452.15
     35.5700	  644.00	  619.54	-2205.79	  452.19
     35.6700	  633.00	  616.75	-2214.00	  452.22
     35.7700	  593.00	  614.53	-2251.78	  452.26
     35.8700	  646.00	  612.74	-2196.99	  452.31
     35.9700	  631.00	  611.34	-2210.59	  452.35
     36.0700	  601.00	  610.17	-2239.42	  452.39
     36.1700	  594.00	  609.23	-2245.48	  452.44
     36.2700	  623.00	  608.49	-2215.74	  452.49
     36.3700	  605.00	  607.93	-2233.18	  452.54
     36.4700	  624.00	  607.52	-2213.77	  452.59
     36.5700	  587.00	  607.27	-2250.52	  452.65
     36.6700	  617.00	  607.17	-2220.42	  452.70
     36.7700	  597.00	  607.22	-2240.47	  452.76
     36.8700	  606.00	  607.65	-2231.90	  452.82
     36.9700	  608.00	  608.08	-2230.33	  452.88
     37.0700	  581.00	  608.77	-2258.02	  452.94
     37.1700	  619.00	  609.79	-2221.04	  453.01
     37.2700	  549.00	  611.79	-2293.04	  453.07
     37.3700	  589.00	  614.01	-2255.26	  453.14
     37.4700	  669.00	  617.38	-2178.63	  453.21
     37.5700	  621.00	  622.57	-2231.82	  453.27
     37.6700	  626.00	  630.74	-2234.99	  453.35
     37.7700	  622.00	  643.35	-2251.60	  453.42
     37.8700	  657.00	  661.98	-2235.23	  453.49
     37.9700	  651.00	  687.63	-2266.88	  453.57
     38.0700	  676.00	  717.63	-2271.88	  453.64
     38.1700	  778.00	  752.15	-2204.40	  453.72
     38.2700	  776.00	  781.88	-2236.13	  453.80
     38.3700	  745.00	  796.34	-2281.59	  453.88
     38.4700	  774.00	  787.10	-2243.35	  453.96
     38.5700	  734.00	  757.12	-2253.37	  454.05
     38.6700	  731.00	  719.14	-2218.39	  454.13
     38.7700	  639.00	  684.06	-2275.31	  454.21
     38.8700	  608.00	  656.64	-2278.89	  454.30
     38.9700	  661.00	  637.47	-2206.72	  454.39
     39.0700	  595.00	  625.13	-2260.38	  454.48
     39.1700	  662.00	  617.56	-2185.81	  454.57
     39.2700	  626.00	  612.94	-2217.19	  454.66
     39.3700	  620.00	  610.01	-2220.26	  454.75
     39.4700	  614.00	  608.02	-2224.27	  454.84
     39.5700	  629.00	  605.40	-2206.65	  454.94
     39.6700	  598.00	  604.33	-2236.58	  455.03
     39.7700	  609.00	  603.50	-2224.75	  455.13
     39.8700	  579.00	  602.86	-2254.11	  455.22
     39.9700	  611.00	  602.35	-2221.60	  455.32
     40.0700	  608.00	  601.96	-2224.21	  455.42
     40.1700	  602.00	  601.66	-2229.91	  455.52
     40.2700	  581.00	  601.44	-2250.69	  455.62
     40.3700	  594.00	  601.29	-2237.54	  455.72
     40.4700	  634.00	  601.18	-2197.43	  455.82
     40.5700	  599.00	  601.13	-2232.38	  455.93
     40.6700	  582.00	  601.13	-2249.38	  456.03
     40.7700	  561.00	  601.70	-2270.95	  456.13
