MSG Master    CELL:    5.88667   5.88667  23.13685   90.0000   90.0000  120.0000   SPGR: P 63/m m c             TEMP:    614.85
  2   1280     2.52000     0.00000    -0.09315     0.00000     0.00000    0
    96    96     0     0     2
       0.00000      10.00000
     125.00000     130.00000
 2Theta	Yobs	Ycal	Yobs-Ycal	Backg	Posr	(hkl)	K
      0.7700	    0.00	  787.01	-1903.51	  658.71
      0.8700	    0.00	  785.69	-1903.51	  657.39
      0.9700	   47.00	  784.37	-1903.51	  656.07
      1.0700	   39.00	  783.06	-1903.51	  654.76
      1.1700	   47.00	  781.75	-1903.51	  653.45
      1.2700	   39.00	  780.45	-1903.51	  652.15
      1.3700	   43.00	  779.15	-1903.51	  650.85
      1.4700	  107.00	  777.86	-1903.51	  649.56
      1.5700	  285.00	  776.57	-1903.51	  648.27
      1.6700	  462.00	  775.28	-1903.51	  646.98
      1.7700	  552.00	  774.00	-1903.51	  645.70
      1.8700	  671.00	  772.73	-1903.51	  644.43
      1.9700	  758.00	  771.45	-1903.51	  643.16
      2.0700	  804.00	  770.19	-1903.51	  641.89
      2.1700	  789.00	  768.93	-1903.51	  640.63
      2.2700	  804.00	  767.67	-1903.51	  639.37
      2.3700	  747.00	  766.42	-1903.51	  638.12
      2.4700	  775.00	  765.17	-1903.51	  636.87
      2.5700	  694.00	  763.92	-1903.51	  635.62
      2.6700	  689.00	  762.68	-1903.51	  634.38
      2.7700	  676.00	  761.45	-1903.51	  633.15
      2.8700	  642.00	  760.22	-1903.51	  631.92
      2.9700	  578.00	  758.99	-1903.51	  630.69
      3.0700	  626.00	  757.77	-1903.51	  629.47
      3.1700	  613.00	  756.55	-1903.51	  628.26
      3.2700	  701.00	  755.34	-1903.51	  627.04
      3.3700	  897.00	  754.13	-1903.51	  625.83
      3.4700	 1099.00	  752.93	-1903.51	  624.63
      3.5700	 1186.00	  751.73	-1903.51	  623.43
      3.6700	 1313.00	  750.54	-1903.51	  622.24
      3.7700	 1452.00	  749.35	-1903.51	  621.05
      3.8700	 1504.00	  748.16	-1903.51	  619.86
      3.9700	 1615.00	  746.98	-1903.51	  618.68
      4.0700	 1583.00	  745.80	-1903.51	  617.51
      4.1700	 1668.00	  744.63	-1903.51	  616.33
      4.2700	 1738.00	  743.46	-1903.51	  615.17
      4.3700	 1610.00	  742.30	-1903.51	  614.00
      4.4700	 1595.00	  741.14	-1903.51	  612.84
      4.5700	 1451.00	  739.99	-1903.51	  611.69
      4.6700	 1495.00	  738.84	-1903.51	  610.54
      4.7700	 1497.00	  737.69	-1903.51	  609.40
      4.8700	 1409.00	  736.55	-1903.51	  608.25
      4.9700	 1335.00	  735.42	-1903.51	  607.12
      5.0700	 1298.00	  734.28	-1903.51	  605.99
      5.1700	 1319.00	  733.16	-1903.51	  604.86
      5.2700	 1215.00	  732.03	-1903.51	  603.74
      5.3700	 1219.00	  730.92	-1903.51	  602.62
      5.4700	 1204.00	  729.80	-1903.51	  601.50
      5.5700	 1206.00	  728.69	-1903.51	  600.39
      5.6700	 1145.00	  727.59	-1903.51	  599.29
      5.7700	 1119.00	  726.49	-1903.51	  598.19
      5.8700	 1077.00	  725.39	-1903.51	  597.09
      5.9700	 1139.00	  724.30	-1903.51	  596.00
      6.0700	  967.00	  723.21	-1903.51	  594.91
      6.1700	 1008.00	  722.13	-1903.51	  593.83
      6.2700	  989.00	  721.05	-1903.51	  592.75
      6.3700	  984.00	  719.97	-1903.51	  591.67
      6.4700	 1003.00	  718.90	-1903.51	  590.60
      6.5700	  978.00	  717.84	-1903.51	  589.54
      6.6700	  931.00	  716.77	-1903.51	  588.48
      6.7700	  923.00	  715.72	-1903.51	  587.42
      6.8700	  928.00	  714.66	-1903.51	  586.36
      6.9700	  821.00	  713.61	-1903.51	  585.32
      7.0700	  875.00	  712.57	-1903.51	  584.27
      7.1700	  835.00	  711.53	-1903.51	  583.23
      7.2700	  876.00	  710.50	-1903.51	  582.20
      7.3700	  817.00	  709.46	-1903.51	  581.17
      7.4700	  819.00	  708.44	-1903.51	  580.14
      7.5700	  862.00	  707.41	-1903.51	  579.12
      7.6700	  818.00	  706.40	-1903.51	  578.10
      7.7700	  820.00	  705.38	-1903.51	  577.08
      7.8700	  787.00	  704.37	-1903.51	  576.07
      7.9700	  748.00	  703.37	-1903.51	  575.07
      8.0700	  807.00	  702.37	-1903.51	  574.07
      8.1700	  758.00	  701.37	-1903.51	  573.07
      8.2700	  777.00	  700.38	-1903.51	  572.08
      8.3700	  763.00	  699.39	-1903.51	  571.09
      8.4700	  734.00	  698.40	-1903.51	  570.11
      8.5700	  742.00	  697.42	-1903.51	  569.13
      8.6700	  748.00	  696.45	-1903.51	  568.15
      8.7700	  731.00	  695.48	-1903.51	  567.18
      8.8700	  723.00	  694.51	-1903.51	  566.21
      8.9700	  732.00	  693.55	-1903.51	  565.25
      9.0700	  705.00	  692.59	-1903.51	  564.29
      9.1700	  743.00	  691.64	-1903.51	  563.34
      9.2700	  695.00	  690.68	-1903.51	  562.39
      9.3700	  713.00	  689.74	-1903.51	  561.44
      9.4700	  759.00	  688.80	-1903.51	  560.50
      9.5700	  696.00	  687.86	-1903.51	  559.56
      9.6700	  680.00	  686.93	-1903.51	  558.63
      9.7700	  696.00	  686.00	-1903.51	  557.70
      9.8700	  756.00	  685.07	-1903.51	  556.77
      9.9700	  736.00	  684.15	-1903.51	  555.85
     10.0700	  743.00	  685.30	-1845.81	  554.94
     10.1700	  698.00	  684.62	-1890.12	  554.02
     10.2700	  707.00	  683.98	-1880.49	  553.12
     10.3700	  664.00	  683.42	-1922.92	  552.21
     10.4700	  696.00	  682.95	-1890.45	  551.31
     10.5700	  732.00	  682.62	-1854.13	  550.42
     10.6700	  680.00	  682.50	-1906.01	  549.52
     10.7700	  688.00	  682.69	-1898.19	  548.64
     10.8700	  647.00	  683.27	-1939.78	  547.75
     10.9700	  668.00	  684.35	-1919.86	  546.87
     11.0700	  710.00	  685.95	-1879.46	  546.00
     11.1700	  716.00	  688.09	-1875.60	  545.13
     11.2700	  702.00	  690.79	-1892.30	  544.26
     11.3700	  683.00	  694.11	-1914.61	  543.40
     11.4700	  699.00	  698.14	-1902.65	  542.54
     11.5700	  673.00	  703.08	-1933.58	  541.68
     11.6700	  686.00	  709.17	-1926.68	  540.83
     11.7700	  680.00	  716.77	-1940.27	  539.99
     11.8700	  775.00	  726.20	-1854.70	  539.14
     11.9700	  770.00	  737.50	-1871.01	  538.30
     12.0700	  816.00	  749.92	-1837.43	  537.47
     12.1700	  888.00	  761.23	-1776.74	  536.64
     12.2700	  883.00	  767.19	-1787.69	  535.81
     12.3700	  785.00	  762.38	-1880.89	  534.99
     12.4700	  791.00	  745.53	-1858.04	  534.17
     12.5700	  694.00	  723.43	-1932.94	  533.36
     12.6700	  713.00	  703.62	-1894.12	  532.55
     12.7700	  659.00	  688.87	-1933.37	  531.74
     12.8700	  661.00	  678.89	-1921.40	  530.94
     12.9700	  648.00	  672.42	-1927.92	  530.14
     13.0700	  658.00	  668.18	-1913.68	  529.34
     13.1700	  661.00	  665.17	-1907.68	  528.55
     13.2700	  656.00	  662.88	-1910.38	  527.77
     13.3700	  621.00	  660.99	-1943.49	  526.98
     13.4700	  562.00	  659.37	-2000.87	  526.21
     13.5700	  644.00	  657.93	-1917.43	  525.43
     13.6700	  625.00	  656.63	-1935.13	  524.66
     13.7700	  657.00	  655.42	-1901.93	  523.89
     13.8700	  640.00	  654.30	-1917.81	  523.13
     13.9700	  646.00	  653.24	-1910.75	  522.37
     14.0700	  705.00	  652.24	-1850.74	  521.62
     14.1700	  654.00	  651.27	-1900.77	  520.86
     14.2700	  662.00	  650.34	-1891.84	  520.12
     14.3700	  632.00	  649.43	-1920.94	  519.37
     14.4700	  620.00	  648.56	-1932.06	  518.63
     14.5700	  653.00	  647.70	-1898.20	  517.90
     14.6700	  619.00	  646.86	-1931.36	  517.16
     14.7700	  631.00	  646.04	-1918.54	  516.44
     14.8700	  604.00	  645.23	-1944.73	  515.71
     14.9700	  666.00	  644.43	-1881.94	  514.99
     15.0700	  669.00	  643.65	-1878.15	  514.27
     15.1700	  646.00	  642.87	-1900.38	  513.56
     15.2700	  646.00	  642.11	-1899.62	  512.85
     15.3700	  650.00	  641.36	-1894.86	  512.15
     15.4700	  635.00	  640.61	-1909.12	  511.45
     15.5700	  611.00	  639.87	-1932.38	  510.75
     15.6700	  662.00	  639.14	-1880.65	  510.05
     15.7700	  641.00	  638.42	-1900.92	  509.36
     15.8700	  646.00	  637.70	-1895.20	  508.68
     15.9700	  616.00	  636.99	-1924.49	  507.99
     16.0700	  638.00	  636.28	-1901.79	  507.32
     16.1700	  622.00	  635.58	-1917.09	  506.64
     16.2700	  587.00	  634.89	-1951.39	  505.97
     16.3700	  649.00	  634.20	-1888.71	  505.30
     16.4700	  641.00	  633.52	-1896.02	  504.64
     16.5700	  640.00	  632.84	-1896.35	  503.98
     16.6700	  630.00	  632.17	-1905.67	  503.32
     16.7700	  601.00	  631.50	-1934.00	  502.67
     16.8700	  622.00	  630.84	-1912.34	  502.02
     16.9700	  623.00	  630.18	-1910.68	  501.37
     17.0700	  626.00	  629.52	-1907.03	  500.73
     17.1700	  630.00	  628.87	-1902.38	  500.09
     17.2700	  625.00	  628.23	-1906.73	  499.46
     17.3700	  576.00	  627.59	-1955.09	  498.83
     17.4700	  635.00	  626.95	-1895.46	  498.20
     17.5700	  621.00	  626.32	-1908.83	  497.57
     17.6700	  607.00	  625.69	-1922.20	  496.95
     17.7700	  639.00	  625.07	-1889.57	  496.34
     17.8700	  667.00	  624.45	-1860.96	  495.72
     17.9700	  608.00	  623.83	-1919.34	  495.11
     18.0700	  651.00	  623.22	-1875.73	  494.51
     18.1700	  664.00	  622.62	-1862.12	  493.91
     18.2700	  637.00	  622.01	-1888.52	  493.31
     18.3700	  599.00	  621.41	-1925.92	  492.71
     18.4700	  630.00	  620.82	-1894.33	  492.12
     18.5700	  612.00	  620.23	-1911.73	  491.53
     18.6700	  638.00	  619.64	-1885.15	  490.95
     18.7700	  620.00	  620.48	-1903.98	  490.37
     18.8700	  622.00	  620.75	-1902.26	  489.79
     18.9700	  630.00	  620.23	-1893.73	  489.22
     19.0700	  608.00	  619.70	-1915.21	  488.64
     19.1700	  585.00	  619.19	-1937.69	  488.08
     19.2700	  630.00	  618.67	-1892.18	  487.51
     19.3700	  587.00	  618.17	-1934.67	  486.95
     19.4700	  633.00	  617.67	-1888.17	  486.40
     19.5700	  617.00	  617.17	-1903.68	  485.84
     19.6700	  612.00	  616.68	-1908.19	  485.29
     19.7700	  608.00	  616.20	-1911.71	  484.75
     19.8700	  601.00	  615.72	-1918.23	  484.21
     19.9700	  627.00	  615.25	-1891.76	  483.67
     20.0700	  624.00	  614.79	-1894.29	  483.13
     20.1700	  587.00	  614.37	-1930.88	  482.60
     20.2700	  615.00	  613.92	-1902.43	  482.07
     20.3700	  614.00	  613.48	-1902.98	  481.54
     20.4700	  627.00	  613.04	-1889.55	  481.02
     20.5700	  667.00	  612.61	-1849.12	  480.50
     20.6700	  605.00	  612.19	-1910.69	  479.98
     20.7700	  617.00	  611.77	-1898.28	  479.47
     20.8700	  585.00	  611.36	-1929.87	  478.96
     20.9700	  571.00	  610.96	-1943.47	  478.46
     21.0700	  557.00	  610.57	-1957.08	  477.95
     21.1700	  634.00	  610.19	-1879.69	  477.45
     21.2700	  599.00	  609.81	-1914.32	  476.96
     21.3700	  620.00	  609.45	-1892.95	  476.47
     21.4700	  598.00	  609.09	-1914.59	  475.98
     21.5700	  620.00	  608.74	-1892.25	  475.49
     21.6700	  627.00	  608.41	-1884.91	  475.01
     21.7700	  613.00	  608.08	-1898.59	  474.53
     21.8700	  613.00	  607.77	-1898.27	  474.05
     21.9700	  618.00	  607.47	-1892.97	  473.58
     22.0700	  587.00	  607.18	-1923.69	  473.11
     22.1700	  629.00	  606.91	-1881.41	  472.64
     22.2700	  575.00	  606.65	-1935.15	  472.18
     22.3700	  596.00	  606.40	-1913.91	  471.72
     22.4700	  635.00	  606.36	-1874.86	  471.26
     22.5700	  599.00	  606.15	-1910.66	  470.81
     22.6700	  628.00	  605.97	-1881.48	  470.36
     22.7700	  621.00	  605.81	-1888.31	  469.91
     22.8700	  584.00	  605.67	-1925.18	  469.46
     22.9700	  566.00	  605.57	-1943.07	  469.02
     23.0700	  665.00	  605.49	-1844.00	  468.59
     23.1700	  600.00	  605.45	-1908.96	  468.15
     23.2700	  611.00	  605.46	-1897.96	  467.72
     23.3700	  592.00	  605.51	-1917.02	  467.29
     23.4700	  600.00	  605.62	-1909.13	  466.86
     23.5700	  591.00	  605.81	-1918.32	  466.44
     23.6700	  575.00	  606.09	-1934.59	  466.02
     23.7700	  608.00	  606.49	-1902.00	  465.60
     23.8700	  626.00	  607.07	-1884.57	  465.19
     23.9700	  598.00	  607.84	-1913.35	  464.78
     24.0700	  655.00	  609.07	-1857.58	  464.37
     24.1700	  658.00	  610.94	-1856.45	  463.97
     24.2700	  625.00	  613.78	-1892.29	  463.57
     24.3700	  662.00	  618.05	-1859.56	  463.17
     24.4700	  657.00	  624.18	-1870.69	  462.77
     24.5700	  655.00	  632.43	-1880.93	  462.38
     24.6700	  677.00	  642.60	-1869.11	  461.99
     24.7700	  642.00	  653.72	-1915.23	  461.61
     24.8700	  679.00	  663.62	-1888.13	  461.22
     24.9700	  703.00	  668.76	-1869.27	  460.84
     25.0700	  717.00	  665.80	-1852.30	  460.47
     25.1700	  661.00	  655.66	-1898.17	  460.09
     25.2700	  668.00	  643.48	-1878.99	  459.72
     25.3700	  627.00	  633.23	-1909.74	  459.35
     25.4700	  630.00	  626.17	-1899.68	  458.98
     25.5700	  637.00	  621.97	-1888.48	  458.62
     25.6700	  591.00	  619.94	-1932.44	  458.26
     25.7700	  626.00	  619.35	-1896.86	  457.90
     25.8700	  644.00	  619.71	-1879.21	  457.55
     25.9700	  586.00	  620.71	-1938.21	  457.20
     26.0700	  628.00	  622.22	-1897.73	  456.85
     26.1700	  656.00	  624.21	-1871.71	  456.50
     26.2700	  632.00	  626.68	-1898.18	  456.16
     26.3700	  617.00	  629.67	-1916.18	  455.82
     26.4700	  619.00	  633.26	-1917.77	  455.48
     26.5700	  644.00	  637.55	-1897.06	  455.15
     26.6700	  579.00	  642.67	-1967.17	  454.82
     26.7700	  620.00	  648.80	-1932.30	  454.49
     26.8700	  649.00	  656.18	-1910.69	  454.16
     26.9700	  631.00	  665.15	-1937.65	  453.84
     27.0700	  682.00	  676.15	-1897.66	  453.52
     27.1700	  663.00	  689.83	-1930.34	  453.20
     27.2700	  663.00	  707.16	-1947.67	  452.88
     27.3700	  696.00	  729.79	-1937.29	  452.57
     27.4700	  752.00	  760.93	-1912.43	  452.26
     27.5700	  765.00	  807.41	-1945.92	  451.95
     27.6700	  782.00	  883.41	-2004.91	  451.65
     27.7700	  832.00	 1015.66	-2087.16	  451.35
     27.8700	  949.00	 1248.31	-2202.81	  451.05
     27.9700	 1236.00	 1641.35	-2308.85	  450.75
     28.0700	 1863.00	 2252.07	-2292.57	  450.46
     28.1700	 2872.00	 3092.47	-2123.98	  450.17
     28.2700	 4346.00	 4063.77	-1621.28	  449.88
     28.3700	 5668.00	 4896.76	-1132.27	  449.59
     28.4700	 5936.00	 5183.69	-1151.20	  449.31
     28.5700	 5036.00	 4697.02	-1564.52	  449.03
     28.6700	 3760.00	 3819.98	-1963.48	  448.75
     28.7700	 2839.00	 3126.59	-2191.10	  448.48
     28.8700	 2720.00	 2856.01	-2039.51	  448.20
     28.9700	 2966.00	 2941.03	-1878.53	  447.93
     29.0700	 3380.00	 3139.92	-1663.42	  447.66
     29.1700	 3275.00	 3152.45	-1780.96	  447.40
     29.2700	 2834.00	 2800.90	-1870.40	  447.14
     29.3700	 2187.00	 2221.42	-1937.93	  446.87
     29.4700	 1546.00	 1668.06	-2025.57	  446.62
     29.5700	 1156.00	 1263.07	-2010.57	  446.36
     29.6700	  916.00	 1012.23	-1999.73	  446.11
     29.7700	  855.00	  872.23	-1920.74	  445.86
     29.8700	  841.00	  795.76	-1858.27	  445.61
     29.9700	  743.00	  750.89	-1911.40	  445.36
     30.0700	  744.00	  721.36	-1880.87	  445.12
     30.1700	  742.00	  700.16	-1861.67	  444.88
     30.2700	  717.00	  684.41	-1870.91	  444.64
     30.3700	  653.00	  672.92	-1923.43	  444.41
     30.4700	  754.00	  665.44	-1814.95	  444.17
     30.5700	  692.00	  662.44	-1873.95	  443.94
     30.6700	  707.00	  664.95	-1861.45	  443.71
     30.7700	  687.00	  674.00	-1890.51	  443.49
     30.8700	  738.00	  689.49	-1854.99	  443.26
     30.9700	  714.00	  708.78	-1898.28	  443.04
     31.0700	  744.00	  725.80	-1885.30	  442.82
     31.1700	  754.00	  731.37	-1880.88	  442.61
     31.2700	  764.00	  718.46	-1857.97	  442.39
     31.3700	  733.00	  691.59	-1862.10	  442.18
     31.4700	  667.00	  662.73	-1899.23	  441.97
     31.5700	  685.00	  639.35	-1857.86	  441.76
     31.6700	  598.00	  623.20	-1928.71	  441.56
     31.7700	  629.00	  613.07	-1887.58	  441.35
     31.8700	  635.00	  606.92	-1875.43	  441.15
     31.9700	  644.00	  603.04	-1862.55	  440.95
     32.0700	  619.00	  600.38	-1884.89	  440.76
     32.1700	  612.00	  598.42	-1889.93	  440.56
     32.2700	  629.00	  596.92	-1871.43	  440.37
     32.3700	  630.00	  595.79	-1869.30	  440.18
     32.4700	  617.00	  594.97	-1881.48	  439.99
     32.5700	  655.00	  594.46	-1842.96	  439.81
     32.6700	  615.00	  594.24	-1882.74	  439.63
     32.7700	  603.00	  594.34	-1894.84	  439.44
     32.8700	  619.00	  594.79	-1879.30	  439.27
     32.9700	  577.00	  595.67	-1922.18	  439.09
     33.0700	  613.00	  597.11	-1887.61	  438.91
     33.1700	  637.00	  599.22	-1865.72	  438.74
     33.2700	  651.00	  602.36	-1854.86	  438.57
     33.3700	  662.00	  607.16	-1848.67	  438.40
     33.4700	  637.00	  614.89	-1881.40	  438.24
     33.5700	  709.00	  627.91	-1822.42	  438.07
     33.6700	  607.00	  650.16	-1946.67	  437.91
     33.7700	  724.00	  687.15	-1866.66	  437.75
     33.8700	  786.00	  744.51	-1862.02	  437.59
     33.9700	  867.00	  824.27	-1860.78	  437.44
     34.0700	 1013.00	  919.61	-1810.12	  437.28
     34.1700	 1055.00	 1010.81	-1859.31	  437.13
     34.2700	 1210.00	 1065.54	-1759.05	  436.98
     34.3700	 1142.00	 1052.32	-1813.82	  436.83
     34.4700	 1047.00	  973.41	-1829.91	  436.69
     34.5700	  895.00	  868.51	-1877.02	  436.54
     34.6700	  766.00	  773.38	-1910.88	  436.40
     34.7700	  747.00	  702.32	-1858.83	  436.26
     34.8700	  643.00	  655.66	-1916.17	  436.12
     34.9700	  644.00	  627.59	-1887.10	  435.99
     35.0700	  620.00	  611.32	-1894.82	  435.85
     35.1700	  627.00	  601.58	-1878.09	  435.72
     35.2700	  598.00	  595.27	-1900.78	  435.59
     35.3700	  605.00	  590.80	-1889.31	  435.46
     35.4700	  586.00	  587.41	-1904.92	  435.34
     35.5700	  640.00	  584.74	-1848.25	  435.21
     35.6700	  623.00	  582.59	-1863.09	  435.09
     35.7700	  594.00	  580.83	-1890.33	  434.97
     35.8700	  579.00	  579.37	-1903.88	  434.85
     35.9700	  584.00	  578.16	-1897.67	  434.73
     36.0700	  587.00	  577.15	-1893.66	  434.62
     36.1700	  560.00	  576.32	-1919.82	  434.50
     36.2700	  635.00	  575.62	-1844.13	  434.39
     36.3700	  556.00	  575.07	-1922.57	  434.28
     36.4700	  601.00	  574.63	-1877.13	  434.17
     36.5700	  579.00	  574.31	-1898.82	  434.07
     36.6700	  549.00	  574.11	-1928.62	  433.96
     36.7700	  578.00	  574.05	-1899.55	  433.86
     36.8700	  595.00	  574.61	-1883.11	  433.76
     36.9700	  557.00	  574.88	-1921.38	  433.66
     37.0700	  539.00	  575.39	-1939.89	  433.56
     37.1700	  574.00	  576.22	-1905.72	  433.46
     37.2700	  551.00	  577.79	-1930.30	  433.37
     37.3700	  625.00	  580.00	-1858.51	  433.28
     37.4700	  611.00	  583.53	-1876.04	  433.19
     37.5700	  569.00	  589.14	-1923.65	  433.10
     37.6700	  526.00	  597.82	-1975.32	  433.01
     37.7700	  596.00	  610.66	-1918.17	  432.92
     37.8700	  579.00	  628.41	-1952.91	  432.84
     37.9700	  656.00	  650.63	-1898.13	  432.76
     38.0700	  642.00	  675.00	-1936.50	  432.67
     38.1700	  639.00	  696.89	-1961.40	  432.60
     38.2700	  645.00	  709.27	-1967.78	  432.52
     38.3700	  714.00	  703.85	-1893.35	  432.44
     38.4700	  634.00	  683.51	-1953.02	  432.37
     38.5700	  675.00	  655.71	-1884.22	  432.29
     38.6700	  653.00	  629.15	-1879.65	  432.22
     38.7700	  541.00	  608.10	-1970.60	  432.15
     38.8700	  561.00	  593.33	-1935.83	  432.08
     38.9700	  577.00	  583.84	-1910.34	  432.02
     39.0700	  597.00	  578.04	-1884.55	  431.95
     39.1700	  555.00	  574.52	-1923.03	  431.89
     39.2700	  534.00	  572.28	-1941.79	  431.82
     39.3700	  542.00	  570.74	-1932.24	  431.76
     39.4700	  557.00	  569.59	-1916.10	  431.70
     39.5700	  597.00	  568.70	-1875.21	  431.64
     39.6700	  563.00	  567.21	-1907.72	  431.59
     39.7700	  576.00	  566.64	-1894.15	  431.53
     39.8700	  604.00	  566.18	-1865.69	  431.48
     39.9700	  581.00	  565.80	-1888.31	  431.43
     40.0700	  589.00	  565.49	-1879.99	  431.37
     40.1700	  589.00	  565.23	-1879.74	  431.32
     40.2700	  588.00	  565.02	-1880.53	  431.28
     40.3700	  505.00	  564.86	-1963.36	  431.23
     40.4700	  550.00	  564.73	-1918.24	  431.18
     40.5700	  570.00	  564.64	-1898.15	  431.14
     40.6700	  577.00	  564.58	-1891.09	  431.10
     40.7700	  564.00	  565.09	-1904.60	  431.05
