MSG Master    CELL:    5.91934   5.91934  23.27653   90.0000   90.0000  120.0000   SPGR: P 63/m m c             TEMP:   1074.85
  1   1280     2.52000     0.00000    -0.13061     0.00000     0.00000    0
    99     0     2
       0.00000      10.00000
     125.00000     130.00000
 2Theta	Yobs	Ycal	Yobs-Ycal	Backg	Posr	(hkl)	K
      0.7700	    0.00	  582.07	-1742.75	  463.17
      0.8700	    0.00	  582.31	-1742.75	  463.41
      0.9700	   35.00	  582.55	-1742.75	  463.65
      1.0700	   43.00	  582.78	-1742.75	  463.88
      1.1700	   38.00	  583.00	-1742.75	  464.10
      1.2700	   50.00	  583.22	-1742.75	  464.31
      1.3700	   50.00	  583.42	-1742.75	  464.52
      1.4700	   83.00	  583.63	-1742.75	  464.73
      1.5700	  276.00	  583.82	-1742.75	  464.92
      1.6700	  446.00	  584.01	-1742.75	  465.11
      1.7700	  516.00	  584.19	-1742.75	  465.29
      1.8700	  650.00	  584.37	-1742.75	  465.47
      1.9700	  690.00	  584.54	-1742.75	  465.64
      2.0700	  726.00	  584.70	-1742.75	  465.80
      2.1700	  814.00	  584.86	-1742.75	  465.95
      2.2700	  778.00	  585.01	-1742.75	  466.10
      2.3700	  757.00	  585.15	-1742.75	  466.25
      2.4700	  730.00	  585.29	-1742.75	  466.39
      2.5700	  688.00	  585.42	-1742.75	  466.52
      2.6700	  638.00	  585.54	-1742.75	  466.64
      2.7700	  623.00	  585.66	-1742.75	  466.76
      2.8700	  570.00	  585.78	-1742.75	  466.88
      2.9700	  618.00	  585.88	-1742.75	  466.98
      3.0700	  621.00	  585.99	-1742.75	  467.08
      3.1700	  527.00	  586.08	-1742.75	  467.18
      3.2700	  632.00	  586.17	-1742.75	  467.27
      3.3700	  655.00	  586.25	-1742.75	  467.35
      3.4700	  755.00	  586.33	-1742.75	  467.43
      3.5700	  829.00	  586.41	-1742.75	  467.50
      3.6700	  834.00	  586.47	-1742.75	  467.57
      3.7700	  952.00	  586.53	-1742.75	  467.63
      3.8700	 1023.00	  586.59	-1742.75	  467.69
      3.9700	  943.00	  586.64	-1742.75	  467.74
      4.0700	 1025.00	  586.69	-1742.75	  467.79
      4.1700	 1065.00	  586.73	-1742.75	  467.83
      4.2700	 1106.00	  586.76	-1742.75	  467.86
      4.3700	 1121.00	  586.79	-1742.75	  467.89
      4.4700	 1072.00	  586.81	-1742.75	  467.91
      4.5700	 1039.00	  586.83	-1742.75	  467.93
      4.6700	 1028.00	  586.85	-1742.75	  467.95
      4.7700	 1018.00	  586.86	-1742.75	  467.95
      4.8700	  998.00	  586.86	-1742.75	  467.96
      4.9700	  987.00	  586.86	-1742.75	  467.96
      5.0700	  968.00	  586.85	-1742.75	  467.95
      5.1700	  921.00	  586.84	-1742.75	  467.94
      5.2700	  934.00	  586.82	-1742.75	  467.92
      5.3700	  929.00	  586.80	-1742.75	  467.90
      5.4700	  857.00	  586.78	-1742.75	  467.88
      5.5700	  932.00	  586.75	-1742.75	  467.85
      5.6700	  881.00	  586.71	-1742.75	  467.81
      5.7700	  818.00	  586.67	-1742.75	  467.77
      5.8700	  819.00	  586.63	-1742.75	  467.73
      5.9700	  843.00	  586.58	-1742.75	  467.68
      6.0700	  799.00	  586.53	-1742.75	  467.62
      6.1700	  777.00	  586.47	-1742.75	  467.57
      6.2700	  779.00	  586.41	-1742.75	  467.50
      6.3700	  756.00	  586.34	-1742.75	  467.44
      6.4700	  800.00	  586.27	-1742.75	  467.37
      6.5700	  758.00	  586.19	-1742.75	  467.29
      6.6700	  727.00	  586.11	-1742.75	  467.21
      6.7700	  729.00	  586.03	-1742.75	  467.13
      6.8700	  687.00	  585.94	-1742.75	  467.04
      6.9700	  733.00	  585.85	-1742.75	  466.95
      7.0700	  720.00	  585.75	-1742.75	  466.85
      7.1700	  664.00	  585.65	-1742.75	  466.75
      7.2700	  713.00	  585.55	-1742.75	  466.65
      7.3700	  678.00	  585.44	-1742.75	  466.54
      7.4700	  672.00	  585.33	-1742.75	  466.43
      7.5700	  644.00	  585.21	-1742.75	  466.31
      7.6700	  620.00	  585.09	-1742.75	  466.19
      7.7700	  655.00	  584.97	-1742.75	  466.07
      7.8700	  685.00	  584.84	-1742.75	  465.94
      7.9700	  614.00	  584.71	-1742.75	  465.81
      8.0700	  677.00	  584.58	-1742.75	  465.68
      8.1700	  559.00	  584.44	-1742.75	  465.54
      8.2700	  673.00	  584.30	-1742.75	  465.40
      8.3700	  562.00	  584.15	-1742.75	  465.25
      8.4700	  641.00	  584.00	-1742.75	  465.10
      8.5700	  620.00	  583.85	-1742.75	  464.95
      8.6700	  584.00	  583.69	-1742.75	  464.79
      8.7700	  636.00	  583.53	-1742.75	  464.63
      8.8700	  623.00	  583.37	-1742.75	  464.47
      8.9700	  623.00	  583.21	-1742.75	  464.30
      9.0700	  641.00	  583.04	-1742.75	  464.14
      9.1700	  643.00	  582.86	-1742.75	  463.96
      9.2700	  608.00	  582.69	-1742.75	  463.79
      9.3700	  599.00	  582.51	-1742.75	  463.61
      9.4700	  597.00	  582.33	-1742.75	  463.43
      9.5700	  583.00	  582.14	-1742.75	  463.24
      9.6700	  605.00	  581.95	-1742.75	  463.05
      9.7700	  614.00	  581.76	-1742.75	  462.86
      9.8700	  568.00	  581.57	-1742.75	  462.67
      9.9700	  631.00	  581.37	-1742.75	  462.47
     10.0700	  616.00	  582.02	-1708.77	  462.27
     10.1700	  590.00	  581.91	-1734.66	  462.07
     10.2700	  611.00	  581.82	-1713.57	  461.86
     10.3700	  580.00	  581.76	-1744.51	  461.65
     10.4700	  650.00	  581.77	-1674.52	  461.44
     10.5700	  638.00	  581.90	-1686.65	  461.23
     10.6700	  558.00	  582.26	-1767.01	  461.01
     10.7700	  554.00	  582.96	-1771.71	  460.79
     10.8700	  593.00	  584.07	-1733.82	  460.57
     10.9700	  582.00	  585.57	-1746.32	  460.34
     11.0700	  549.00	  587.44	-1781.19	  460.12
     11.1700	  643.00	  589.67	-1689.42	  459.89
     11.2700	  616.00	  592.30	-1719.05	  459.65
     11.3700	  594.00	  595.41	-1744.16	  459.42
     11.4700	  605.00	  599.16	-1736.91	  459.18
     11.5700	  594.00	  603.75	-1752.50	  458.94
     11.6700	  623.00	  609.56	-1729.31	  458.70
     11.7700	  644.00	  617.26	-1716.01	  458.45
     11.8700	  643.00	  627.80	-1727.55	  458.21
     11.9700	  654.00	  641.70	-1730.45	  457.96
     12.0700	  687.00	  657.04	-1712.79	  457.71
     12.1700	  688.00	  667.15	-1721.90	  457.45
     12.2700	  681.00	  662.13	-1723.88	  457.20
     12.3700	  650.00	  640.08	-1732.83	  456.94
     12.4700	  668.00	  614.39	-1689.14	  456.68
     12.5700	  567.00	  595.91	-1771.66	  456.42
     12.6700	  548.00	  585.84	-1780.59	  456.16
     12.7700	  575.00	  581.17	-1748.92	  455.89
     12.8700	  589.00	  578.95	-1732.70	  455.62
     12.9700	  571.00	  577.65	-1749.40	  455.35
     13.0700	  592.00	  576.71	-1727.46	  455.08
     13.1700	  574.00	  575.97	-1744.72	  454.81
     13.2700	  569.00	  575.34	-1749.09	  454.53
     13.3700	  544.00	  574.79	-1773.54	  454.25
     13.4700	  527.00	  574.30	-1790.05	  453.98
     13.5700	  510.00	  573.84	-1806.59	  453.69
     13.6700	  559.00	  573.42	-1757.17	  453.41
     13.7700	  561.00	  573.03	-1754.78	  453.13
     13.8700	  561.00	  572.65	-1754.40	  452.84
     13.9700	  546.00	  572.28	-1769.03	  452.55
     14.0700	  573.00	  571.92	-1741.67	  452.27
     14.1700	  547.00	  571.57	-1767.32	  451.97
     14.2700	  566.00	  571.23	-1747.98	  451.68
     14.3700	  549.00	  570.89	-1764.64	  451.39
     14.4700	  559.00	  570.56	-1754.31	  451.09
     14.5700	  567.00	  570.23	-1745.98	  450.80
     14.6700	  573.00	  569.90	-1739.65	  450.50
     14.7700	  611.00	  569.57	-1701.32	  450.20
     14.8700	  563.00	  569.25	-1749.00	  449.90
     14.9700	  598.00	  568.93	-1713.68	  449.60
     15.0700	  531.00	  568.60	-1780.35	  449.29
     15.1700	  547.00	  568.28	-1764.03	  448.99
     15.2700	  607.00	  567.96	-1703.71	  448.68
     15.3700	  553.00	  567.64	-1757.39	  448.37
     15.4700	  615.00	  567.32	-1695.07	  448.07
     15.5700	  602.00	  566.99	-1707.74	  447.76
     15.6700	  562.00	  566.67	-1747.42	  447.44
     15.7700	  584.00	  566.35	-1725.10	  447.13
     15.8700	  554.00	  566.03	-1754.78	  446.82
     15.9700	  562.00	  565.70	-1746.45	  446.51
     16.0700	  576.00	  565.41	-1732.16	  446.19
     16.1700	  539.00	  565.09	-1768.84	  445.87
     16.2700	  551.00	  564.76	-1756.51	  445.56
     16.3700	  542.00	  564.44	-1765.19	  445.24
     16.4700	  579.00	  564.11	-1727.86	  444.92
     16.5700	  543.00	  563.79	-1763.54	  444.60
     16.6700	  538.00	  563.46	-1768.21	  444.28
     16.7700	  540.00	  563.14	-1765.89	  443.96
     16.8700	  578.00	  562.81	-1727.56	  443.63
     16.9700	  556.00	  562.48	-1749.23	  443.31
     17.0700	  581.00	  562.16	-1723.91	  442.99
     17.1700	  550.00	  561.83	-1754.58	  442.66
     17.2700	  607.00	  561.50	-1697.25	  442.33
     17.3700	  520.00	  561.17	-1783.92	  442.01
     17.4700	  552.00	  560.84	-1751.59	  441.68
     17.5700	  528.00	  560.51	-1775.26	  441.35
     17.6700	  525.00	  560.18	-1777.93	  441.02
     17.7700	  514.00	  559.85	-1788.60	  440.70
     17.8700	  563.00	  559.52	-1739.27	  440.37
     17.9700	  514.00	  559.19	-1787.94	  440.04
     18.0700	  577.00	  558.97	-1724.72	  439.70
     18.1700	  524.00	  558.64	-1777.39	  439.37
     18.2700	  571.00	  558.31	-1730.06	  439.04
     18.3700	  522.00	  557.98	-1778.73	  438.71
     18.4700	  564.00	  557.65	-1736.40	  438.38
     18.5700	  564.00	  557.32	-1736.07	  438.04
     18.6700	  565.00	  556.99	-1734.74	  437.71
     18.7700	  573.00	  556.66	-1726.41	  437.38
     18.8700	  622.00	  556.33	-1677.08	  437.04
     18.9700	  596.00	  556.07	-1702.82	  436.71
     19.0700	  544.00	  555.74	-1754.49	  436.37
     19.1700	  570.00	  555.41	-1728.16	  436.04
     19.2700	  576.00	  555.08	-1721.83	  435.70
     19.3700	  527.00	  554.75	-1770.50	  435.36
     19.4700	  562.00	  554.42	-1735.17	  435.03
     19.5700	  526.00	  554.09	-1770.84	  434.69
     19.6700	  508.00	  553.76	-1788.51	  434.35
     19.7700	  567.00	  553.43	-1729.18	  434.02
     19.8700	  563.00	  553.11	-1732.86	  433.68
     19.9700	  513.00	  552.78	-1782.53	  433.34
     20.0700	  557.00	  552.45	-1738.20	  433.01
     20.1700	  533.00	  552.12	-1761.87	  432.67
     20.2700	  523.00	  551.79	-1771.54	  432.33
     20.3700	  572.00	  551.47	-1722.22	  431.99
     20.4700	  552.00	  551.14	-1741.89	  431.66
     20.5700	  558.00	  550.82	-1735.57	  431.32
     20.6700	  548.00	  550.49	-1745.24	  430.98
     20.7700	  557.00	  550.14	-1735.89	  430.65
     20.8700	  537.00	  549.84	-1755.59	  430.31
     20.9700	  533.00	  549.52	-1759.27	  429.97
     21.0700	  547.00	  549.20	-1744.95	  429.63
     21.1700	  580.00	  548.88	-1711.63	  429.30
     21.2700	  521.00	  548.57	-1770.32	  428.96
     21.3700	  544.00	  548.25	-1747.00	  428.62
     21.4700	  517.00	  547.94	-1773.69	  428.29
     21.5700	  504.00	  547.63	-1786.38	  427.95
     21.6700	  554.00	  547.31	-1736.06	  427.61
     21.7700	  490.00	  547.01	-1799.76	  427.28
     21.8700	  532.00	  546.70	-1757.45	  426.94
     21.9700	  533.00	  546.40	-1756.15	  426.61
     22.0700	  562.00	  546.10	-1726.85	  426.27
     22.1700	  583.00	  545.80	-1705.55	  425.94
     22.2700	  511.00	  545.51	-1777.26	  425.60
     22.3700	  539.00	  545.22	-1748.97	  425.27
     22.4700	  550.00	  544.93	-1737.68	  424.93
     22.5700	  530.00	  544.65	-1757.40	  424.60
     22.6700	  566.00	  544.38	-1721.13	  424.27
     22.7700	  532.00	  544.12	-1754.87	  423.93
     22.8700	  562.00	  543.86	-1724.61	  423.60
     22.9700	  550.00	  543.62	-1736.37	  423.27
     23.0700	  564.00	  543.39	-1722.14	  422.94
     23.1700	  554.00	  543.18	-1731.93	  422.61
     23.2700	  570.00	  542.99	-1715.74	  422.28
     23.3700	  516.00	  542.83	-1769.58	  421.95
     23.4700	  545.00	  542.70	-1740.45	  421.62
     23.5700	  532.00	  542.62	-1753.37	  421.29
     23.6700	  553.00	  542.62	-1732.37	  420.96
     23.7700	  590.00	  542.87	-1695.62	  420.63
     23.8700	  516.00	  543.22	-1769.97	  420.30
     23.9700	  542.00	  544.03	-1744.78	  419.98
     24.0700	  537.00	  545.74	-1751.49	  419.65
     24.1700	  570.00	  549.02	-1721.77	  419.32
     24.2700	  543.00	  554.69	-1754.44	  419.00
     24.3700	  573.00	  563.68	-1733.43	  418.68
     24.4700	  564.00	  576.94	-1755.69	  418.35
     24.5700	  595.00	  594.45	-1742.20	  418.03
     24.6700	  587.00	  613.08	-1768.83	  417.71
     24.7700	  602.00	  624.92	-1765.67	  417.38
     24.8700	  628.00	  620.17	-1734.92	  417.06
     24.9700	  626.00	  599.09	-1715.84	  416.74
     25.0700	  565.00	  574.97	-1752.72	  416.42
     25.1700	  557.00	  557.34	-1743.09	  416.11
     25.2700	  584.00	  547.47	-1706.22	  415.79
     25.3700	  584.00	  542.80	-1701.55	  415.47
     25.4700	  547.00	  540.65	-1736.40	  415.15
     25.5700	  561.00	  539.48	-1721.23	  414.84
     25.6700	  534.00	  538.72	-1747.47	  414.52
     25.7700	  526.00	  538.17	-1754.92	  414.21
     25.8700	  545.00	  537.76	-1735.51	  413.90
     25.9700	  545.00	  537.45	-1735.20	  413.59
     26.0700	  518.00	  537.23	-1761.98	  413.27
     26.1700	  544.00	  537.09	-1735.84	  412.96
     26.2700	  532.00	  537.03	-1747.78	  412.65
     26.3700	  512.00	  537.05	-1767.80	  412.35
     26.4700	  536.00	  537.15	-1743.90	  412.04
     26.5700	  570.00	  537.36	-1710.11	  411.73
     26.6700	  548.00	  537.69	-1732.44	  411.43
     26.7700	  583.00	  538.16	-1697.91	  411.12
     26.8700	  538.00	  538.82	-1743.57	  410.82
     26.9700	  563.00	  539.72	-1719.47	  410.52
     27.0700	  566.00	  540.95	-1717.70	  410.21
     27.1700	  549.00	  542.65	-1736.40	  409.91
     27.2700	  524.00	  545.10	-1763.85	  409.61
     27.3700	  559.00	  548.88	-1732.63	  409.32
     27.4700	  577.00	  555.10	-1720.85	  409.02
     27.5700	  591.00	  565.78	-1717.53	  408.72
     27.6700	  562.00	  584.11	-1764.86	  408.43
     27.7700	  611.00	  614.19	-1745.94	  408.13
     27.8700	  640.00	  659.51	-1762.26	  407.84
     27.9700	  703.00	  720.08	-1759.83	  407.55
     28.0700	  790.00	  788.47	-1741.22	  407.26
     28.1700	  902.00	  846.52	-1687.27	  406.97
     28.2700	  950.00	  867.47	-1660.22	  406.68
     28.3700	  898.00	  836.79	-1681.54	  406.39
     28.4700	  786.00	  780.55	-1737.30	  406.10
     28.5700	  707.00	  738.25	-1774.00	  405.82
     28.6700	  727.00	  726.98	-1742.73	  405.53
     28.7700	  705.00	  741.72	-1779.47	  405.25
     28.8700	  759.00	  762.68	-1746.43	  404.97
     28.9700	  822.00	  763.35	-1684.10	  404.69
     29.0700	  717.00	  728.24	-1753.99	  404.41
     29.1700	  682.00	  672.21	-1732.96	  404.13
     29.2700	  601.00	  620.09	-1761.84	  403.85
     29.3700	  602.00	  583.06	-1723.81	  403.58
     29.4700	  574.00	  560.93	-1729.68	  403.30
     29.5700	  608.00	  549.03	-1683.78	  403.03
     29.6700	  604.00	  542.70	-1681.45	  402.76
     29.7700	  572.00	  539.05	-1709.80	  402.49
     29.8700	  596.00	  536.73	-1683.48	  402.22
     29.9700	  529.00	  535.21	-1748.96	  401.95
     30.0700	  571.00	  534.39	-1706.14	  401.68
     30.1700	  522.00	  534.41	-1755.16	  401.42
     30.2700	  557.00	  535.71	-1721.46	  401.15
     30.3700	  584.00	  539.17	-1697.92	  400.89
     30.4700	  541.00	  546.14	-1747.89	  400.63
     30.5700	  523.00	  557.97	-1777.72	  400.37
     30.6700	  572.00	  574.95	-1745.70	  400.11
     30.7700	  611.00	  594.83	-1726.58	  399.85
     30.8700	  608.00	  611.72	-1746.47	  399.60
     30.9700	  594.00	  616.89	-1765.64	  399.34
     31.0700	  584.00	  604.96	-1763.71	  399.09
     31.1700	  561.00	  582.31	-1764.06	  398.84
     31.2700	  591.00	  560.13	-1711.88	  398.59
     31.3700	  511.00	  543.99	-1775.74	  398.34
     31.4700	  510.00	  534.29	-1767.04	  398.09
     31.5700	  568.00	  529.14	-1703.89	  397.84
     31.6700	  556.00	  526.51	-1713.26	  397.60
     31.7700	  550.00	  525.05	-1717.80	  397.36
     31.8700	  514.00	  524.13	-1752.88	  397.11
     31.9700	  529.00	  523.51	-1737.26	  396.87
     32.0700	  520.00	  523.08	-1745.83	  396.63
     32.1700	  537.00	  522.82	-1728.57	  396.40
     32.2700	  504.00	  522.70	-1761.45	  396.16
     32.3700	  538.00	  522.71	-1727.46	  395.93
     32.4700	  562.00	  522.88	-1703.63	  395.69
     32.5700	  578.00	  523.21	-1687.96	  395.46
     32.6700	  534.00	  523.75	-1732.50	  395.23
     32.7700	  516.00	  524.52	-1751.27	  395.00
     32.8700	  536.00	  525.61	-1732.36	  394.77
     32.9700	  488.00	  527.15	-1781.90	  394.55
     33.0700	  555.00	  529.35	-1717.10	  394.32
     33.1700	  529.00	  532.71	-1746.46	  394.10
     33.2700	  564.00	  538.36	-1717.11	  393.88
     33.3700	  572.00	  548.72	-1719.47	  393.66
     33.4700	  547.00	  568.39	-1764.14	  393.44
     33.5700	  592.00	  604.58	-1755.33	  393.22
     33.6700	  633.00	  665.32	-1775.07	  393.01
     33.7700	  754.00	  753.60	-1742.35	  392.79
     33.8700	  937.00	  858.99	-1664.74	  392.58
     33.9700	 1037.00	  952.15	-1657.90	  392.37
     34.0700	 1022.00	  989.45	-1710.20	  392.16
     34.1700	 1015.00	  941.42	-1669.17	  391.95
     34.2700	  854.00	  833.83	-1722.58	  391.75
     34.3700	  758.00	  721.11	-1705.86	  391.54
     34.4700	  604.00	  635.09	-1773.84	  391.34
     34.5700	  561.00	  581.55	-1763.30	  391.14
     34.6700	  550.00	  552.75	-1745.50	  390.94
     34.7700	  564.00	  538.31	-1717.06	  390.74
     34.8700	  574.00	  530.76	-1699.51	  390.54
     34.9700	  560.00	  526.22	-1708.97	  390.35
     35.0700	  552.00	  523.09	-1713.84	  390.16
     35.1700	  531.00	  520.75	-1732.50	  389.96
     35.2700	  548.00	  518.88	-1713.63	  389.77
     35.3700	  534.00	  517.37	-1726.12	  389.58
     35.4700	  475.00	  516.13	-1783.88	  389.40
     35.5700	  507.00	  515.08	-1750.83	  389.21
     35.6700	  544.00	  514.19	-1712.94	  389.03
     35.7700	  520.00	  513.42	-1736.17	  388.84
     35.8700	  542.00	  512.75	-1713.50	  388.66
     35.9700	  539.00	  512.16	-1715.91	  388.48
     36.0700	  510.00	  512.09	-1744.84	  388.31
     36.1700	  548.00	  511.62	-1706.38	  388.13
     36.2700	  480.00	  511.21	-1773.96	  387.96
     36.3700	  503.00	  510.85	-1750.59	  387.78
     36.4700	  493.00	  510.52	-1760.27	  387.61
     36.5700	  536.00	  510.23	-1716.98	  387.44
     36.6700	  535.00	  510.00	-1717.75	  387.28
     36.7700	  500.00	  509.81	-1752.56	  387.11
     36.8700	  481.00	  509.71	-1771.46	  386.94
     36.9700	  499.00	  509.78	-1753.53	  386.78
     37.0700	  466.00	  510.19	-1786.94	  386.62
     37.1700	  502.00	  511.26	-1752.01	  386.46
     37.2700	  534.00	  513.43	-1722.18	  386.30
     37.3700	  573.00	  517.07	-1686.82	  386.15
     37.4700	  511.00	  522.06	-1753.81	  385.99
     37.5700	  504.00	  527.30	-1766.05	  385.84
     37.6700	  569.00	  530.82	-1704.57	  385.69
     37.7700	  498.00	  530.58	-1775.33	  385.54
     37.8700	  551.00	  526.56	-1718.31	  385.39
     37.9700	  539.00	  520.97	-1724.72	  385.24
     38.0700	  477.00	  515.86	-1781.61	  385.10
     38.1700	  512.00	  512.03	-1742.78	  384.95
     38.2700	  523.00	  509.50	-1729.25	  384.81
     38.3700	  500.00	  507.95	-1750.70	  384.67
     38.4700	  474.00	  507.01	-1775.76	  384.53
     38.5700	  523.00	  506.42	-1726.17	  384.39
     38.6700	  478.00	  505.91	-1770.66	  384.26
     38.7700	  528.00	  505.62	-1720.37	  384.13
     38.8700	  495.00	  505.38	-1753.13	  383.99
     38.9700	  486.00	  505.18	-1761.93	  383.86
     39.0700	  504.00	  505.00	-1743.75	  383.73
     39.1700	  535.00	  504.76	-1712.51	  383.61
     39.2700	  507.00	  504.62	-1740.37	  383.48
     39.3700	  527.00	  504.48	-1720.23	  383.36
     39.4700	  506.00	  504.48	-1741.23	  383.24
     39.5700	  530.00	  504.37	-1717.12	  383.12
     39.6700	  495.00	  504.26	-1752.01	  383.00
     39.7700	  558.00	  504.17	-1688.92	  382.88
     39.8700	  523.00	  504.08	-1723.83	  382.76
     39.9700	  508.00	  504.01	-1738.76	  382.65
     40.0700	  511.00	  503.94	-1735.69	  382.54
     40.1700	  484.00	  503.88	-1762.63	  382.43
     40.2700	  545.00	  503.83	-1701.58	  382.32
     40.3700	  504.00	  503.79	-1742.54	  382.21
     40.4700	  481.00	  503.77	-1765.52	  382.11
     40.5700	  465.00	  503.76	-1781.51	  382.00
     40.6700	  516.00	  503.77	-1730.52	  381.90
     40.7700	  480.00	  503.80	-1766.55	  381.80
