MSG Master    CELL:    5.91913   5.91913  23.27242   90.0000   90.0000  120.0000   SPGR: P 63/m m c             TEMP:   1074.85
  1   1280     2.52000     0.00000    -0.12879     0.00000     0.00000    0
    99     0     2
       0.00000      10.00000
     125.00000     130.00000
 2Theta	Yobs	Ycal	Yobs-Ycal	Backg	Posr	(hkl)	K
      0.7700	    0.00	  538.34	-1739.25	  419.79
      0.8700	    0.00	  539.16	-1739.25	  420.61
      0.9700	   33.00	  539.97	-1739.25	  421.42
      1.0700	   39.00	  540.77	-1739.25	  422.22
      1.1700	   28.00	  541.56	-1739.25	  423.01
      1.2700	   36.00	  542.33	-1739.25	  423.78
      1.3700	   42.00	  543.10	-1739.25	  424.55
      1.4700	   80.00	  543.85	-1739.25	  425.30
      1.5700	  279.00	  544.59	-1739.25	  426.04
      1.6700	  470.00	  545.32	-1739.25	  426.77
      1.7700	  584.00	  546.04	-1739.25	  427.49
      1.8700	  662.00	  546.75	-1739.25	  428.20
      1.9700	  747.00	  547.45	-1739.25	  428.89
      2.0700	  786.00	  548.13	-1739.25	  429.58
      2.1700	  857.00	  548.81	-1739.25	  430.26
      2.2700	  747.00	  549.47	-1739.25	  430.92
      2.3700	  714.00	  550.13	-1739.25	  431.57
      2.4700	  692.00	  550.77	-1739.25	  432.22
      2.5700	  705.00	  551.40	-1739.25	  432.85
      2.6700	  682.00	  552.03	-1739.25	  433.47
      2.7700	  642.00	  552.64	-1739.25	  434.08
      2.8700	  656.00	  553.24	-1739.25	  434.69
      2.9700	  665.00	  553.83	-1739.25	  435.28
      3.0700	  592.00	  554.41	-1739.25	  435.86
      3.1700	  606.00	  554.98	-1739.25	  436.43
      3.2700	  632.00	  555.55	-1739.25	  436.99
      3.3700	  695.00	  556.10	-1739.25	  437.54
      3.4700	  780.00	  556.64	-1739.25	  438.09
      3.5700	  816.00	  557.17	-1739.25	  438.62
      3.6700	  863.00	  557.69	-1739.25	  439.14
      3.7700	  937.00	  558.20	-1739.25	  439.65
      3.8700	  956.00	  558.71	-1739.25	  440.15
      3.9700	 1033.00	  559.20	-1739.25	  440.65
      4.0700	  973.00	  559.68	-1739.25	  441.13
      4.1700	 1083.00	  560.16	-1739.25	  441.61
      4.2700	 1106.00	  560.62	-1739.25	  442.07
      4.3700	 1047.00	  561.08	-1739.25	  442.53
      4.4700	 1062.00	  561.53	-1739.25	  442.97
      4.5700	 1080.00	  561.96	-1739.25	  443.41
      4.6700	  956.00	  562.39	-1739.25	  443.84
      4.7700	 1086.00	  562.81	-1739.25	  444.26
      4.8700	  988.00	  563.22	-1739.25	  444.67
      4.9700	  952.00	  563.63	-1739.25	  445.07
      5.0700	  966.00	  564.02	-1739.25	  445.47
      5.1700	  928.00	  564.40	-1739.25	  445.85
      5.2700	  911.00	  564.78	-1739.25	  446.23
      5.3700	  911.00	  565.15	-1739.25	  446.60
      5.4700	  891.00	  565.51	-1739.25	  446.95
      5.5700	  887.00	  565.86	-1739.25	  447.30
      5.6700	  836.00	  566.20	-1739.25	  447.65
      5.7700	  844.00	  566.53	-1739.25	  447.98
      5.8700	  875.00	  566.86	-1739.25	  448.31
      5.9700	  799.00	  567.18	-1739.25	  448.62
      6.0700	  763.00	  567.49	-1739.25	  448.93
      6.1700	  738.00	  567.79	-1739.25	  449.24
      6.2700	  837.00	  568.08	-1739.25	  449.53
      6.3700	  786.00	  568.37	-1739.25	  449.82
      6.4700	  763.00	  568.65	-1739.25	  450.09
      6.5700	  761.00	  568.92	-1739.25	  450.36
      6.6700	  687.00	  569.18	-1739.25	  450.63
      6.7700	  675.00	  569.43	-1739.25	  450.88
      6.8700	  687.00	  569.68	-1739.25	  451.13
      6.9700	  700.00	  569.92	-1739.25	  451.37
      7.0700	  704.00	  570.15	-1739.25	  451.60
      7.1700	  656.00	  570.38	-1739.25	  451.82
      7.2700	  672.00	  570.59	-1739.25	  452.04
      7.3700	  669.00	  570.80	-1739.25	  452.25
      7.4700	  677.00	  571.01	-1739.25	  452.45
      7.5700	  646.00	  571.20	-1739.25	  452.65
      7.6700	  639.00	  571.39	-1739.25	  452.84
      7.7700	  610.00	  571.57	-1739.25	  453.02
      7.8700	  625.00	  571.75	-1739.25	  453.20
      7.9700	  685.00	  571.92	-1739.25	  453.36
      8.0700	  655.00	  572.08	-1739.25	  453.53
      8.1700	  662.00	  572.23	-1739.25	  453.68
      8.2700	  651.00	  572.38	-1739.25	  453.83
      8.3700	  691.00	  572.52	-1739.25	  453.97
      8.4700	  624.00	  572.66	-1739.25	  454.10
      8.5700	  613.00	  572.78	-1739.25	  454.23
      8.6700	  587.00	  572.90	-1739.25	  454.35
      8.7700	  660.00	  573.02	-1739.25	  454.47
      8.8700	  563.00	  573.13	-1739.25	  454.58
      8.9700	  632.00	  573.23	-1739.25	  454.68
      9.0700	  605.00	  573.33	-1739.25	  454.77
      9.1700	  574.00	  573.42	-1739.25	  454.86
      9.2700	  621.00	  573.50	-1739.25	  454.95
      9.3700	  648.00	  573.58	-1739.25	  455.02
      9.4700	  616.00	  573.65	-1739.25	  455.10
      9.5700	  635.00	  573.71	-1739.25	  455.16
      9.6700	  598.00	  573.77	-1739.25	  455.22
      9.7700	  561.00	  573.83	-1739.25	  455.27
      9.8700	  632.00	  573.88	-1739.25	  455.32
      9.9700	  576.00	  573.92	-1739.25	  455.36
     10.0700	  591.00	  574.74	-1722.99	  455.40
     10.1700	  547.00	  574.85	-1767.10	  455.43
     10.2700	  530.00	  574.98	-1784.23	  455.46
     10.3700	  572.00	  575.13	-1742.38	  455.48
     10.4700	  594.00	  575.34	-1720.59	  455.49
     10.5700	  599.00	  575.66	-1715.91	  455.50
     10.6700	  582.00	  576.16	-1733.41	  455.50
     10.7700	  576.00	  576.96	-1740.21	  455.50
     10.8700	  618.00	  578.12	-1699.37	  455.49
     10.9700	  584.00	  579.62	-1734.87	  455.48
     11.0700	  619.00	  581.44	-1701.69	  455.46
     11.1700	  601.00	  583.58	-1721.83	  455.44
     11.2700	  571.00	  586.07	-1754.32	  455.41
     11.3700	  607.00	  588.99	-1721.24	  455.38
     11.4700	  586.00	  592.45	-1745.70	  455.34
     11.5700	  628.00	  596.65	-1707.90	  455.30
     11.6700	  591.00	  601.91	-1750.16	  455.25
     11.7700	  619.00	  608.80	-1729.05	  455.20
     11.8700	  625.00	  618.14	-1732.39	  455.15
     11.9700	  646.00	  630.40	-1723.65	  455.08
     12.0700	  678.00	  643.98	-1705.23	  455.02
     12.1700	  683.00	  653.24	-1709.49	  454.95
     12.2700	  660.00	  649.60	-1728.85	  454.87
     12.3700	  678.00	  630.90	-1692.15	  454.79
     12.4700	  592.00	  608.47	-1755.72	  454.71
     12.5700	  575.00	  592.07	-1756.32	  454.62
     12.6700	  563.00	  583.04	-1759.29	  454.52
     12.7700	  573.00	  578.87	-1745.12	  454.43
     12.8700	  597.00	  576.94	-1719.19	  454.33
     12.9700	  594.00	  575.89	-1721.14	  454.22
     13.0700	  597.00	  575.17	-1717.42	  454.11
     13.1700	  574.00	  574.62	-1739.87	  454.00
     13.2700	  518.00	  574.18	-1795.43	  453.88
     13.3700	  556.00	  573.81	-1757.06	  453.75
     13.4700	  574.00	  573.49	-1738.74	  453.63
     13.5700	  573.00	  573.21	-1739.46	  453.50
     13.6700	  572.00	  572.95	-1740.20	  453.36
     13.7700	  567.00	  572.70	-1744.95	  453.23
     13.8700	  570.00	  572.48	-1741.73	  453.08
     13.9700	  609.00	  572.26	-1702.51	  452.94
     14.0700	  589.00	  572.05	-1722.30	  452.79
     14.1700	  543.00	  571.84	-1768.09	  452.64
     14.2700	  544.00	  571.64	-1766.89	  452.48
     14.3700	  551.00	  571.44	-1759.69	  452.32
     14.4700	  558.00	  571.24	-1752.49	  452.16
     14.5700	  538.00	  571.04	-1772.29	  451.99
     14.6700	  540.00	  570.85	-1770.10	  451.82
     14.7700	  544.00	  570.65	-1765.90	  451.65
     14.8700	  553.00	  570.45	-1756.70	  451.47
     14.9700	  534.00	  570.25	-1775.50	  451.29
     15.0700	  583.00	  570.05	-1726.30	  451.11
     15.1700	  567.00	  569.85	-1742.10	  450.92
     15.2700	  572.00	  569.64	-1736.89	  450.73
     15.3700	  585.00	  569.44	-1723.69	  450.54
     15.4700	  589.00	  569.23	-1719.48	  450.34
     15.5700	  536.00	  569.02	-1772.27	  450.14
     15.6700	  620.00	  568.81	-1688.06	  449.94
     15.7700	  592.00	  568.59	-1715.84	  449.73
     15.8700	  546.00	  568.38	-1761.63	  449.52
     15.9700	  547.00	  568.16	-1760.41	  449.31
     16.0700	  583.00	  567.96	-1724.21	  449.10
     16.1700	  521.00	  567.74	-1785.99	  448.88
     16.2700	  597.00	  567.52	-1709.77	  448.66
     16.3700	  543.00	  567.29	-1763.54	  448.44
     16.4700	  561.00	  567.06	-1745.31	  448.22
     16.5700	  534.00	  566.83	-1772.08	  447.99
     16.6700	  528.00	  566.59	-1777.84	  447.76
     16.7700	  567.00	  566.36	-1738.61	  447.53
     16.8700	  584.00	  566.12	-1721.37	  447.29
     16.9700	  554.00	  565.88	-1751.13	  447.05
     17.0700	  587.00	  565.64	-1717.89	  446.81
     17.1700	  551.00	  565.39	-1753.64	  446.57
     17.2700	  620.00	  565.15	-1684.40	  446.33
     17.3700	  559.00	  564.90	-1745.15	  446.08
     17.4700	  553.00	  564.65	-1750.90	  445.83
     17.5700	  529.00	  564.39	-1774.64	  445.58
     17.6700	  589.00	  564.14	-1714.39	  445.33
     17.7700	  555.00	  563.88	-1748.13	  445.07
     17.8700	  587.00	  563.62	-1715.87	  444.81
     17.9700	  566.00	  563.36	-1736.61	  444.55
     18.0700	  591.00	  563.19	-1711.44	  444.29
     18.1700	  547.00	  562.93	-1755.18	  444.03
     18.2700	  560.00	  562.67	-1741.92	  443.76
     18.3700	  552.00	  562.40	-1749.65	  443.49
     18.4700	  557.00	  562.13	-1744.38	  443.22
     18.5700	  546.00	  561.86	-1755.11	  442.95
     18.6700	  558.00	  561.59	-1742.84	  442.68
     18.7700	  542.00	  561.32	-1758.57	  442.40
     18.8700	  552.00	  561.05	-1748.30	  442.12
     18.9700	  571.00	  560.85	-1729.10	  441.84
     19.0700	  527.00	  560.57	-1772.82	  441.56
     19.1700	  572.00	  560.30	-1727.55	  441.28
     19.2700	  552.00	  560.02	-1747.27	  441.00
     19.3700	  567.00	  559.74	-1731.99	  440.71
     19.4700	  505.00	  559.46	-1793.71	  440.42
     19.5700	  559.00	  559.17	-1739.42	  440.13
     19.6700	  569.00	  558.89	-1729.14	  439.84
     19.7700	  586.00	  558.61	-1711.86	  439.55
     19.8700	  500.00	  558.32	-1797.57	  439.26
     19.9700	  610.00	  558.04	-1687.29	  438.96
     20.0700	  541.00	  557.75	-1756.00	  438.67
     20.1700	  558.00	  557.46	-1738.71	  438.37
     20.2700	  536.00	  557.17	-1760.42	  438.07
     20.3700	  597.00	  556.88	-1699.13	  437.77
     20.4700	  512.00	  556.59	-1783.84	  437.47
     20.5700	  529.00	  556.30	-1766.55	  437.17
     20.6700	  531.00	  556.01	-1764.26	  436.87
     20.7700	  526.00	  555.69	-1768.94	  436.56
     20.8700	  600.00	  555.43	-1694.68	  436.26
     20.9700	  504.00	  555.14	-1790.39	  435.95
     21.0700	  598.00	  554.85	-1696.10	  435.64
     21.1700	  518.00	  554.56	-1775.81	  435.33
     21.2700	  520.00	  554.27	-1773.52	  435.02
     21.3700	  565.00	  553.98	-1728.23	  434.71
     21.4700	  610.00	  553.68	-1682.93	  434.40
     21.5700	  554.00	  553.40	-1738.65	  434.09
     21.6700	  562.00	  553.11	-1730.36	  433.77
     21.7700	  547.00	  552.82	-1745.07	  433.46
     21.8700	  550.00	  552.53	-1741.78	  433.14
     21.9700	  603.00	  552.25	-1688.50	  432.83
     22.0700	  572.00	  551.96	-1719.21	  432.51
     22.1700	  539.00	  551.68	-1751.93	  432.19
     22.2700	  545.00	  551.40	-1745.65	  431.88
     22.3700	  506.00	  551.13	-1784.38	  431.56
     22.4700	  586.00	  550.86	-1704.11	  431.24
     22.5700	  516.00	  550.59	-1773.84	  430.92
     22.6700	  567.00	  550.33	-1722.58	  430.60
     22.7700	  568.00	  550.07	-1721.32	  430.28
     22.8700	  564.00	  549.83	-1725.08	  429.95
     22.9700	  507.00	  549.59	-1781.84	  429.63
     23.0700	  583.00	  549.37	-1705.62	  429.31
     23.1700	  531.00	  549.16	-1757.41	  428.99
     23.2700	  539.00	  548.97	-1749.22	  428.66
     23.3700	  578.00	  548.81	-1710.06	  428.34
     23.4700	  594.00	  548.68	-1693.93	  428.01
     23.5700	  538.00	  548.60	-1749.85	  427.69
     23.6700	  579.00	  548.72	-1708.97	  427.36
     23.7700	  526.00	  548.82	-1762.07	  427.04
     23.8700	  596.00	  549.14	-1692.39	  426.71
     23.9700	  559.00	  549.89	-1730.14	  426.39
     24.0700	  524.00	  551.48	-1766.73	  426.06
     24.1700	  552.00	  554.53	-1741.78	  425.74
     24.2700	  557.00	  559.83	-1742.08	  425.41
     24.3700	  618.00	  568.27	-1689.52	  425.08
     24.4700	  567.00	  580.74	-1752.99	  424.76
     24.5700	  633.00	  597.29	-1703.54	  424.43
     24.6700	  556.00	  615.15	-1798.40	  424.10
     24.7700	  598.00	  627.08	-1768.33	  423.78
     24.8700	  625.00	  623.66	-1737.91	  423.45
     24.9700	  643.00	  604.19	-1700.44	  423.12
     25.0700	  589.00	  580.96	-1731.21	  422.80
     25.1700	  615.00	  563.54	-1687.79	  422.47
     25.2700	  556.00	  553.57	-1736.82	  422.14
     25.3700	  559.00	  548.76	-1729.01	  421.82
     25.4700	  531.00	  546.51	-1754.76	  421.49
     25.5700	  560.00	  545.30	-1724.55	  421.16
     25.6700	  559.00	  544.51	-1724.76	  420.84
     25.7700	  549.00	  543.92	-1734.17	  420.51
     25.8700	  564.00	  543.48	-1718.73	  420.19
     25.9700	  560.00	  543.13	-1722.38	  419.86
     26.0700	  538.00	  542.87	-1744.12	  419.54
     26.1700	  558.00	  542.69	-1723.94	  419.21
     26.2700	  553.00	  542.58	-1728.83	  418.89
     26.3700	  533.00	  542.54	-1748.79	  418.56
     26.4700	  556.00	  542.58	-1725.83	  418.24
     26.5700	  565.00	  542.71	-1716.96	  417.92
     26.6700	  581.00	  542.95	-1701.20	  417.59
     26.7700	  521.00	  543.32	-1761.57	  417.27
     26.8700	  536.00	  543.86	-1747.11	  416.95
     26.9700	  586.00	  544.60	-1697.85	  416.62
     27.0700	  556.00	  545.63	-1728.88	  416.30
     27.1700	  580.00	  547.07	-1706.32	  415.98
     27.2700	  543.00	  549.16	-1745.41	  415.66
     27.3700	  547.00	  552.39	-1744.64	  415.34
     27.4700	  598.00	  557.70	-1698.95	  415.02
     27.5700	  518.00	  566.81	-1788.06	  414.70
     27.6700	  540.00	  582.44	-1781.69	  414.39
     27.7700	  528.00	  608.09	-1819.34	  414.07
     27.8700	  567.00	  646.84	-1819.09	  413.75
     27.9700	  642.00	  698.82	-1796.07	  413.43
     28.0700	  754.00	  757.95	-1743.20	  413.12
     28.1700	  863.00	  809.06	-1685.31	  412.80
     28.2700	  956.00	  829.55	-1612.80	  412.49
     28.3700	  920.00	  806.70	-1625.95	  412.17
     28.4700	  749.00	  762.57	-1752.82	  411.86
     28.5700	  701.00	  731.84	-1770.09	  411.55
     28.6700	  706.00	  729.83	-1763.08	  411.24
     28.7700	  697.00	  751.56	-1793.81	  410.93
     28.8700	  836.00	  777.62	-1680.87	  410.62
     28.9700	  759.00	  781.16	-1761.41	  410.31
     29.0700	  741.00	  745.83	-1744.08	  410.00
     29.1700	  721.00	  686.98	-1705.23	  409.69
     29.2700	  611.00	  631.46	-1759.71	  409.39
     29.3700	  607.00	  591.70	-1723.95	  409.08
     29.4700	  570.00	  567.84	-1737.09	  408.77
     29.5700	  639.00	  555.01	-1655.26	  408.47
     29.6700	  578.00	  548.24	-1709.49	  408.17
     29.7700	  570.00	  544.37	-1713.62	  407.87
     29.8700	  588.00	  541.94	-1693.19	  407.56
     29.9700	  598.00	  540.36	-1681.61	  407.26
     30.0700	  526.00	  539.51	-1752.76	  406.96
     30.1700	  605.00	  539.51	-1673.76	  406.67
     30.2700	  559.00	  540.83	-1721.08	  406.37
     30.3700	  584.00	  544.38	-1699.63	  406.07
     30.4700	  588.00	  551.53	-1702.78	  405.78
     30.5700	  575.00	  563.70	-1727.95	  405.48
     30.6700	  536.00	  581.25	-1784.50	  405.19
     30.7700	  611.00	  601.92	-1730.17	  404.90
     30.8700	  612.00	  619.75	-1747.00	  404.61
     30.9700	  588.00	  625.74	-1776.99	  404.32
     31.0700	  623.00	  613.88	-1730.13	  404.03
     31.1700	  574.00	  590.47	-1755.72	  403.74
     31.2700	  506.00	  567.18	-1800.43	  403.46
     31.3700	  580.00	  550.05	-1709.30	  403.17
     31.4700	  567.00	  539.65	-1711.90	  402.89
     31.5700	  537.00	  534.09	-1736.34	  402.60
     31.6700	  517.00	  531.21	-1753.46	  402.32
     31.7700	  551.00	  529.62	-1717.87	  402.04
     31.8700	  578.00	  528.61	-1689.86	  401.76
     31.9700	  533.00	  527.91	-1734.16	  401.48
     32.0700	  525.00	  527.42	-1741.67	  401.21
     32.1700	  546.00	  527.10	-1720.35	  400.93
     32.2700	  563.00	  526.93	-1703.18	  400.66
     32.3700	  539.00	  526.90	-1727.15	  400.39
     32.4700	  556.00	  527.02	-1710.27	  400.11
     32.5700	  550.00	  527.30	-1716.55	  399.84
     32.6700	  575.00	  527.79	-1692.04	  399.57
     32.7700	  510.00	  528.52	-1757.77	  399.31
     32.8700	  534.00	  529.57	-1734.82	  399.04
     32.9700	  548.00	  531.05	-1722.30	  398.78
     33.0700	  532.00	  533.20	-1740.45	  398.51
     33.1700	  541.00	  536.48	-1734.73	  398.25
     33.2700	  538.00	  542.00	-1743.25	  397.99
     33.3700	  528.00	  552.09	-1763.34	  397.73
     33.4700	  566.00	  571.22	-1744.47	  397.47
     33.5700	  577.00	  606.44	-1768.69	  397.22
     33.6700	  654.00	  665.68	-1750.93	  396.96
     33.7700	  740.00	  752.24	-1751.49	  396.71
     33.8700	  877.00	  856.41	-1718.66	  396.45
     33.9700	 1044.00	  950.02	-1645.27	  396.20
     34.0700	 1055.00	  990.27	-1674.52	  395.95
     34.1700	 1011.00	  946.39	-1674.64	  395.71
     34.2700	  882.00	  841.27	-1698.52	  395.46
     34.3700	  732.00	  728.79	-1736.04	  395.22
     34.4700	  661.00	  641.80	-1720.05	  394.97
     34.5700	  566.00	  587.01	-1760.26	  394.73
     34.6700	  583.00	  557.22	-1713.47	  394.49
     34.7700	  535.00	  542.18	-1746.43	  394.25
     34.8700	  559.00	  534.31	-1714.56	  394.01
     34.9700	  539.00	  529.60	-1729.85	  393.78
     35.0700	  521.00	  526.35	-1744.60	  393.54
     35.1700	  555.00	  523.91	-1708.16	  393.31
     35.2700	  551.00	  521.98	-1710.23	  393.08
     35.3700	  528.00	  520.40	-1731.65	  392.85
     35.4700	  573.00	  519.09	-1685.34	  392.62
     35.5700	  517.00	  517.98	-1740.23	  392.40
     35.6700	  487.00	  517.04	-1769.29	  392.17
     35.7700	  505.00	  516.21	-1750.46	  391.95
     35.8700	  530.00	  515.49	-1724.74	  391.73
     35.9700	  536.00	  514.84	-1718.09	  391.51
     36.0700	  523.00	  514.73	-1730.98	  391.29
     36.1700	  533.00	  514.22	-1720.47	  391.07
     36.2700	  519.00	  513.75	-1734.00	  390.86
     36.3700	  484.00	  513.33	-1768.58	  390.64
     36.4700	  533.00	  512.95	-1719.20	  390.43
     36.5700	  508.00	  512.60	-1743.85	  390.22
     36.6700	  494.00	  512.30	-1757.55	  390.01
     36.7700	  520.00	  512.03	-1731.28	  389.81
     36.8700	  492.00	  511.84	-1759.09	  389.60
     36.9700	  505.00	  511.76	-1746.01	  389.40
     37.0700	  523.00	  511.92	-1728.17	  389.20
     37.1700	  538.00	  512.52	-1713.77	  389.00
     37.2700	  528.00	  513.87	-1725.12	  388.80
     37.3700	  523.00	  516.25	-1732.50	  388.60
     37.4700	  543.00	  519.63	-1715.88	  388.41
     37.5700	  522.00	  523.34	-1740.59	  388.21
     37.6700	  497.00	  526.07	-1768.32	  388.02
     37.7700	  524.00	  526.40	-1741.65	  387.83
     37.8700	  558.00	  524.08	-1705.33	  387.64
     37.9700	  537.00	  520.45	-1722.70	  387.46
     38.0700	  502.00	  516.83	-1754.08	  387.27
     38.1700	  516.00	  513.78	-1737.03	  387.09
     38.2700	  518.00	  511.47	-1732.72	  386.91
     38.3700	  481.00	  509.86	-1768.11	  386.73
     38.4700	  482.00	  508.79	-1766.04	  386.55
     38.5700	  478.00	  508.09	-1769.34	  386.38
     38.6700	  513.00	  507.52	-1733.77	  386.20
     38.7700	  511.00	  507.17	-1735.42	  386.03
     38.8700	  509.00	  506.90	-1737.15	  385.86
     38.9700	  525.00	  506.66	-1720.91	  385.69
     39.0700	  548.00	  506.45	-1697.70	  385.52
     39.1700	  503.00	  506.18	-1742.43	  385.36
     39.2700	  505.00	  506.00	-1740.25	  385.19
     39.3700	  493.00	  505.83	-1752.08	  385.03
     39.4700	  452.00	  505.80	-1793.05	  384.87
     39.5700	  519.00	  505.66	-1725.91	  384.71
     39.6700	  518.00	  505.52	-1726.77	  384.56
     39.7700	  554.00	  505.39	-1690.64	  384.40
     39.8700	  539.00	  505.27	-1705.52	  384.25
     39.9700	  503.00	  505.17	-1741.42	  384.10
     40.0700	  511.00	  505.07	-1733.32	  383.95
     40.1700	  487.00	  504.98	-1757.23	  383.80
     40.2700	  496.00	  504.90	-1748.15	  383.66
     40.3700	  511.00	  504.83	-1733.08	  383.51
     40.4700	  483.00	  504.78	-1761.03	  383.37
     40.5700	  487.00	  504.74	-1756.99	  383.23
     40.6700	  513.00	  504.72	-1730.97	  383.09
     40.7700	  480.00	  504.72	-1763.97	  382.96
