MSG Master    CELL:    5.91925   5.91925  23.27623   90.0000   90.0000  120.0000   SPGR: P 63/m m c             TEMP:   1074.85
  1   1280     2.52000     0.00000    -0.12567     0.00000     0.00000    0
    99     0     2
       0.00000      10.00000
     125.00000     130.00000
 2Theta	Yobs	Ycal	Yobs-Ycal	Backg	Posr	(hkl)	K
      0.7700	    0.00	  531.67	-1757.25	  414.09
      0.8700	    0.00	  532.60	-1757.25	  415.01
      0.9700	   40.00	  533.51	-1757.25	  415.92
      1.0700	   43.00	  534.41	-1757.25	  416.82
      1.1700	   33.00	  535.29	-1757.25	  417.71
      1.2700	   39.00	  536.17	-1757.25	  418.58
      1.3700	   50.00	  537.03	-1757.25	  419.44
      1.4700	   87.00	  537.88	-1757.25	  420.29
      1.5700	  307.00	  538.71	-1757.25	  421.13
      1.6700	  418.00	  539.54	-1757.25	  421.96
      1.7700	  576.00	  540.35	-1757.25	  422.77
      1.8700	  638.00	  541.16	-1757.25	  423.57
      1.9700	  734.00	  541.95	-1757.25	  424.36
      2.0700	  790.00	  542.72	-1757.25	  425.14
      2.1700	  819.00	  543.49	-1757.25	  425.91
      2.2700	  713.00	  544.25	-1757.25	  426.66
      2.3700	  712.00	  544.99	-1757.25	  427.41
      2.4700	  711.00	  545.72	-1757.25	  428.14
      2.5700	  669.00	  546.44	-1757.25	  428.86
      2.6700	  665.00	  547.15	-1757.25	  429.57
      2.7700	  686.00	  547.85	-1757.25	  430.27
      2.8700	  640.00	  548.54	-1757.25	  430.96
      2.9700	  685.00	  549.22	-1757.25	  431.63
      3.0700	  583.00	  549.88	-1757.25	  432.30
      3.1700	  587.00	  550.54	-1757.25	  432.95
      3.2700	  643.00	  551.18	-1757.25	  433.60
      3.3700	  690.00	  551.82	-1757.25	  434.23
      3.4700	  717.00	  552.44	-1757.25	  434.86
      3.5700	  848.00	  553.05	-1757.25	  435.47
      3.6700	  892.00	  553.65	-1757.25	  436.07
      3.7700	  904.00	  554.25	-1757.25	  436.66
      3.8700	  917.00	  554.83	-1757.25	  437.24
      3.9700	 1052.00	  555.40	-1757.25	  437.82
      4.0700	 1035.00	  555.96	-1757.25	  438.38
      4.1700	 1104.00	  556.51	-1757.25	  438.93
      4.2700	 1113.00	  557.05	-1757.25	  439.47
      4.3700	 1089.00	  557.58	-1757.25	  440.00
      4.4700	 1031.00	  558.11	-1757.25	  440.52
      4.5700	 1044.00	  558.62	-1757.25	  441.03
      4.6700	 1001.00	  559.12	-1757.25	  441.54
      4.7700	 1031.00	  559.61	-1757.25	  442.03
      4.8700	  938.00	  560.09	-1757.25	  442.51
      4.9700	  981.00	  560.57	-1757.25	  442.98
      5.0700	  934.00	  561.03	-1757.25	  443.45
      5.1700	  955.00	  561.49	-1757.25	  443.90
      5.2700	  955.00	  561.93	-1757.25	  444.35
      5.3700	  913.00	  562.37	-1757.25	  444.78
      5.4700	  890.00	  562.79	-1757.25	  445.21
      5.5700	  842.00	  563.21	-1757.25	  445.63
      5.6700	  852.00	  563.62	-1757.25	  446.04
      5.7700	  801.00	  564.02	-1757.25	  446.44
      5.8700	  855.00	  564.41	-1757.25	  446.83
      5.9700	  761.00	  564.79	-1757.25	  447.21
      6.0700	  772.00	  565.17	-1757.25	  447.58
      6.1700	  765.00	  565.53	-1757.25	  447.95
      6.2700	  813.00	  565.89	-1757.25	  448.31
      6.3700	  782.00	  566.24	-1757.25	  448.65
      6.4700	  763.00	  566.58	-1757.25	  448.99
      6.5700	  760.00	  566.91	-1757.25	  449.32
      6.6700	  749.00	  567.23	-1757.25	  449.65
      6.7700	  755.00	  567.55	-1757.25	  449.96
      6.8700	  757.00	  567.85	-1757.25	  450.27
      6.9700	  726.00	  568.15	-1757.25	  450.57
      7.0700	  681.00	  568.44	-1757.25	  450.86
      7.1700	  663.00	  568.72	-1757.25	  451.14
      7.2700	  633.00	  569.00	-1757.25	  451.41
      7.3700	  645.00	  569.26	-1757.25	  451.68
      7.4700	  666.00	  569.52	-1757.25	  451.94
      7.5700	  626.00	  569.77	-1757.25	  452.19
      7.6700	  634.00	  570.02	-1757.25	  452.43
      7.7700	  648.00	  570.25	-1757.25	  452.67
      7.8700	  624.00	  570.48	-1757.25	  452.90
      7.9700	  622.00	  570.70	-1757.25	  453.12
      8.0700	  645.00	  570.91	-1757.25	  453.33
      8.1700	  615.00	  571.12	-1757.25	  453.54
      8.2700	  633.00	  571.32	-1757.25	  453.73
      8.3700	  639.00	  571.51	-1757.25	  453.93
      8.4700	  568.00	  571.69	-1757.25	  454.11
      8.5700	  618.00	  571.87	-1757.25	  454.29
      8.6700	  621.00	  572.04	-1757.25	  454.46
      8.7700	  637.00	  572.20	-1757.25	  454.62
      8.8700	  640.00	  572.36	-1757.25	  454.78
      8.9700	  613.00	  572.51	-1757.25	  454.93
      9.0700	  596.00	  572.65	-1757.25	  455.07
      9.1700	  607.00	  572.79	-1757.25	  455.20
      9.2700	  570.00	  572.92	-1757.25	  455.33
      9.3700	  576.00	  573.04	-1757.25	  455.46
      9.4700	  663.00	  573.16	-1757.25	  455.57
      9.5700	  579.00	  573.27	-1757.25	  455.68
      9.6700	  591.00	  573.37	-1757.25	  455.79
      9.7700	  594.00	  573.47	-1757.25	  455.88
      9.8700	  619.00	  573.56	-1757.25	  455.97
      9.9700	  552.00	  573.64	-1757.25	  456.06
     10.0700	  601.00	  574.60	-1730.85	  456.13
     10.1700	  633.00	  574.76	-1699.01	  456.21
     10.2700	  583.00	  574.95	-1749.20	  456.27
     10.3700	  585.00	  575.16	-1747.41	  456.33
     10.4700	  586.00	  575.43	-1746.68	  456.39
     10.5700	  626.00	  575.82	-1707.07	  456.43
     10.6700	  547.00	  576.41	-1786.66	  456.48
     10.7700	  610.00	  577.32	-1724.57	  456.51
     10.8700	  573.00	  578.60	-1762.85	  456.54
     10.9700	  598.00	  580.26	-1739.51	  456.57
     11.0700	  593.00	  582.27	-1746.52	  456.59
     11.1700	  594.00	  584.62	-1747.87	  456.60
     11.2700	  603.00	  587.34	-1741.59	  456.61
     11.3700	  618.00	  590.53	-1729.78	  456.61
     11.4700	  594.00	  594.30	-1757.55	  456.61
     11.5700	  595.00	  598.87	-1761.12	  456.60
     11.6700	  597.00	  604.58	-1764.83	  456.59
     11.7700	  638.00	  612.03	-1731.28	  456.57
     11.8700	  617.00	  622.05	-1762.30	  456.54
     11.9700	  645.00	  635.06	-1747.31	  456.51
     12.0700	  679.00	  649.33	-1727.58	  456.48
     12.1700	  707.00	  659.03	-1709.28	  456.44
     12.2700	  712.00	  655.35	-1700.60	  456.40
     12.3700	  665.00	  635.93	-1728.18	  456.35
     12.4700	  577.00	  612.37	-1792.62	  456.29
     12.5700	  615.00	  594.87	-1737.12	  456.23
     12.6700	  604.00	  585.05	-1738.30	  456.17
     12.7700	  538.00	  580.40	-1799.65	  456.10
     12.8700	  573.00	  578.24	-1762.49	  456.03
     12.9700	  619.00	  577.07	-1715.32	  455.95
     13.0700	  545.00	  576.29	-1788.54	  455.87
     13.1700	  563.00	  575.72	-1769.97	  455.78
     13.2700	  584.00	  575.26	-1748.51	  455.69
     13.3700	  566.00	  574.88	-1766.13	  455.59
     13.4700	  540.00	  574.56	-1791.81	  455.49
     13.5700	  504.00	  574.28	-1827.53	  455.39
     13.6700	  543.00	  574.03	-1788.28	  455.28
     13.7700	  556.00	  573.79	-1775.04	  455.17
     13.8700	  574.00	  573.58	-1756.83	  455.05
     13.9700	  592.00	  573.38	-1738.62	  454.93
     14.0700	  555.00	  573.18	-1775.43	  454.80
     14.1700	  535.00	  572.99	-1795.24	  454.67
     14.2700	  581.00	  572.80	-1749.05	  454.54
     14.3700	  522.00	  572.62	-1807.87	  454.40
     14.4700	  599.00	  572.44	-1730.69	  454.26
     14.5700	  524.00	  572.26	-1805.51	  454.12
     14.6700	  534.00	  572.08	-1795.33	  453.97
     14.7700	  591.00	  571.90	-1738.15	  453.81
     14.8700	  589.00	  571.72	-1739.97	  453.66
     14.9700	  548.00	  571.54	-1780.79	  453.50
     15.0700	  562.00	  571.35	-1766.60	  453.33
     15.1700	  542.00	  571.17	-1786.42	  453.17
     15.2700	  542.00	  570.98	-1786.23	  453.00
     15.3700	  575.00	  570.79	-1753.04	  452.82
     15.4700	  530.00	  570.60	-1797.85	  452.64
     15.5700	  582.00	  570.41	-1745.66	  452.46
     15.6700	  594.00	  570.21	-1733.46	  452.28
     15.7700	  555.00	  570.01	-1772.26	  452.09
     15.8700	  629.00	  569.84	-1698.09	  451.90
     15.9700	  571.00	  569.64	-1755.89	  451.71
     16.0700	  586.00	  569.44	-1740.69	  451.51
     16.1700	  523.00	  569.23	-1803.48	  451.31
     16.2700	  591.00	  569.02	-1735.27	  451.10
     16.3700	  562.00	  568.81	-1764.06	  450.90
     16.4700	  560.00	  568.59	-1765.84	  450.69
     16.5700	  556.00	  568.37	-1769.62	  450.47
     16.6700	  614.00	  568.15	-1711.40	  450.26
     16.7700	  555.00	  567.93	-1770.18	  450.04
     16.8700	  577.00	  567.71	-1747.96	  449.82
     16.9700	  590.00	  567.48	-1734.73	  449.60
     17.0700	  541.00	  567.25	-1783.50	  449.37
     17.1700	  610.00	  567.02	-1714.27	  449.14
     17.2700	  567.00	  566.78	-1757.03	  448.91
     17.3700	  561.00	  566.54	-1762.79	  448.67
     17.4700	  556.00	  566.31	-1767.56	  448.43
     17.5700	  567.00	  566.06	-1756.31	  448.19
     17.6700	  566.00	  565.82	-1757.07	  447.95
     17.7700	  508.00	  565.57	-1814.82	  447.71
     17.8700	  566.00	  565.32	-1756.57	  447.46
     17.9700	  596.00	  565.18	-1726.43	  447.21
     18.0700	  510.00	  564.93	-1812.18	  446.96
     18.1700	  505.00	  564.67	-1816.92	  446.70
     18.2700	  554.00	  564.42	-1767.67	  446.45
     18.3700	  592.00	  564.16	-1729.41	  446.19
     18.4700	  549.00	  563.90	-1772.15	  445.93
     18.5700	  545.00	  563.64	-1775.89	  445.66
     18.6700	  566.00	  563.38	-1754.63	  445.40
     18.7700	  543.00	  563.19	-1777.44	  445.13
     18.8700	  536.00	  562.93	-1784.18	  444.86
     18.9700	  527.00	  562.66	-1792.91	  444.59
     19.0700	  588.00	  562.39	-1731.64	  444.31
     19.1700	  554.00	  562.12	-1765.37	  444.04
     19.2700	  573.00	  561.85	-1746.10	  443.76
     19.3700	  555.00	  561.58	-1763.83	  443.48
     19.4700	  529.00	  561.31	-1789.56	  443.20
     19.5700	  526.00	  561.03	-1792.28	  442.92
     19.6700	  533.00	  560.75	-1785.00	  442.63
     19.7700	  572.00	  560.48	-1745.73	  442.35
     19.8700	  589.00	  560.20	-1728.45	  442.06
     19.9700	  556.00	  559.92	-1761.17	  441.77
     20.0700	  565.00	  559.63	-1751.88	  441.48
     20.1700	  570.00	  559.35	-1746.60	  441.18
     20.2700	  559.00	  559.07	-1757.32	  440.89
     20.3700	  519.00	  558.78	-1797.03	  440.59
     20.4700	  544.00	  558.50	-1771.75	  440.30
     20.5700	  542.00	  558.21	-1773.46	  440.00
     20.6700	  599.00	  557.92	-1716.17	  439.70
     20.7700	  535.00	  557.67	-1779.92	  439.40
     20.8700	  553.00	  557.38	-1761.63	  439.09
     20.9700	  548.00	  557.06	-1766.31	  438.79
     21.0700	  536.00	  556.77	-1778.02	  438.48
     21.1700	  557.00	  556.49	-1756.74	  438.18
     21.2700	  572.00	  556.20	-1741.45	  437.87
     21.3700	  522.00	  555.91	-1791.16	  437.56
     21.4700	  574.00	  555.62	-1738.87	  437.25
     21.5700	  549.00	  555.34	-1763.59	  436.94
     21.6700	  555.00	  555.05	-1757.30	  436.62
     21.7700	  509.00	  554.77	-1803.02	  436.31
     21.8700	  565.00	  554.48	-1746.73	  436.00
     21.9700	  568.00	  554.20	-1743.45	  435.68
     22.0700	  519.00	  553.92	-1792.17	  435.36
     22.1700	  552.00	  553.65	-1758.90	  435.05
     22.2700	  549.00	  553.37	-1761.62	  434.73
     22.3700	  549.00	  553.10	-1761.35	  434.41
     22.4700	  530.00	  552.83	-1780.08	  434.09
     22.5700	  559.00	  552.57	-1750.82	  433.77
     22.6700	  551.00	  552.32	-1758.57	  433.45
     22.7700	  572.00	  552.07	-1737.32	  433.12
     22.8700	  543.00	  551.83	-1766.08	  432.80
     22.9700	  520.00	  551.60	-1788.85	  432.48
     23.0700	  549.00	  551.39	-1759.64	  432.15
     23.1700	  557.00	  551.19	-1751.44	  431.83
     23.2700	  593.00	  551.02	-1715.27	  431.50
     23.3700	  518.00	  550.87	-1790.12	  431.17
     23.4700	  585.00	  550.77	-1723.02	  430.85
     23.5700	  583.00	  550.85	-1725.10	  430.52
     23.6700	  564.00	  550.88	-1744.13	  430.19
     23.7700	  545.00	  551.04	-1763.29	  429.86
     23.8700	  575.00	  551.44	-1733.69	  429.53
     23.9700	  532.00	  552.32	-1777.57	  429.20
     24.0700	  546.00	  554.13	-1765.38	  428.87
     24.1700	  543.00	  557.52	-1771.77	  428.54
     24.2700	  527.00	  563.34	-1793.59	  428.21
     24.3700	  577.00	  572.54	-1752.79	  427.88
     24.4700	  588.00	  586.00	-1755.25	  427.55
     24.5700	  623.00	  603.66	-1737.91	  427.22
     24.6700	  631.00	  622.47	-1748.72	  426.89
     24.7700	  670.00	  634.83	-1722.08	  426.56
     24.8700	  668.00	  631.03	-1720.28	  426.23
     24.9700	  599.00	  610.50	-1768.75	  425.89
     25.0700	  622.00	  586.03	-1721.28	  425.56
     25.1700	  566.00	  567.54	-1758.79	  425.23
     25.2700	  545.00	  556.78	-1769.03	  424.90
     25.3700	  537.00	  551.49	-1771.74	  424.56
     25.4700	  564.00	  548.98	-1742.23	  424.23
     25.5700	  565.00	  547.63	-1739.88	  423.90
     25.6700	  564.00	  546.75	-1740.00	  423.57
     25.7700	  564.00	  546.11	-1739.36	  423.23
     25.8700	  531.00	  545.62	-1771.87	  422.90
     25.9700	  580.00	  545.25	-1722.50	  422.57
     26.0700	  556.00	  544.97	-1746.22	  422.24
     26.1700	  566.00	  544.77	-1736.02	  421.91
     26.2700	  579.00	  544.66	-1722.91	  421.57
     26.3700	  566.00	  544.62	-1735.87	  421.24
     26.4700	  582.00	  544.67	-1719.92	  420.91
     26.5700	  622.00	  544.81	-1680.06	  420.58
     26.6700	  536.00	  545.07	-1766.32	  420.25
     26.7700	  567.00	  545.47	-1735.72	  419.92
     26.8700	  530.00	  546.04	-1773.29	  419.59
     26.9700	  537.00	  546.84	-1767.09	  419.26
     27.0700	  603.00	  547.94	-1702.19	  418.93
     27.1700	  523.00	  549.47	-1783.72	  418.60
     27.2700	  544.00	  551.69	-1764.94	  418.27
     27.3700	  562.00	  555.10	-1750.35	  417.94
     27.4700	  571.00	  560.66	-1746.91	  417.61
     27.5700	  568.00	  570.13	-1759.38	  417.28
     27.6700	  619.00	  586.25	-1724.50	  416.96
     27.7700	  582.00	  612.54	-1787.79	  416.63
     27.8700	  609.00	  652.03	-1800.28	  416.30
     27.9700	  664.00	  704.78	-1798.03	  415.98
     28.0700	  747.00	  764.72	-1774.97	  415.65
     28.1700	  901.00	  816.81	-1673.06	  415.33
     28.2700	  968.00	  838.53	-1627.78	  415.00
     28.3700	  868.00	  816.65	-1705.90	  414.68
     28.4700	  793.00	  772.22	-1736.47	  414.36
     28.5700	  718.00	  739.98	-1779.23	  414.03
     28.6700	  711.00	  735.80	-1782.05	  413.71
     28.7700	  716.00	  755.33	-1796.58	  413.39
     28.8700	  759.00	  779.90	-1778.15	  413.07
     28.9700	  829.00	  783.37	-1711.62	  412.75
     29.0700	  777.00	  749.17	-1729.42	  412.43
     29.1700	  659.00	  691.36	-1789.61	  412.12
     29.2700	  639.00	  636.09	-1754.34	  411.80
     29.3700	  636.00	  595.94	-1717.19	  411.48
     29.4700	  655.00	  571.41	-1673.66	  411.17
     29.5700	  579.00	  557.96	-1736.21	  410.85
     29.6700	  599.00	  550.76	-1709.01	  410.54
     29.7700	  601.00	  546.63	-1702.88	  410.22
     29.8700	  593.00	  544.02	-1708.27	  409.91
     29.9700	  605.00	  542.31	-1694.56	  409.60
     30.0700	  565.00	  541.35	-1733.60	  409.29
     30.1700	  575.00	  541.25	-1723.50	  408.98
     30.2700	  557.00	  542.44	-1742.69	  408.67
     30.3700	  556.00	  545.76	-1747.01	  408.36
     30.4700	  561.00	  552.47	-1748.72	  408.06
     30.5700	  545.00	  563.88	-1776.13	  407.75
     30.6700	  580.00	  580.25	-1757.50	  407.44
     30.7700	  589.00	  599.49	-1767.74	  407.14
     30.8700	  636.00	  616.16	-1737.41	  406.84
     30.9700	  640.00	  621.87	-1739.12	  406.54
     31.0700	  585.00	  611.08	-1783.33	  406.24
     31.1700	  565.00	  589.33	-1781.58	  405.94
     31.2700	  553.00	  567.41	-1771.66	  405.64
     31.3700	  522.00	  551.06	-1786.31	  405.34
     31.4700	  529.00	  540.96	-1769.21	  405.04
     31.5700	  552.00	  535.44	-1740.69	  404.75
     31.6700	  534.00	  532.54	-1755.79	  404.45
     31.7700	  558.00	  530.91	-1730.16	  404.16
     31.8700	  502.00	  529.88	-1785.13	  403.87
     31.9700	  542.00	  529.17	-1744.42	  403.58
     32.0700	  543.00	  528.66	-1742.91	  403.29
     32.1700	  521.00	  528.33	-1764.58	  403.00
     32.2700	  573.00	  528.14	-1712.39	  402.71
     32.3700	  538.00	  528.09	-1747.34	  402.43
     32.4700	  549.00	  528.20	-1736.45	  402.14
     32.5700	  538.00	  528.48	-1747.73	  401.86
     32.6700	  543.00	  528.95	-1743.20	  401.58
     32.7700	  557.00	  529.67	-1729.92	  401.30
     32.8700	  539.00	  530.71	-1748.96	  401.02
     32.9700	  585.00	  532.18	-1704.44	  400.74
     33.0700	  510.00	  534.33	-1781.58	  400.46
     33.1700	  564.00	  537.61	-1730.86	  400.19
     33.2700	  534.00	  543.11	-1766.36	  399.91
     33.3700	  557.00	  553.09	-1753.34	  399.64
     33.4700	  554.00	  571.81	-1775.06	  399.37
     33.5700	  572.00	  605.87	-1791.12	  399.10
     33.6700	  657.00	  662.53	-1762.78	  398.83
     33.7700	  756.00	  744.64	-1745.89	  398.56
     33.8700	  891.00	  842.86	-1709.11	  398.30
     33.9700	  987.00	  931.01	-1701.26	  398.03
     34.0700	 1041.00	  969.31	-1685.56	  397.77
     34.1700	 1004.00	  928.84	-1682.09	  397.51
     34.2700	  846.00	  830.38	-1741.63	  397.25
     34.3700	  740.00	  724.10	-1741.35	  396.99
     34.4700	  648.00	  641.01	-1750.26	  396.73
     34.5700	  646.00	  587.87	-1699.12	  396.48
     34.6700	  544.00	  558.45	-1771.70	  396.22
     34.7700	  568.00	  543.32	-1732.57	  395.97
     34.8700	  546.00	  535.32	-1746.57	  395.72
     34.9700	  449.00	  530.55	-1838.80	  395.47
     35.0700	  557.00	  527.25	-1727.50	  395.22
     35.1700	  504.00	  524.76	-1778.01	  394.97
     35.2700	  522.00	  522.79	-1758.04	  394.73
     35.3700	  509.00	  521.19	-1769.44	  394.48
     35.4700	  497.00	  519.86	-1780.11	  394.24
     35.5700	  495.00	  518.74	-1780.99	  394.00
     35.6700	  529.00	  517.77	-1746.02	  393.76
     35.7700	  536.00	  516.93	-1738.18	  393.53
     35.8700	  532.00	  516.19	-1741.44	  393.29
     35.9700	  505.00	  515.99	-1768.24	  393.06
     36.0700	  514.00	  515.41	-1758.66	  392.82
     36.1700	  530.00	  514.88	-1742.13	  392.59
     36.2700	  539.00	  514.41	-1732.66	  392.36
     36.3700	  525.00	  513.97	-1746.22	  392.14
     36.4700	  521.00	  513.58	-1749.83	  391.91
     36.5700	  518.00	  513.24	-1752.49	  391.69
     36.6700	  506.00	  512.93	-1764.18	  391.46
     36.7700	  498.00	  512.68	-1771.93	  391.24
     36.8700	  548.00	  512.51	-1721.76	  391.02
     36.9700	  505.00	  512.48	-1764.73	  390.80
     37.0700	  521.00	  512.75	-1749.00	  390.59
     37.1700	  500.00	  513.56	-1770.81	  390.37
     37.2700	  506.00	  515.29	-1766.54	  390.16
     37.3700	  522.00	  518.23	-1753.48	  389.95
     37.4700	  541.00	  522.28	-1738.53	  389.74
     37.5700	  526.00	  526.61	-1757.86	  389.53
     37.6700	  517.00	  529.62	-1769.86	  389.33
     37.7700	  565.00	  529.61	-1721.86	  389.12
     37.8700	  517.00	  526.42	-1766.67	  388.92
     37.9700	  512.00	  521.80	-1767.05	  388.72
     38.0700	  494.00	  517.41	-1780.66	  388.52
     38.1700	  525.00	  513.97	-1746.22	  388.32
     38.2700	  529.00	  511.57	-1739.82	  388.13
     38.3700	  500.00	  510.00	-1767.25	  387.94
     38.4700	  507.00	  509.01	-1759.26	  387.74
     38.5700	  540.00	  508.35	-1725.60	  387.55
     38.6700	  504.00	  507.79	-1761.04	  387.36
     38.7700	  497.00	  507.44	-1767.69	  387.18
     38.8700	  510.00	  507.15	-1754.40	  386.99
     38.9700	  524.00	  506.89	-1740.14	  386.81
     39.0700	  520.00	  506.66	-1743.91	  386.63
     39.1700	  510.00	  506.37	-1753.62	  386.45
     39.2700	  527.00	  506.17	-1736.42	  386.27
     39.3700	  495.00	  506.13	-1768.38	  386.09
     39.4700	  533.00	  505.96	-1730.21	  385.92
     39.5700	  554.00	  505.79	-1709.04	  385.75
     39.6700	  546.00	  505.64	-1716.89	  385.58
     39.7700	  523.00	  505.50	-1739.75	  385.41
     39.8700	  538.00	  505.36	-1724.61	  385.24
     39.9700	  493.00	  505.24	-1769.49	  385.08
     40.0700	  479.00	  505.12	-1783.37	  384.91
     40.1700	  538.00	  505.02	-1724.27	  384.75
     40.2700	  550.00	  504.93	-1712.18	  384.59
     40.3700	  513.00	  504.85	-1749.10	  384.43
     40.4700	  547.00	  504.78	-1715.03	  384.28
     40.5700	  502.00	  504.73	-1759.98	  384.12
     40.6700	  484.00	  504.70	-1777.95	  383.97
     40.7700	  480.00	  504.69	-1781.94	  383.82
