MSG Master    CELL:    5.87727   5.87727  23.07797   90.0000   90.0000  120.0000   SPGR: P 63/m m c             TEMP:    458.35
  2   1280     2.52000     0.00000    -0.08561     0.00000     0.00000    0
    95    95     0     0     2
       0.00000      10.00000
     125.00000     130.00000
 2Theta	Yobs	Ycal	Yobs-Ycal	Backg	Posr	(hkl)	K
      0.7700	    0.00	  974.91	-2273.25	  836.03
      0.8700	    0.00	  971.59	-2273.25	  832.71
      0.9700	   40.00	  968.28	-2273.25	  829.40
      1.0700	   54.00	  965.00	-2273.25	  826.12
      1.1700	   45.00	  961.74	-2273.25	  822.86
      1.2700	   46.00	  958.50	-2273.25	  819.62
      1.3700	   42.00	  955.28	-2273.25	  816.40
      1.4700	  104.00	  952.08	-2273.25	  813.20
      1.5700	  274.00	  948.90	-2273.25	  810.02
      1.6700	  482.00	  945.74	-2273.25	  806.86
      1.7700	  575.00	  942.61	-2273.25	  803.73
      1.8700	  603.00	  939.49	-2273.25	  800.61
      1.9700	  767.00	  936.39	-2273.25	  797.51
      2.0700	  739.00	  933.32	-2273.25	  794.44
      2.1700	  760.00	  930.26	-2273.25	  791.38
      2.2700	  752.00	  927.22	-2273.25	  788.34
      2.3700	  736.00	  924.21	-2273.25	  785.33
      2.4700	  759.00	  921.21	-2273.25	  782.33
      2.5700	  686.00	  918.23	-2273.25	  779.35
      2.6700	  647.00	  915.27	-2273.25	  776.39
      2.7700	  665.00	  912.34	-2273.25	  773.46
      2.8700	  662.00	  909.42	-2273.25	  770.54
      2.9700	  616.00	  906.52	-2273.25	  767.64
      3.0700	  627.00	  903.64	-2273.25	  764.76
      3.1700	  628.00	  900.78	-2273.25	  761.90
      3.2700	  723.00	  897.94	-2273.25	  759.06
      3.3700	  900.00	  895.11	-2273.25	  756.23
      3.4700	 1059.00	  892.31	-2273.25	  753.43
      3.5700	 1195.00	  889.52	-2273.25	  750.64
      3.6700	 1292.00	  886.76	-2273.25	  747.88
      3.7700	 1436.00	  884.01	-2273.25	  745.13
      3.8700	 1520.00	  881.28	-2273.25	  742.40
      3.9700	 1582.00	  878.57	-2273.25	  739.69
      4.0700	 1637.00	  875.88	-2273.25	  737.00
      4.1700	 1731.00	  873.21	-2273.25	  734.33
      4.2700	 1671.00	  870.55	-2273.25	  731.67
      4.3700	 1712.00	  867.92	-2273.25	  729.03
      4.4700	 1602.00	  865.30	-2273.25	  726.42
      4.5700	 1587.00	  862.70	-2273.25	  723.82
      4.6700	 1530.00	  860.11	-2273.25	  721.23
      4.7700	 1485.00	  857.55	-2273.25	  718.67
      4.8700	 1430.00	  855.00	-2273.25	  716.12
      4.9700	 1331.00	  852.47	-2273.25	  713.59
      5.0700	 1366.00	  849.96	-2273.25	  711.08
      5.1700	 1376.00	  847.47	-2273.25	  708.59
      5.2700	 1350.00	  844.99	-2273.25	  706.11
      5.3700	 1294.00	  842.53	-2273.25	  703.65
      5.4700	 1279.00	  840.09	-2273.25	  701.21
      5.5700	 1158.00	  837.66	-2273.25	  698.78
      5.6700	 1179.00	  835.26	-2273.25	  696.38
      5.7700	 1186.00	  832.87	-2273.25	  693.99
      5.8700	 1089.00	  830.49	-2273.25	  691.61
      5.9700	 1207.00	  828.14	-2273.25	  689.26
      6.0700	 1112.00	  825.80	-2273.25	  686.92
      6.1700	 1119.00	  823.47	-2273.25	  684.59
      6.2700	 1105.00	  821.17	-2273.25	  682.29
      6.3700	 1031.00	  818.88	-2273.25	  680.00
      6.4700	 1056.00	  816.61	-2273.25	  677.73
      6.5700	 1049.00	  814.35	-2273.25	  675.47
      6.6700	 1047.00	  812.11	-2273.25	  673.23
      6.7700	  947.00	  809.89	-2273.25	  671.01
      6.8700	  935.00	  807.68	-2273.25	  668.80
      6.9700	 1026.00	  805.49	-2273.25	  666.61
      7.0700	  944.00	  803.31	-2273.25	  664.43
      7.1700	  927.00	  801.15	-2273.25	  662.27
      7.2700	  899.00	  799.01	-2273.25	  660.13
      7.3700	  890.00	  796.88	-2273.25	  658.00
      7.4700	  902.00	  794.77	-2273.25	  655.89
      7.5700	  886.00	  792.67	-2273.25	  653.79
      7.6700	  860.00	  790.59	-2273.25	  651.71
      7.7700	  816.00	  788.53	-2273.25	  649.65
      7.8700	  848.00	  786.48	-2273.25	  647.60
      7.9700	  857.00	  784.44	-2273.25	  645.56
      8.0700	  799.00	  782.43	-2273.25	  643.55
      8.1700	  809.00	  780.42	-2273.25	  641.54
      8.2700	  762.00	  778.43	-2273.25	  639.55
      8.3700	  798.00	  776.46	-2273.25	  637.58
      8.4700	  819.00	  774.50	-2273.25	  635.62
      8.5700	  797.00	  772.56	-2273.25	  633.68
      8.6700	  840.00	  770.63	-2273.25	  631.75
      8.7700	  775.00	  768.72	-2273.25	  629.84
      8.8700	  757.00	  766.82	-2273.25	  627.94
      8.9700	  731.00	  764.94	-2273.25	  626.06
      9.0700	  795.00	  763.07	-2273.25	  624.19
      9.1700	  823.00	  761.21	-2273.25	  622.33
      9.2700	  785.00	  759.37	-2273.25	  620.49
      9.3700	  795.00	  757.55	-2273.25	  618.67
      9.4700	  793.00	  755.74	-2273.25	  616.85
      9.5700	  769.00	  753.94	-2273.25	  615.06
      9.6700	  700.00	  752.15	-2273.25	  613.27
      9.7700	  777.00	  750.39	-2273.25	  611.51
      9.8700	  734.00	  748.63	-2273.25	  609.75
      9.9700	  722.00	  746.89	-2273.25	  608.01
     10.0700	  709.00	  747.31	-2311.56	  606.28
     10.1700	  757.00	  745.83	-2262.08	  604.57
     10.2700	  756.00	  744.41	-2261.66	  602.87
     10.3700	  730.00	  743.07	-2286.32	  601.18
     10.4700	  718.00	  741.82	-2297.07	  599.51
     10.5700	  764.00	  740.71	-2249.96	  597.85
     10.6700	  757.00	  739.78	-2256.03	  596.21
     10.7700	  769.00	  739.13	-2243.38	  594.58
     10.8700	  726.00	  738.84	-2286.09	  592.96
     10.9700	  733.00	  739.01	-2279.26	  591.35
     11.0700	  732.00	  739.68	-2280.93	  589.76
     11.1700	  703.00	  740.89	-2311.14	  588.18
     11.2700	  747.00	  742.65	-2268.90	  586.62
     11.3700	  730.00	  745.01	-2288.26	  585.06
     11.4700	  765.00	  748.06	-2256.31	  583.52
     11.5700	  797.00	  751.92	-2228.17	  582.00
     11.6700	  705.00	  756.82	-2325.07	  580.48
     11.7700	  761.00	  763.01	-2275.26	  578.98
     11.8700	  781.00	  770.77	-2263.02	  577.49
     11.9700	  808.00	  780.16	-2245.41	  576.02
     12.0700	  840.00	  790.70	-2223.95	  574.55
     12.1700	  858.00	  800.88	-2216.13	  573.10
     12.2700	  858.00	  807.69	-2222.94	  571.66
     12.3700	  834.00	  806.62	-2245.87	  570.24
     12.4700	  802.00	  794.68	-2265.93	  568.82
     12.5700	  804.00	  775.11	-2244.35	  567.42
     12.6700	  799.00	  755.00	-2229.25	  566.03
     12.7700	  680.00	  738.55	-2331.80	  564.65
     12.8700	  702.00	  726.51	-2297.76	  563.29
     12.9700	  683.00	  718.12	-2308.37	  561.93
     13.0700	  692.00	  712.30	-2293.55	  560.59
     13.1700	  690.00	  708.10	-2291.35	  559.26
     13.2700	  696.00	  704.86	-2282.11	  557.94
     13.3700	  731.00	  702.19	-2244.44	  556.64
     13.4700	  698.00	  699.87	-2275.12	  555.34
     13.5700	  672.00	  697.79	-2299.04	  554.06
     13.6700	  698.00	  695.89	-2271.14	  552.79
     13.7700	  699.00	  694.11	-2268.36	  551.53
     13.8700	  664.00	  692.44	-2301.69	  550.28
     13.9700	  671.00	  690.85	-2293.10	  549.04
     14.0700	  673.00	  689.32	-2289.57	  547.81
     14.1700	  672.00	  687.86	-2289.11	  546.60
     14.2700	  669.00	  686.44	-2290.69	  545.39
     14.3700	  729.00	  685.06	-2229.31	  544.20
     14.4700	  678.00	  683.71	-2278.96	  543.02
     14.5700	  664.00	  682.40	-2291.65	  541.85
     14.6700	  687.00	  681.12	-2267.37	  540.69
     14.7700	  693.00	  679.86	-2260.11	  539.54
     14.8700	  693.00	  678.62	-2258.87	  538.40
     14.9700	  610.00	  677.41	-2340.66	  537.27
     15.0700	  654.00	  676.21	-2295.46	  536.15
     15.1700	  714.00	  675.04	-2234.29	  535.05
     15.2700	  709.00	  673.88	-2238.13	  533.95
     15.3700	  638.00	  672.74	-2307.99	  532.87
     15.4700	  674.00	  671.61	-2270.86	  531.79
     15.5700	  631.00	  670.50	-2312.75	  530.73
     15.6700	  673.00	  669.40	-2269.65	  529.67
     15.7700	  668.00	  668.32	-2273.57	  528.63
     15.8700	  668.00	  667.25	-2272.50	  527.59
     15.9700	  687.00	  666.19	-2252.44	  526.57
     16.0700	  694.00	  665.15	-2244.40	  525.55
     16.1700	  661.00	  664.12	-2276.37	  524.55
     16.2700	  644.00	  663.10	-2292.35	  523.56
     16.3700	  705.00	  662.09	-2230.34	  522.57
     16.4700	  659.00	  661.09	-2275.34	  521.60
     16.5700	  636.00	  660.11	-2297.36	  520.63
     16.6700	  598.00	  659.14	-2334.39	  519.68
     16.7700	  624.00	  658.17	-2307.42	  518.73
     16.8700	  675.00	  657.22	-2255.47	  517.80
     16.9700	  699.00	  656.28	-2230.53	  516.87
     17.0700	  665.00	  655.35	-2263.60	  515.95
     17.1700	  675.00	  654.43	-2252.68	  515.05
     17.2700	  645.00	  653.52	-2281.77	  514.15
     17.3700	  628.00	  652.62	-2297.87	  513.26
     17.4700	  663.00	  651.73	-2261.98	  512.38
     17.5700	  682.00	  650.85	-2242.10	  511.51
     17.6700	  676.00	  649.98	-2247.23	  510.65
     17.7700	  658.00	  649.12	-2264.37	  509.80
     17.8700	  653.00	  648.27	-2268.52	  508.96
     17.9700	  631.00	  647.43	-2289.68	  508.12
     18.0700	  693.00	  646.60	-2226.85	  507.30
     18.1700	  687.00	  645.78	-2232.03	  506.48
     18.2700	  668.00	  644.97	-2250.22	  505.67
     18.3700	  681.00	  644.17	-2236.42	  504.88
     18.4700	  578.00	  643.37	-2338.62	  504.09
     18.5700	  654.00	  642.59	-2261.84	  503.30
     18.6700	  613.00	  641.81	-2302.06	  502.53
     18.7700	  635.00	  641.05	-2279.30	  501.77
     18.8700	  634.00	  640.29	-2279.54	  501.01
     18.9700	  666.00	  639.54	-2246.79	  500.27
     19.0700	  655.00	  640.06	-2258.31	  499.53
     19.1700	  619.00	  641.47	-2295.72	  498.80
     19.2700	  629.00	  640.82	-2285.06	  498.07
     19.3700	  677.00	  640.18	-2236.43	  497.36
     19.4700	  647.00	  639.55	-2265.80	  496.66
     19.5700	  652.00	  638.93	-2260.18	  495.96
     19.6700	  647.00	  638.33	-2264.58	  495.27
     19.7700	  629.00	  637.73	-2281.98	  494.59
     19.8700	  651.00	  637.15	-2259.40	  493.91
     19.9700	  598.00	  636.58	-2311.83	  493.25
     20.0700	  584.00	  636.02	-2325.27	  492.59
     20.1700	  584.00	  635.52	-2324.77	  491.94
     20.2700	  703.00	  634.99	-2205.24	  491.30
     20.3700	  643.00	  634.46	-2264.71	  490.66
     20.4700	  691.00	  633.95	-2216.20	  490.04
     20.5700	  630.00	  633.45	-2276.70	  489.42
     20.6700	  621.00	  632.97	-2285.22	  488.81
     20.7700	  623.00	  632.49	-2282.74	  488.20
     20.8700	  632.00	  632.03	-2273.28	  487.61
     20.9700	  642.00	  631.59	-2262.84	  487.02
     21.0700	  611.00	  631.15	-2293.40	  486.44
     21.1700	  636.00	  630.73	-2267.98	  485.86
     21.2700	  659.00	  630.33	-2244.58	  485.29
     21.3700	  676.00	  629.94	-2227.19	  484.73
     21.4700	  624.00	  629.56	-2278.81	  484.18
     21.5700	  602.00	  629.21	-2300.46	  483.64
     21.6700	  610.00	  628.86	-2292.11	  483.10
     21.7700	  655.00	  628.54	-2246.79	  482.57
     21.8700	  608.00	  628.23	-2293.48	  482.04
     21.9700	  628.00	  627.94	-2273.19	  481.52
     22.0700	  648.00	  627.67	-2252.92	  481.01
     22.1700	  613.00	  627.42	-2287.67	  480.51
     22.2700	  614.00	  627.19	-2286.44	  480.01
     22.3700	  643.00	  627.19	-2257.44	  479.52
     22.4700	  650.00	  627.01	-2250.26	  479.04
     22.5700	  613.00	  626.86	-2287.11	  478.56
     22.6700	  630.00	  626.73	-2269.98	  478.09
     22.7700	  581.00	  626.64	-2318.89	  477.63
     22.8700	  623.00	  626.57	-2276.82	  477.17
     22.9700	  604.00	  626.54	-2295.79	  476.72
     23.0700	  685.00	  626.55	-2214.80	  476.27
     23.1700	  630.00	  626.60	-2269.85	  475.83
     23.2700	  663.00	  626.71	-2236.96	  475.40
     23.3700	  625.00	  626.86	-2275.11	  474.98
     23.4700	  630.00	  627.09	-2270.34	  474.56
     23.5700	  641.00	  627.39	-2259.64	  474.14
     23.6700	  630.00	  627.79	-2271.04	  473.74
     23.7700	  631.00	  628.31	-2270.56	  473.34
     23.8700	  662.00	  628.98	-2240.23	  472.94
     23.9700	  655.00	  629.87	-2248.12	  472.55
     24.0700	  634.00	  631.08	-2270.33	  472.17
     24.1700	  657.00	  632.78	-2249.03	  471.79
     24.2700	  663.00	  635.21	-2245.46	  471.42
     24.3700	  650.00	  638.73	-2261.98	  471.05
     24.4700	  686.00	  643.74	-2230.99	  470.70
     24.5700	  686.00	  650.57	-2237.82	  470.34
     24.6700	  712.00	  659.22	-2220.47	  469.99
     24.7700	  688.00	  669.40	-2254.65	  469.65
     24.8700	  744.00	  679.85	-2209.10	  469.31
     24.9700	  696.00	  688.28	-2265.53	  468.98
     25.0700	  757.00	  691.47	-2207.72	  468.66
     25.1700	  669.00	  687.30	-2291.55	  468.34
     25.2700	  696.00	  677.94	-2255.19	  468.02
     25.3700	  712.00	  667.71	-2228.96	  467.71
     25.4700	  648.00	  659.54	-2284.79	  467.41
     25.5700	  627.00	  654.14	-2300.39	  467.11
     25.6700	  707.00	  651.26	-2217.51	  466.82
     25.7700	  703.00	  650.31	-2220.56	  466.53
     25.8700	  662.00	  650.73	-2261.98	  466.24
     25.9700	  659.00	  652.12	-2266.37	  465.97
     26.0700	  633.00	  654.26	-2294.51	  465.69
     26.1700	  640.00	  657.05	-2290.30	  465.42
     26.2700	  629.00	  660.47	-2304.72	  465.16
     26.3700	  660.00	  664.58	-2277.83	  464.90
     26.4700	  656.00	  669.45	-2286.70	  464.65
     26.5700	  631.00	  675.20	-2317.45	  464.40
     26.6700	  627.00	  682.00	-2328.25	  464.16
     26.7700	  680.00	  690.06	-2283.31	  463.92
     26.8700	  701.00	  699.68	-2271.93	  463.69
     26.9700	  686.00	  711.24	-2298.49	  463.46
     27.0700	  689.00	  725.29	-2309.54	  463.23
     27.1700	  712.00	  742.55	-2303.80	  463.02
     27.2700	  706.00	  764.10	-2331.35	  462.80
     27.3700	  723.00	  791.61	-2341.86	  462.59
     27.4700	  756.00	  828.12	-2345.37	  462.38
     27.5700	  802.00	  880.01	-2351.26	  462.18
     27.6700	  795.00	  961.52	-2439.77	  461.99
     27.7700	  933.00	 1102.58	-2442.83	  461.79
     27.8700	 1083.00	 1358.51	-2548.76	  461.61
     27.9700	 1337.00	 1816.67	-2752.92	  461.42
     28.0700	 1960.00	 2586.92	-2900.17	  461.24
     28.1700	 3295.00	 3757.31	-2735.56	  461.07
     28.2700	 5335.00	 5298.90	-2237.15	  460.90
     28.3700	 7692.00	 6925.99	-1507.24	  460.73
     28.4700	 9093.00	 8023.22	-1203.47	  460.57
     28.5700	 8638.00	 7887.96	-1523.21	  460.41
     28.6700	 6746.00	 6571.33	-2098.58	  460.26
     28.7700	 4824.00	 5083.30	-2532.55	  460.11
     28.8700	 3875.00	 4204.48	-2602.73	  459.96
     28.9700	 4010.00	 4069.91	-2333.16	  459.82
     29.0700	 4685.00	 4387.70	-1975.95	  459.68
     29.1700	 5087.00	 4673.72	-1859.97	  459.55
     29.2700	 4702.00	 4469.76	-2041.01	  459.41
     29.3700	 3748.00	 3699.40	-2224.65	  459.29
     29.4700	 2475.00	 2748.91	-2547.16	  459.17
     29.5700	 1771.00	 1961.21	-2463.46	  459.05
     29.6700	 1374.00	 1437.12	-2336.37	  458.93
     29.7700	 1057.00	 1135.96	-2352.21	  458.82
     29.8700	  984.00	  975.17	-2264.42	  458.71
     29.9700	  911.00	  887.01	-2249.26	  458.61
     30.0700	  853.00	  833.03	-2253.28	  458.51
     30.1700	  799.00	  795.91	-2270.16	  458.41
     30.2700	  829.00	  768.59	-2212.84	  458.32
     30.3700	  710.00	  748.13	-2311.38	  458.23
     30.4700	  735.00	  733.30	-2271.55	  458.14
     30.5700	  733.00	  723.93	-2264.18	  458.06
     30.6700	  752.00	  720.71	-2241.96	  457.98
     30.7700	  718.00	  724.91	-2280.16	  457.90
     30.8700	  748.00	  737.37	-2262.62	  457.83
     30.9700	  731.00	  756.99	-2299.24	  457.76
     31.0700	  785.00	  779.21	-2267.46	  457.69
     31.1700	  813.00	  795.20	-2255.45	  457.62
     31.2700	  826.00	  793.75	-2241.00	  457.56
     31.3700	  787.00	  770.47	-2256.72	  457.51
     31.4700	  714.00	  735.67	-2294.92	  457.45
     31.5700	  715.00	  702.70	-2260.95	  457.40
     31.6700	  723.00	  677.65	-2227.90	  457.35
     31.7700	  706.00	  660.98	-2228.23	  457.31
     31.8700	  660.00	  650.68	-2263.93	  457.27
     31.9700	  713.00	  644.35	-2204.60	  457.23
     32.0700	  704.00	  640.22	-2209.47	  457.19
     32.1700	  708.00	  637.31	-2202.56	  457.16
     32.2700	  649.00	  635.14	-2259.39	  457.13
     32.3700	  686.00	  633.49	-2220.74	  457.10
     32.4700	  646.00	  632.27	-2259.52	  457.07
     32.5700	  699.00	  631.43	-2205.68	  457.05
     32.6700	  642.00	  631.00	-2262.25	  457.03
     32.7700	  650.00	  630.92	-2254.17	  457.02
     32.8700	  634.00	  631.25	-2270.50	  457.00
     32.9700	  703.00	  632.04	-2202.29	  456.99
     33.0700	  710.00	  633.38	-2196.63	  456.98
     33.1700	  630.00	  635.43	-2278.68	  456.98
     33.2700	  605.00	  638.42	-2306.67	  456.97
     33.3700	  669.00	  642.85	-2247.10	  456.97
     33.4700	  669.00	  649.64	-2253.89	  456.97
     33.5700	  658.00	  660.58	-2275.83	  456.98
     33.6700	  720.00	  678.92	-2232.17	  456.98
     33.7700	  753.00	  709.74	-2229.99	  456.99
     33.8700	  787.00	  759.59	-2245.84	  457.00
     33.9700	  899.00	  834.15	-2208.40	  457.02
     34.0700	  974.00	  933.39	-2232.64	  457.03
     34.1700	 1087.00	 1045.78	-2232.03	  457.05
     34.2700	 1294.00	 1144.55	-2123.80	  457.07
     34.3700	 1286.00	 1190.46	-2177.71	  457.09
     34.4700	 1206.00	 1153.76	-2221.01	  457.12
     34.5700	 1085.00	 1050.40	-2238.65	  457.14
     34.6700	 1003.00	  928.96	-2199.21	  457.17
     34.7700	  820.00	  824.37	-2277.62	  457.20
     34.8700	  808.00	  748.30	-2213.55	  457.23
     34.9700	  780.00	  699.00	-2192.25	  457.27
     35.0700	  752.00	  669.40	-2190.65	  457.31
     35.1700	  752.00	  652.06	-2173.31	  457.35
     35.2700	  691.00	  641.53	-2223.78	  457.39
     35.3700	  620.00	  634.62	-2287.87	  457.43
     35.4700	  643.00	  629.68	-2259.93	  457.47
     35.5700	  615.00	  625.95	-2284.20	  457.52
     35.6700	  649.00	  623.03	-2247.28	  457.57
     35.7700	  618.00	  620.71	-2275.96	  457.62
     35.8700	  624.00	  618.90	-2268.15	  457.67
     35.9700	  622.00	  617.39	-2268.64	  457.73
     36.0700	  654.00	  616.18	-2235.43	  457.78
     36.1700	  597.00	  615.20	-2291.45	  457.84
     36.2700	  611.00	  614.43	-2276.68	  457.90
     36.3700	  613.00	  613.85	-2274.10	  457.96
     36.4700	  607.00	  613.42	-2279.67	  458.02
     36.5700	  563.00	  613.16	-2323.41	  458.09
     36.6700	  639.00	  613.05	-2247.30	  458.15
     36.7700	  637.00	  613.10	-2249.35	  458.22
     36.8700	  637.00	  613.53	-2249.78	  458.29
     36.9700	  627.00	  613.97	-2260.22	  458.36
     37.0700	  617.00	  614.66	-2270.91	  458.43
     37.1700	  578.00	  615.68	-2310.93	  458.50
     37.2700	  620.00	  617.67	-2270.92	  458.58
     37.3700	  630.00	  619.88	-2263.13	  458.65
     37.4700	  641.00	  623.22	-2255.47	  458.73
     37.5700	  662.00	  628.39	-2239.64	  458.81
     37.6700	  661.00	  636.48	-2248.73	  458.89
     37.7700	  663.00	  649.01	-2259.26	  458.97
     37.8700	  709.00	  667.61	-2231.86	  459.06
     37.9700	  686.00	  693.48	-2280.73	  459.14
     38.0700	  757.00	  724.06	-2240.31	  459.23
     38.1700	  722.00	  759.79	-2311.04	  459.31
     38.2700	  784.00	  791.36	-2280.61	  459.40
     38.3700	  818.00	  808.09	-2263.34	  459.49
     38.4700	  756.00	  800.73	-2317.98	  459.58
     38.5700	  766.00	  771.17	-2278.42	  459.67
     38.6700	  730.00	  732.16	-2275.41	  459.76
     38.7700	  659.00	  695.44	-2309.69	  459.86
     38.8700	  655.00	  666.40	-2284.65	  459.95
     38.9700	  655.00	  645.93	-2264.18	  460.05
     39.0700	  621.00	  632.67	-2284.92	  460.14
     39.1700	  605.00	  624.51	-2292.76	  460.24
     39.2700	  661.00	  619.54	-2231.79	  460.34
     39.3700	  655.00	  616.40	-2234.65	  460.44
     39.4700	  616.00	  614.27	-2271.52	  460.54
     39.5700	  589.00	  611.55	-2295.80	  460.64
     39.6700	  591.00	  610.42	-2292.67	  460.74
     39.7700	  559.00	  609.55	-2323.80	  460.85
     39.8700	  637.00	  608.87	-2245.12	  460.95
     39.9700	  606.00	  608.34	-2275.59	  461.05
     40.0700	  603.00	  607.93	-2278.18	  461.16
     40.1700	  630.00	  607.61	-2250.86	  461.27
     40.2700	  603.00	  607.38	-2277.63	  461.37
     40.3700	  603.00	  607.22	-2277.47	  461.48
     40.4700	  622.00	  607.11	-2258.36	  461.59
     40.5700	  574.00	  607.05	-2306.30	  461.70
     40.6700	  550.00	  607.05	-2330.30	  461.81
     40.7700	  574.00	  607.62	-2306.87	  461.92
