MSG Master    CELL:    5.91983   5.91983  23.27843   90.0000   90.0000  120.0000   SPGR: P 63/m m c             TEMP:   1074.85
  1   1280     2.52000     0.00000    -0.12105     0.00000     0.00000    0
    99     0     2
       0.00000      10.00000
     125.00000     130.00000
 2Theta	Yobs	Ycal	Yobs-Ycal	Backg	Posr	(hkl)	K
      0.7700	    0.00	  548.06	-1743.00	  428.50
      0.8700	    0.00	  548.72	-1743.00	  429.16
      0.9700	   35.00	  549.36	-1743.00	  429.80
      1.0700	   42.00	  550.00	-1743.00	  430.44
      1.1700	   45.00	  550.62	-1743.00	  431.06
      1.2700	   39.00	  551.24	-1743.00	  431.68
      1.3700	   42.00	  551.84	-1743.00	  432.28
      1.4700	   96.00	  552.43	-1743.00	  432.88
      1.5700	  307.00	  553.02	-1743.00	  433.46
      1.6700	  462.00	  553.59	-1743.00	  434.04
      1.7700	  582.00	  554.16	-1743.00	  434.60
      1.8700	  661.00	  554.71	-1743.00	  435.15
      1.9700	  737.00	  555.26	-1743.00	  435.70
      2.0700	  754.00	  555.79	-1743.00	  436.24
      2.1700	  811.00	  556.32	-1743.00	  436.76
      2.2700	  763.00	  556.84	-1743.00	  437.28
      2.3700	  727.00	  557.34	-1743.00	  437.78
      2.4700	  743.00	  557.84	-1743.00	  438.28
      2.5700	  711.00	  558.33	-1743.00	  438.77
      2.6700	  644.00	  558.81	-1743.00	  439.25
      2.7700	  653.00	  559.28	-1743.00	  439.72
      2.8700	  631.00	  559.74	-1743.00	  440.18
      2.9700	  601.00	  560.19	-1743.00	  440.63
      3.0700	  594.00	  560.63	-1743.00	  441.07
      3.1700	  649.00	  561.07	-1743.00	  441.51
      3.2700	  588.00	  561.49	-1743.00	  441.93
      3.3700	  677.00	  561.91	-1743.00	  442.35
      3.4700	  737.00	  562.31	-1743.00	  442.76
      3.5700	  840.00	  562.71	-1743.00	  443.16
      3.6700	  853.00	  563.10	-1743.00	  443.55
      3.7700	  921.00	  563.49	-1743.00	  443.93
      3.8700	 1028.00	  563.86	-1743.00	  444.30
      3.9700	 1047.00	  564.22	-1743.00	  444.67
      4.0700	 1099.00	  564.58	-1743.00	  445.02
      4.1700	 1113.00	  564.93	-1743.00	  445.37
      4.2700	 1096.00	  565.27	-1743.00	  445.71
      4.3700	 1090.00	  565.60	-1743.00	  446.04
      4.4700	 1107.00	  565.92	-1743.00	  446.37
      4.5700	 1065.00	  566.24	-1743.00	  446.68
      4.6700	 1048.00	  566.55	-1743.00	  446.99
      4.7700	  971.00	  566.85	-1743.00	  447.29
      4.8700	  985.00	  567.14	-1743.00	  447.58
      4.9700	  946.00	  567.42	-1743.00	  447.87
      5.0700	  990.00	  567.70	-1743.00	  448.14
      5.1700	  972.00	  567.97	-1743.00	  448.41
      5.2700	  914.00	  568.23	-1743.00	  448.67
      5.3700	  839.00	  568.48	-1743.00	  448.93
      5.4700	  910.00	  568.73	-1743.00	  449.17
      5.5700	  911.00	  568.97	-1743.00	  449.41
      5.6700	  816.00	  569.20	-1743.00	  449.64
      5.7700	  820.00	  569.43	-1743.00	  449.87
      5.8700	  826.00	  569.64	-1743.00	  450.09
      5.9700	  823.00	  569.85	-1743.00	  450.30
      6.0700	  815.00	  570.06	-1743.00	  450.50
      6.1700	  818.00	  570.25	-1743.00	  450.69
      6.2700	  764.00	  570.44	-1743.00	  450.88
      6.3700	  766.00	  570.62	-1743.00	  451.07
      6.4700	  743.00	  570.80	-1743.00	  451.24
      6.5700	  773.00	  570.97	-1743.00	  451.41
      6.6700	  732.00	  571.13	-1743.00	  451.57
      6.7700	  723.00	  571.28	-1743.00	  451.73
      6.8700	  730.00	  571.43	-1743.00	  451.87
      6.9700	  675.00	  571.57	-1743.00	  452.02
      7.0700	  668.00	  571.71	-1743.00	  452.15
      7.1700	  666.00	  571.84	-1743.00	  452.28
      7.2700	  690.00	  571.96	-1743.00	  452.40
      7.3700	  720.00	  572.08	-1743.00	  452.52
      7.4700	  642.00	  572.18	-1743.00	  452.63
      7.5700	  646.00	  572.29	-1743.00	  452.73
      7.6700	  688.00	  572.38	-1743.00	  452.83
      7.7700	  640.00	  572.48	-1743.00	  452.92
      7.8700	  603.00	  572.56	-1743.00	  453.00
      7.9700	  674.00	  572.64	-1743.00	  453.08
      8.0700	  644.00	  572.71	-1743.00	  453.15
      8.1700	  660.00	  572.78	-1743.00	  453.22
      8.2700	  649.00	  572.84	-1743.00	  453.28
      8.3700	  628.00	  572.90	-1743.00	  453.34
      8.4700	  621.00	  572.95	-1743.00	  453.39
      8.5700	  627.00	  572.99	-1743.00	  453.43
      8.6700	  584.00	  573.03	-1743.00	  453.47
      8.7700	  608.00	  573.06	-1743.00	  453.50
      8.8700	  684.00	  573.09	-1743.00	  453.53
      8.9700	  625.00	  573.11	-1743.00	  453.55
      9.0700	  581.00	  573.12	-1743.00	  453.57
      9.1700	  613.00	  573.13	-1743.00	  453.58
      9.2700	  633.00	  573.14	-1743.00	  453.58
      9.3700	  613.00	  573.14	-1743.00	  453.58
      9.4700	  655.00	  573.13	-1743.00	  453.58
      9.5700	  602.00	  573.12	-1743.00	  453.57
      9.6700	  616.00	  573.11	-1743.00	  453.55
      9.7700	  658.00	  573.09	-1743.00	  453.53
      9.8700	  652.00	  573.06	-1743.00	  453.50
      9.9700	  602.00	  573.03	-1743.00	  453.47
     10.0700	  576.00	  574.03	-1741.03	  453.44
     10.1700	  592.00	  574.10	-1725.10	  453.40
     10.2700	  581.00	  574.20	-1736.20	  453.35
     10.3700	  596.00	  574.33	-1721.33	  453.30
     10.4700	  604.00	  574.54	-1713.54	  453.25
     10.5700	  612.00	  574.88	-1705.88	  453.19
     10.6700	  608.00	  575.44	-1710.44	  453.12
     10.7700	  578.00	  576.35	-1741.35	  453.05
     10.8700	  544.00	  577.68	-1776.68	  452.98
     10.9700	  626.00	  579.42	-1696.42	  452.90
     11.0700	  577.00	  581.56	-1747.56	  452.82
     11.1700	  650.00	  584.08	-1677.08	  452.73
     11.2700	  604.00	  587.03	-1726.03	  452.64
     11.3700	  577.00	  590.50	-1756.50	  452.55
     11.4700	  576.00	  594.62	-1761.62	  452.45
     11.5700	  575.00	  599.63	-1767.63	  452.34
     11.6700	  592.00	  605.90	-1756.90	  452.23
     11.7700	  624.00	  614.06	-1733.06	  452.12
     11.8700	  651.00	  624.93	-1716.93	  452.00
     11.9700	  668.00	  638.83	-1713.83	  451.88
     12.0700	  628.00	  653.84	-1768.84	  451.76
     12.1700	  662.00	  664.02	-1745.02	  451.63
     12.2700	  673.00	  660.41	-1730.41	  451.50
     12.3700	  640.00	  640.23	-1743.23	  451.36
     12.4700	  651.00	  615.05	-1707.05	  451.22
     12.5700	  626.00	  595.72	-1712.72	  451.08
     12.6700	  609.00	  584.34	-1718.34	  450.93
     12.7700	  578.00	  578.66	-1743.66	  450.78
     12.8700	  550.00	  575.89	-1768.89	  450.62
     12.9700	  551.00	  574.35	-1766.35	  450.47
     13.0700	  555.00	  573.33	-1761.33	  450.30
     13.1700	  548.00	  572.55	-1767.55	  450.14
     13.2700	  564.00	  571.93	-1750.93	  449.97
     13.3700	  565.00	  571.41	-1749.41	  449.80
     13.4700	  563.00	  570.96	-1750.96	  449.62
     13.5700	  564.00	  570.56	-1749.56	  449.44
     13.6700	  569.00	  570.20	-1744.20	  449.26
     13.7700	  620.00	  569.87	-1692.87	  449.07
     13.8700	  534.00	  569.56	-1778.56	  448.88
     13.9700	  552.00	  569.27	-1760.27	  448.69
     14.0700	  597.00	  568.98	-1714.98	  448.50
     14.1700	  532.00	  568.71	-1779.71	  448.30
     14.2700	  568.00	  568.45	-1743.45	  448.10
     14.3700	  525.00	  568.19	-1786.19	  447.89
     14.4700	  512.00	  567.93	-1798.93	  447.69
     14.5700	  557.00	  567.68	-1753.68	  447.48
     14.6700	  545.00	  567.42	-1765.42	  447.26
     14.7700	  588.00	  567.17	-1722.17	  447.05
     14.8700	  572.00	  566.92	-1737.92	  446.83
     14.9700	  538.00	  566.68	-1771.68	  446.61
     15.0700	  528.00	  566.43	-1781.43	  446.38
     15.1700	  558.00	  566.18	-1751.18	  446.15
     15.2700	  557.00	  565.93	-1751.93	  445.92
     15.3700	  589.00	  565.68	-1719.68	  445.69
     15.4700	  566.00	  565.43	-1742.43	  445.46
     15.5700	  589.00	  565.17	-1719.17	  445.22
     15.6700	  555.00	  564.95	-1752.95	  444.98
     15.7700	  547.00	  564.69	-1760.69	  444.74
     15.8700	  559.00	  564.44	-1748.44	  444.49
     15.9700	  529.00	  564.18	-1778.18	  444.24
     16.0700	  582.00	  563.92	-1724.92	  444.00
     16.1700	  533.00	  563.66	-1773.66	  443.74
     16.2700	  561.00	  563.40	-1745.40	  443.49
     16.3700	  553.00	  563.13	-1753.13	  443.23
     16.4700	  554.00	  562.87	-1751.87	  442.97
     16.5700	  528.00	  562.60	-1777.60	  442.71
     16.6700	  586.00	  562.33	-1719.33	  442.45
     16.7700	  570.00	  562.06	-1735.06	  442.18
     16.8700	  576.00	  561.79	-1728.79	  441.92
     16.9700	  529.00	  561.52	-1775.52	  441.65
     17.0700	  567.00	  561.24	-1737.24	  441.38
     17.1700	  554.00	  560.97	-1749.97	  441.10
     17.2700	  558.00	  560.69	-1745.69	  440.83
     17.3700	  542.00	  560.41	-1761.41	  440.55
     17.4700	  622.00	  560.13	-1681.13	  440.27
     17.5700	  520.00	  559.84	-1782.84	  439.99
     17.6700	  564.00	  559.56	-1738.56	  439.71
     17.7700	  532.00	  559.27	-1770.27	  439.42
     17.8700	  563.00	  558.98	-1738.98	  439.14
     17.9700	  568.00	  558.69	-1733.69	  438.85
     18.0700	  594.00	  558.51	-1707.51	  438.56
     18.1700	  569.00	  558.22	-1732.22	  438.27
     18.2700	  592.00	  557.93	-1708.93	  437.98
     18.3700	  583.00	  557.63	-1717.63	  437.68
     18.4700	  601.00	  557.34	-1699.34	  437.39
     18.5700	  577.00	  557.04	-1723.04	  437.09
     18.6700	  574.00	  556.75	-1725.75	  436.79
     18.7700	  547.00	  556.45	-1752.45	  436.49
     18.8700	  573.00	  556.23	-1726.23	  436.19
     18.9700	  539.00	  555.93	-1759.93	  435.89
     19.0700	  496.00	  555.63	-1802.63	  435.58
     19.1700	  539.00	  555.33	-1759.33	  435.28
     19.2700	  565.00	  555.03	-1733.03	  434.97
     19.3700	  558.00	  554.73	-1739.73	  434.66
     19.4700	  546.00	  554.43	-1751.43	  434.35
     19.5700	  512.00	  554.12	-1785.12	  434.04
     19.6700	  535.00	  553.82	-1761.82	  433.73
     19.7700	  541.00	  553.52	-1755.52	  433.42
     19.8700	  531.00	  553.21	-1765.21	  433.11
     19.9700	  535.00	  552.90	-1760.90	  432.79
     20.0700	  542.00	  552.60	-1753.60	  432.48
     20.1700	  530.00	  552.29	-1765.29	  432.16
     20.2700	  560.00	  551.98	-1734.98	  431.84
     20.3700	  523.00	  551.68	-1771.68	  431.52
     20.4700	  542.00	  551.37	-1752.37	  431.20
     20.5700	  530.00	  551.06	-1764.06	  430.88
     20.6700	  545.00	  550.75	-1748.75	  430.56
     20.7700	  557.00	  550.48	-1736.48	  430.24
     20.8700	  537.00	  550.13	-1756.13	  429.91
     20.9700	  574.00	  549.82	-1718.82	  429.59
     21.0700	  519.00	  549.52	-1773.52	  429.27
     21.1700	  531.00	  549.21	-1761.21	  428.94
     21.2700	  551.00	  548.91	-1740.91	  428.62
     21.3700	  513.00	  548.60	-1778.60	  428.29
     21.4700	  545.00	  548.30	-1746.30	  427.96
     21.5700	  533.00	  548.00	-1758.00	  427.63
     21.6700	  514.00	  547.69	-1776.69	  427.30
     21.7700	  550.00	  547.39	-1740.39	  426.98
     21.8700	  572.00	  547.10	-1718.10	  426.65
     21.9700	  549.00	  546.80	-1740.80	  426.32
     22.0700	  574.00	  546.51	-1715.51	  425.98
     22.1700	  563.00	  546.22	-1726.22	  425.65
     22.2700	  579.00	  545.93	-1709.93	  425.32
     22.3700	  565.00	  545.65	-1723.65	  424.99
     22.4700	  561.00	  545.37	-1727.37	  424.66
     22.5700	  558.00	  545.10	-1730.10	  424.33
     22.6700	  526.00	  544.83	-1761.83	  423.99
     22.7700	  553.00	  544.57	-1734.57	  423.66
     22.8700	  535.00	  544.33	-1752.33	  423.33
     22.9700	  572.00	  544.09	-1715.09	  422.99
     23.0700	  535.00	  543.87	-1751.87	  422.66
     23.1700	  580.00	  543.67	-1706.67	  422.32
     23.2700	  519.00	  543.49	-1767.49	  421.99
     23.3700	  532.00	  543.34	-1754.34	  421.65
     23.4700	  548.00	  543.37	-1738.37	  421.32
     23.5700	  558.00	  543.32	-1728.32	  420.98
     23.6700	  542.00	  543.35	-1744.35	  420.65
     23.7700	  552.00	  543.52	-1734.52	  420.31
     23.8700	  524.00	  543.93	-1762.93	  419.98
     23.9700	  530.00	  544.80	-1757.80	  419.64
     24.0700	  531.00	  546.55	-1758.55	  419.31
     24.1700	  603.00	  549.78	-1689.78	  418.97
     24.2700	  522.00	  555.27	-1776.27	  418.64
     24.3700	  599.00	  563.84	-1707.84	  418.30
     24.4700	  530.00	  576.24	-1789.24	  417.97
     24.5700	  601.00	  592.24	-1734.24	  417.63
     24.6700	  639.00	  609.07	-1713.07	  417.30
     24.7700	  581.00	  620.14	-1782.14	  416.97
     24.8700	  652.00	  617.01	-1708.01	  416.63
     24.9700	  642.00	  598.94	-1699.94	  416.30
     25.0700	  593.00	  576.93	-1726.93	  415.96
     25.1700	  548.00	  559.83	-1754.83	  415.63
     25.2700	  591.00	  549.49	-1701.49	  415.30
     25.3700	  541.00	  544.16	-1746.16	  414.96
     25.4700	  557.00	  541.53	-1727.53	  414.63
     25.5700	  528.00	  540.11	-1755.11	  414.30
     25.6700	  629.00	  539.19	-1653.19	  413.96
     25.7700	  580.00	  538.52	-1701.52	  413.63
     25.8700	  575.00	  538.02	-1706.02	  413.30
     25.9700	  513.00	  537.63	-1767.63	  412.97
     26.0700	  514.00	  537.34	-1766.34	  412.64
     26.1700	  559.00	  537.13	-1721.13	  412.31
     26.2700	  575.00	  537.00	-1705.00	  411.98
     26.3700	  497.00	  536.95	-1782.95	  411.65
     26.4700	  554.00	  536.99	-1725.99	  411.32
     26.5700	  545.00	  537.13	-1735.13	  410.99
     26.6700	  505.00	  537.38	-1775.38	  410.67
     26.7700	  538.00	  537.77	-1742.77	  410.34
     26.8700	  563.00	  538.32	-1718.32	  410.01
     26.9700	  561.00	  539.10	-1721.10	  409.69
     27.0700	  565.00	  540.17	-1718.17	  409.36
     27.1700	  517.00	  541.67	-1767.67	  409.04
     27.2700	  511.00	  543.84	-1775.84	  408.71
     27.3700	  578.00	  547.18	-1712.18	  408.39
     27.4700	  504.00	  552.66	-1791.66	  408.06
     27.5700	  553.00	  562.05	-1752.05	  407.74
     27.6700	  544.00	  578.19	-1777.19	  407.42
     27.7700	  536.00	  604.78	-1811.78	  407.10
     27.8700	  634.00	  645.12	-1754.12	  406.78
     27.9700	  666.00	  699.57	-1776.57	  406.46
     28.0700	  774.00	  762.04	-1731.04	  406.14
     28.1700	  863.00	  816.84	-1696.84	  405.82
     28.2700	  930.00	  840.04	-1653.04	  405.51
     28.3700	  934.00	  816.83	-1625.83	  405.19
     28.4700	  781.00	  768.74	-1730.74	  404.88
     28.5700	  642.00	  732.60	-1833.60	  404.56
     28.6700	  730.00	  725.52	-1738.52	  404.25
     28.7700	  712.00	  743.40	-1774.40	  403.94
     28.8700	  759.00	  767.45	-1751.45	  403.62
     28.9700	  767.00	  771.41	-1747.41	  403.31
     29.0700	  796.00	  738.29	-1685.29	  403.00
     29.1700	  704.00	  681.50	-1720.50	  402.69
     29.2700	  669.00	  626.97	-1700.97	  402.39
     29.3700	  606.00	  587.34	-1724.34	  402.08
     29.4700	  545.00	  563.20	-1761.20	  401.77
     29.5700	  621.00	  550.02	-1672.02	  401.47
     29.6700	  556.00	  543.01	-1730.01	  401.16
     29.7700	  585.00	  539.02	-1697.02	  400.86
     29.8700	  580.00	  536.52	-1699.52	  400.56
     29.9700	  598.00	  534.92	-1679.92	  400.26
     30.0700	  558.00	  534.06	-1719.06	  399.96
     30.1700	  550.00	  534.09	-1727.09	  399.66
     30.2700	  558.00	  535.45	-1720.45	  399.36
     30.3700	  567.00	  539.03	-1715.03	  399.06
     30.4700	  536.00	  546.17	-1753.17	  398.77
     30.5700	  556.00	  558.21	-1745.21	  398.47
     30.6700	  570.00	  575.50	-1748.50	  398.18
     30.7700	  622.00	  595.79	-1716.79	  397.89
     30.8700	  611.00	  613.40	-1745.40	  397.60
     30.9700	  610.00	  619.67	-1752.67	  397.31
     31.0700	  604.00	  608.62	-1747.62	  397.02
     31.1700	  544.00	  585.89	-1784.89	  396.73
     31.2700	  549.00	  562.83	-1756.83	  396.45
     31.3700	  516.00	  545.55	-1772.55	  396.16
     31.4700	  576.00	  534.82	-1701.82	  395.88
     31.5700	  541.00	  528.96	-1730.96	  395.59
     31.6700	  562.00	  525.88	-1706.88	  395.31
     31.7700	  481.00	  524.17	-1786.17	  395.03
     31.8700	  533.00	  523.10	-1733.10	  394.75
     31.9700	  508.00	  522.38	-1757.38	  394.48
     32.0700	  558.00	  521.88	-1706.88	  394.20
     32.1700	  563.00	  521.55	-1701.55	  393.93
     32.2700	  541.00	  521.39	-1723.39	  393.65
     32.3700	  538.00	  521.37	-1726.37	  393.38
     32.4700	  545.00	  521.52	-1719.52	  393.11
     32.5700	  528.00	  521.84	-1736.84	  392.84
     32.6700	  540.00	  522.38	-1725.38	  392.57
     32.7700	  535.00	  523.17	-1731.17	  392.31
     32.8700	  559.00	  524.30	-1708.30	  392.04
     32.9700	  535.00	  525.89	-1733.89	  391.78
     33.0700	  511.00	  528.18	-1760.18	  391.51
     33.1700	  541.00	  531.67	-1733.67	  391.25
     33.2700	  512.00	  537.47	-1768.47	  390.99
     33.3700	  584.00	  547.92	-1706.92	  390.73
     33.4700	  537.00	  567.35	-1773.35	  390.48
     33.5700	  593.00	  602.37	-1752.37	  390.22
     33.6700	  675.00	  660.25	-1728.25	  389.97
     33.7700	  772.00	  743.65	-1714.65	  389.72
     33.8700	  895.00	  843.18	-1691.18	  389.47
     33.9700	  980.00	  932.59	-1695.59	  389.22
     34.0700	 1039.00	  971.99	-1675.99	  388.97
     34.1700	 1007.00	  932.06	-1668.06	  388.72
     34.2700	  863.00	  833.00	-1713.00	  388.48
     34.3700	  781.00	  725.18	-1687.18	  388.23
     34.4700	  617.00	  640.18	-1766.18	  387.99
     34.5700	  602.00	  585.24	-1726.24	  387.75
     34.6700	  570.00	  554.45	-1727.45	  387.51
     34.7700	  541.00	  538.47	-1740.47	  387.27
     34.8700	  532.00	  529.96	-1740.96	  387.04
     34.9700	  536.00	  524.88	-1731.88	  386.80
     35.0700	  560.00	  521.40	-1704.40	  386.57
     35.1700	  513.00	  518.80	-1748.80	  386.34
     35.2700	  543.00	  516.74	-1716.74	  386.11
     35.3700	  459.00	  515.08	-1799.08	  385.88
     35.4700	  496.00	  513.70	-1760.70	  385.66
     35.5700	  550.00	  512.54	-1705.54	  385.43
     35.6700	  509.00	  511.54	-1745.54	  385.21
     35.7700	  496.00	  510.68	-1757.68	  384.99
     35.8700	  500.00	  509.93	-1752.93	  384.77
     35.9700	  520.00	  509.26	-1732.26	  384.55
     36.0700	  519.00	  509.13	-1733.13	  384.33
     36.1700	  484.00	  508.60	-1767.60	  384.12
     36.2700	  492.00	  508.13	-1759.13	  383.90
     36.3700	  490.00	  507.71	-1760.71	  383.69
     36.4700	  517.00	  507.33	-1733.33	  383.48
     36.5700	  478.00	  507.00	-1772.00	  383.27
     36.6700	  476.00	  506.71	-1773.71	  383.07
     36.7700	  504.00	  506.49	-1745.49	  382.86
     36.8700	  504.00	  506.36	-1745.36	  382.66
     36.9700	  525.00	  506.39	-1724.39	  382.46
     37.0700	  516.00	  506.73	-1733.73	  382.26
     37.1700	  473.00	  507.66	-1777.66	  382.06
     37.2700	  525.00	  509.52	-1727.52	  381.86
     37.3700	  526.00	  512.59	-1729.59	  381.66
     37.4700	  509.00	  516.77	-1750.77	  381.47
     37.5700	  524.00	  521.22	-1740.22	  381.28
     37.6700	  532.00	  524.42	-1735.42	  381.09
     37.7700	  520.00	  524.73	-1747.73	  380.90
     37.8700	  542.00	  521.90	-1722.90	  380.71
     37.9700	  533.00	  517.55	-1727.55	  380.53
     38.0700	  504.00	  513.20	-1752.20	  380.35
     38.1700	  552.00	  509.52	-1700.52	  380.16
     38.2700	  522.00	  506.71	-1727.71	  379.98
     38.3700	  469.00	  504.76	-1778.76	  379.81
     38.4700	  497.00	  503.47	-1749.47	  379.63
     38.5700	  468.00	  502.62	-1777.62	  379.46
     38.6700	  523.00	  501.95	-1721.95	  379.28
     38.7700	  545.00	  501.55	-1699.55	  379.11
     38.8700	  482.00	  501.24	-1762.24	  378.94
     38.9700	  495.00	  500.97	-1748.97	  378.77
     39.0700	  497.00	  500.74	-1746.74	  378.61
     39.1700	  515.00	  500.67	-1728.67	  378.44
     39.2700	  518.00	  500.41	-1725.41	  378.28
     39.3700	  499.00	  500.23	-1744.23	  378.12
     39.4700	  503.00	  500.07	-1740.07	  377.96
     39.5700	  473.00	  499.92	-1769.92	  377.81
     39.6700	  508.00	  499.78	-1734.78	  377.65
     39.7700	  509.00	  499.65	-1733.65	  377.50
     39.8700	  535.00	  499.53	-1707.53	  377.34
     39.9700	  500.00	  499.42	-1742.42	  377.19
     40.0700	  518.00	  499.32	-1724.32	  377.05
     40.1700	  495.00	  499.23	-1747.23	  376.90
     40.2700	  499.00	  499.16	-1743.16	  376.75
     40.3700	  508.00	  499.10	-1734.10	  376.61
     40.4700	  495.00	  499.05	-1747.05	  376.47
     40.5700	  511.00	  499.02	-1731.02	  376.33
     40.6700	  522.00	  499.01	-1720.01	  376.19
     40.7700	  470.00	  499.02	-1772.02	  376.06
