MSG Master    CELL:    5.91987   5.91987  23.27692   90.0000   90.0000  120.0000   SPGR: P 63/m m c             TEMP:   1074.85
  1   1280     2.52000     0.00000    -0.12386     0.00000     0.00000    0
    99     0     2
       0.00000      10.00000
     125.00000     130.00000
 2Theta	Yobs	Ycal	Yobs-Ycal	Backg	Posr	(hkl)	K
      0.7700	    0.00	  533.65	-1713.14	  415.93
      0.8700	    0.00	  534.55	-1713.14	  416.82
      0.9700	   32.00	  535.43	-1713.14	  417.70
      1.0700	   36.00	  536.29	-1713.14	  418.57
      1.1700	   66.00	  537.15	-1713.14	  419.43
      1.2700	   55.00	  537.99	-1713.14	  420.27
      1.3700	   53.00	  538.83	-1713.14	  421.10
      1.4700	  103.00	  539.65	-1713.14	  421.92
      1.5700	  261.00	  540.45	-1713.14	  422.73
      1.6700	  469.00	  541.25	-1713.14	  423.53
      1.7700	  543.00	  542.04	-1713.14	  424.31
      1.8700	  658.00	  542.81	-1713.14	  425.08
      1.9700	  717.00	  543.57	-1713.14	  425.85
      2.0700	  744.00	  544.32	-1713.14	  426.60
      2.1700	  808.00	  545.06	-1713.14	  427.33
      2.2700	  756.00	  545.79	-1713.14	  428.06
      2.3700	  766.00	  546.50	-1713.14	  428.78
      2.4700	  718.00	  547.21	-1713.14	  429.48
      2.5700	  732.00	  547.90	-1713.14	  430.18
      2.6700	  671.00	  548.58	-1713.14	  430.86
      2.7700	  656.00	  549.26	-1713.14	  431.53
      2.8700	  607.00	  549.92	-1713.14	  432.19
      2.9700	  638.00	  550.57	-1713.14	  432.84
      3.0700	  588.00	  551.21	-1713.14	  433.48
      3.1700	  565.00	  551.84	-1713.14	  434.11
      3.2700	  618.00	  552.45	-1713.14	  434.73
      3.3700	  683.00	  553.06	-1713.14	  435.34
      3.4700	  772.00	  553.66	-1713.14	  435.94
      3.5700	  836.00	  554.25	-1713.14	  436.52
      3.6700	  870.00	  554.82	-1713.14	  437.10
      3.7700	  929.00	  555.39	-1713.14	  437.67
      3.8700	  939.00	  555.95	-1713.14	  438.22
      3.9700	  978.00	  556.49	-1713.14	  438.77
      4.0700	 1053.00	  557.03	-1713.14	  439.31
      4.1700	 1138.00	  557.56	-1713.14	  439.83
      4.2700	 1123.00	  558.07	-1713.14	  440.35
      4.3700	 1055.00	  558.58	-1713.14	  440.86
      4.4700	 1078.00	  559.08	-1713.14	  441.35
      4.5700	 1019.00	  559.57	-1713.14	  441.84
      4.6700	 1011.00	  560.05	-1713.14	  442.32
      4.7700	  968.00	  560.51	-1713.14	  442.79
      4.8700	  879.00	  560.97	-1713.14	  443.25
      4.9700	  963.00	  561.42	-1713.14	  443.70
      5.0700	  932.00	  561.87	-1713.14	  444.14
      5.1700	  922.00	  562.30	-1713.14	  444.57
      5.2700	  904.00	  562.72	-1713.14	  445.00
      5.3700	  860.00	  563.13	-1713.14	  445.41
      5.4700	  834.00	  563.54	-1713.14	  445.81
      5.5700	  860.00	  563.93	-1713.14	  446.21
      5.6700	  866.00	  564.32	-1713.14	  446.60
      5.7700	  858.00	  564.70	-1713.14	  446.97
      5.8700	  773.00	  565.07	-1713.14	  447.34
      5.9700	  800.00	  565.43	-1713.14	  447.71
      6.0700	  813.00	  565.78	-1713.14	  448.06
      6.1700	  775.00	  566.13	-1713.14	  448.40
      6.2700	  772.00	  566.46	-1713.14	  448.74
      6.3700	  748.00	  566.79	-1713.14	  449.06
      6.4700	  757.00	  567.11	-1713.14	  449.38
      6.5700	  760.00	  567.42	-1713.14	  449.69
      6.6700	  772.00	  567.72	-1713.14	  450.00
      6.7700	  734.00	  568.01	-1713.14	  450.29
      6.8700	  779.00	  568.30	-1713.14	  450.58
      6.9700	  684.00	  568.58	-1713.14	  450.85
      7.0700	  705.00	  568.85	-1713.14	  451.12
      7.1700	  706.00	  569.11	-1713.14	  451.39
      7.2700	  707.00	  569.37	-1713.14	  451.64
      7.3700	  651.00	  569.61	-1713.14	  451.89
      7.4700	  637.00	  569.85	-1713.14	  452.13
      7.5700	  645.00	  570.09	-1713.14	  452.36
      7.6700	  681.00	  570.31	-1713.14	  452.58
      7.7700	  682.00	  570.53	-1713.14	  452.80
      7.8700	  655.00	  570.74	-1713.14	  453.01
      7.9700	  646.00	  570.94	-1713.14	  453.21
      8.0700	  616.00	  571.13	-1713.14	  453.41
      8.1700	  648.00	  571.32	-1713.14	  453.60
      8.2700	  622.00	  571.50	-1713.14	  453.78
      8.3700	  642.00	  571.67	-1713.14	  453.95
      8.4700	  666.00	  571.84	-1713.14	  454.12
      8.5700	  582.00	  572.00	-1713.14	  454.28
      8.6700	  634.00	  572.15	-1713.14	  454.43
      8.7700	  638.00	  572.30	-1713.14	  454.57
      8.8700	  630.00	  572.44	-1713.14	  454.71
      8.9700	  625.00	  572.57	-1713.14	  454.85
      9.0700	  645.00	  572.70	-1713.14	  454.97
      9.1700	  601.00	  572.81	-1713.14	  455.09
      9.2700	  591.00	  572.93	-1713.14	  455.20
      9.3700	  605.00	  573.03	-1713.14	  455.31
      9.4700	  593.00	  573.13	-1713.14	  455.41
      9.5700	  608.00	  573.23	-1713.14	  455.50
      9.6700	  608.00	  573.31	-1713.14	  455.59
      9.7700	  610.00	  573.39	-1713.14	  455.67
      9.8700	  626.00	  573.47	-1713.14	  455.74
      9.9700	  666.00	  573.54	-1713.14	  455.81
     10.0700	  600.00	  574.61	-1687.75	  455.87
     10.1700	  593.00	  574.78	-1694.91	  455.93
     10.2700	  601.00	  574.97	-1687.10	  455.98
     10.3700	  585.00	  575.19	-1703.33	  456.02
     10.4700	  572.00	  575.49	-1716.62	  456.06
     10.5700	  600.00	  575.92	-1689.05	  456.09
     10.6700	  625.00	  576.58	-1664.71	  456.12
     10.7700	  586.00	  577.58	-1704.72	  456.14
     10.8700	  583.00	  579.02	-1709.15	  456.16
     10.9700	  586.00	  580.87	-1708.01	  456.17
     11.0700	  528.00	  583.12	-1768.25	  456.17
     11.1700	  618.00	  585.75	-1680.89	  456.17
     11.2700	  581.00	  588.82	-1720.95	  456.17
     11.3700	  597.00	  592.40	-1708.54	  456.15
     11.4700	  580.00	  596.65	-1729.79	  456.14
     11.5700	  632.00	  601.79	-1682.93	  456.11
     11.6700	  643.00	  608.22	-1678.36	  456.09
     11.7700	  634.00	  616.59	-1695.72	  456.05
     11.8700	  654.00	  627.76	-1686.89	  456.02
     11.9700	  639.00	  642.12	-1716.25	  455.97
     12.0700	  664.00	  657.69	-1706.82	  455.93
     12.1700	  698.00	  668.22	-1683.35	  455.87
     12.2700	  684.00	  664.29	-1693.42	  455.81
     12.3700	  679.00	  643.24	-1677.38	  455.75
     12.4700	  655.00	  617.40	-1675.53	  455.69
     12.5700	  617.00	  597.88	-1694.02	  455.61
     12.6700	  556.00	  586.65	-1743.79	  455.54
     12.7700	  618.00	  581.19	-1676.32	  455.46
     12.8700	  529.00	  578.60	-1762.74	  455.37
     12.9700	  614.00	  577.19	-1676.33	  455.28
     13.0700	  548.00	  576.27	-1741.40	  455.18
     13.1700	  577.00	  575.58	-1711.72	  455.08
     13.2700	  557.00	  575.04	-1731.18	  454.98
     13.3700	  559.00	  574.60	-1728.73	  454.87
     13.4700	  567.00	  574.22	-1720.35	  454.76
     13.5700	  532.00	  573.89	-1755.03	  454.64
     13.6700	  595.00	  573.60	-1691.74	  454.52
     13.7700	  568.00	  573.33	-1718.47	  454.40
     13.8700	  585.00	  573.09	-1701.22	  454.27
     13.9700	  556.00	  572.86	-1729.99	  454.14
     14.0700	  559.00	  572.63	-1726.77	  454.00
     14.1700	  574.00	  572.42	-1711.56	  453.86
     14.2700	  532.00	  572.21	-1753.35	  453.71
     14.3700	  553.00	  572.01	-1732.15	  453.56
     14.4700	  616.00	  571.81	-1668.95	  453.41
     14.5700	  558.00	  571.61	-1726.75	  453.26
     14.6700	  606.00	  571.42	-1678.55	  453.10
     14.7700	  519.00	  571.22	-1765.36	  452.93
     14.8700	  554.00	  571.02	-1730.16	  452.76
     14.9700	  539.00	  570.83	-1744.96	  452.59
     15.0700	  524.00	  570.63	-1759.76	  452.42
     15.1700	  619.00	  570.43	-1664.56	  452.24
     15.2700	  504.00	  570.23	-1779.36	  452.06
     15.3700	  553.00	  570.03	-1730.16	  451.87
     15.4700	  586.00	  569.82	-1696.96	  451.69
     15.5700	  521.00	  569.61	-1761.75	  451.49
     15.6700	  548.00	  569.41	-1734.54	  451.30
     15.7700	  566.00	  569.22	-1716.36	  451.10
     15.8700	  576.00	  569.01	-1706.15	  450.90
     15.9700	  585.00	  568.80	-1696.93	  450.70
     16.0700	  539.00	  568.58	-1742.72	  450.49
     16.1700	  612.00	  568.36	-1669.50	  450.28
     16.2700	  549.00	  568.14	-1732.28	  450.06
     16.3700	  525.00	  567.92	-1756.05	  449.85
     16.4700	  621.00	  567.69	-1659.83	  449.63
     16.5700	  579.00	  567.46	-1701.60	  449.41
     16.6700	  550.00	  567.23	-1730.37	  449.18
     16.7700	  560.00	  567.00	-1720.14	  448.95
     16.8700	  546.00	  566.76	-1733.90	  448.72
     16.9700	  593.00	  566.53	-1686.66	  448.49
     17.0700	  598.00	  566.29	-1681.42	  448.25
     17.1700	  567.00	  566.04	-1712.18	  448.01
     17.2700	  533.00	  565.80	-1745.94	  447.77
     17.3700	  551.00	  565.55	-1727.69	  447.53
     17.4700	  551.00	  565.30	-1727.44	  447.28
     17.5700	  545.00	  565.05	-1733.19	  447.03
     17.6700	  555.00	  564.80	-1722.94	  446.78
     17.7700	  507.00	  564.54	-1770.68	  446.53
     17.8700	  544.00	  564.29	-1733.42	  446.27
     17.9700	  542.00	  564.12	-1735.26	  446.01
     18.0700	  580.00	  563.86	-1697.00	  445.75
     18.1700	  565.00	  563.60	-1711.74	  445.49
     18.2700	  595.00	  563.34	-1681.47	  445.22
     18.3700	  526.00	  563.07	-1750.21	  444.96
     18.4700	  554.00	  562.80	-1721.94	  444.69
     18.5700	  531.00	  562.53	-1744.67	  444.42
     18.6700	  572.00	  562.26	-1703.40	  444.14
     18.7700	  524.00	  562.08	-1751.21	  443.87
     18.8700	  584.00	  561.80	-1690.94	  443.59
     18.9700	  564.00	  561.53	-1710.66	  443.31
     19.0700	  575.00	  561.25	-1699.39	  443.03
     19.1700	  555.00	  560.97	-1719.11	  442.74
     19.2700	  547.00	  560.69	-1726.83	  442.46
     19.3700	  544.00	  560.41	-1729.55	  442.17
     19.4700	  544.00	  560.13	-1729.27	  441.88
     19.5700	  596.00	  559.85	-1676.98	  441.59
     19.6700	  556.00	  559.56	-1716.70	  441.30
     19.7700	  593.00	  559.28	-1679.41	  441.01
     19.8700	  540.00	  558.99	-1732.12	  440.71
     19.9700	  549.00	  558.70	-1722.84	  440.41
     20.0700	  556.00	  558.41	-1715.55	  440.11
     20.1700	  553.00	  558.12	-1718.26	  439.81
     20.2700	  549.00	  557.83	-1721.97	  439.51
     20.3700	  546.00	  557.54	-1724.67	  439.21
     20.4700	  629.00	  557.24	-1641.38	  438.90
     20.5700	  529.00	  556.95	-1741.09	  438.60
     20.6700	  557.00	  556.69	-1712.82	  438.29
     20.7700	  543.00	  556.40	-1726.53	  437.98
     20.8700	  515.00	  556.10	-1754.24	  437.67
     20.9700	  545.00	  555.81	-1723.94	  437.36
     21.0700	  494.00	  555.47	-1774.61	  437.05
     21.1700	  594.00	  555.18	-1674.31	  436.73
     21.2700	  577.00	  554.88	-1691.02	  436.42
     21.3700	  536.00	  554.59	-1731.73	  436.10
     21.4700	  527.00	  554.30	-1740.43	  435.79
     21.5700	  562.00	  554.00	-1705.14	  435.47
     21.6700	  512.00	  553.71	-1754.85	  435.15
     21.7700	  548.00	  553.42	-1718.56	  434.83
     21.8700	  564.00	  553.13	-1702.27	  434.51
     21.9700	  552.00	  552.84	-1713.98	  434.18
     22.0700	  554.00	  552.55	-1711.69	  433.86
     22.1700	  530.00	  552.27	-1735.41	  433.54
     22.2700	  535.00	  551.99	-1730.12	  433.21
     22.3700	  589.00	  551.71	-1675.85	  432.89
     22.4700	  527.00	  551.44	-1737.57	  432.56
     22.5700	  562.00	  551.17	-1702.30	  432.23
     22.6700	  544.00	  550.91	-1720.04	  431.90
     22.7700	  544.00	  550.65	-1719.79	  431.57
     22.8700	  571.00	  550.40	-1692.54	  431.25
     22.9700	  550.00	  550.17	-1713.30	  430.92
     23.0700	  561.00	  549.95	-1702.08	  430.58
     23.1700	  569.00	  549.74	-1693.88	  430.25
     23.2700	  560.00	  549.56	-1702.69	  429.92
     23.3700	  533.00	  549.40	-1729.54	  429.59
     23.4700	  529.00	  549.43	-1733.56	  429.26
     23.5700	  542.00	  549.36	-1720.50	  428.92
     23.6700	  539.00	  549.38	-1723.52	  428.59
     23.7700	  550.00	  549.52	-1712.66	  428.25
     23.8700	  549.00	  549.90	-1714.03	  427.92
     23.9700	  582.00	  550.72	-1681.86	  427.58
     24.0700	  560.00	  552.41	-1705.54	  427.25
     24.1700	  546.00	  555.55	-1722.68	  426.91
     24.2700	  566.00	  560.91	-1708.05	  426.58
     24.3700	  596.00	  569.36	-1686.49	  426.24
     24.4700	  598.00	  581.63	-1696.76	  425.90
     24.5700	  609.00	  597.60	-1701.73	  425.57
     24.6700	  673.00	  614.50	-1654.64	  425.23
     24.7700	  675.00	  625.63	-1663.76	  424.89
     24.8700	  617.00	  622.37	-1718.51	  424.55
     24.9700	  615.00	  604.08	-1702.21	  424.22
     25.0700	  602.00	  582.00	-1693.13	  423.88
     25.1700	  568.00	  565.04	-1710.18	  423.54
     25.2700	  553.00	  554.94	-1715.08	  423.20
     25.3700	  604.00	  549.84	-1658.97	  422.87
     25.4700	  580.00	  547.35	-1680.49	  422.53
     25.5700	  554.00	  546.01	-1705.14	  422.19
     25.6700	  561.00	  545.13	-1697.26	  421.85
     25.7700	  557.00	  544.49	-1700.63	  421.51
     25.8700	  574.00	  544.00	-1683.14	  421.18
     25.9700	  539.00	  543.63	-1717.76	  420.84
     26.0700	  570.00	  543.34	-1686.48	  420.50
     26.1700	  575.00	  543.14	-1681.27	  420.17
     26.2700	  551.00	  543.01	-1705.15	  419.83
     26.3700	  541.00	  542.97	-1715.10	  419.49
     26.4700	  552.00	  543.00	-1704.14	  419.15
     26.5700	  518.00	  543.13	-1738.27	  418.82
     26.6700	  552.00	  543.37	-1704.51	  418.48
     26.7700	  589.00	  543.75	-1667.89	  418.15
     26.8700	  537.00	  544.30	-1720.43	  417.81
     26.9700	  549.00	  545.06	-1709.19	  417.48
     27.0700	  537.00	  546.10	-1722.24	  417.14
     27.1700	  531.00	  547.57	-1729.70	  416.81
     27.2700	  549.00	  549.68	-1713.82	  416.47
     27.3700	  576.00	  552.93	-1690.07	  416.14
     27.4700	  536.00	  558.24	-1735.37	  415.81
     27.5700	  573.00	  567.23	-1707.37	  415.47
     27.6700	  593.00	  582.51	-1702.65	  415.14
     27.7700	  600.00	  607.37	-1720.51	  414.81
     27.8700	  617.00	  644.64	-1740.77	  414.48
     27.9700	  683.00	  694.35	-1724.49	  414.15
     28.0700	  758.00	  750.80	-1705.94	  413.82
     28.1700	  884.00	  799.97	-1629.10	  413.49
     28.2700	  910.00	  821.02	-1624.15	  413.16
     28.3700	  828.00	  802.24	-1687.38	  412.83
     28.4700	  777.00	  764.21	-1700.35	  412.50
     28.5700	  726.00	  739.67	-1726.81	  412.18
     28.6700	  687.00	  743.15	-1769.29	  411.85
     28.7700	  762.00	  769.45	-1720.58	  411.52
     28.8700	  840.00	  798.76	-1671.90	  411.20
     28.9700	  825.00	  803.41	-1691.55	  410.88
     29.0700	  765.00	  766.24	-1714.38	  410.55
     29.1700	  676.00	  703.31	-1740.45	  410.23
     29.2700	  620.00	  643.22	-1736.35	  409.91
     29.3700	  620.00	  599.58	-1692.71	  409.59
     29.4700	  654.00	  572.92	-1632.06	  409.27
     29.5700	  577.00	  558.33	-1694.46	  408.95
     29.6700	  598.00	  550.54	-1665.68	  408.63
     29.7700	  551.00	  546.11	-1708.24	  408.31
     29.8700	  603.00	  543.34	-1653.48	  407.99
     29.9700	  582.00	  541.57	-1672.70	  407.68
     30.0700	  564.00	  540.61	-1689.75	  407.36
     30.1700	  562.00	  540.61	-1691.74	  407.05
     30.2700	  522.00	  542.04	-1733.18	  406.73
     30.3700	  555.00	  545.84	-1703.97	  406.42
     30.4700	  547.00	  553.38	-1719.52	  406.11
     30.5700	  543.00	  566.06	-1736.20	  405.80
     30.6700	  579.00	  584.11	-1718.25	  405.49
     30.7700	  598.00	  605.23	-1720.36	  405.18
     30.8700	  612.00	  623.29	-1724.43	  404.87
     30.9700	  612.00	  629.33	-1730.46	  404.57
     31.0700	  610.00	  617.39	-1720.52	  404.26
     31.1700	  617.00	  593.63	-1689.77	  403.96
     31.2700	  586.00	  569.75	-1696.89	  403.66
     31.3700	  566.00	  551.92	-1699.06	  403.35
     31.4700	  531.00	  540.86	-1722.99	  403.05
     31.5700	  528.00	  534.79	-1719.92	  402.75
     31.6700	  514.00	  531.58	-1730.72	  402.46
     31.7700	  552.00	  529.79	-1690.92	  402.16
     31.8700	  536.00	  528.66	-1705.79	  401.86
     31.9700	  536.00	  527.88	-1705.01	  401.57
     32.0700	  531.00	  527.33	-1709.46	  401.27
     32.1700	  548.00	  526.96	-1692.10	  400.98
     32.2700	  528.00	  526.76	-1711.90	  400.69
     32.3700	  564.00	  526.71	-1675.85	  400.40
     32.4700	  533.00	  526.83	-1706.96	  400.11
     32.5700	  509.00	  527.12	-1731.26	  399.82
     32.6700	  559.00	  527.63	-1681.77	  399.54
     32.7700	  537.00	  528.40	-1704.53	  399.25
     32.8700	  544.00	  529.50	-1698.64	  398.97
     32.9700	  573.00	  531.07	-1671.21	  398.68
     33.0700	  542.00	  533.35	-1704.49	  398.40
     33.1700	  519.00	  536.85	-1730.98	  398.12
     33.2700	  555.00	  542.68	-1700.82	  397.85
     33.3700	  551.00	  553.23	-1715.37	  397.57
     33.4700	  581.00	  572.87	-1705.01	  397.29
     33.5700	  589.00	  608.26	-1732.39	  397.02
     33.6700	  634.00	  666.63	-1745.76	  396.74
     33.7700	  781.00	  750.47	-1682.60	  396.47
     33.8700	  910.00	  850.05	-1653.19	  396.20
     33.9700	 1016.00	  938.72	-1635.85	  395.93
     34.0700	 1068.00	  976.42	-1621.56	  395.67
     34.1700	  941.00	  934.66	-1706.80	  395.40
     34.2700	  861.00	  834.86	-1687.00	  395.14
     34.3700	  749.00	  727.38	-1691.51	  394.87
     34.4700	  631.00	  643.13	-1725.26	  394.61
     34.5700	  618.00	  588.91	-1684.04	  394.35
     34.6700	  561.00	  558.60	-1710.74	  394.09
     34.7700	  564.00	  542.87	-1692.01	  393.84
     34.8700	  561.00	  534.50	-1686.64	  393.58
     34.9700	  514.00	  529.46	-1728.60	  393.33
     35.0700	  518.00	  526.00	-1721.14	  393.07
     35.1700	  511.00	  523.40	-1725.53	  392.82
     35.2700	  541.00	  521.33	-1693.47	  392.57
     35.3700	  547.00	  519.66	-1685.79	  392.33
     35.4700	  524.00	  518.27	-1707.40	  392.08
     35.5700	  528.00	  517.09	-1702.23	  391.84
     35.6700	  493.00	  516.08	-1736.22	  391.59
     35.7700	  499.00	  515.20	-1729.34	  391.35
     35.8700	  523.00	  514.43	-1704.57	  391.11
     35.9700	  510.00	  514.21	-1717.35	  390.87
     36.0700	  496.00	  513.61	-1730.74	  390.64
     36.1700	  489.00	  513.06	-1737.19	  390.40
     36.2700	  530.00	  512.56	-1695.70	  390.17
     36.3700	  507.00	  512.12	-1718.25	  389.93
     36.4700	  538.00	  511.72	-1686.85	  389.70
     36.5700	  532.00	  511.36	-1692.49	  389.48
     36.6700	  468.00	  511.04	-1756.18	  389.25
     36.7700	  520.00	  510.78	-1703.92	  389.02
     36.8700	  492.00	  510.60	-1731.74	  388.80
     36.9700	  518.00	  510.57	-1705.71	  388.58
     37.0700	  508.00	  510.82	-1715.96	  388.36
     37.1700	  528.00	  511.60	-1696.73	  388.14
     37.2700	  503.00	  513.22	-1723.36	  387.92
     37.3700	  565.00	  515.97	-1664.10	  387.71
     37.4700	  489.00	  519.76	-1743.90	  387.49
     37.5700	  485.00	  523.89	-1752.03	  387.28
     37.6700	  492.00	  526.94	-1748.08	  387.07
     37.7700	  502.00	  527.41	-1738.55	  386.86
     37.8700	  530.00	  525.06	-1708.19	  386.65
     37.9700	  525.00	  521.28	-1709.41	  386.45
     38.0700	  526.00	  517.37	-1704.50	  386.25
     38.1700	  526.00	  513.87	-1701.01	  386.04
     38.2700	  528.00	  511.06	-1696.19	  385.84
     38.3700	  493.00	  509.00	-1729.14	  385.65
     38.4700	  468.00	  507.60	-1752.73	  385.45
     38.5700	  517.00	  506.67	-1702.80	  385.26
     38.6700	  500.00	  506.05	-1719.18	  385.06
     38.7700	  517.00	  505.52	-1701.66	  384.87
     38.8700	  490.00	  505.19	-1728.32	  384.68
     38.9700	  492.00	  504.90	-1726.04	  384.49
     39.0700	  489.00	  504.65	-1728.79	  384.31
     39.1700	  456.00	  504.57	-1761.70	  384.12
     39.2700	  501.00	  504.36	-1716.50	  383.94
     39.3700	  525.00	  504.08	-1692.22	  383.76
     39.4700	  531.00	  503.90	-1686.04	  383.58
     39.5700	  524.00	  503.74	-1692.87	  383.41
     39.6700	  521.00	  503.58	-1695.71	  383.23
     39.7700	  521.00	  503.43	-1695.57	  383.06
     39.8700	  510.00	  503.30	-1706.43	  382.89
     39.9700	  508.00	  503.17	-1708.31	  382.72
     40.0700	  467.00	  503.06	-1749.19	  382.55
     40.1700	  493.00	  502.96	-1723.09	  382.38
     40.2700	  464.00	  502.87	-1752.00	  382.22
     40.3700	  515.00	  502.79	-1700.93	  382.05
     40.4700	  487.00	  502.73	-1728.87	  381.89
     40.5700	  508.00	  502.69	-1707.82	  381.73
     40.6700	  543.00	  502.66	-1672.80	  381.58
     40.7700	  519.00	  502.66	-1696.80	  381.42
