MSG Master    CELL:    5.91925   5.91925  23.26966   90.0000   90.0000  120.0000   SPGR: P 63/m m c             TEMP:   1074.85
  1   1280     2.52000     0.00000    -0.12474     0.00000     0.00000    0
    99     0     2
       0.00000      10.00000
     125.00000     130.00000
 2Theta	Yobs	Ycal	Yobs-Ycal	Backg	Posr	(hkl)	K
      0.7700	    0.00	  563.75	-1771.25	  446.76
      0.8700	    0.00	  564.32	-1771.25	  447.33
      0.9700	   50.00	  564.88	-1771.25	  447.90
      1.0700	   53.00	  565.44	-1771.25	  448.45
      1.1700	   41.00	  565.98	-1771.25	  449.00
      1.2700	   37.00	  566.52	-1771.25	  449.53
      1.3700	   39.00	  567.04	-1771.25	  450.06
      1.4700	   88.00	  567.56	-1771.25	  450.57
      1.5700	  308.00	  568.06	-1771.25	  451.08
      1.6700	  445.00	  568.56	-1771.25	  451.57
      1.7700	  580.00	  569.05	-1771.25	  452.06
      1.8700	  655.00	  569.52	-1771.25	  452.54
      1.9700	  730.00	  569.99	-1771.25	  453.00
      2.0700	  740.00	  570.45	-1771.25	  453.46
      2.1700	  750.00	  570.90	-1771.25	  453.91
      2.2700	  767.00	  571.34	-1771.25	  454.35
      2.3700	  783.00	  571.77	-1771.25	  454.78
      2.4700	  712.00	  572.19	-1771.25	  455.21
      2.5700	  744.00	  572.61	-1771.25	  455.62
      2.6700	  691.00	  573.01	-1771.25	  456.02
      2.7700	  635.00	  573.41	-1771.25	  456.42
      2.8700	  648.00	  573.79	-1771.25	  456.81
      2.9700	  659.00	  574.17	-1771.25	  457.19
      3.0700	  615.00	  574.54	-1771.25	  457.56
      3.1700	  596.00	  574.90	-1771.25	  457.92
      3.2700	  585.00	  575.26	-1771.25	  458.27
      3.3700	  682.00	  575.60	-1771.25	  458.61
      3.4700	  736.00	  575.94	-1771.25	  458.95
      3.5700	  803.00	  576.26	-1771.25	  459.28
      3.6700	  833.00	  576.58	-1771.25	  459.60
      3.7700	  951.00	  576.90	-1771.25	  459.91
      3.8700	  976.00	  577.20	-1771.25	  460.21
      3.9700	 1039.00	  577.50	-1771.25	  460.51
      4.0700	  998.00	  577.78	-1771.25	  460.80
      4.1700	 1032.00	  578.06	-1771.25	  461.08
      4.2700	 1091.00	  578.33	-1771.25	  461.35
      4.3700	 1113.00	  578.60	-1771.25	  461.61
      4.4700	 1050.00	  578.86	-1771.25	  461.87
      4.5700	 1017.00	  579.10	-1771.25	  462.12
      4.6700	 1068.00	  579.35	-1771.25	  462.36
      4.7700	 1048.00	  579.58	-1771.25	  462.59
      4.8700	  972.00	  579.81	-1771.25	  462.82
      4.9700	 1012.00	  580.02	-1771.25	  463.04
      5.0700	  988.00	  580.24	-1771.25	  463.25
      5.1700	  900.00	  580.44	-1771.25	  463.45
      5.2700	  902.00	  580.64	-1771.25	  463.65
      5.3700	  842.00	  580.83	-1771.25	  463.84
      5.4700	  905.00	  581.01	-1771.25	  464.02
      5.5700	  805.00	  581.19	-1771.25	  464.20
      5.6700	  875.00	  581.35	-1771.25	  464.37
      5.7700	  877.00	  581.52	-1771.25	  464.53
      5.8700	  782.00	  581.67	-1771.25	  464.69
      5.9700	  817.00	  581.82	-1771.25	  464.83
      6.0700	  824.00	  581.96	-1771.25	  464.98
      6.1700	  835.00	  582.10	-1771.25	  465.11
      6.2700	  792.00	  582.23	-1771.25	  465.24
      6.3700	  750.00	  582.35	-1771.25	  465.36
      6.4700	  757.00	  582.46	-1771.25	  465.48
      6.5700	  744.00	  582.57	-1771.25	  465.59
      6.6700	  734.00	  582.67	-1771.25	  465.69
      6.7700	  725.00	  582.77	-1771.25	  465.78
      6.8700	  734.00	  582.86	-1771.25	  465.87
      6.9700	  740.00	  582.94	-1771.25	  465.96
      7.0700	  701.00	  583.02	-1771.25	  466.03
      7.1700	  674.00	  583.09	-1771.25	  466.11
      7.2700	  718.00	  583.16	-1771.25	  466.17
      7.3700	  653.00	  583.22	-1771.25	  466.23
      7.4700	  704.00	  583.27	-1771.25	  466.28
      7.5700	  710.00	  583.32	-1771.25	  466.33
      7.6700	  639.00	  583.36	-1771.25	  466.37
      7.7700	  705.00	  583.39	-1771.25	  466.41
      7.8700	  676.00	  583.42	-1771.25	  466.44
      7.9700	  658.00	  583.45	-1771.25	  466.46
      8.0700	  625.00	  583.47	-1771.25	  466.48
      8.1700	  585.00	  583.48	-1771.25	  466.49
      8.2700	  680.00	  583.49	-1771.25	  466.50
      8.3700	  645.00	  583.49	-1771.25	  466.50
      8.4700	  660.00	  583.49	-1771.25	  466.50
      8.5700	  596.00	  583.48	-1771.25	  466.49
      8.6700	  624.00	  583.46	-1771.25	  466.48
      8.7700	  632.00	  583.44	-1771.25	  466.46
      8.8700	  620.00	  583.42	-1771.25	  466.43
      8.9700	  634.00	  583.39	-1771.25	  466.40
      9.0700	  636.00	  583.35	-1771.25	  466.37
      9.1700	  600.00	  583.31	-1771.25	  466.33
      9.2700	  584.00	  583.27	-1771.25	  466.28
      9.3700	  599.00	  583.22	-1771.25	  466.23
      9.4700	  608.00	  583.17	-1771.25	  466.18
      9.5700	  610.00	  583.11	-1771.25	  466.12
      9.6700	  596.00	  583.04	-1771.25	  466.06
      9.7700	  591.00	  582.97	-1771.25	  465.99
      9.8700	  590.00	  582.90	-1771.25	  465.91
      9.9700	  592.00	  582.82	-1771.25	  465.83
     10.0700	  625.00	  583.35	-1729.60	  465.75
     10.1700	  581.00	  583.32	-1773.57	  465.66
     10.2700	  589.00	  583.30	-1765.55	  465.57
     10.3700	  564.00	  583.30	-1790.55	  465.47
     10.4700	  583.00	  583.34	-1771.59	  465.37
     10.5700	  584.00	  583.47	-1770.72	  465.27
     10.6700	  569.00	  583.76	-1786.01	  465.16
     10.7700	  610.00	  584.33	-1745.58	  465.04
     10.8700	  579.00	  585.25	-1777.50	  464.93
     10.9700	  655.00	  586.50	-1702.75	  464.80
     11.0700	  583.00	  588.04	-1776.29	  464.68
     11.1700	  567.00	  589.87	-1794.12	  464.55
     11.2700	  564.00	  592.01	-1799.26	  464.41
     11.3700	  570.00	  594.54	-1795.79	  464.27
     11.4700	  610.00	  597.56	-1758.81	  464.13
     11.5700	  576.00	  601.24	-1796.49	  463.98
     11.6700	  615.00	  605.88	-1762.13	  463.83
     11.7700	  598.00	  612.01	-1785.26	  463.68
     11.8700	  643.00	  620.53	-1748.78	  463.52
     11.9700	  632.00	  632.32	-1771.57	  463.36
     12.0700	  696.00	  646.38	-1721.63	  463.19
     12.1700	  713.00	  657.04	-1715.29	  463.02
     12.2700	  673.00	  654.62	-1752.87	  462.85
     12.3700	  640.00	  635.68	-1766.93	  462.67
     12.4700	  612.00	  612.25	-1771.50	  462.49
     12.5700	  601.00	  595.54	-1765.79	  462.31
     12.6700	  661.00	  586.97	-1697.22	  462.12
     12.7700	  601.00	  583.36	-1753.61	  461.93
     12.8700	  587.00	  581.78	-1766.03	  461.74
     12.9700	  572.00	  580.87	-1780.12	  461.54
     13.0700	  558.00	  580.22	-1793.47	  461.34
     13.1700	  567.00	  579.70	-1783.95	  461.14
     13.2700	  549.00	  579.25	-1801.50	  460.93
     13.3700	  559.00	  578.86	-1791.11	  460.72
     13.4700	  543.00	  578.51	-1806.76	  460.51
     13.5700	  557.00	  578.18	-1792.43	  460.30
     13.6700	  594.00	  577.86	-1755.11	  460.08
     13.7700	  562.00	  577.57	-1786.82	  459.86
     13.8700	  595.00	  577.28	-1753.53	  459.63
     13.9700	  592.00	  577.00	-1756.25	  459.40
     14.0700	  576.00	  576.72	-1771.97	  459.17
     14.1700	  591.00	  576.45	-1756.70	  458.94
     14.2700	  556.00	  576.18	-1791.43	  458.70
     14.3700	  561.00	  575.91	-1786.16	  458.47
     14.4700	  583.00	  575.65	-1763.90	  458.22
     14.5700	  542.00	  575.38	-1804.63	  457.98
     14.6700	  587.00	  575.11	-1759.36	  457.73
     14.7700	  520.00	  574.85	-1826.10	  457.48
     14.8700	  555.00	  574.58	-1790.83	  457.23
     14.9700	  556.00	  574.31	-1789.56	  456.98
     15.0700	  577.00	  574.04	-1768.29	  456.72
     15.1700	  541.00	  573.77	-1804.02	  456.46
     15.2700	  563.00	  573.50	-1781.75	  456.20
     15.3700	  567.00	  573.23	-1777.48	  455.94
     15.4700	  602.00	  572.95	-1742.20	  455.67
     15.5700	  537.00	  572.68	-1806.93	  455.40
     15.6700	  536.00	  572.40	-1807.65	  455.13
     15.7700	  613.00	  572.12	-1730.37	  454.86
     15.8700	  578.00	  571.84	-1765.09	  454.59
     15.9700	  544.00	  571.56	-1798.81	  454.31
     16.0700	  587.00	  571.27	-1755.52	  454.03
     16.1700	  632.00	  570.99	-1710.24	  453.75
     16.2700	  523.00	  570.70	-1818.95	  453.47
     16.3700	  571.00	  570.41	-1770.66	  453.18
     16.4700	  564.00	  570.12	-1777.37	  452.89
     16.5700	  578.00	  569.85	-1763.10	  452.60
     16.6700	  539.00	  569.56	-1801.81	  452.31
     16.7700	  506.00	  569.26	-1834.51	  452.02
     16.8700	  571.00	  568.97	-1769.22	  451.73
     16.9700	  564.00	  568.67	-1775.92	  451.43
     17.0700	  547.00	  568.37	-1792.62	  451.13
     17.1700	  566.00	  568.07	-1773.32	  450.83
     17.2700	  558.00	  567.76	-1781.01	  450.53
     17.3700	  572.00	  567.46	-1766.71	  450.23
     17.4700	  625.00	  567.15	-1713.40	  449.92
     17.5700	  605.00	  566.85	-1733.10	  449.62
     17.6700	  550.00	  566.54	-1787.79	  449.31
     17.7700	  548.00	  566.23	-1789.48	  449.00
     17.8700	  540.00	  566.02	-1797.27	  448.69
     17.9700	  604.00	  565.71	-1732.96	  448.38
     18.0700	  597.00	  565.40	-1739.65	  448.06
     18.1700	  591.00	  565.08	-1745.33	  447.75
     18.2700	  618.00	  564.77	-1718.02	  447.43
     18.3700	  534.00	  564.45	-1801.70	  447.12
     18.4700	  560.00	  564.14	-1775.39	  446.80
     18.5700	  597.00	  563.82	-1738.07	  446.48
     18.6700	  565.00	  563.50	-1769.75	  446.16
     18.7700	  578.00	  563.18	-1756.43	  445.83
     18.8700	  600.00	  562.95	-1734.20	  445.51
     18.9700	  561.00	  562.63	-1772.88	  445.19
     19.0700	  534.00	  562.31	-1799.56	  444.86
     19.1700	  538.00	  561.99	-1795.24	  444.53
     19.2700	  535.00	  561.67	-1797.92	  444.20
     19.3700	  556.00	  561.34	-1776.59	  443.88
     19.4700	  556.00	  561.02	-1776.27	  443.55
     19.5700	  570.00	  560.70	-1761.95	  443.22
     19.6700	  528.00	  560.37	-1803.62	  442.88
     19.7700	  544.00	  560.05	-1787.30	  442.55
     19.8700	  534.00	  559.72	-1796.97	  442.22
     19.9700	  556.00	  559.40	-1774.65	  441.88
     20.0700	  533.00	  559.07	-1797.32	  441.55
     20.1700	  523.00	  558.74	-1806.99	  441.21
     20.2700	  518.00	  558.39	-1811.64	  440.88
     20.3700	  529.00	  558.07	-1800.32	  440.54
     20.4700	  550.00	  557.74	-1778.99	  440.20
     20.5700	  543.00	  557.41	-1785.66	  439.86
     20.6700	  562.00	  557.09	-1766.34	  439.52
     20.7700	  551.00	  556.76	-1777.01	  439.18
     20.8700	  557.00	  556.43	-1770.68	  438.84
     20.9700	  576.00	  556.14	-1751.39	  438.50
     21.0700	  575.00	  555.81	-1752.06	  438.16
     21.1700	  553.00	  555.49	-1773.74	  437.82
     21.2700	  535.00	  555.16	-1791.41	  437.47
     21.3700	  566.00	  554.84	-1760.09	  437.13
     21.4700	  540.00	  554.52	-1785.77	  436.79
     21.5700	  542.00	  554.20	-1783.45	  436.45
     21.6700	  549.00	  553.87	-1776.12	  436.10
     21.7700	  546.00	  553.55	-1778.80	  435.76
     21.8700	  549.00	  553.24	-1775.49	  435.41
     21.9700	  543.00	  552.92	-1781.17	  435.07
     22.0700	  522.00	  552.60	-1801.85	  434.72
     22.1700	  508.00	  552.29	-1815.54	  434.38
     22.2700	  568.00	  551.98	-1755.23	  434.03
     22.3700	  556.00	  551.67	-1766.92	  433.68
     22.4700	  584.00	  551.37	-1738.62	  433.34
     22.5700	  523.00	  551.07	-1799.32	  432.99
     22.6700	  550.00	  550.77	-1772.02	  432.65
     22.7700	  573.00	  550.48	-1748.73	  432.30
     22.8700	  564.00	  550.20	-1757.45	  431.95
     22.9700	  598.00	  549.93	-1723.18	  431.61
     23.0700	  584.00	  549.66	-1736.91	  431.26
     23.1700	  556.00	  549.41	-1764.66	  430.91
     23.2700	  621.00	  549.18	-1699.43	  430.57
     23.3700	  530.00	  548.96	-1790.21	  430.22
     23.4700	  568.00	  548.77	-1752.02	  429.87
     23.5700	  572.00	  548.62	-1747.87	  429.53
     23.6700	  557.00	  548.52	-1762.77	  429.18
     23.7700	  585.00	  548.50	-1734.75	  428.83
     23.8700	  569.00	  548.78	-1751.03	  428.49
     23.9700	  548.00	  549.28	-1772.53	  428.14
     24.0700	  556.00	  550.54	-1765.79	  427.80
     24.1700	  582.00	  553.16	-1742.41	  427.45
     24.2700	  586.00	  557.96	-1743.21	  427.11
     24.3700	  559.00	  565.85	-1778.10	  426.76
     24.4700	  581.00	  577.95	-1768.20	  426.42
     24.5700	  573.00	  594.95	-1793.20	  426.07
     24.6700	  645.00	  614.60	-1740.85	  425.73
     24.7700	  620.00	  629.12	-1780.37	  425.39
     24.8700	  657.00	  627.23	-1741.48	  425.04
     24.9700	  585.00	  606.64	-1792.89	  424.70
     25.0700	  551.00	  581.06	-1801.31	  424.36
     25.1700	  551.00	  562.23	-1782.48	  424.02
     25.2700	  535.00	  552.11	-1788.36	  423.67
     25.3700	  532.00	  547.68	-1786.93	  423.33
     25.4700	  606.00	  545.78	-1711.03	  422.99
     25.5700	  560.00	  544.79	-1756.04	  422.65
     25.6700	  529.00	  544.13	-1786.38	  422.31
     25.7700	  547.00	  543.64	-1767.89	  421.97
     25.8700	  584.00	  543.27	-1730.52	  421.64
     25.9700	  571.00	  542.99	-1743.24	  421.30
     26.0700	  577.00	  542.78	-1737.03	  420.96
     26.1700	  583.00	  542.65	-1730.90	  420.62
     26.2700	  553.00	  542.58	-1760.83	  420.29
     26.3700	  561.00	  542.59	-1752.84	  419.95
     26.4700	  555.00	  542.68	-1758.93	  419.62
     26.5700	  587.00	  542.87	-1727.12	  419.28
     26.6700	  550.00	  543.17	-1764.42	  418.95
     26.7700	  512.00	  543.60	-1802.85	  418.62
     26.8700	  570.00	  544.21	-1745.46	  418.29
     26.9700	  579.00	  545.05	-1737.30	  417.95
     27.0700	  618.00	  546.20	-1699.45	  417.62
     27.1700	  543.00	  547.78	-1776.03	  417.30
     27.2700	  564.00	  550.06	-1757.31	  416.97
     27.3700	  580.00	  553.54	-1744.79	  416.64
     27.4700	  528.00	  559.18	-1802.43	  416.31
     27.5700	  560.00	  568.70	-1779.95	  415.99
     27.6700	  586.00	  584.78	-1770.03	  415.66
     27.7700	  563.00	  610.85	-1819.10	  415.34
     27.8700	  643.00	  649.78	-1778.03	  415.01
     27.9700	  669.00	  701.58	-1803.83	  414.69
     28.0700	  760.00	  760.31	-1771.56	  414.37
     28.1700	  874.00	  811.57	-1708.82	  414.05
     28.2700	  954.00	  833.82	-1651.07	  413.73
     28.3700	  932.00	  814.48	-1653.73	  413.41
     28.4700	  846.00	  774.05	-1699.30	  413.09
     28.5700	  685.00	  746.66	-1832.91	  412.78
     28.6700	  737.00	  748.14	-1782.39	  412.46
     28.7700	  732.00	  773.85	-1813.10	  412.15
     28.8700	  854.00	  803.81	-1721.06	  411.83
     28.9700	  765.00	  809.36	-1815.61	  411.52
     29.0700	  790.00	  771.91	-1753.16	  411.21
     29.1700	  690.00	  707.23	-1788.48	  410.90
     29.2700	  653.00	  645.20	-1763.45	  410.59
     29.3700	  550.00	  600.27	-1821.52	  410.28
     29.4700	  619.00	  573.02	-1725.27	  409.97
     29.5700	  561.00	  558.26	-1768.51	  409.67
     29.6700	  583.00	  550.46	-1738.71	  409.36
     29.7700	  609.00	  546.03	-1708.28	  409.06
     29.8700	  613.00	  543.25	-1701.50	  408.76
     29.9700	  571.00	  541.45	-1741.70	  408.46
     30.0700	  546.00	  540.46	-1765.71	  408.16
     30.1700	  558.00	  540.41	-1753.66	  407.86
     30.2700	  549.00	  541.79	-1764.04	  407.56
     30.3700	  563.00	  545.61	-1753.86	  407.26
     30.4700	  538.00	  553.43	-1786.68	  406.97
     30.5700	  576.00	  566.93	-1762.18	  406.68
     30.6700	  564.00	  586.68	-1793.93	  406.38
     30.7700	  588.00	  610.31	-1793.56	  406.09
     30.8700	  597.00	  631.15	-1805.40	  405.80
     30.9700	  577.00	  638.85	-1833.10	  405.51
     31.0700	  604.00	  626.11	-1793.36	  405.23
     31.1700	  607.00	  599.54	-1763.79	  404.94
     31.2700	  544.00	  572.72	-1799.97	  404.66
     31.3700	  546.00	  552.98	-1778.23	  404.38
     31.4700	  516.00	  541.01	-1796.26	  404.09
     31.5700	  569.00	  534.67	-1736.92	  403.81
     31.6700	  546.00	  531.42	-1756.67	  403.53
     31.7700	  477.00	  529.63	-1823.88	  403.26
     31.8700	  532.00	  528.49	-1767.74	  402.98
     31.9700	  537.00	  527.69	-1761.94	  402.71
     32.0700	  570.00	  527.11	-1728.36	  402.43
     32.1700	  561.00	  526.70	-1736.95	  402.16
     32.2700	  556.00	  526.45	-1741.70	  401.89
     32.3700	  544.00	  526.33	-1753.58	  401.62
     32.4700	  565.00	  526.36	-1732.61	  401.36
     32.5700	  517.00	  526.55	-1780.80	  401.09
     32.6700	  583.00	  526.92	-1715.17	  400.83
     32.7700	  561.00	  527.51	-1737.76	  400.56
     32.8700	  530.00	  528.40	-1769.65	  400.30
     32.9700	  541.00	  529.67	-1759.92	  400.04
     33.0700	  539.00	  531.52	-1763.77	  399.78
     33.1700	  567.00	  534.37	-1738.62	  399.53
     33.2700	  554.00	  539.18	-1756.43	  399.27
     33.3700	  539.00	  548.07	-1780.32	  399.02
     33.4700	  563.00	  565.34	-1773.59	  398.77
     33.5700	  571.00	  597.93	-1798.18	  398.52
     33.6700	  615.00	  654.18	-1810.43	  398.27
     33.7700	  786.00	  738.53	-1723.78	  398.02
     33.8700	  844.00	  842.56	-1769.81	  397.77
     33.9700	 1047.00	  938.69	-1662.94	  397.53
     34.0700	 1067.00	  983.44	-1687.69	  397.29
     34.1700	 1064.00	  943.34	-1650.59	  397.05
     34.2700	  862.00	  838.86	-1748.11	  396.81
     34.3700	  769.00	  725.28	-1727.53	  396.57
     34.4700	  638.00	  637.54	-1770.79	  396.33
     34.5700	  610.00	  582.96	-1744.21	  396.10
     34.6700	  540.00	  553.95	-1785.20	  395.87
     34.7700	  541.00	  539.69	-1769.94	  395.64
     34.8700	  505.00	  532.38	-1798.63	  395.41
     34.9700	  541.00	  528.05	-1758.30	  395.18
     35.0700	  516.00	  525.06	-1780.31	  394.95
     35.1700	  543.00	  522.80	-1751.05	  394.73
     35.2700	  507.00	  521.01	-1785.26	  394.51
     35.3700	  519.00	  519.56	-1771.81	  394.29
     35.4700	  522.00	  518.37	-1767.62	  394.07
     35.5700	  569.00	  517.35	-1719.60	  393.85
     35.6700	  540.00	  516.47	-1747.72	  393.63
     35.7700	  548.00	  515.71	-1738.96	  393.42
     35.8700	  497.00	  515.53	-1789.78	  393.21
     35.9700	  575.00	  514.94	-1711.19	  393.00
     36.0700	  508.00	  514.41	-1777.66	  392.79
     36.1700	  475.00	  513.93	-1810.18	  392.58
     36.2700	  534.00	  513.50	-1750.75	  392.38
     36.3700	  516.00	  513.10	-1768.35	  392.17
     36.4700	  482.00	  512.74	-1801.99	  391.97
     36.5700	  506.00	  512.42	-1777.67	  391.77
     36.6700	  489.00	  512.13	-1794.38	  391.57
     36.7700	  517.00	  511.88	-1766.13	  391.37
     36.8700	  537.00	  511.69	-1745.94	  391.18
     36.9700	  536.00	  511.60	-1746.85	  390.99
     37.0700	  533.00	  511.71	-1749.96	  390.79
     37.1700	  505.00	  512.24	-1778.49	  390.60
     37.2700	  496.00	  513.57	-1788.82	  390.42
     37.3700	  546.00	  516.10	-1741.35	  390.23
     37.4700	  526.00	  519.95	-1765.20	  390.05
     37.5700	  487.00	  524.54	-1808.79	  389.86
     37.6700	  566.00	  528.47	-1733.72	  389.68
     37.7700	  540.00	  530.01	-1761.26	  389.50
     37.8700	  559.00	  528.56	-1740.81	  389.33
     37.9700	  519.00	  525.34	-1777.59	  389.15
     38.0700	  520.00	  521.60	-1772.85	  388.98
     38.1700	  536.00	  517.83	-1753.08	  388.81
     38.2700	  509.00	  514.44	-1776.69	  388.64
     38.3700	  487.00	  511.80	-1796.05	  388.47
     38.4700	  483.00	  509.95	-1798.20	  388.30
     38.5700	  517.00	  508.78	-1763.03	  388.14
     38.6700	  522.00	  508.06	-1757.31	  387.98
     38.7700	  524.00	  507.51	-1754.76	  387.82
     38.8700	  517.00	  507.20	-1761.45	  387.66
     38.9700	  513.00	  506.95	-1765.20	  387.50
     39.0700	  496.00	  506.73	-1781.98	  387.34
     39.1700	  510.00	  506.54	-1767.79	  387.19
     39.2700	  450.00	  506.28	-1827.53	  387.04
     39.3700	  539.00	  506.11	-1738.36	  386.89
     39.4700	  488.00	  505.96	-1789.21	  386.74
     39.5700	  504.00	  505.82	-1773.07	  386.59
     39.6700	  441.00	  505.69	-1835.94	  386.45
     39.7700	  504.00	  505.56	-1772.81	  386.31
     39.8700	  474.00	  505.56	-1802.81	  386.17
     39.9700	  503.00	  505.46	-1773.71	  386.03
     40.0700	  495.00	  505.36	-1781.61	  385.89
     40.1700	  494.00	  505.28	-1782.53	  385.76
     40.2700	  498.00	  505.20	-1778.45	  385.62
     40.3700	  531.00	  505.14	-1745.39	  385.49
     40.4700	  477.00	  505.09	-1799.34	  385.36
     40.5700	  473.00	  505.05	-1803.30	  385.23
     40.6700	  496.00	  505.02	-1780.27	  385.11
     40.7700	  471.00	  505.02	-1805.27	  384.98
