MSG Master    CELL:    5.91746   5.91746  23.27095   90.0000   90.0000  120.0000   SPGR: P 63/m m c             TEMP:   1037.35
  1   1280     2.52000     0.00000    -0.13048     0.00000     0.00000    0
    99     0     2
       0.00000      10.00000
     125.00000     130.00000
 2Theta	Yobs	Ycal	Yobs-Ycal	Backg	Posr	(hkl)	K
      0.7700	    0.00	  529.06	-1748.25	  412.16
      0.8700	    0.00	  529.97	-1748.25	  413.07
      0.9700	   43.00	  530.87	-1748.25	  413.97
      1.0700	   52.00	  531.76	-1748.25	  414.85
      1.1700	   40.00	  532.63	-1748.25	  415.73
      1.2700	   43.00	  533.49	-1748.25	  416.59
      1.3700	   47.00	  534.34	-1748.25	  417.44
      1.4700	  103.00	  535.18	-1748.25	  418.28
      1.5700	  265.00	  536.00	-1748.25	  419.10
      1.6700	  445.00	  536.82	-1748.25	  419.91
      1.7700	  583.00	  537.62	-1748.25	  420.71
      1.8700	  656.00	  538.41	-1748.25	  421.50
      1.9700	  667.00	  539.18	-1748.25	  422.28
      2.0700	  722.00	  539.95	-1748.25	  423.05
      2.1700	  788.00	  540.70	-1748.25	  423.80
      2.2700	  751.00	  541.45	-1748.25	  424.54
      2.3700	  704.00	  542.18	-1748.25	  425.28
      2.4700	  727.00	  542.90	-1748.25	  426.00
      2.5700	  697.00	  543.61	-1748.25	  426.71
      2.6700	  663.00	  544.31	-1748.25	  427.40
      2.7700	  646.00	  544.99	-1748.25	  428.09
      2.8700	  633.00	  545.67	-1748.25	  428.77
      2.9700	  637.00	  546.33	-1748.25	  429.43
      3.0700	  574.00	  546.99	-1748.25	  430.09
      3.1700	  561.00	  547.63	-1748.25	  430.73
      3.2700	  585.00	  548.26	-1748.25	  431.36
      3.3700	  724.00	  548.89	-1748.25	  431.98
      3.4700	  746.00	  549.50	-1748.25	  432.59
      3.5700	  835.00	  550.10	-1748.25	  433.20
      3.6700	  880.00	  550.69	-1748.25	  433.79
      3.7700	  960.00	  551.27	-1748.25	  434.37
      3.8700	  975.00	  551.84	-1748.25	  434.94
      3.9700	 1103.00	  552.40	-1748.25	  435.50
      4.0700	 1074.00	  552.95	-1748.25	  436.05
      4.1700	 1167.00	  553.49	-1748.25	  436.59
      4.2700	 1207.00	  554.02	-1748.25	  437.12
      4.3700	 1143.00	  554.54	-1748.25	  437.64
      4.4700	 1088.00	  555.05	-1748.25	  438.15
      4.5700	 1072.00	  555.55	-1748.25	  438.65
      4.6700	 1057.00	  556.04	-1748.25	  439.14
      4.7700	 1055.00	  556.52	-1748.25	  439.62
      4.8700	  990.00	  556.99	-1748.25	  440.09
      4.9700	  978.00	  557.45	-1748.25	  440.55
      5.0700	  959.00	  557.91	-1748.25	  441.00
      5.1700	  935.00	  558.35	-1748.25	  441.45
      5.2700	  851.00	  558.79	-1748.25	  441.88
      5.3700	  885.00	  559.21	-1748.25	  442.31
      5.4700	  853.00	  559.63	-1748.25	  442.72
      5.5700	  865.00	  560.03	-1748.25	  443.13
      5.6700	  869.00	  560.43	-1748.25	  443.53
      5.7700	  858.00	  560.82	-1748.25	  443.92
      5.8700	  859.00	  561.20	-1748.25	  444.30
      5.9700	  819.00	  561.57	-1748.25	  444.67
      6.0700	  816.00	  561.94	-1748.25	  445.03
      6.1700	  784.00	  562.29	-1748.25	  445.39
      6.2700	  770.00	  562.64	-1748.25	  445.73
      6.3700	  775.00	  562.97	-1748.25	  446.07
      6.4700	  780.00	  563.30	-1748.25	  446.40
      6.5700	  755.00	  563.62	-1748.25	  446.72
      6.6700	  778.00	  563.94	-1748.25	  447.03
      6.7700	  734.00	  564.24	-1748.25	  447.34
      6.8700	  723.00	  564.54	-1748.25	  447.63
      6.9700	  734.00	  564.83	-1748.25	  447.92
      7.0700	  667.00	  565.11	-1748.25	  448.20
      7.1700	  610.00	  565.38	-1748.25	  448.48
      7.2700	  673.00	  565.64	-1748.25	  448.74
      7.3700	  684.00	  565.90	-1748.25	  449.00
      7.4700	  684.00	  566.15	-1748.25	  449.24
      7.5700	  670.00	  566.39	-1748.25	  449.49
      7.6700	  627.00	  566.62	-1748.25	  449.72
      7.7700	  670.00	  566.85	-1748.25	  449.95
      7.8700	  658.00	  567.07	-1748.25	  450.16
      7.9700	  633.00	  567.28	-1748.25	  450.37
      8.0700	  618.00	  567.48	-1748.25	  450.58
      8.1700	  629.00	  567.68	-1748.25	  450.77
      8.2700	  612.00	  567.87	-1748.25	  450.96
      8.3700	  635.00	  568.05	-1748.25	  451.15
      8.4700	  648.00	  568.22	-1748.25	  451.32
      8.5700	  637.00	  568.39	-1748.25	  451.49
      8.6700	  641.00	  568.55	-1748.25	  451.65
      8.7700	  637.00	  568.71	-1748.25	  451.80
      8.8700	  640.00	  568.85	-1748.25	  451.95
      8.9700	  633.00	  568.99	-1748.25	  452.09
      9.0700	  601.00	  569.13	-1748.25	  452.22
      9.1700	  599.00	  569.25	-1748.25	  452.35
      9.2700	  632.00	  569.37	-1748.25	  452.47
      9.3700	  559.00	  569.49	-1748.25	  452.58
      9.4700	  656.00	  569.59	-1748.25	  452.69
      9.5700	  612.00	  569.69	-1748.25	  452.79
      9.6700	  604.00	  569.79	-1748.25	  452.89
      9.7700	  615.00	  569.88	-1748.25	  452.97
      9.8700	  618.00	  569.96	-1748.25	  453.06
      9.9700	  587.00	  570.03	-1748.25	  453.13
     10.0700	  603.00	  571.29	-1716.54	  453.20
     10.1700	  636.00	  571.49	-1683.74	  453.26
     10.2700	  605.00	  571.72	-1714.97	  453.32
     10.3700	  604.00	  571.99	-1716.24	  453.37
     10.4700	  574.00	  572.33	-1746.58	  453.42
     10.5700	  606.00	  572.82	-1715.07	  453.46
     10.6700	  624.00	  573.54	-1697.79	  453.49
     10.7700	  592.00	  574.58	-1730.83	  453.52
     10.8700	  584.00	  576.02	-1740.27	  453.54
     10.9700	  519.00	  577.84	-1807.09	  453.56
     11.0700	  572.00	  580.05	-1756.30	  453.57
     11.1700	  562.00	  582.65	-1768.90	  453.57
     11.2700	  580.00	  585.66	-1753.91	  453.57
     11.3700	  586.00	  589.19	-1751.44	  453.57
     11.4700	  593.00	  593.37	-1748.62	  453.56
     11.5700	  580.00	  598.43	-1766.68	  453.54
     11.6700	  630.00	  604.74	-1722.99	  453.52
     11.7700	  616.00	  612.85	-1745.10	  453.49
     11.8700	  639.00	  623.34	-1732.59	  453.46
     11.9700	  666.00	  636.10	-1718.35	  453.42
     12.0700	  660.00	  649.04	-1737.29	  453.38
     12.1700	  688.00	  656.96	-1717.21	  453.34
     12.2700	  683.00	  652.63	-1717.88	  453.28
     12.3700	  635.00	  634.60	-1747.85	  453.23
     12.4700	  616.00	  612.68	-1744.93	  453.16
     12.5700	  617.00	  595.52	-1726.77	  453.10
     12.6700	  558.00	  584.89	-1775.14	  453.03
     12.7700	  575.00	  579.19	-1752.44	  452.95
     12.8700	  584.00	  576.25	-1740.50	  452.87
     12.9700	  566.00	  574.60	-1756.85	  452.79
     13.0700	  551.00	  573.54	-1770.79	  452.70
     13.1700	  611.00	  572.75	-1710.00	  452.60
     13.2700	  569.00	  572.14	-1751.39	  452.50
     13.3700	  578.00	  571.65	-1741.90	  452.40
     13.4700	  576.00	  571.23	-1743.48	  452.29
     13.5700	  515.00	  570.87	-1804.12	  452.18
     13.6700	  547.00	  570.55	-1771.80	  452.07
     13.7700	  546.00	  570.27	-1772.52	  451.95
     13.8700	  598.00	  570.00	-1720.25	  451.82
     13.9700	  526.00	  569.76	-1792.01	  451.69
     14.0700	  553.00	  569.53	-1764.78	  451.56
     14.1700	  544.00	  569.30	-1773.55	  451.43
     14.2700	  545.00	  569.09	-1772.34	  451.29
     14.3700	  584.00	  568.88	-1733.13	  451.14
     14.4700	  608.00	  568.68	-1708.93	  450.99
     14.5700	  570.00	  568.48	-1746.73	  450.84
     14.6700	  550.00	  568.28	-1766.53	  450.69
     14.7700	  575.00	  568.08	-1741.33	  450.53
     14.8700	  548.00	  567.88	-1768.13	  450.36
     14.9700	  533.00	  567.68	-1782.93	  450.20
     15.0700	  582.00	  567.51	-1733.76	  450.03
     15.1700	  550.00	  567.32	-1765.57	  449.85
     15.2700	  569.00	  567.12	-1746.37	  449.68
     15.3700	  573.00	  566.92	-1742.17	  449.50
     15.4700	  548.00	  566.71	-1766.96	  449.31
     15.5700	  523.00	  566.51	-1791.76	  449.13
     15.6700	  554.00	  566.30	-1760.55	  448.93
     15.7700	  596.00	  566.10	-1718.35	  448.74
     15.8700	  561.00	  565.89	-1753.14	  448.54
     15.9700	  562.00	  565.67	-1751.92	  448.34
     16.0700	  508.00	  565.46	-1805.71	  448.14
     16.1700	  537.00	  565.24	-1776.49	  447.93
     16.2700	  561.00	  565.03	-1752.28	  447.72
     16.3700	  546.00	  564.80	-1767.05	  447.51
     16.4700	  573.00	  564.58	-1739.83	  447.30
     16.5700	  525.00	  564.36	-1787.61	  447.08
     16.6700	  579.00	  564.13	-1733.38	  446.86
     16.7700	  538.00	  563.90	-1774.15	  446.63
     16.8700	  536.00	  563.67	-1775.92	  446.41
     16.9700	  574.00	  563.43	-1737.68	  446.18
     17.0700	  551.00	  563.19	-1760.44	  445.94
     17.1700	  565.00	  562.96	-1746.21	  445.71
     17.2700	  575.00	  562.71	-1735.96	  445.47
     17.3700	  571.00	  562.47	-1739.72	  445.23
     17.4700	  591.00	  562.22	-1719.47	  444.99
     17.5700	  527.00	  561.98	-1783.23	  444.74
     17.6700	  537.00	  561.73	-1772.98	  444.49
     17.7700	  502.00	  561.47	-1807.72	  444.24
     17.8700	  562.00	  561.22	-1747.47	  443.99
     17.9700	  540.00	  560.96	-1769.21	  443.74
     18.0700	  554.00	  560.70	-1754.95	  443.48
     18.1700	  547.00	  560.54	-1761.79	  443.22
     18.2700	  567.00	  560.28	-1741.53	  442.96
     18.3700	  575.00	  560.02	-1733.27	  442.69
     18.4700	  515.00	  559.75	-1793.00	  442.43
     18.5700	  562.00	  559.49	-1745.74	  442.16
     18.6700	  565.00	  559.22	-1742.47	  441.89
     18.7700	  587.00	  559.03	-1720.28	  441.62
     18.8700	  560.00	  558.76	-1747.01	  441.34
     18.9700	  568.00	  558.49	-1738.74	  441.07
     19.0700	  522.00	  558.22	-1784.47	  440.79
     19.1700	  555.00	  557.94	-1751.19	  440.51
     19.2700	  567.00	  557.67	-1738.92	  440.23
     19.3700	  519.00	  557.39	-1786.64	  439.94
     19.4700	  584.00	  557.11	-1721.36	  439.66
     19.5700	  572.00	  556.83	-1733.08	  439.37
     19.6700	  539.00	  556.55	-1765.80	  439.08
     19.7700	  588.00	  556.27	-1716.52	  438.79
     19.8700	  561.00	  555.98	-1743.23	  438.50
     19.9700	  549.00	  555.70	-1754.95	  438.20
     20.0700	  540.00	  555.41	-1763.66	  437.91
     20.1700	  533.00	  555.12	-1770.37	  437.61
     20.2700	  550.00	  554.84	-1753.09	  437.31
     20.3700	  535.00	  554.55	-1767.80	  437.01
     20.4700	  520.00	  554.29	-1782.54	  436.71
     20.5700	  593.00	  554.00	-1709.25	  436.41
     20.6700	  542.00	  553.71	-1759.96	  436.10
     20.7700	  561.00	  553.42	-1740.67	  435.79
     20.8700	  562.00	  553.13	-1739.38	  435.49
     20.9700	  554.00	  552.84	-1747.09	  435.18
     21.0700	  583.00	  552.55	-1717.80	  434.87
     21.1700	  563.00	  552.26	-1737.51	  434.56
     21.2700	  579.00	  551.97	-1721.22	  434.25
     21.3700	  577.00	  551.68	-1722.93	  433.93
     21.4700	  530.00	  551.39	-1769.64	  433.62
     21.5700	  549.00	  551.10	-1750.35	  433.30
     21.6700	  573.00	  550.81	-1726.06	  432.99
     21.7700	  543.00	  550.49	-1755.74	  432.67
     21.8700	  527.00	  550.21	-1771.46	  432.35
     21.9700	  580.00	  549.92	-1718.17	  432.03
     22.0700	  557.00	  549.64	-1740.89	  431.71
     22.1700	  545.00	  549.37	-1752.62	  431.39
     22.2700	  557.00	  549.09	-1740.34	  431.07
     22.3700	  564.00	  548.82	-1733.07	  430.75
     22.4700	  551.00	  548.56	-1745.81	  430.42
     22.5700	  571.00	  548.30	-1725.55	  430.10
     22.6700	  544.00	  548.05	-1752.30	  429.77
     22.7700	  534.00	  547.81	-1762.06	  429.45
     22.8700	  535.00	  547.57	-1760.82	  429.12
     22.9700	  576.00	  547.35	-1719.60	  428.79
     23.0700	  585.00	  547.15	-1710.40	  428.46
     23.1700	  564.00	  547.11	-1731.36	  428.13
     23.2700	  537.00	  546.96	-1758.21	  427.80
     23.3700	  586.00	  546.84	-1709.09	  427.48
     23.4700	  533.00	  546.76	-1762.01	  427.14
     23.5700	  564.00	  546.75	-1731.00	  426.81
     23.6700	  541.00	  546.83	-1754.08	  426.48
     23.7700	  533.00	  547.06	-1762.31	  426.15
     23.8700	  553.00	  547.55	-1742.80	  425.82
     23.9700	  524.00	  548.53	-1772.78	  425.49
     24.0700	  561.00	  550.37	-1737.62	  425.15
     24.1700	  532.00	  553.62	-1769.87	  424.82
     24.2700	  594.00	  558.97	-1713.22	  424.49
     24.3700	  594.00	  567.11	-1721.36	  424.15
     24.4700	  571.00	  578.49	-1755.74	  423.82
     24.5700	  623.00	  592.60	-1717.85	  423.48
     24.6700	  649.00	  606.86	-1706.11	  423.15
     24.7700	  672.00	  615.81	-1692.06	  422.81
     24.8700	  603.00	  612.76	-1758.01	  422.48
     24.9700	  585.00	  597.36	-1760.61	  422.14
     25.0700	  540.00	  578.49	-1786.74	  421.81
     25.1700	  545.00	  563.34	-1766.59	  421.47
     25.2700	  537.00	  553.63	-1764.88	  421.14
     25.3700	  573.00	  548.22	-1723.47	  420.80
     25.4700	  561.00	  545.36	-1732.61	  420.47
     25.5700	  527.00	  543.76	-1765.01	  420.13
     25.6700	  540.00	  542.74	-1750.99	  419.80
     25.7700	  554.00	  542.00	-1736.25	  419.46
     25.8700	  588.00	  541.44	-1701.69	  419.13
     25.9700	  583.00	  541.01	-1706.26	  418.79
     26.0700	  554.00	  540.68	-1734.93	  418.46
     26.1700	  543.00	  540.44	-1745.69	  418.12
     26.2700	  547.00	  540.28	-1741.53	  417.79
     26.3700	  528.00	  540.21	-1760.46	  417.45
     26.4700	  535.00	  540.22	-1753.47	  417.12
     26.5700	  525.00	  540.32	-1763.57	  416.79
     26.6700	  538.00	  540.53	-1750.78	  416.45
     26.7700	  563.00	  540.88	-1726.13	  416.12
     26.8700	  542.00	  541.39	-1747.64	  415.79
     26.9700	  522.00	  542.11	-1768.36	  415.45
     27.0700	  546.00	  543.11	-1745.36	  415.12
     27.1700	  548.00	  544.51	-1744.76	  414.79
     27.2700	  502.00	  546.54	-1792.79	  414.46
     27.3700	  608.00	  549.66	-1689.91	  414.13
     27.4700	  570.00	  554.78	-1733.03	  413.80
     27.5700	  566.00	  563.55	-1745.80	  413.47
     27.6700	  554.00	  578.61	-1772.86	  413.14
     27.7700	  572.00	  603.47	-1779.72	  412.81
     27.8700	  598.00	  641.31	-1791.56	  412.48
     27.9700	  672.00	  692.62	-1768.87	  412.15
     28.0700	  814.00	  751.89	-1686.14	  411.82
     28.1700	  878.00	  804.62	-1674.87	  411.49
     28.2700	  868.00	  828.40	-1708.65	  411.17
     28.3700	  863.00	  808.96	-1694.21	  410.84
     28.4700	  792.00	  766.23	-1722.48	  410.52
     28.5700	  724.00	  735.42	-1759.67	  410.19
     28.6700	  708.00	  733.07	-1773.32	  409.87
     28.7700	  672.00	  754.98	-1831.23	  409.54
     28.8700	  795.00	  782.24	-1735.49	  409.22
     28.9700	  798.00	  788.08	-1738.33	  408.90
     29.0700	  786.00	  754.74	-1716.99	  408.58
     29.1700	  676.00	  695.66	-1767.91	  408.26
     29.2700	  667.00	  638.09	-1719.34	  407.94
     29.3700	  624.00	  595.75	-1720.00	  407.62
     29.4700	  589.00	  569.62	-1728.87	  407.30
     29.5700	  554.00	  555.21	-1749.46	  406.98
     29.6700	  597.00	  547.52	-1698.77	  406.67
     29.7700	  595.00	  543.18	-1696.43	  406.35
     29.8700	  581.00	  540.50	-1707.75	  406.04
     29.9700	  605.00	  538.81	-1682.06	  405.72
     30.0700	  552.00	  537.94	-1734.19	  405.41
     30.1700	  569.00	  538.03	-1717.28	  405.10
     30.2700	  554.00	  539.58	-1733.83	  404.79
     30.3700	  527.00	  543.41	-1764.66	  404.48
     30.4700	  560.00	  550.91	-1739.16	  404.17
     30.5700	  546.00	  563.38	-1765.63	  403.86
     30.6700	  604.00	  581.06	-1725.31	  403.55
     30.7700	  564.00	  601.73	-1785.98	  403.25
     30.8700	  659.00	  619.73	-1708.98	  402.94
     30.9700	  587.00	  626.44	-1787.69	  402.64
     31.0700	  542.00	  615.74	-1821.99	  402.34
     31.1700	  559.00	  592.89	-1782.14	  402.03
     31.2700	  573.00	  569.23	-1744.48	  401.73
     31.3700	  531.00	  551.12	-1768.37	  401.43
     31.4700	  548.00	  539.60	-1739.85	  401.14
     31.5700	  524.00	  533.11	-1757.36	  400.84
     31.6700	  490.00	  529.65	-1787.90	  400.54
     31.7700	  540.00	  527.71	-1735.96	  400.25
     31.8700	  514.00	  526.51	-1760.76	  399.95
     31.9700	  528.00	  525.71	-1745.96	  399.66
     32.0700	  518.00	  525.15	-1755.40	  399.37
     32.1700	  558.00	  524.80	-1715.05	  399.08
     32.2700	  533.00	  524.62	-1739.87	  398.79
     32.3700	  504.00	  524.61	-1768.86	  398.50
     32.4700	  553.00	  524.77	-1720.02	  398.21
     32.5700	  527.00	  525.13	-1746.38	  397.93
     32.6700	  538.00	  525.71	-1735.96	  397.64
     32.7700	  534.00	  526.58	-1740.83	  397.36
     32.8700	  520.00	  527.81	-1756.06	  397.08
     32.9700	  572.00	  529.54	-1705.79	  396.80
     33.0700	  569.00	  532.03	-1711.28	  396.52
     33.1700	  534.00	  535.81	-1750.06	  396.24
     33.2700	  530.00	  542.04	-1760.29	  395.97
     33.3700	  567.00	  553.03	-1734.28	  395.69
     33.4700	  560.00	  572.96	-1761.21	  395.42
     33.5700	  566.00	  607.98	-1790.23	  395.15
     33.6700	  607.00	  664.62	-1805.87	  394.87
     33.7700	  754.00	  744.91	-1739.16	  394.61
     33.8700	  863.00	  839.93	-1725.18	  394.34
     33.9700	 1067.00	  925.49	-1606.74	  394.07
     34.0700	 1073.00	  964.84	-1640.09	  393.81
     34.1700	  979.00	  929.86	-1699.11	  393.54
     34.2700	  858.00	  837.38	-1727.63	  393.28
     34.3700	  776.00	  734.01	-1706.26	  393.02
     34.4700	  656.00	  650.31	-1742.56	  392.76
     34.5700	  618.00	  594.38	-1724.63	  392.50
     34.6700	  536.00	  561.74	-1773.99	  392.24
     34.7700	  558.00	  544.15	-1734.40	  391.99
     34.8700	  544.00	  534.59	-1738.84	  391.74
     34.9700	  523.00	  528.87	-1754.12	  391.48
     35.0700	  506.00	  525.00	-1767.25	  391.23
     35.1700	  531.00	  522.12	-1739.37	  390.98
     35.2700	  520.00	  519.86	-1748.11	  390.74
     35.3700	  503.00	  518.03	-1763.28	  390.49
     35.4700	  528.00	  516.51	-1736.76	  390.25
     35.5700	  517.00	  515.24	-1746.49	  390.00
     35.6700	  507.00	  514.15	-1755.40	  389.76
     35.7700	  508.00	  513.21	-1753.46	  389.52
     35.8700	  554.00	  512.38	-1706.63	  389.29
     35.9700	  543.00	  511.66	-1716.91	  389.05
     36.0700	  490.00	  511.01	-1769.26	  388.81
     36.1700	  505.00	  510.88	-1754.13	  388.58
     36.2700	  517.00	  510.37	-1741.62	  388.35
     36.3700	  521.00	  509.91	-1737.16	  388.12
     36.4700	  499.00	  509.51	-1758.76	  387.89
     36.5700	  537.00	  509.15	-1720.40	  387.66
     36.6700	  525.00	  508.86	-1732.11	  387.44
     36.7700	  560.00	  508.63	-1696.88	  387.22
     36.8700	  490.00	  508.53	-1766.78	  386.99
     36.9700	  483.00	  508.61	-1773.86	  386.77
     37.0700	  497.00	  509.05	-1760.30	  386.55
     37.1700	  529.00	  510.09	-1729.34	  386.34
     37.2700	  537.00	  512.05	-1723.30	  386.12
     37.3700	  538.00	  515.16	-1725.41	  385.91
     37.4700	  542.00	  519.25	-1725.50	  385.70
     37.5700	  521.00	  523.55	-1750.80	  385.49
     37.6700	  564.00	  526.63	-1710.88	  385.28
     37.7700	  516.00	  526.92	-1759.17	  385.07
     37.8700	  496.00	  524.19	-1776.44	  384.87
     37.9700	  512.00	  519.88	-1756.13	  384.66
     38.0700	  502.00	  515.50	-1761.75	  384.46
     38.1700	  496.00	  511.72	-1763.97	  384.26
     38.2700	  521.00	  508.79	-1736.04	  384.06
     38.3700	  504.00	  506.71	-1750.96	  383.87
     38.4700	  502.00	  505.30	-1751.55	  383.67
     38.5700	  492.00	  504.37	-1760.62	  383.48
     38.6700	  507.00	  503.79	-1745.04	  383.29
     38.7700	  524.00	  503.33	-1727.58	  383.10
     38.8700	  505.00	  502.97	-1746.22	  382.91
     38.9700	  489.00	  502.67	-1761.92	  382.73
     39.0700	  458.00	  502.40	-1792.65	  382.54
     39.1700	  437.00	  502.16	-1813.41	  382.36
     39.2700	  468.00	  501.94	-1782.19	  382.18
     39.3700	  480.00	  501.66	-1769.91	  382.00
     39.4700	  560.00	  501.47	-1689.72	  381.82
     39.5700	  535.00	  501.30	-1714.55	  381.65
     39.6700	  506.00	  501.13	-1743.38	  381.47
     39.7700	  549.00	  500.98	-1700.23	  381.30
     39.8700	  502.00	  500.84	-1747.09	  381.13
     39.9700	  539.00	  500.72	-1709.97	  380.96
     40.0700	  454.00	  500.60	-1794.85	  380.80
     40.1700	  499.00	  500.50	-1749.75	  380.63
     40.2700	  514.00	  500.41	-1734.66	  380.47
     40.3700	  507.00	  500.33	-1741.58	  380.31
     40.4700	  505.00	  500.27	-1743.52	  380.15
     40.5700	  516.00	  500.23	-1732.48	  379.99
     40.6700	  505.00	  500.21	-1743.46	  379.83
     40.7700	  503.00	  500.21	-1745.46	  379.68
