MSG Master    CELL:    5.91970   5.91970  23.27845   90.0000   90.0000  120.0000   SPGR: P 63/m m c             TEMP:   1074.85
  1   1280     2.52000     0.00000    -0.11846     0.00000     0.00000    0
    99     0     2
       0.00000      10.00000
     125.00000     130.00000
 2Theta	Yobs	Ycal	Yobs-Ycal	Backg	Posr	(hkl)	K
      0.7700	    0.00	  548.01	-1746.00	  430.60
      0.8700	    1.00	  548.75	-1746.00	  431.33
      0.9700	   38.00	  549.47	-1746.00	  432.05
      1.0700	   41.00	  550.18	-1746.00	  432.76
      1.1700	   38.00	  550.88	-1746.00	  433.47
      1.2700	   45.00	  551.57	-1746.00	  434.16
      1.3700	   46.00	  552.25	-1746.00	  434.83
      1.4700	  102.00	  552.92	-1746.00	  435.50
      1.5700	  288.00	  553.57	-1746.00	  436.16
      1.6700	  442.00	  554.22	-1746.00	  436.81
      1.7700	  562.00	  554.86	-1746.00	  437.44
      1.8700	  638.00	  555.48	-1746.00	  438.07
      1.9700	  689.00	  556.10	-1746.00	  438.68
      2.0700	  814.00	  556.70	-1746.00	  439.29
      2.1700	  787.00	  557.30	-1746.00	  439.88
      2.2700	  737.00	  557.88	-1746.00	  440.47
      2.3700	  726.00	  558.45	-1746.00	  441.04
      2.4700	  697.00	  559.02	-1746.00	  441.60
      2.5700	  645.00	  559.57	-1746.00	  442.16
      2.6700	  687.00	  560.12	-1746.00	  442.70
      2.7700	  682.00	  560.65	-1746.00	  443.23
      2.8700	  634.00	  561.17	-1746.00	  443.76
      2.9700	  615.00	  561.69	-1746.00	  444.27
      3.0700	  581.00	  562.19	-1746.00	  444.78
      3.1700	  554.00	  562.69	-1746.00	  445.27
      3.2700	  606.00	  563.17	-1746.00	  445.76
      3.3700	  708.00	  563.65	-1746.00	  446.23
      3.4700	  777.00	  564.11	-1746.00	  446.70
      3.5700	  822.00	  564.57	-1746.00	  447.16
      3.6700	  789.00	  565.02	-1746.00	  447.60
      3.7700	  923.00	  565.46	-1746.00	  448.04
      3.8700	  927.00	  565.89	-1746.00	  448.47
      3.9700	 1034.00	  566.31	-1746.00	  448.89
      4.0700	 1091.00	  566.72	-1746.00	  449.30
      4.1700	 1092.00	  567.12	-1746.00	  449.71
      4.2700	 1117.00	  567.52	-1746.00	  450.10
      4.3700	 1068.00	  567.90	-1746.00	  450.49
      4.4700	 1142.00	  568.28	-1746.00	  450.86
      4.5700	 1012.00	  568.65	-1746.00	  451.23
      4.6700	 1016.00	  569.00	-1746.00	  451.59
      4.7700	  956.00	  569.36	-1746.00	  451.94
      4.8700	  973.00	  569.70	-1746.00	  452.28
      4.9700	 1002.00	  570.03	-1746.00	  452.62
      5.0700	  981.00	  570.36	-1746.00	  452.94
      5.1700	  933.00	  570.67	-1746.00	  453.26
      5.2700	  859.00	  570.98	-1746.00	  453.57
      5.3700	  877.00	  571.28	-1746.00	  453.87
      5.4700	  853.00	  571.58	-1746.00	  454.16
      5.5700	  852.00	  571.86	-1746.00	  454.45
      5.6700	  895.00	  572.14	-1746.00	  454.72
      5.7700	  849.00	  572.41	-1746.00	  454.99
      5.8700	  835.00	  572.67	-1746.00	  455.25
      5.9700	  840.00	  572.92	-1746.00	  455.51
      6.0700	  801.00	  573.17	-1746.00	  455.75
      6.1700	  798.00	  573.41	-1746.00	  455.99
      6.2700	  767.00	  573.64	-1746.00	  456.22
      6.3700	  774.00	  573.86	-1746.00	  456.44
      6.4700	  795.00	  574.07	-1746.00	  456.66
      6.5700	  696.00	  574.28	-1746.00	  456.87
      6.6700	  712.00	  574.48	-1746.00	  457.07
      6.7700	  737.00	  574.68	-1746.00	  457.26
      6.8700	  682.00	  574.86	-1746.00	  457.45
      6.9700	  677.00	  575.04	-1746.00	  457.63
      7.0700	  739.00	  575.22	-1746.00	  457.80
      7.1700	  732.00	  575.38	-1746.00	  457.97
      7.2700	  688.00	  575.54	-1746.00	  458.12
      7.3700	  676.00	  575.69	-1746.00	  458.28
      7.4700	  688.00	  575.84	-1746.00	  458.42
      7.5700	  700.00	  575.97	-1746.00	  458.56
      7.6700	  651.00	  576.10	-1746.00	  458.69
      7.7700	  636.00	  576.23	-1746.00	  458.81
      7.8700	  678.00	  576.35	-1746.00	  458.93
      7.9700	  644.00	  576.46	-1746.00	  459.04
      8.0700	  672.00	  576.56	-1746.00	  459.15
      8.1700	  713.00	  576.66	-1746.00	  459.25
      8.2700	  597.00	  576.75	-1746.00	  459.34
      8.3700	  660.00	  576.84	-1746.00	  459.42
      8.4700	  635.00	  576.92	-1746.00	  459.50
      8.5700	  662.00	  576.99	-1746.00	  459.58
      8.6700	  623.00	  577.06	-1746.00	  459.65
      8.7700	  615.00	  577.12	-1746.00	  459.71
      8.8700	  634.00	  577.18	-1746.00	  459.76
      8.9700	  624.00	  577.23	-1746.00	  459.81
      9.0700	  601.00	  577.27	-1746.00	  459.85
      9.1700	  594.00	  577.31	-1746.00	  459.89
      9.2700	  602.00	  577.34	-1746.00	  459.92
      9.3700	  600.00	  577.36	-1746.00	  459.95
      9.4700	  617.00	  577.38	-1746.00	  459.97
      9.5700	  550.00	  577.40	-1746.00	  459.98
      9.6700	  666.00	  577.41	-1746.00	  459.99
      9.7700	  600.00	  577.41	-1746.00	  460.00
      9.8700	  593.00	  577.41	-1746.00	  459.99
      9.9700	  616.00	  577.40	-1746.00	  459.99
     10.0700	  587.00	  578.27	-1737.27	  459.97
     10.1700	  590.00	  578.34	-1734.34	  459.96
     10.2700	  585.00	  578.44	-1739.44	  459.93
     10.3700	  614.00	  578.56	-1710.56	  459.90
     10.4700	  571.00	  578.74	-1753.74	  459.87
     10.5700	  617.00	  579.04	-1708.04	  459.83
     10.6700	  608.00	  579.54	-1717.54	  459.79
     10.7700	  602.00	  580.37	-1724.37	  459.74
     10.8700	  549.00	  581.60	-1778.60	  459.69
     10.9700	  577.00	  583.22	-1752.22	  459.63
     11.0700	  615.00	  585.21	-1716.21	  459.56
     11.1700	  540.00	  587.56	-1793.56	  459.49
     11.2700	  613.00	  590.29	-1723.29	  459.42
     11.3700	  552.00	  593.51	-1787.51	  459.34
     11.4700	  572.00	  597.32	-1771.32	  459.26
     11.5700	  599.00	  601.96	-1748.96	  459.17
     11.6700	  623.00	  607.76	-1730.76	  459.08
     11.7700	  608.00	  615.33	-1753.33	  458.99
     11.8700	  648.00	  625.59	-1723.59	  458.89
     11.9700	  678.00	  639.09	-1707.09	  458.78
     12.0700	  651.00	  654.28	-1749.28	  458.67
     12.1700	  702.00	  665.21	-1709.21	  458.56
     12.2700	  687.00	  662.39	-1721.39	  458.44
     12.3700	  632.00	  642.38	-1756.38	  458.32
     12.4700	  659.00	  617.08	-1704.08	  458.19
     12.5700	  590.00	  598.00	-1754.00	  458.06
     12.6700	  575.00	  587.25	-1758.25	  457.93
     12.7700	  617.00	  582.17	-1711.17	  457.79
     12.8700	  569.00	  579.82	-1756.82	  457.65
     12.9700	  567.00	  578.54	-1757.54	  457.50
     13.0700	  588.00	  577.67	-1735.67	  457.35
     13.1700	  594.00	  577.01	-1729.01	  457.20
     13.2700	  565.00	  576.47	-1757.47	  457.04
     13.3700	  565.00	  576.02	-1757.02	  456.88
     13.4700	  588.00	  575.63	-1733.63	  456.71
     13.5700	  524.00	  575.28	-1797.28	  456.54
     13.6700	  598.00	  574.96	-1722.96	  456.37
     13.7700	  560.00	  574.66	-1760.66	  456.19
     13.8700	  599.00	  574.38	-1721.38	  456.01
     13.9700	  578.00	  574.12	-1742.12	  455.83
     14.0700	  580.00	  573.86	-1739.86	  455.64
     14.1700	  589.00	  573.61	-1730.61	  455.45
     14.2700	  520.00	  573.36	-1799.36	  455.26
     14.3700	  538.00	  573.12	-1781.12	  455.06
     14.4700	  573.00	  572.88	-1745.88	  454.86
     14.5700	  548.00	  572.64	-1770.64	  454.66
     14.6700	  520.00	  572.40	-1798.40	  454.45
     14.7700	  562.00	  572.16	-1756.16	  454.24
     14.8700	  581.00	  571.92	-1736.93	  454.03
     14.9700	  591.00	  571.69	-1726.69	  453.82
     15.0700	  591.00	  571.45	-1726.45	  453.60
     15.1700	  550.00	  571.21	-1767.21	  453.38
     15.2700	  581.00	  570.97	-1735.97	  453.15
     15.3700	  570.00	  570.73	-1746.73	  452.92
     15.4700	  580.00	  570.48	-1736.48	  452.69
     15.5700	  532.00	  570.24	-1784.24	  452.46
     15.6700	  593.00	  569.99	-1722.99	  452.22
     15.7700	  553.00	  569.74	-1762.74	  451.99
     15.8700	  571.00	  569.49	-1744.49	  451.75
     15.9700	  578.00	  569.26	-1737.26	  451.50
     16.0700	  595.00	  569.01	-1720.01	  451.25
     16.1700	  548.00	  568.75	-1766.75	  451.01
     16.2700	  565.00	  568.50	-1749.50	  450.75
     16.3700	  556.00	  568.24	-1758.24	  450.50
     16.4700	  558.00	  567.97	-1755.97	  450.24
     16.5700	  577.00	  567.71	-1736.71	  449.99
     16.6700	  557.00	  567.45	-1756.45	  449.72
     16.7700	  524.00	  567.18	-1789.18	  449.46
     16.8700	  570.00	  566.91	-1742.91	  449.19
     16.9700	  554.00	  566.64	-1758.64	  448.93
     17.0700	  560.00	  566.36	-1752.36	  448.66
     17.1700	  534.00	  566.09	-1778.09	  448.38
     17.2700	  535.00	  565.81	-1776.81	  448.11
     17.3700	  593.00	  565.53	-1718.53	  447.83
     17.4700	  580.00	  565.25	-1731.25	  447.55
     17.5700	  549.00	  564.97	-1761.97	  447.27
     17.6700	  570.00	  564.68	-1740.68	  446.99
     17.7700	  566.00	  564.40	-1744.40	  446.71
     17.8700	  530.00	  564.11	-1780.11	  446.42
     17.9700	  526.00	  563.91	-1783.91	  446.13
     18.0700	  545.00	  563.62	-1764.62	  445.84
     18.1700	  606.00	  563.33	-1703.33	  445.55
     18.2700	  545.00	  563.04	-1764.04	  445.25
     18.3700	  543.00	  562.74	-1765.74	  444.96
     18.4700	  530.00	  562.45	-1778.45	  444.66
     18.5700	  556.00	  562.15	-1752.15	  444.36
     18.6700	  544.00	  561.85	-1763.85	  444.06
     18.7700	  535.00	  561.55	-1772.55	  443.76
     18.8700	  563.00	  561.34	-1744.34	  443.45
     18.9700	  561.00	  561.04	-1746.04	  443.15
     19.0700	  544.00	  560.74	-1762.74	  442.84
     19.1700	  571.00	  560.44	-1735.44	  442.53
     19.2700	  595.00	  560.13	-1711.13	  442.22
     19.3700	  568.00	  559.83	-1737.83	  441.91
     19.4700	  588.00	  559.52	-1717.52	  441.60
     19.5700	  553.00	  559.21	-1752.21	  441.28
     19.6700	  584.00	  558.91	-1720.91	  440.97
     19.7700	  522.00	  558.60	-1782.60	  440.65
     19.8700	  569.00	  558.29	-1735.29	  440.33
     19.9700	  588.00	  557.98	-1715.98	  440.02
     20.0700	  554.00	  557.67	-1749.67	  439.69
     20.1700	  548.00	  557.35	-1755.35	  439.37
     20.2700	  565.00	  557.04	-1738.04	  439.05
     20.3700	  545.00	  556.73	-1757.73	  438.73
     20.4700	  527.00	  556.41	-1775.41	  438.40
     20.5700	  564.00	  556.10	-1738.10	  438.08
     20.6700	  514.00	  555.79	-1787.79	  437.75
     20.7700	  525.00	  555.51	-1776.51	  437.42
     20.8700	  586.00	  555.16	-1715.16	  437.09
     20.9700	  556.00	  554.85	-1744.85	  436.76
     21.0700	  538.00	  554.54	-1762.54	  436.43
     21.1700	  539.00	  554.22	-1761.22	  436.10
     21.2700	  588.00	  553.91	-1711.91	  435.77
     21.3700	  598.00	  553.60	-1701.60	  435.44
     21.4700	  539.00	  553.29	-1760.29	  435.10
     21.5700	  541.00	  552.98	-1757.98	  434.77
     21.6700	  546.00	  552.67	-1752.67	  434.43
     21.7700	  562.00	  552.36	-1736.36	  434.10
     21.8700	  563.00	  552.06	-1735.06	  433.76
     21.9700	  553.00	  551.75	-1744.75	  433.42
     22.0700	  600.00	  551.45	-1697.45	  433.09
     22.1700	  537.00	  551.15	-1760.15	  432.75
     22.2700	  590.00	  550.85	-1706.85	  432.41
     22.3700	  564.00	  550.56	-1732.56	  432.07
     22.4700	  561.00	  550.27	-1735.27	  431.73
     22.5700	  547.00	  549.98	-1748.98	  431.39
     22.6700	  549.00	  549.71	-1746.71	  431.05
     22.7700	  534.00	  549.44	-1761.44	  430.71
     22.8700	  559.00	  549.17	-1736.17	  430.37
     22.9700	  553.00	  548.92	-1741.92	  430.03
     23.0700	  542.00	  548.68	-1752.68	  429.68
     23.1700	  518.00	  548.46	-1776.46	  429.34
     23.2700	  543.00	  548.26	-1751.26	  429.00
     23.3700	  563.00	  548.09	-1731.09	  428.66
     23.4700	  538.00	  547.95	-1755.95	  428.31
     23.5700	  529.00	  547.86	-1764.86	  427.97
     23.6700	  559.00	  547.98	-1734.98	  427.63
     23.7700	  533.00	  548.08	-1761.08	  427.28
     23.8700	  589.00	  548.41	-1705.41	  426.94
     23.9700	  585.00	  549.17	-1710.17	  426.60
     24.0700	  523.00	  550.79	-1773.79	  426.25
     24.1700	  562.00	  553.89	-1737.89	  425.91
     24.2700	  549.00	  559.30	-1756.30	  425.56
     24.3700	  575.00	  567.92	-1738.92	  425.22
     24.4700	  581.00	  580.68	-1745.68	  424.88
     24.5700	  591.00	  597.69	-1752.69	  424.53
     24.6700	  613.00	  616.22	-1749.22	  424.19
     24.7700	  640.00	  629.02	-1735.02	  423.84
     24.8700	  622.00	  626.32	-1750.32	  423.50
     24.9700	  620.00	  606.72	-1732.72	  423.16
     25.0700	  605.00	  582.58	-1723.58	  422.81
     25.1700	  552.00	  564.15	-1758.15	  422.47
     25.2700	  532.00	  553.42	-1767.42	  422.13
     25.3700	  523.00	  548.18	-1771.18	  421.79
     25.4700	  573.00	  545.72	-1718.72	  421.44
     25.5700	  555.00	  544.40	-1735.40	  421.10
     25.6700	  582.00	  543.55	-1707.55	  420.76
     25.7700	  562.00	  542.91	-1726.91	  420.42
     25.8700	  559.00	  542.43	-1729.43	  420.08
     25.9700	  553.00	  542.05	-1735.05	  419.74
     26.0700	  553.00	  541.77	-1734.77	  419.39
     26.1700	  584.00	  541.56	-1703.56	  419.05
     26.2700	  546.00	  541.42	-1741.42	  418.71
     26.3700	  525.00	  541.36	-1762.36	  418.38
     26.4700	  589.00	  541.38	-1698.38	  418.04
     26.5700	  561.00	  541.50	-1726.50	  417.70
     26.6700	  547.00	  541.71	-1740.71	  417.36
     26.7700	  538.00	  542.06	-1750.06	  417.02
     26.8700	  565.00	  542.57	-1723.57	  416.69
     26.9700	  559.00	  543.28	-1730.28	  416.35
     27.0700	  594.00	  544.27	-1696.27	  416.01
     27.1700	  559.00	  545.65	-1732.65	  415.68
     27.2700	  557.00	  547.65	-1736.65	  415.34
     27.3700	  540.00	  550.70	-1756.70	  415.01
     27.4700	  578.00	  555.67	-1723.67	  414.68
     27.5700	  544.00	  564.11	-1766.11	  414.35
     27.6700	  559.00	  578.47	-1765.47	  414.01
     27.7700	  554.00	  601.98	-1793.98	  413.68
     27.8700	  571.00	  637.48	-1812.48	  413.35
     27.9700	  641.00	  685.32	-1790.32	  413.02
     28.0700	  750.00	  740.37	-1736.37	  412.69
     28.1700	  835.00	  789.49	-1700.49	  412.37
     28.2700	  921.00	  812.51	-1637.51	  412.04
     28.3700	  923.00	  796.65	-1619.65	  411.71
     28.4700	  777.00	  760.22	-1729.22	  411.39
     28.5700	  695.00	  735.89	-1786.89	  411.06
     28.6700	  656.00	  739.34	-1829.34	  410.74
     28.7700	  726.00	  766.34	-1786.34	  410.41
     28.8700	  834.00	  797.62	-1709.62	  410.09
     28.9700	  819.00	  805.19	-1732.19	  409.77
     29.0700	  753.00	  770.06	-1763.06	  409.45
     29.1700	  769.00	  706.76	-1683.76	  409.13
     29.2700	  653.00	  645.02	-1738.02	  408.81
     29.3700	  580.00	  599.84	-1765.84	  408.49
     29.4700	  572.00	  572.21	-1746.21	  408.18
     29.5700	  631.00	  557.17	-1672.17	  407.86
     29.6700	  634.00	  549.23	-1661.23	  407.55
     29.7700	  608.00	  544.78	-1682.78	  407.23
     29.8700	  598.00	  542.03	-1690.03	  406.92
     29.9700	  559.00	  540.31	-1727.31	  406.61
     30.0700	  618.00	  539.42	-1667.42	  406.30
     30.1700	  545.00	  539.52	-1740.52	  405.99
     30.2700	  567.00	  541.14	-1720.14	  405.68
     30.3700	  557.00	  545.30	-1734.30	  405.37
     30.4700	  549.00	  553.60	-1750.60	  405.07
     30.5700	  555.00	  567.69	-1758.69	  404.76
     30.6700	  579.00	  588.07	-1755.07	  404.46
     30.7700	  570.00	  612.31	-1788.31	  404.16
     30.8700	  604.00	  633.73	-1775.73	  403.86
     30.9700	  635.00	  641.98	-1752.98	  403.56
     31.0700	  612.00	  629.47	-1763.47	  403.26
     31.1700	  532.00	  602.56	-1816.56	  402.96
     31.2700	  560.00	  574.95	-1760.95	  402.66
     31.3700	  565.00	  554.22	-1735.22	  402.37
     31.4700	  543.00	  541.41	-1744.41	  402.07
     31.5700	  548.00	  534.45	-1732.45	  401.78
     31.6700	  534.00	  530.83	-1742.83	  401.49
     31.7700	  518.00	  528.83	-1756.83	  401.20
     31.8700	  557.00	  527.58	-1716.58	  400.91
     31.9700	  503.00	  526.72	-1769.72	  400.62
     32.0700	  529.00	  526.11	-1743.11	  400.34
     32.1700	  505.00	  525.69	-1766.69	  400.05
     32.2700	  584.00	  525.43	-1687.43	  399.77
     32.3700	  501.00	  525.34	-1770.34	  399.49
     32.4700	  550.00	  525.40	-1721.40	  399.21
     32.5700	  552.00	  525.64	-1719.64	  398.93
     32.6700	  510.00	  526.09	-1762.09	  398.65
     32.7700	  528.00	  526.78	-1744.78	  398.37
     32.8700	  534.00	  527.80	-1739.80	  398.10
     32.9700	  512.00	  529.25	-1763.25	  397.83
     33.0700	  556.00	  531.35	-1721.35	  397.55
     33.1700	  547.00	  534.58	-1733.58	  397.28
     33.2700	  554.00	  539.97	-1731.97	  397.01
     33.3700	  572.00	  549.78	-1723.78	  396.75
     33.4700	  574.00	  568.27	-1740.27	  396.48
     33.5700	  568.00	  602.18	-1780.18	  396.21
     33.6700	  674.00	  659.22	-1731.22	  395.95
     33.7700	  727.00	  742.82	-1761.82	  395.69
     33.8700	  917.00	  844.18	-1673.18	  395.43
     33.9700	 1000.00	  936.91	-1682.91	  395.17
     34.0700	 1013.00	  979.85	-1712.85	  394.91
     34.1700	  988.00	  941.45	-1699.45	  394.66
     34.2700	  940.00	  840.86	-1646.86	  394.40
     34.3700	  784.00	  730.31	-1692.31	  394.15
     34.4700	  646.00	  643.27	-1743.27	  393.90
     34.5700	  590.00	  587.52	-1743.52	  393.65
     34.6700	  524.00	  556.73	-1778.73	  393.40
     34.7700	  564.00	  541.01	-1723.01	  393.16
     34.8700	  540.00	  532.76	-1738.76	  392.91
     34.9700	  528.00	  527.86	-1745.86	  392.67
     35.0700	  515.00	  524.53	-1755.53	  392.43
     35.1700	  515.00	  522.01	-1753.01	  392.19
     35.2700	  554.00	  520.02	-1712.02	  391.95
     35.3700	  505.00	  518.40	-1759.40	  391.71
     35.4700	  481.00	  517.06	-1782.06	  391.48
     35.5700	  526.00	  515.93	-1735.93	  391.24
     35.6700	  498.00	  514.96	-1762.96	  391.01
     35.7700	  519.00	  514.12	-1741.12	  390.78
     35.8700	  550.00	  513.38	-1709.38	  390.55
     35.9700	  520.00	  513.20	-1739.20	  390.33
     36.0700	  535.00	  512.62	-1723.62	  390.10
     36.1700	  520.00	  512.10	-1738.10	  389.88
     36.2700	  531.00	  511.63	-1726.63	  389.66
     36.3700	  517.00	  511.20	-1740.20	  389.44
     36.4700	  485.00	  510.82	-1771.82	  389.22
     36.5700	  477.00	  510.49	-1779.49	  389.00
     36.6700	  484.00	  510.20	-1772.20	  388.79
     36.7700	  509.00	  509.96	-1746.96	  388.58
     36.8700	  539.00	  509.80	-1716.80	  388.36
     36.9700	  506.00	  509.78	-1749.78	  388.15
     37.0700	  499.00	  510.05	-1757.05	  387.95
     37.1700	  466.00	  510.86	-1790.86	  387.74
     37.2700	  500.00	  512.60	-1758.60	  387.54
     37.3700	  506.00	  515.61	-1755.61	  387.33
     37.4700	  515.00	  519.90	-1750.90	  387.13
     37.5700	  553.00	  524.74	-1717.74	  386.93
     37.6700	  522.00	  528.67	-1752.67	  386.74
     37.7700	  532.00	  529.99	-1743.99	  386.54
     37.8700	  499.00	  528.27	-1775.27	  386.35
     37.9700	  579.00	  524.82	-1691.82	  386.16
     38.0700	  526.00	  520.82	-1740.82	  385.97
     38.1700	  502.00	  516.73	-1760.73	  385.78
     38.2700	  522.00	  513.01	-1737.01	  385.59
     38.3700	  511.00	  510.06	-1745.06	  385.41
     38.4700	  485.00	  507.99	-1768.99	  385.22
     38.5700	  502.00	  506.63	-1750.63	  385.04
     38.6700	  507.00	  505.70	-1744.70	  384.86
     38.7700	  522.00	  505.15	-1729.15	  384.68
     38.8700	  521.00	  504.77	-1729.77	  384.51
     38.9700	  515.00	  504.47	-1735.47	  384.33
     39.0700	  501.00	  504.21	-1749.21	  384.16
     39.1700	  498.00	  503.98	-1751.98	  383.99
     39.2700	  514.00	  503.68	-1735.68	  383.82
     39.3700	  484.00	  503.62	-1765.62	  383.66
     39.4700	  496.00	  503.44	-1753.44	  383.49
     39.5700	  528.00	  503.28	-1721.28	  383.33
     39.6700	  469.00	  503.13	-1780.13	  383.17
     39.7700	  551.00	  502.99	-1697.99	  383.01
     39.8700	  492.00	  502.85	-1756.85	  382.85
     39.9700	  484.00	  502.73	-1764.73	  382.70
     40.0700	  500.00	  502.62	-1748.62	  382.54
     40.1700	  510.00	  502.52	-1738.52	  382.39
     40.2700	  514.00	  502.43	-1734.43	  382.24
     40.3700	  530.00	  502.36	-1718.36	  382.09
     40.4700	  492.00	  502.30	-1756.30	  381.94
     40.5700	  473.00	  502.25	-1775.25	  381.80
     40.6700	  499.00	  502.22	-1749.22	  381.66
     40.7700	  497.00	  502.21	-1751.21	  381.52
