MSG Master    CELL:    5.91710   5.91710  23.25885   90.0000   90.0000  120.0000   SPGR: P 63/m m c             TEMP:   1026.85
  1   1280     2.52000     0.00000    -0.12215     0.00000     0.00000    0
    99     0     2
       0.00000      10.00000
     125.00000     130.00000
 2Theta	Yobs	Ycal	Yobs-Ycal	Backg	Posr	(hkl)	K
      0.7700	    0.00	  539.04	-1786.25	  424.11
      0.8700	    0.00	  539.86	-1786.25	  424.93
      0.9700	   46.00	  540.66	-1786.25	  425.73
      1.0700	   46.00	  541.45	-1786.25	  426.52
      1.1700	   35.00	  542.23	-1786.25	  427.30
      1.2700	   34.00	  543.00	-1786.25	  428.07
      1.3700	   38.00	  543.75	-1786.25	  428.82
      1.4700	   94.00	  544.50	-1786.25	  429.57
      1.5700	  284.00	  545.23	-1786.25	  430.30
      1.6700	  466.00	  545.95	-1786.25	  431.02
      1.7700	  569.00	  546.66	-1786.25	  431.73
      1.8700	  647.00	  547.36	-1786.25	  432.43
      1.9700	  755.00	  548.05	-1786.25	  433.12
      2.0700	  769.00	  548.73	-1786.25	  433.79
      2.1700	  815.00	  549.39	-1786.25	  434.46
      2.2700	  797.00	  550.05	-1786.25	  435.12
      2.3700	  765.00	  550.69	-1786.25	  435.76
      2.4700	  714.00	  551.33	-1786.25	  436.39
      2.5700	  708.00	  551.95	-1786.25	  437.02
      2.6700	  676.00	  552.56	-1786.25	  437.63
      2.7700	  607.00	  553.16	-1786.25	  438.23
      2.8700	  616.00	  553.76	-1786.25	  438.82
      2.9700	  618.00	  554.34	-1786.25	  439.41
      3.0700	  605.00	  554.91	-1786.25	  439.98
      3.1700	  568.00	  555.47	-1786.25	  440.54
      3.2700	  612.00	  556.02	-1786.25	  441.09
      3.3700	  722.00	  556.56	-1786.25	  441.63
      3.4700	  755.00	  557.09	-1786.25	  442.16
      3.5700	  784.00	  557.61	-1786.25	  442.68
      3.6700	  847.00	  558.12	-1786.25	  443.19
      3.7700	  937.00	  558.63	-1786.25	  443.69
      3.8700	  975.00	  559.12	-1786.25	  444.19
      3.9700	 1009.00	  559.60	-1786.25	  444.67
      4.0700	 1064.00	  560.07	-1786.25	  445.14
      4.1700	  985.00	  560.54	-1786.25	  445.60
      4.2700	 1161.00	  560.99	-1786.25	  446.06
      4.3700	 1104.00	  561.43	-1786.25	  446.50
      4.4700	 1038.00	  561.87	-1786.25	  446.94
      4.5700	 1022.00	  562.29	-1786.25	  447.36
      4.6700	 1013.00	  562.71	-1786.25	  447.78
      4.7700	  960.00	  563.12	-1786.25	  448.19
      4.8700	 1060.00	  563.52	-1786.25	  448.59
      4.9700	  873.00	  563.91	-1786.25	  448.98
      5.0700	  939.00	  564.29	-1786.25	  449.36
      5.1700	  929.00	  564.66	-1786.25	  449.73
      5.2700	  892.00	  565.03	-1786.25	  450.09
      5.3700	  859.00	  565.38	-1786.25	  450.45
      5.4700	  865.00	  565.73	-1786.25	  450.80
      5.5700	  855.00	  566.06	-1786.25	  451.13
      5.6700	  877.00	  566.39	-1786.25	  451.46
      5.7700	  822.00	  566.71	-1786.25	  451.78
      5.8700	  814.00	  567.03	-1786.25	  452.10
      5.9700	  868.00	  567.33	-1786.25	  452.40
      6.0700	  834.00	  567.63	-1786.25	  452.70
      6.1700	  816.00	  567.92	-1786.25	  452.99
      6.2700	  770.00	  568.20	-1786.25	  453.27
      6.3700	  786.00	  568.47	-1786.25	  453.54
      6.4700	  736.00	  568.73	-1786.25	  453.80
      6.5700	  725.00	  568.99	-1786.25	  454.06
      6.6700	  693.00	  569.24	-1786.25	  454.31
      6.7700	  716.00	  569.48	-1786.25	  454.55
      6.8700	  728.00	  569.71	-1786.25	  454.78
      6.9700	  731.00	  569.94	-1786.25	  455.01
      7.0700	  653.00	  570.16	-1786.25	  455.23
      7.1700	  707.00	  570.37	-1786.25	  455.44
      7.2700	  647.00	  570.57	-1786.25	  455.64
      7.3700	  735.00	  570.77	-1786.25	  455.83
      7.4700	  681.00	  570.95	-1786.25	  456.02
      7.5700	  670.00	  571.14	-1786.25	  456.20
      7.6700	  604.00	  571.31	-1786.25	  456.38
      7.7700	  615.00	  571.48	-1786.25	  456.55
      7.8700	  640.00	  571.64	-1786.25	  456.71
      7.9700	  688.00	  571.79	-1786.25	  456.86
      8.0700	  607.00	  571.94	-1786.25	  457.01
      8.1700	  635.00	  572.08	-1786.25	  457.14
      8.2700	  641.00	  572.21	-1786.25	  457.28
      8.3700	  627.00	  572.33	-1786.25	  457.40
      8.4700	  599.00	  572.45	-1786.25	  457.52
      8.5700	  608.00	  572.57	-1786.25	  457.63
      8.6700	  620.00	  572.67	-1786.25	  457.74
      8.7700	  630.00	  572.77	-1786.25	  457.84
      8.8700	  634.00	  572.86	-1786.25	  457.93
      8.9700	  646.00	  572.95	-1786.25	  458.02
      9.0700	  632.00	  573.03	-1786.25	  458.10
      9.1700	  663.00	  573.10	-1786.25	  458.17
      9.2700	  677.00	  573.17	-1786.25	  458.24
      9.3700	  627.00	  573.23	-1786.25	  458.30
      9.4700	  617.00	  573.29	-1786.25	  458.36
      9.5700	  578.00	  573.34	-1786.25	  458.41
      9.6700	  590.00	  573.38	-1786.25	  458.45
      9.7700	  586.00	  573.42	-1786.25	  458.49
      9.8700	  584.00	  573.45	-1786.25	  458.52
      9.9700	  609.00	  573.48	-1786.25	  458.54
     10.0700	  575.00	  574.30	-1785.55	  458.56
     10.1700	  586.00	  574.40	-1774.65	  458.58
     10.2700	  589.00	  574.50	-1771.75	  458.59
     10.3700	  598.00	  574.63	-1762.88	  458.59
     10.4700	  596.00	  574.81	-1765.06	  458.59
     10.5700	  602.00	  575.09	-1759.34	  458.58
     10.6700	  595.00	  575.55	-1766.80	  458.57
     10.7700	  620.00	  576.31	-1742.56	  458.55
     10.8700	  582.00	  577.45	-1781.70	  458.52
     10.9700	  552.00	  578.97	-1813.22	  458.49
     11.0700	  611.00	  580.83	-1756.08	  458.46
     11.1700	  609.00	  583.02	-1760.27	  458.42
     11.2700	  572.00	  585.57	-1799.82	  458.37
     11.3700	  611.00	  588.56	-1763.81	  458.32
     11.4700	  563.00	  592.10	-1815.35	  458.27
     11.5700	  583.00	  596.39	-1799.64	  458.21
     11.6700	  601.00	  601.74	-1786.99	  458.14
     11.7700	  590.00	  608.72	-1804.97	  458.07
     11.8700	  655.00	  618.22	-1749.47	  458.00
     11.9700	  610.00	  631.01	-1807.26	  457.92
     12.0700	  707.00	  645.94	-1725.19	  457.83
     12.1700	  719.00	  657.48	-1724.73	  457.74
     12.2700	  661.00	  656.11	-1781.36	  457.65
     12.3700	  663.00	  637.37	-1760.62	  457.55
     12.4700	  644.00	  612.49	-1754.74	  457.45
     12.5700	  615.00	  593.58	-1764.83	  457.34
     12.6700	  548.00	  583.08	-1821.33	  457.23
     12.7700	  543.00	  578.30	-1821.55	  457.11
     12.8700	  588.00	  576.17	-1774.42	  456.99
     12.9700	  592.00	  575.03	-1769.28	  456.87
     13.0700	  580.00	  574.27	-1780.52	  456.74
     13.1700	  551.00	  573.69	-1808.94	  456.61
     13.2700	  548.00	  573.22	-1811.47	  456.47
     13.3700	  522.00	  572.83	-1837.08	  456.33
     13.4700	  570.00	  572.48	-1788.73	  456.19
     13.5700	  635.00	  572.18	-1723.43	  456.04
     13.6700	  538.00	  571.89	-1820.14	  455.88
     13.7700	  521.00	  571.63	-1836.88	  455.73
     13.8700	  559.00	  571.38	-1798.63	  455.57
     13.9700	  567.00	  571.15	-1790.40	  455.40
     14.0700	  539.00	  570.92	-1818.17	  455.23
     14.1700	  555.00	  570.69	-1801.94	  455.06
     14.2700	  591.00	  570.47	-1765.72	  454.88
     14.3700	  560.00	  570.25	-1796.50	  454.70
     14.4700	  556.00	  570.03	-1800.28	  454.52
     14.5700	  547.00	  569.81	-1809.06	  454.34
     14.6700	  502.00	  569.60	-1853.85	  454.15
     14.7700	  594.00	  569.38	-1761.63	  453.95
     14.8700	  563.00	  569.16	-1792.41	  453.76
     14.9700	  597.00	  568.94	-1758.19	  453.56
     15.0700	  538.00	  568.72	-1816.97	  453.35
     15.1700	  534.00	  568.50	-1820.75	  453.15
     15.2700	  555.00	  568.27	-1799.52	  452.94
     15.3700	  581.00	  568.05	-1773.30	  452.72
     15.4700	  564.00	  567.82	-1790.07	  452.51
     15.5700	  555.00	  567.59	-1798.84	  452.29
     15.6700	  545.00	  567.36	-1808.61	  452.06
     15.7700	  592.00	  567.12	-1761.37	  451.84
     15.8700	  559.00	  566.89	-1794.14	  451.61
     15.9700	  529.00	  566.65	-1823.90	  451.38
     16.0700	  552.00	  566.41	-1800.66	  451.15
     16.1700	  520.00	  566.19	-1832.44	  450.91
     16.2700	  556.00	  565.95	-1796.20	  450.67
     16.3700	  530.00	  565.70	-1821.95	  450.43
     16.4700	  544.00	  565.45	-1807.70	  450.18
     16.5700	  622.00	  565.20	-1729.45	  449.93
     16.6700	  522.00	  564.94	-1829.19	  449.68
     16.7700	  535.00	  564.69	-1815.94	  449.43
     16.8700	  540.00	  564.43	-1810.68	  449.17
     16.9700	  582.00	  564.17	-1768.42	  448.92
     17.0700	  566.00	  563.90	-1784.15	  448.65
     17.1700	  562.00	  563.64	-1787.89	  448.39
     17.2700	  550.00	  563.37	-1799.62	  448.13
     17.3700	  555.00	  563.10	-1794.35	  447.86
     17.4700	  540.00	  562.83	-1809.08	  447.59
     17.5700	  588.00	  562.55	-1760.80	  447.32
     17.6700	  577.00	  562.28	-1771.53	  447.04
     17.7700	  571.00	  562.00	-1777.25	  446.76
     17.8700	  545.00	  561.72	-1802.97	  446.48
     17.9700	  530.00	  561.54	-1817.79	  446.20
     18.0700	  573.00	  561.26	-1774.51	  445.92
     18.1700	  528.00	  560.97	-1819.22	  445.63
     18.2700	  563.00	  560.69	-1783.94	  445.35
     18.3700	  563.00	  560.40	-1783.65	  445.06
     18.4700	  557.00	  560.11	-1789.36	  444.77
     18.5700	  578.00	  559.82	-1768.07	  444.47
     18.6700	  559.00	  559.53	-1786.78	  444.18
     18.7700	  575.00	  559.23	-1770.48	  443.88
     18.8700	  595.00	  559.03	-1750.28	  443.58
     18.9700	  606.00	  558.73	-1738.98	  443.28
     19.0700	  536.00	  558.44	-1808.69	  442.98
     19.1700	  590.00	  558.14	-1754.39	  442.68
     19.2700	  545.00	  557.84	-1799.09	  442.37
     19.3700	  514.00	  557.54	-1829.79	  442.06
     19.4700	  550.00	  557.24	-1793.49	  441.75
     19.5700	  567.00	  556.93	-1776.18	  441.44
     19.6700	  566.00	  556.63	-1776.88	  441.13
     19.7700	  537.00	  556.32	-1805.57	  440.82
     19.8700	  538.00	  556.02	-1804.27	  440.50
     19.9700	  575.00	  555.71	-1766.96	  440.19
     20.0700	  611.00	  555.40	-1730.65	  439.87
     20.1700	  572.00	  555.09	-1769.34	  439.55
     20.2700	  567.00	  554.78	-1774.03	  439.23
     20.3700	  561.00	  554.47	-1779.72	  438.91
     20.4700	  552.00	  554.16	-1788.41	  438.58
     20.5700	  536.00	  553.85	-1804.10	  438.26
     20.6700	  558.00	  553.51	-1781.76	  437.94
     20.7700	  504.00	  553.19	-1835.44	  437.61
     20.8700	  545.00	  552.92	-1794.17	  437.28
     20.9700	  586.00	  552.61	-1752.86	  436.95
     21.0700	  563.00	  552.29	-1775.54	  436.62
     21.1700	  558.00	  551.98	-1780.23	  436.29
     21.2700	  559.00	  551.67	-1778.92	  435.96
     21.3700	  561.00	  551.36	-1776.61	  435.63
     21.4700	  531.00	  551.05	-1806.30	  435.29
     21.5700	  519.00	  550.74	-1817.99	  434.96
     21.6700	  497.00	  550.43	-1839.68	  434.62
     21.7700	  527.00	  550.12	-1809.37	  434.29
     21.8700	  577.00	  549.81	-1759.06	  433.95
     21.9700	  550.00	  549.50	-1785.75	  433.61
     22.0700	  560.00	  549.20	-1775.45	  433.27
     22.1700	  574.00	  548.90	-1761.15	  432.93
     22.2700	  539.00	  548.60	-1795.85	  432.59
     22.3700	  546.00	  548.30	-1788.55	  432.25
     22.4700	  556.00	  548.01	-1778.26	  431.91
     22.5700	  591.00	  547.72	-1742.97	  431.57
     22.6700	  581.00	  547.44	-1752.69	  431.22
     22.7700	  513.00	  547.16	-1820.41	  430.88
     22.8700	  552.00	  546.89	-1781.14	  430.54
     22.9700	  562.00	  546.64	-1770.89	  430.19
     23.0700	  574.00	  546.39	-1758.64	  429.85
     23.1700	  579.00	  546.16	-1753.41	  429.50
     23.2700	  542.00	  545.95	-1790.20	  429.16
     23.3700	  570.00	  545.76	-1762.01	  428.81
     23.4700	  553.00	  545.61	-1778.86	  428.46
     23.5700	  512.00	  545.50	-1819.75	  428.12
     23.6700	  559.00	  545.45	-1772.70	  427.77
     23.7700	  539.00	  545.64	-1792.89	  427.42
     23.8700	  548.00	  545.89	-1784.14	  427.07
     23.9700	  585.00	  546.52	-1747.77	  426.73
     24.0700	  549.00	  547.94	-1785.19	  426.38
     24.1700	  571.00	  550.77	-1766.02	  426.03
     24.2700	  524.00	  555.85	-1818.10	  425.68
     24.3700	  574.00	  564.16	-1776.41	  425.33
     24.4700	  605.00	  576.76	-1758.01	  424.98
     24.5700	  606.00	  594.22	-1774.47	  424.63
     24.6700	  617.00	  614.50	-1783.75	  424.28
     24.7700	  581.00	  630.49	-1835.74	  423.93
     24.8700	  636.00	  631.24	-1781.49	  423.59
     24.9700	  646.00	  612.34	-1752.59	  423.24
     25.0700	  584.00	  585.86	-1788.11	  422.89
     25.1700	  606.00	  564.68	-1744.93	  422.54
     25.2700	  570.00	  552.20	-1768.45	  422.19
     25.3700	  564.00	  546.20	-1768.45	  421.84
     25.4700	  566.00	  543.49	-1763.74	  421.49
     25.5700	  524.00	  542.11	-1804.36	  421.14
     25.6700	  545.00	  541.24	-1782.49	  420.79
     25.7700	  541.00	  540.60	-1785.85	  420.45
     25.8700	  552.00	  540.12	-1774.37	  420.10
     25.9700	  584.00	  539.75	-1742.00	  419.75
     26.0700	  550.00	  539.47	-1775.72	  419.40
     26.1700	  592.00	  539.27	-1733.52	  419.05
     26.2700	  558.00	  539.14	-1767.39	  418.71
     26.3700	  541.00	  539.10	-1784.35	  418.36
     26.4700	  580.00	  539.13	-1745.38	  418.01
     26.5700	  537.00	  539.27	-1788.52	  417.67
     26.6700	  528.00	  539.51	-1797.76	  417.32
     26.7700	  540.00	  539.89	-1786.14	  416.98
     26.8700	  528.00	  540.43	-1798.68	  416.63
     26.9700	  560.00	  541.19	-1767.44	  416.29
     27.0700	  543.00	  542.24	-1785.49	  415.94
     27.1700	  586.00	  543.70	-1743.95	  415.60
     27.2700	  544.00	  545.79	-1788.04	  415.26
     27.3700	  530.00	  548.98	-1805.23	  414.92
     27.4700	  589.00	  554.12	-1751.37	  414.57
     27.5700	  580.00	  562.81	-1769.06	  414.23
     27.6700	  529.00	  577.60	-1834.85	  413.89
     27.7700	  546.00	  601.86	-1842.11	  413.55
     27.8700	  603.00	  638.73	-1821.98	  413.21
     27.9700	  631.00	  688.83	-1844.08	  412.87
     28.0700	  812.00	  747.26	-1721.51	  412.54
     28.1700	  860.00	  800.76	-1727.01	  412.20
     28.2700	  963.00	  828.14	-1651.39	  411.86
     28.3700	  952.00	  813.80	-1648.05	  411.53
     28.4700	  808.00	  773.88	-1752.13	  411.19
     28.5700	  722.00	  743.36	-1807.61	  410.86
     28.6700	  681.00	  741.01	-1846.26	  410.52
     28.7700	  728.00	  764.47	-1822.72	  410.19
     28.8700	  770.00	  795.47	-1811.72	  409.86
     28.9700	  818.00	  805.98	-1774.23	  409.53
     29.0700	  845.00	  774.46	-1715.71	  409.20
     29.1700	  711.00	  712.00	-1787.25	  408.87
     29.2700	  659.00	  648.72	-1775.97	  408.54
     29.3700	  586.00	  601.41	-1801.66	  408.21
     29.4700	  617.00	  572.05	-1741.30	  407.88
     29.5700	  605.00	  555.92	-1737.17	  407.56
     29.6700	  622.00	  547.39	-1711.64	  407.23
     29.7700	  601.00	  542.63	-1727.88	  406.91
     29.8700	  598.00	  539.70	-1727.95	  406.58
     29.9700	  533.00	  537.83	-1791.08	  406.26
     30.0700	  536.00	  536.80	-1787.05	  405.94
     30.1700	  543.00	  536.72	-1779.97	  405.62
     30.2700	  535.00	  538.07	-1789.32	  405.30
     30.3700	  526.00	  541.84	-1802.09	  404.98
     30.4700	  543.00	  549.57	-1792.82	  404.67
     30.5700	  552.00	  563.05	-1797.30	  404.35
     30.6700	  541.00	  583.05	-1828.30	  404.04
     30.7700	  600.00	  607.59	-1793.84	  403.72
     30.8700	  596.00	  630.38	-1820.63	  403.41
     30.9700	  619.00	  641.06	-1808.31	  403.10
     31.0700	  586.00	  630.87	-1831.12	  402.79
     31.1700	  582.00	  604.33	-1808.58	  402.48
     31.2700	  578.00	  575.61	-1783.86	  402.17
     31.3700	  520.00	  553.47	-1819.72	  401.86
     31.4700	  489.00	  539.58	-1836.83	  401.56
     31.5700	  575.00	  531.99	-1743.24	  401.26
     31.6700	  546.00	  528.07	-1768.32	  400.95
     31.7700	  532.00	  525.92	-1780.17	  400.65
     31.8700	  520.00	  524.59	-1790.84	  400.35
     31.9700	  566.00	  523.67	-1743.92	  400.05
     32.0700	  500.00	  523.01	-1809.26	  399.75
     32.1700	  564.00	  522.54	-1744.79	  399.46
     32.2700	  532.00	  522.23	-1776.48	  399.16
     32.3700	  530.00	  522.08	-1778.33	  398.87
     32.4700	  535.00	  522.09	-1773.34	  398.57
     32.5700	  563.00	  522.26	-1745.51	  398.28
     32.6700	  527.00	  522.63	-1781.88	  397.99
     32.7700	  538.00	  523.22	-1771.47	  397.70
     32.8700	  547.00	  524.12	-1763.37	  397.42
     32.9700	  559.00	  525.41	-1752.66	  397.13
     33.0700	  530.00	  527.29	-1783.54	  396.85
     33.1700	  581.00	  530.15	-1735.40	  396.56
     33.2700	  562.00	  534.89	-1759.14	  396.28
     33.3700	  522.00	  543.48	-1807.73	  396.00
     33.4700	  566.00	  559.80	-1780.05	  395.72
     33.5700	  547.00	  590.31	-1829.56	  395.44
     33.6700	  646.00	  643.00	-1783.25	  395.17
     33.7700	  716.00	  722.89	-1793.14	  394.89
     33.8700	  856.00	  823.84	-1754.09	  394.62
     33.9700	 1005.00	  921.92	-1703.17	  394.35
     34.0700	 1044.00	  976.67	-1718.92	  394.08
     34.1700	 1017.00	  951.20	-1720.45	  393.81
     34.2700	  949.00	  855.59	-1692.84	  393.55
     34.3700	  752.00	  742.10	-1776.35	  393.28
     34.4700	  676.00	  649.54	-1759.79	  393.02
     34.5700	  563.00	  589.07	-1812.32	  392.75
     34.6700	  601.00	  555.41	-1740.66	  392.49
     34.7700	  543.00	  538.33	-1781.58	  392.23
     34.8700	  514.00	  529.55	-1801.80	  391.98
     34.9700	  498.00	  524.46	-1812.71	  391.72
     35.0700	  516.00	  521.04	-1791.29	  391.47
     35.1700	  524.00	  518.48	-1780.73	  391.21
     35.2700	  518.00	  516.48	-1784.73	  390.96
     35.3700	  502.00	  514.85	-1799.10	  390.71
     35.4700	  529.00	  513.49	-1770.74	  390.47
     35.5700	  505.00	  512.35	-1793.60	  390.22
     35.6700	  541.00	  511.37	-1756.62	  389.97
     35.7700	  490.00	  510.52	-1806.77	  389.73
     35.8700	  506.00	  509.76	-1790.01	  389.49
     35.9700	  509.00	  509.58	-1786.83	  389.25
     36.0700	  476.00	  508.99	-1819.24	  389.01
     36.1700	  505.00	  508.45	-1789.70	  388.78
     36.2700	  519.00	  507.97	-1775.22	  388.54
     36.3700	  515.00	  507.52	-1778.77	  388.31
     36.4700	  512.00	  507.12	-1781.37	  388.08
     36.5700	  467.00	  506.76	-1826.01	  387.85
     36.6700	  537.00	  506.43	-1755.68	  387.62
     36.7700	  530.00	  506.15	-1762.40	  387.40
     36.8700	  495.00	  505.92	-1797.17	  387.17
     36.9700	  497.00	  505.80	-1795.05	  386.95
     37.0700	  482.00	  505.87	-1810.12	  386.73
     37.1700	  499.00	  506.34	-1793.59	  386.51
     37.2700	  464.00	  507.52	-1829.77	  386.29
     37.3700	  507.00	  509.78	-1789.03	  386.08
     37.4700	  505.00	  513.28	-1794.53	  385.86
     37.5700	  516.00	  517.59	-1787.84	  385.65
     37.6700	  517.00	  521.53	-1790.78	  385.44
     37.7700	  518.00	  523.46	-1791.71	  385.23
     37.8700	  529.00	  522.49	-1779.74	  385.02
     37.9700	  500.00	  519.49	-1805.74	  384.82
     38.0700	  493.00	  515.81	-1809.06	  384.62
     38.1700	  481.00	  512.03	-1817.28	  384.42
     38.2700	  536.00	  508.58	-1758.83	  384.22
     38.3700	  518.00	  505.83	-1774.08	  384.02
     38.4700	  487.00	  503.87	-1803.12	  383.82
     38.5700	  477.00	  502.58	-1811.83	  383.63
     38.6700	  537.00	  501.77	-1751.02	  383.44
     38.7700	  466.00	  501.14	-1821.39	  383.25
     38.8700	  485.00	  500.77	-1802.02	  383.06
     38.9700	  473.00	  500.47	-1813.72	  382.87
     39.0700	  487.00	  500.21	-1799.46	  382.68
     39.1700	  522.00	  499.98	-1764.23	  382.50
     39.2700	  513.00	  499.68	-1772.93	  382.32
     39.3700	  538.00	  499.48	-1747.73	  382.14
     39.4700	  479.00	  499.29	-1806.54	  381.96
     39.5700	  496.00	  499.25	-1789.50	  381.79
     39.6700	  505.00	  499.09	-1780.34	  381.61
     39.7700	  499.00	  498.93	-1786.18	  381.44
     39.8700	  466.00	  498.79	-1819.04	  381.27
     39.9700	  498.00	  498.66	-1786.91	  381.10
     40.0700	  490.00	  498.54	-1794.79	  380.94
     40.1700	  496.00	  498.43	-1788.68	  380.77
     40.2700	  490.00	  498.33	-1794.58	  380.61
     40.3700	  475.00	  498.24	-1809.49	  380.45
     40.4700	  487.00	  498.16	-1797.41	  380.29
     40.5700	  513.00	  498.10	-1771.35	  380.13
     40.6700	  498.00	  498.06	-1786.31	  379.98
     40.7700	  495.00	  498.03	-1789.28	  379.82
