MSG Master    CELL:    5.87727   5.87727  23.08126   90.0000   90.0000  120.0000   SPGR: P 63/m m c             TEMP:    467.85
  2   1280     2.52000     0.00000    -0.08632     0.00000     0.00000    0
    96    96     0     0     2
       0.00000      10.00000
     125.00000     130.00000
 2Theta	Yobs	Ycal	Yobs-Ycal	Backg	Posr	(hkl)	K
      0.7700	    0.00	  979.54	-2255.00	  840.19
      0.8700	    0.00	  976.19	-2255.00	  836.84
      0.9700	   60.00	  972.87	-2255.00	  833.51
      1.0700	   54.00	  969.56	-2255.00	  830.20
      1.1700	   53.00	  966.27	-2255.00	  826.92
      1.2700	   47.00	  963.01	-2255.00	  823.65
      1.3700	   52.00	  959.76	-2255.00	  820.41
      1.4700	   95.00	  956.54	-2255.00	  817.18
      1.5700	  321.00	  953.34	-2255.00	  813.98
      1.6700	  423.00	  950.15	-2255.00	  810.80
      1.7700	  566.00	  946.99	-2255.00	  807.64
      1.8700	  616.00	  943.85	-2255.00	  804.49
      1.9700	  714.00	  940.73	-2255.00	  801.37
      2.0700	  734.00	  937.63	-2255.00	  798.27
      2.1700	  771.00	  934.55	-2255.00	  795.19
      2.2700	  733.00	  931.48	-2255.00	  792.13
      2.3700	  757.00	  928.44	-2255.00	  789.09
      2.4700	  743.00	  925.42	-2255.00	  786.07
      2.5700	  678.00	  922.42	-2255.00	  783.06
      2.6700	  675.00	  919.44	-2255.00	  780.08
      2.7700	  675.00	  916.47	-2255.00	  777.12
      2.8700	  659.00	  913.53	-2255.00	  774.17
      2.9700	  606.00	  910.61	-2255.00	  771.25
      3.0700	  630.00	  907.70	-2255.00	  768.35
      3.1700	  610.00	  904.82	-2255.00	  765.46
      3.2700	  749.00	  901.95	-2255.00	  762.59
      3.3700	  951.00	  899.10	-2255.00	  759.75
      3.4700	 1029.00	  896.28	-2255.00	  756.92
      3.5700	 1210.00	  893.47	-2255.00	  754.11
      3.6700	 1306.00	  890.68	-2255.00	  751.32
      3.7700	 1411.00	  887.90	-2255.00	  748.55
      3.8700	 1521.00	  885.15	-2255.00	  745.79
      3.9700	 1534.00	  882.42	-2255.00	  743.06
      4.0700	 1677.00	  879.70	-2255.00	  740.34
      4.1700	 1704.00	  877.00	-2255.00	  737.65
      4.2700	 1650.00	  874.32	-2255.00	  734.97
      4.3700	 1660.00	  871.66	-2255.00	  732.30
      4.4700	 1637.00	  869.02	-2255.00	  729.66
      4.5700	 1571.00	  866.39	-2255.00	  727.04
      4.6700	 1570.00	  863.79	-2255.00	  724.43
      4.7700	 1476.00	  861.20	-2255.00	  721.84
      4.8700	 1368.00	  858.63	-2255.00	  719.27
      4.9700	 1382.00	  856.07	-2255.00	  716.72
      5.0700	 1331.00	  853.54	-2255.00	  714.18
      5.1700	 1254.00	  851.02	-2255.00	  711.66
      5.2700	 1273.00	  848.52	-2255.00	  709.16
      5.3700	 1270.00	  846.03	-2255.00	  706.68
      5.4700	 1264.00	  843.57	-2255.00	  704.21
      5.5700	 1177.00	  841.12	-2255.00	  701.76
      5.6700	 1157.00	  838.69	-2255.00	  699.33
      5.7700	 1114.00	  836.27	-2255.00	  696.92
      5.8700	 1113.00	  833.88	-2255.00	  694.52
      5.9700	 1120.00	  831.50	-2255.00	  692.14
      6.0700	 1077.00	  829.13	-2255.00	  689.78
      6.1700	 1084.00	  826.79	-2255.00	  687.43
      6.2700	 1024.00	  824.46	-2255.00	  685.10
      6.3700	 1074.00	  822.14	-2255.00	  682.79
      6.4700	 1081.00	  819.85	-2255.00	  680.49
      6.5700	 1042.00	  817.57	-2255.00	  678.21
      6.6700	  977.00	  815.30	-2255.00	  675.95
      6.7700	  911.00	  813.05	-2255.00	  673.70
      6.8700	  931.00	  810.82	-2255.00	  671.47
      6.9700	  944.00	  808.61	-2255.00	  669.25
      7.0700	  910.00	  806.41	-2255.00	  667.05
      7.1700	  924.00	  804.23	-2255.00	  664.87
      7.2700	  896.00	  802.06	-2255.00	  662.70
      7.3700	  920.00	  799.91	-2255.00	  660.55
      7.4700	  856.00	  797.77	-2255.00	  658.42
      7.5700	  823.00	  795.65	-2255.00	  656.30
      7.6700	  839.00	  793.55	-2255.00	  654.19
      7.7700	  859.00	  791.46	-2255.00	  652.11
      7.8700	  850.00	  789.39	-2255.00	  650.03
      7.9700	  858.00	  787.33	-2255.00	  647.98
      8.0700	  860.00	  785.29	-2255.00	  645.93
      8.1700	  821.00	  783.26	-2255.00	  643.91
      8.2700	  833.00	  781.25	-2255.00	  641.90
      8.3700	  794.00	  779.26	-2255.00	  639.90
      8.4700	  792.00	  777.28	-2255.00	  637.92
      8.5700	  801.00	  775.31	-2255.00	  635.95
      8.6700	  807.00	  773.36	-2255.00	  634.00
      8.7700	  780.00	  771.42	-2255.00	  632.07
      8.8700	  795.00	  769.50	-2255.00	  630.15
      8.9700	  772.00	  767.59	-2255.00	  628.24
      9.0700	  759.00	  765.70	-2255.00	  626.35
      9.1700	  782.00	  763.83	-2255.00	  624.47
      9.2700	  753.00	  761.96	-2255.00	  622.61
      9.3700	  765.00	  760.11	-2255.00	  620.76
      9.4700	  770.00	  758.28	-2255.00	  618.92
      9.5700	  765.00	  756.46	-2255.00	  617.10
      9.6700	  777.00	  754.65	-2255.00	  615.30
      9.7700	  718.00	  752.86	-2255.00	  613.51
      9.8700	  729.00	  751.09	-2255.00	  611.73
      9.9700	  706.00	  749.32	-2255.00	  609.97
     10.0700	  764.00	  749.63	-2240.63	  608.22
     10.1700	  780.00	  748.12	-2223.12	  606.48
     10.2700	  713.00	  746.66	-2288.66	  604.76
     10.3700	  679.00	  745.27	-2321.27	  603.05
     10.4700	  713.00	  743.97	-2285.97	  601.36
     10.5700	  760.00	  742.80	-2237.80	  599.68
     10.6700	  700.00	  741.82	-2296.82	  598.01
     10.7700	  768.00	  741.11	-2228.11	  596.36
     10.8700	  776.00	  740.76	-2219.76	  594.72
     10.9700	  770.00	  740.86	-2225.86	  593.09
     11.0700	  782.00	  741.46	-2214.46	  591.48
     11.1700	  753.00	  742.60	-2244.60	  589.88
     11.2700	  714.00	  744.28	-2285.28	  588.29
     11.3700	  722.00	  746.55	-2279.55	  586.71
     11.4700	  763.00	  749.49	-2241.49	  585.15
     11.5700	  754.00	  753.24	-2254.24	  583.60
     11.6700	  762.00	  758.02	-2251.02	  582.07
     11.7700	  786.00	  764.11	-2233.11	  580.55
     11.8700	  798.00	  771.81	-2228.81	  579.04
     11.9700	  843.00	  781.26	-2193.26	  577.54
     12.0700	  880.00	  792.01	-2167.01	  576.05
     12.1700	  902.00	  802.54	-2155.54	  574.58
     12.2700	  886.00	  809.64	-2178.64	  573.12
     12.3700	  866.00	  808.53	-2197.53	  571.68
     12.4700	  774.00	  795.99	-2276.99	  570.24
     12.5700	  773.00	  775.68	-2257.68	  568.82
     12.6700	  724.00	  755.17	-2286.17	  567.41
     12.7700	  704.00	  738.68	-2289.68	  566.01
     12.8700	  696.00	  726.86	-2285.86	  564.62
     12.9700	  721.00	  718.74	-2252.75	  563.25
     13.0700	  634.00	  713.18	-2334.18	  561.89
     13.1700	  742.00	  709.18	-2222.18	  560.54
     13.2700	  653.00	  706.07	-2308.07	  559.20
     13.3700	  654.00	  703.48	-2304.48	  557.87
     13.4700	  663.00	  701.21	-2293.21	  556.56
     13.5700	  670.00	  699.17	-2284.17	  555.25
     13.6700	  660.00	  697.29	-2292.29	  553.96
     13.7700	  689.00	  695.53	-2261.53	  552.68
     13.8700	  706.00	  693.87	-2242.87	  551.41
     13.9700	  705.00	  692.28	-2242.28	  550.16
     14.0700	  717.00	  690.76	-2228.76	  548.91
     14.1700	  707.00	  689.30	-2237.30	  547.67
     14.2700	  662.00	  687.87	-2280.87	  546.45
     14.3700	  708.00	  686.49	-2233.49	  545.24
     14.4700	  676.00	  685.14	-2264.14	  544.04
     14.5700	  653.00	  683.81	-2285.81	  542.85
     14.6700	  649.00	  682.52	-2288.52	  541.67
     14.7700	  680.00	  681.25	-2256.25	  540.50
     14.8700	  659.00	  680.00	-2276.00	  539.34
     14.9700	  683.00	  678.78	-2250.78	  538.19
     15.0700	  680.00	  677.57	-2252.57	  537.06
     15.1700	  617.00	  676.38	-2314.38	  535.93
     15.2700	  671.00	  675.21	-2259.21	  534.82
     15.3700	  676.00	  674.05	-2253.05	  533.71
     15.4700	  698.00	  672.91	-2229.91	  532.62
     15.5700	  673.00	  671.78	-2253.78	  531.54
     15.6700	  691.00	  670.67	-2234.67	  530.46
     15.7700	  641.00	  669.57	-2283.57	  529.40
     15.8700	  661.00	  668.48	-2262.48	  528.35
     15.9700	  680.00	  667.41	-2242.41	  527.30
     16.0700	  688.00	  666.35	-2233.35	  526.27
     16.1700	  618.00	  665.30	-2302.30	  525.25
     16.2700	  690.00	  664.27	-2229.27	  524.24
     16.3700	  619.00	  663.24	-2299.24	  523.24
     16.4700	  619.00	  662.23	-2298.23	  522.24
     16.5700	  662.00	  661.23	-2254.23	  521.26
     16.6700	  688.00	  660.24	-2227.24	  520.29
     16.7700	  669.00	  659.26	-2245.26	  519.33
     16.8700	  674.00	  658.29	-2239.29	  518.37
     16.9700	  677.00	  657.34	-2235.34	  517.43
     17.0700	  684.00	  656.39	-2227.39	  516.50
     17.1700	  693.00	  655.45	-2217.45	  515.57
     17.2700	  625.00	  654.53	-2284.53	  514.66
     17.3700	  672.00	  653.61	-2236.61	  513.75
     17.4700	  649.00	  652.71	-2258.71	  512.85
     17.5700	  644.00	  651.81	-2262.81	  511.97
     17.6700	  627.00	  650.93	-2278.93	  511.09
     17.7700	  641.00	  650.05	-2264.05	  510.22
     17.8700	  685.00	  649.18	-2219.18	  509.36
     17.9700	  657.00	  648.33	-2246.33	  508.51
     18.0700	  651.00	  647.48	-2251.48	  507.67
     18.1700	  688.00	  646.64	-2213.64	  506.84
     18.2700	  691.00	  645.81	-2209.81	  506.01
     18.3700	  665.00	  645.00	-2235.00	  505.20
     18.4700	  629.00	  644.19	-2270.19	  504.39
     18.5700	  676.00	  643.39	-2222.39	  503.59
     18.6700	  658.00	  642.59	-2239.59	  502.80
     18.7700	  679.00	  641.81	-2217.81	  502.02
     18.8700	  700.00	  641.04	-2196.04	  501.25
     18.9700	  625.00	  640.27	-2270.27	  500.49
     19.0700	  650.00	  640.75	-2245.75	  499.74
     19.1700	  620.00	  642.17	-2277.17	  498.99
     19.2700	  674.00	  641.50	-2222.50	  498.25
     19.3700	  643.00	  640.85	-2252.85	  497.52
     19.4700	  625.00	  640.20	-2270.20	  496.80
     19.5700	  614.00	  639.57	-2280.57	  496.09
     19.6700	  617.00	  638.95	-2276.95	  495.38
     19.7700	  614.00	  638.34	-2279.34	  494.69
     19.8700	  635.00	  637.74	-2257.74	  494.00
     19.9700	  615.00	  637.16	-2277.16	  493.32
     20.0700	  647.00	  636.58	-2244.58	  492.65
     20.1700	  694.00	  636.02	-2197.02	  491.98
     20.2700	  701.00	  635.52	-2189.52	  491.32
     20.3700	  637.00	  634.98	-2252.98	  490.67
     20.4700	  607.00	  634.46	-2282.46	  490.03
     20.5700	  586.00	  633.94	-2302.94	  489.40
     20.6700	  606.00	  633.44	-2282.44	  488.77
     20.7700	  620.00	  632.95	-2267.95	  488.16
     20.8700	  667.00	  632.48	-2220.48	  487.54
     20.9700	  607.00	  632.02	-2280.02	  486.94
     21.0700	  626.00	  631.57	-2260.57	  486.35
     21.1700	  644.00	  631.14	-2242.14	  485.76
     21.2700	  643.00	  630.72	-2242.72	  485.18
     21.3700	  640.00	  630.31	-2245.31	  484.60
     21.4700	  661.00	  629.92	-2223.92	  484.04
     21.5700	  674.00	  629.55	-2210.55	  483.48
     21.6700	  643.00	  629.19	-2241.19	  482.92
     21.7700	  631.00	  628.85	-2252.85	  482.38
     21.8700	  646.00	  628.53	-2237.53	  481.84
     21.9700	  615.00	  628.22	-2268.22	  481.31
     22.0700	  650.00	  627.94	-2232.94	  480.79
     22.1700	  622.00	  627.67	-2260.67	  480.27
     22.2700	  609.00	  627.42	-2273.42	  479.76
     22.3700	  648.00	  627.20	-2234.20	  479.25
     22.4700	  682.00	  627.21	-2200.21	  478.76
     22.5700	  594.00	  627.04	-2288.04	  478.27
     22.6700	  640.00	  626.89	-2241.89	  477.78
     22.7700	  587.00	  626.78	-2294.78	  477.31
     22.8700	  637.00	  626.70	-2244.70	  476.84
     22.9700	  622.00	  626.65	-2259.65	  476.37
     23.0700	  575.00	  626.64	-2306.64	  475.92
     23.1700	  618.00	  626.67	-2263.67	  475.47
     23.2700	  634.00	  626.75	-2247.75	  475.02
     23.3700	  601.00	  626.88	-2280.88	  474.58
     23.4700	  621.00	  627.08	-2261.08	  474.15
     23.5700	  645.00	  627.36	-2237.36	  473.73
     23.6700	  624.00	  627.72	-2258.72	  473.31
     23.7700	  651.00	  628.20	-2232.20	  472.90
     23.8700	  635.00	  628.83	-2248.83	  472.49
     23.9700	  653.00	  629.67	-2231.67	  472.09
     24.0700	  630.00	  630.82	-2255.82	  471.69
     24.1700	  681.00	  632.45	-2206.45	  471.31
     24.2700	  592.00	  634.80	-2297.80	  470.92
     24.3700	  638.00	  638.19	-2255.19	  470.55
     24.4700	  686.00	  643.15	-2212.15	  470.18
     24.5700	  685.00	  649.97	-2219.97	  469.81
     24.6700	  716.00	  658.77	-2197.77	  469.45
     24.7700	  705.00	  669.12	-2219.12	  469.10
     24.8700	  713.00	  679.78	-2221.78	  468.75
     24.9700	  758.00	  688.35	-2185.35	  468.41
     25.0700	  718.00	  691.39	-2228.39	  468.07
     25.1700	  683.00	  686.74	-2258.74	  467.74
     25.2700	  663.00	  676.80	-2268.80	  467.41
     25.3700	  687.00	  666.33	-2234.33	  467.09
     25.4700	  688.00	  658.24	-2225.24	  466.78
     25.5700	  709.00	  653.01	-2199.01	  466.47
     25.6700	  644.00	  650.34	-2261.34	  466.17
     25.7700	  649.00	  649.60	-2255.60	  465.87
     25.8700	  693.00	  650.18	-2212.18	  465.58
     25.9700	  665.00	  651.69	-2241.69	  465.29
     26.0700	  658.00	  653.91	-2250.91	  465.01
     26.1700	  670.00	  656.76	-2241.76	  464.73
     26.2700	  681.00	  660.24	-2234.24	  464.46
     26.3700	  635.00	  664.40	-2284.40	  464.19
     26.4700	  624.00	  669.31	-2300.31	  463.93
     26.5700	  635.00	  675.12	-2295.12	  463.67
     26.6700	  654.00	  681.97	-2282.97	  463.42
     26.7700	  702.00	  690.10	-2243.10	  463.17
     26.8700	  657.00	  699.79	-2297.79	  462.93
     26.9700	  681.00	  711.45	-2285.45	  462.69
     27.0700	  675.00	  725.60	-2305.60	  462.45
     27.1700	  666.00	  743.01	-2332.01	  462.23
     27.2700	  675.00	  764.76	-2344.76	  462.00
     27.3700	  789.00	  792.54	-2258.54	  461.78
     27.4700	  761.00	  829.44	-2323.44	  461.57
     27.5700	  804.00	  881.93	-2332.93	  461.36
     27.6700	  886.00	  964.38	-2333.38	  461.16
     27.7700	  942.00	 1106.62	-2419.62	  460.95
     27.8700	 1065.00	 1363.49	-2553.49	  460.76
     27.9700	 1397.00	 1821.07	-2679.07	  460.57
     28.0700	 2017.00	 2586.54	-2824.54	  460.38
     28.1700	 3259.00	 3743.50	-2739.50	  460.20
     28.2700	 5150.00	 5258.58	-2363.58	  460.02
     28.3700	 7856.00	 6848.25	-1247.25	  459.84
     28.4700	 9020.00	 7911.78	-1146.78	  459.67
     28.5700	 8534.00	 7768.95	-1489.95	  459.51
     28.6700	 6686.00	 6478.72	-2047.72	  459.35
     28.7700	 4714.00	 5026.13	-2567.13	  459.19
     28.8700	 3750.00	 4167.66	-2672.66	  459.03
     28.9700	 3905.00	 4033.85	-2383.85	  458.89
     29.0700	 4629.00	 4340.96	-1966.96	  458.74
     29.1700	 5095.00	 4614.71	-1774.71	  458.60
     29.2700	 4574.00	 4405.30	-2086.30	  458.46
     29.3700	 3687.00	 3641.25	-2209.25	  458.33
     29.4700	 2532.00	 2704.87	-2427.87	  458.20
     29.5700	 1709.00	 1931.70	-2477.70	  458.07
     29.6700	 1298.00	 1418.83	-2375.83	  457.95
     29.7700	 1087.00	 1124.90	-2292.90	  457.83
     29.8700	  982.00	  968.19	-2241.19	  457.72
     29.9700	  904.00	  882.19	-2233.19	  457.61
     30.0700	  826.00	  829.41	-2258.41	  457.50
     30.1700	  792.00	  793.04	-2256.04	  457.40
     30.2700	  760.00	  766.26	-2261.26	  457.30
     30.3700	  763.00	  746.25	-2238.25	  457.20
     30.4700	  709.00	  731.84	-2277.84	  457.11
     30.5700	  727.00	  722.96	-2250.96	  457.02
     30.6700	  711.00	  720.46	-2264.46	  456.93
     30.7700	  733.00	  725.75	-2247.75	  456.85
     30.8700	  762.00	  739.84	-2232.84	  456.77
     30.9700	  782.00	  761.58	-2234.58	  456.70
     31.0700	  787.00	  786.05	-2254.05	  456.62
     31.1700	  851.00	  803.64	-2207.64	  456.55
     31.2700	  777.00	  802.19	-2280.19	  456.49
     31.3700	  799.00	  777.09	-2233.09	  456.43
     31.4700	  735.00	  739.76	-2259.76	  456.37
     31.5700	  715.00	  704.64	-2244.64	  456.31
     31.6700	  692.00	  678.18	-2241.18	  456.26
     31.7700	  726.00	  660.76	-2189.76	  456.21
     31.8700	  645.00	  650.10	-2260.10	  456.16
     31.9700	  647.00	  643.62	-2251.62	  456.12
     32.0700	  674.00	  639.41	-2220.41	  456.08
     32.1700	  613.00	  636.43	-2278.43	  456.04
     32.2700	  682.00	  634.19	-2207.19	  456.00
     32.3700	  608.00	  632.48	-2279.48	  455.97
     32.4700	  617.00	  631.20	-2269.20	  455.94
     32.5700	  704.00	  630.31	-2181.31	  455.92
     32.6700	  642.00	  629.78	-2242.78	  455.89
     32.7700	  702.00	  629.62	-2182.62	  455.87
     32.8700	  691.00	  629.86	-2193.86	  455.85
     32.9700	  672.00	  630.58	-2213.58	  455.84
     33.0700	  663.00	  631.80	-2223.80	  455.83
     33.1700	  653.00	  633.69	-2235.69	  455.82
     33.2700	  680.00	  636.50	-2211.50	  455.81
     33.3700	  621.00	  640.67	-2274.67	  455.80
     33.4700	  684.00	  647.10	-2218.10	  455.80
     33.5700	  637.00	  657.55	-2275.55	  455.80
     33.6700	  699.00	  675.23	-2231.23	  455.81
     33.7700	  745.00	  705.25	-2215.25	  455.81
     33.8700	  765.00	  754.28	-2244.28	  455.82
     33.9700	  830.00	  828.25	-2253.25	  455.83
     34.0700	  998.00	  927.26	-2184.26	  455.84
     34.1700	 1112.00	 1039.61	-2182.61	  455.86
     34.2700	 1254.00	 1138.08	-2139.08	  455.87
     34.3700	 1276.00	 1182.82	-2161.82	  455.89
     34.4700	 1193.00	 1144.14	-2206.14	  455.92
     34.5700	  990.00	 1039.38	-2304.38	  455.94
     34.6700	  965.00	  918.00	-2208.00	  455.97
     34.7700	  861.00	  814.62	-2208.62	  455.99
     34.8700	  728.00	  740.35	-2267.35	  456.03
     34.9700	  695.00	  692.88	-2252.88	  456.06
     35.0700	  696.00	  664.79	-2223.79	  456.09
     35.1700	  677.00	  648.51	-2226.51	  456.13
     35.2700	  726.00	  638.66	-2167.66	  456.17
     35.3700	  703.00	  632.18	-2184.18	  456.21
     35.4700	  653.00	  627.53	-2229.53	  456.25
     35.5700	  644.00	  624.01	-2235.01	  456.30
     35.6700	  684.00	  621.26	-2192.26	  456.34
     35.7700	  657.00	  619.06	-2217.06	  456.39
     35.8700	  621.00	  617.30	-2251.30	  456.44
     35.9700	  649.00	  615.87	-2221.87	  456.50
     36.0700	  640.00	  614.72	-2229.72	  456.55
     36.1700	  669.00	  613.80	-2199.80	  456.61
     36.2700	  660.00	  613.13	-2208.13	  456.67
     36.3700	  633.00	  612.58	-2234.58	  456.72
     36.4700	  628.00	  612.18	-2239.18	  456.79
     36.5700	  616.00	  611.94	-2250.94	  456.85
     36.6700	  678.00	  611.84	-2188.84	  456.91
     36.7700	  650.00	  611.90	-2216.90	  456.98
     36.8700	  606.00	  612.13	-2261.13	  457.05
     36.9700	  641.00	  612.56	-2226.56	  457.12
     37.0700	  606.00	  613.23	-2262.23	  457.19
     37.1700	  596.00	  614.43	-2273.43	  457.26
     37.2700	  662.00	  616.41	-2209.41	  457.34
     37.3700	  595.00	  618.58	-2278.58	  457.41
     37.4700	  620.00	  621.87	-2256.87	  457.49
     37.5700	  599.00	  626.97	-2282.97	  457.57
     37.6700	  600.00	  635.07	-2290.07	  457.65
     37.7700	  685.00	  647.71	-2217.71	  457.73
     37.8700	  707.00	  666.66	-2214.66	  457.81
     37.9700	  683.00	  693.14	-2265.14	  457.90
     38.0700	  683.00	  726.59	-2298.59	  457.98
     38.1700	  754.00	  761.31	-2262.31	  458.07
     38.2700	  736.00	  793.61	-2312.61	  458.16
     38.3700	  776.00	  810.33	-2289.33	  458.25
     38.4700	  758.00	  801.91	-2298.91	  458.34
     38.5700	  752.00	  770.76	-2273.76	  458.43
     38.6700	  692.00	  730.45	-2293.45	  458.52
     38.7700	  654.00	  693.00	-2294.00	  458.62
     38.8700	  638.00	  663.77	-2280.77	  458.71
     38.9700	  660.00	  643.48	-2238.48	  458.81
     39.0700	  597.00	  630.55	-2288.55	  458.90
     39.1700	  599.00	  622.72	-2278.72	  459.00
     39.2700	  637.00	  618.00	-2236.00	  459.10
     39.3700	  634.00	  615.03	-2236.03	  459.20
     39.4700	  605.00	  613.02	-2263.02	  459.30
     39.5700	  614.00	  610.40	-2251.40	  459.41
     39.6700	  596.00	  609.33	-2268.33	  459.51
     39.7700	  631.00	  608.50	-2232.50	  459.62
     39.8700	  645.00	  607.85	-2217.85	  459.72
     39.9700	  650.00	  607.35	-2212.35	  459.83
     40.0700	  598.00	  606.97	-2263.97	  459.93
     40.1700	  640.00	  606.67	-2221.67	  460.04
     40.2700	  611.00	  606.46	-2250.46	  460.15
     40.3700	  632.00	  606.30	-2229.30	  460.26
     40.4700	  629.00	  606.21	-2232.21	  460.37
     40.5700	  603.00	  606.16	-2258.16	  460.48
     40.6700	  593.00	  606.16	-2268.16	  460.59
     40.7700	  594.00	  606.20	-2267.20	  460.71
