MSG Master    CELL:    5.91932   5.91932  23.26993   90.0000   90.0000  120.0000   SPGR: P 63/m m c             TEMP:   1074.85
  1   1280     2.52000     0.00000    -0.12540     0.00000     0.00000    0
    99     0     2
       0.00000      10.00000
     125.00000     130.00000
 2Theta	Yobs	Ycal	Yobs-Ycal	Backg	Posr	(hkl)	K
      0.7700	    0.00	  579.46	-1793.25	  459.75
      0.8700	    0.00	  579.83	-1793.25	  460.12
      0.9700	   32.00	  580.20	-1793.25	  460.49
      1.0700	   56.00	  580.55	-1793.25	  460.84
      1.1700	   49.00	  580.90	-1793.25	  461.19
      1.2700	   35.00	  581.24	-1793.25	  461.53
      1.3700	   38.00	  581.57	-1793.25	  461.86
      1.4700	   95.00	  581.89	-1793.25	  462.18
      1.5700	  303.00	  582.21	-1793.25	  462.50
      1.6700	  480.00	  582.52	-1793.25	  462.81
      1.7700	  560.00	  582.82	-1793.25	  463.11
      1.8700	  710.00	  583.11	-1793.25	  463.40
      1.9700	  742.00	  583.39	-1793.25	  463.68
      2.0700	  775.00	  583.67	-1793.25	  463.96
      2.1700	  805.00	  583.94	-1793.25	  464.23
      2.2700	  729.00	  584.20	-1793.25	  464.49
      2.3700	  728.00	  584.45	-1793.25	  464.74
      2.4700	  683.00	  584.70	-1793.25	  464.99
      2.5700	  688.00	  584.93	-1793.25	  465.22
      2.6700	  646.00	  585.17	-1793.25	  465.45
      2.7700	  671.00	  585.39	-1793.25	  465.68
      2.8700	  654.00	  585.61	-1793.25	  465.89
      2.9700	  630.00	  585.82	-1793.25	  466.10
      3.0700	  636.00	  586.02	-1793.25	  466.31
      3.1700	  598.00	  586.21	-1793.25	  466.50
      3.2700	  587.00	  586.40	-1793.25	  466.69
      3.3700	  689.00	  586.58	-1793.25	  466.87
      3.4700	  760.00	  586.76	-1793.25	  467.05
      3.5700	  769.00	  586.92	-1793.25	  467.21
      3.6700	  821.00	  587.08	-1793.25	  467.37
      3.7700	  971.00	  587.24	-1793.25	  467.53
      3.8700	  942.00	  587.39	-1793.25	  467.67
      3.9700	  970.00	  587.53	-1793.25	  467.82
      4.0700	 1011.00	  587.66	-1793.25	  467.95
      4.1700	 1083.00	  587.79	-1793.25	  468.08
      4.2700	 1109.00	  587.91	-1793.25	  468.20
      4.3700	 1034.00	  588.02	-1793.25	  468.31
      4.4700	 1061.00	  588.13	-1793.25	  468.42
      4.5700	 1064.00	  588.23	-1793.25	  468.52
      4.6700	 1036.00	  588.33	-1793.25	  468.62
      4.7700	 1056.00	  588.42	-1793.25	  468.71
      4.8700	 1013.00	  588.50	-1793.25	  468.79
      4.9700	  925.00	  588.58	-1793.25	  468.87
      5.0700	  972.00	  588.65	-1793.25	  468.94
      5.1700	  924.00	  588.72	-1793.25	  469.01
      5.2700	  913.00	  588.78	-1793.25	  469.07
      5.3700	  917.00	  588.83	-1793.25	  469.12
      5.4700	  850.00	  588.88	-1793.25	  469.17
      5.5700	  897.00	  588.92	-1793.25	  469.21
      5.6700	  865.00	  588.96	-1793.25	  469.24
      5.7700	  781.00	  588.99	-1793.25	  469.28
      5.8700	  791.00	  589.01	-1793.25	  469.30
      5.9700	  826.00	  589.03	-1793.25	  469.32
      6.0700	  773.00	  589.04	-1793.25	  469.33
      6.1700	  726.00	  589.05	-1793.25	  469.34
      6.2700	  754.00	  589.06	-1793.25	  469.34
      6.3700	  775.00	  589.05	-1793.25	  469.34
      6.4700	  722.00	  589.04	-1793.25	  469.33
      6.5700	  745.00	  589.03	-1793.25	  469.32
      6.6700	  713.00	  589.01	-1793.25	  469.30
      6.7700	  689.00	  588.99	-1793.25	  469.28
      6.8700	  727.00	  588.96	-1793.25	  469.25
      6.9700	  721.00	  588.93	-1793.25	  469.22
      7.0700	  651.00	  588.89	-1793.25	  469.18
      7.1700	  648.00	  588.84	-1793.25	  469.13
      7.2700	  681.00	  588.80	-1793.25	  469.09
      7.3700	  687.00	  588.74	-1793.25	  469.03
      7.4700	  666.00	  588.68	-1793.25	  468.97
      7.5700	  686.00	  588.62	-1793.25	  468.91
      7.6700	  629.00	  588.55	-1793.25	  468.84
      7.7700	  633.00	  588.48	-1793.25	  468.77
      7.8700	  697.00	  588.40	-1793.25	  468.69
      7.9700	  668.00	  588.32	-1793.25	  468.61
      8.0700	  657.00	  588.23	-1793.25	  468.52
      8.1700	  663.00	  588.14	-1793.25	  468.43
      8.2700	  603.00	  588.05	-1793.25	  468.34
      8.3700	  675.00	  587.95	-1793.25	  468.24
      8.4700	  656.00	  587.84	-1793.25	  468.13
      8.5700	  622.00	  587.73	-1793.25	  468.02
      8.6700	  661.00	  587.62	-1793.25	  467.91
      8.7700	  622.00	  587.50	-1793.25	  467.79
      8.8700	  623.00	  587.38	-1793.25	  467.67
      8.9700	  587.00	  587.26	-1793.25	  467.55
      9.0700	  641.00	  587.13	-1793.25	  467.42
      9.1700	  581.00	  586.99	-1793.25	  467.28
      9.2700	  593.00	  586.85	-1793.25	  467.14
      9.3700	  609.00	  586.71	-1793.25	  467.00
      9.4700	  594.00	  586.57	-1793.25	  466.86
      9.5700	  607.00	  586.42	-1793.25	  466.71
      9.6700	  599.00	  586.26	-1793.25	  466.55
      9.7700	  651.00	  586.11	-1793.25	  466.40
      9.8700	  590.00	  585.95	-1793.25	  466.23
      9.9700	  598.00	  585.78	-1793.25	  466.07
     10.0700	  588.00	  586.34	-1791.59	  465.90
     10.1700	  637.00	  586.24	-1742.49	  465.73
     10.2700	  626.00	  586.16	-1753.41	  465.55
     10.3700	  617.00	  586.11	-1762.36	  465.37
     10.4700	  575.00	  586.10	-1804.35	  465.19
     10.5700	  617.00	  586.19	-1762.44	  465.00
     10.6700	  583.00	  586.48	-1796.73	  464.81
     10.7700	  586.00	  587.08	-1794.33	  464.62
     10.8700	  596.00	  588.06	-1785.31	  464.42
     10.9700	  615.00	  589.40	-1767.65	  464.22
     11.0700	  588.00	  591.08	-1796.33	  464.02
     11.1700	  586.00	  593.09	-1800.34	  463.81
     11.2700	  550.00	  595.45	-1838.70	  463.60
     11.3700	  585.00	  598.25	-1806.50	  463.39
     11.4700	  560.00	  601.61	-1834.86	  463.18
     11.5700	  647.00	  605.71	-1751.96	  462.96
     11.6700	  639.00	  610.90	-1765.15	  462.73
     11.7700	  657.00	  617.77	-1754.02	  462.51
     11.8700	  618.00	  627.24	-1802.49	  462.28
     11.9700	  685.00	  640.10	-1748.35	  462.05
     12.0700	  710.00	  655.01	-1738.26	  461.82
     12.1700	  674.00	  665.91	-1785.16	  461.58
     12.2700	  658.00	  662.89	-1798.14	  461.34
     12.3700	  637.00	  642.60	-1798.85	  461.10
     12.4700	  621.00	  617.58	-1789.83	  460.85
     12.5700	  597.00	  599.39	-1795.64	  460.60
     12.6700	  569.00	  589.67	-1813.92	  460.35
     12.7700	  603.00	  585.33	-1775.58	  460.10
     12.8700	  580.00	  583.34	-1796.59	  459.84
     12.9700	  592.00	  582.20	-1783.45	  459.59
     13.0700	  574.00	  581.37	-1800.62	  459.33
     13.1700	  554.00	  580.71	-1819.96	  459.06
     13.2700	  600.00	  580.14	-1773.39	  458.80
     13.3700	  571.00	  579.64	-1801.89	  458.53
     13.4700	  577.00	  579.19	-1795.44	  458.26
     13.5700	  570.00	  578.78	-1802.03	  457.98
     13.6700	  577.00	  578.39	-1794.64	  457.71
     13.7700	  546.00	  578.01	-1825.26	  457.43
     13.8700	  555.00	  577.65	-1815.90	  457.15
     13.9700	  551.00	  577.31	-1819.56	  456.87
     14.0700	  571.00	  576.96	-1799.21	  456.59
     14.1700	  529.00	  576.63	-1840.88	  456.30
     14.2700	  587.00	  576.30	-1782.55	  456.01
     14.3700	  551.00	  575.97	-1818.22	  455.72
     14.4700	  588.00	  575.65	-1780.90	  455.43
     14.5700	  536.00	  575.33	-1832.58	  455.14
     14.6700	  560.00	  575.00	-1808.25	  454.84
     14.7700	  617.00	  574.68	-1750.93	  454.54
     14.8700	  564.00	  574.36	-1803.61	  454.24
     14.9700	  535.00	  574.04	-1832.29	  453.94
     15.0700	  547.00	  573.72	-1819.97	  453.63
     15.1700	  582.00	  573.40	-1784.65	  453.33
     15.2700	  577.00	  573.08	-1789.33	  453.02
     15.3700	  548.00	  572.76	-1818.01	  452.71
     15.4700	  556.00	  572.44	-1809.69	  452.40
     15.5700	  573.00	  572.12	-1792.37	  452.09
     15.6700	  558.00	  571.80	-1807.05	  451.78
     15.7700	  550.00	  571.47	-1814.72	  451.46
     15.8700	  551.00	  571.15	-1813.40	  451.14
     15.9700	  576.00	  570.82	-1788.07	  450.82
     16.0700	  551.00	  570.50	-1812.75	  450.50
     16.1700	  585.00	  570.17	-1778.42	  450.18
     16.2700	  567.00	  569.84	-1796.09	  449.86
     16.3700	  582.00	  569.53	-1780.78	  449.53
     16.4700	  575.00	  569.20	-1787.45	  449.21
     16.5700	  569.00	  568.87	-1793.12	  448.88
     16.6700	  521.00	  568.54	-1840.79	  448.55
     16.7700	  595.00	  568.21	-1766.46	  448.22
     16.8700	  581.00	  567.87	-1780.12	  447.89
     16.9700	  552.00	  567.54	-1808.79	  447.56
     17.0700	  572.00	  567.20	-1788.45	  447.22
     17.1700	  570.00	  566.86	-1790.11	  446.89
     17.2700	  520.00	  566.53	-1839.78	  446.55
     17.3700	  569.00	  566.19	-1790.44	  446.21
     17.4700	  588.00	  565.85	-1771.10	  445.88
     17.5700	  544.00	  565.51	-1814.76	  445.54
     17.6700	  581.00	  565.16	-1777.41	  445.20
     17.7700	  540.00	  564.82	-1818.07	  444.85
     17.8700	  591.00	  564.48	-1766.73	  444.51
     17.9700	  558.00	  564.23	-1799.48	  444.17
     18.0700	  551.00	  563.89	-1806.14	  443.82
     18.1700	  589.00	  563.55	-1767.80	  443.48
     18.2700	  563.00	  563.20	-1793.45	  443.13
     18.3700	  571.00	  562.86	-1785.11	  442.79
     18.4700	  580.00	  562.51	-1775.76	  442.44
     18.5700	  551.00	  562.17	-1804.42	  442.09
     18.6700	  616.00	  561.82	-1739.07	  441.74
     18.7700	  588.00	  561.47	-1766.72	  441.39
     18.8700	  591.00	  561.12	-1763.37	  441.04
     18.9700	  547.00	  560.86	-1807.11	  440.69
     19.0700	  506.00	  560.51	-1847.76	  440.34
     19.1700	  546.00	  560.16	-1807.41	  439.98
     19.2700	  533.00	  559.82	-1820.07	  439.63
     19.3700	  544.00	  559.47	-1808.72	  439.28
     19.4700	  621.00	  559.12	-1731.37	  438.92
     19.5700	  535.00	  558.77	-1817.02	  438.57
     19.6700	  566.00	  558.42	-1785.67	  438.21
     19.7700	  536.00	  558.08	-1815.33	  437.85
     19.8700	  556.00	  557.73	-1794.98	  437.50
     19.9700	  521.00	  557.38	-1829.63	  437.14
     20.0700	  552.00	  557.03	-1798.28	  436.78
     20.1700	  546.00	  556.68	-1803.93	  436.43
     20.2700	  548.00	  556.33	-1801.58	  436.07
     20.3700	  566.00	  555.99	-1783.24	  435.71
     20.4700	  539.00	  555.61	-1809.86	  435.35
     20.5700	  538.00	  555.26	-1810.51	  434.99
     20.6700	  547.00	  554.92	-1801.17	  434.63
     20.7700	  563.00	  554.57	-1784.82	  434.27
     20.8700	  547.00	  554.22	-1800.47	  433.91
     20.9700	  518.00	  553.92	-1829.17	  433.55
     21.0700	  538.00	  553.57	-1808.82	  433.19
     21.1700	  576.00	  553.23	-1770.48	  432.83
     21.2700	  557.00	  552.89	-1789.14	  432.47
     21.3700	  542.00	  552.55	-1803.80	  432.11
     21.4700	  527.00	  552.21	-1818.46	  431.75
     21.5700	  539.00	  551.87	-1806.12	  431.39
     21.6700	  558.00	  551.53	-1786.78	  431.03
     21.7700	  544.00	  551.20	-1800.45	  430.67
     21.8700	  553.00	  550.87	-1791.12	  430.31
     21.9700	  584.00	  550.53	-1759.78	  429.95
     22.0700	  555.00	  550.21	-1788.46	  429.59
     22.1700	  527.00	  549.88	-1816.13	  429.23
     22.2700	  543.00	  549.56	-1799.81	  428.87
     22.3700	  578.00	  549.24	-1764.49	  428.51
     22.4700	  549.00	  548.92	-1793.17	  428.14
     22.5700	  536.00	  548.61	-1805.86	  427.78
     22.6700	  559.00	  548.31	-1782.56	  427.42
     22.7700	  553.00	  548.01	-1788.26	  427.07
     22.8700	  573.00	  547.73	-1767.98	  426.71
     22.9700	  551.00	  547.45	-1789.70	  426.35
     23.0700	  511.00	  547.18	-1829.43	  425.99
     23.1700	  573.00	  546.93	-1767.18	  425.63
     23.2700	  533.00	  546.69	-1806.94	  425.27
     23.3700	  563.00	  546.48	-1776.73	  424.91
     23.4700	  543.00	  546.31	-1796.56	  424.55
     23.5700	  575.00	  546.17	-1764.42	  424.20
     23.6700	  572.00	  546.10	-1767.35	  423.84
     23.7700	  521.00	  546.13	-1818.38	  423.48
     23.8700	  518.00	  546.48	-1821.73	  423.13
     23.9700	  566.00	  547.10	-1774.35	  422.77
     24.0700	  539.00	  548.54	-1802.79	  422.42
     24.1700	  579.00	  551.43	-1765.68	  422.06
     24.2700	  564.00	  556.62	-1785.87	  421.71
     24.3700	  575.00	  565.04	-1783.29	  421.35
     24.4700	  580.00	  577.76	-1791.01	  421.00
     24.5700	  569.00	  595.24	-1819.49	  420.65
     24.6700	  596.00	  614.91	-1812.16	  420.29
     24.7700	  610.00	  629.01	-1812.26	  419.94
     24.8700	  628.00	  626.68	-1791.93	  419.59
     24.9700	  605.00	  605.97	-1794.22	  419.24
     25.0700	  590.00	  580.36	-1783.61	  418.89
     25.1700	  578.00	  561.22	-1776.47	  418.54
     25.2700	  598.00	  550.56	-1745.81	  418.19
     25.3700	  544.00	  545.67	-1794.92	  417.84
     25.4700	  572.00	  543.48	-1764.73	  417.50
     25.5700	  559.00	  542.33	-1776.58	  417.15
     25.6700	  542.00	  541.57	-1792.82	  416.80
     25.7700	  545.00	  541.00	-1789.25	  416.46
     25.8700	  566.00	  540.57	-1767.82	  416.11
     25.9700	  549.00	  540.23	-1784.48	  415.77
     26.0700	  576.00	  539.98	-1757.23	  415.43
     26.1700	  569.00	  539.80	-1764.05	  415.08
     26.2700	  509.00	  539.70	-1823.95	  414.74
     26.3700	  553.00	  539.67	-1779.92	  414.40
     26.4700	  536.00	  539.72	-1796.97	  414.06
     26.5700	  505.00	  539.86	-1828.11	  413.72
     26.6700	  549.00	  540.12	-1784.37	  413.39
     26.7700	  575.00	  540.50	-1758.75	  413.05
     26.8700	  571.00	  541.06	-1763.31	  412.71
     26.9700	  563.00	  541.83	-1772.08	  412.38
     27.0700	  510.00	  542.90	-1826.15	  412.04
     27.1700	  538.00	  544.39	-1799.64	  411.71
     27.2700	  542.00	  546.55	-1797.80	  411.38
     27.3700	  584.00	  549.86	-1759.11	  411.05
     27.4700	  572.00	  555.29	-1776.54	  410.72
     27.5700	  571.00	  564.52	-1786.77	  410.39
     27.6700	  553.00	  580.26	-1820.51	  410.06
     27.7700	  572.00	  605.96	-1827.21	  409.73
     27.8700	  618.00	  644.62	-1819.87	  409.40
     27.9700	  685.00	  696.34	-1804.59	  409.08
     28.0700	  765.00	  755.19	-1783.44	  408.75
     28.1700	  848.00	  806.44	-1751.69	  408.43
     28.2700	  949.00	  828.01	-1672.26	  408.11
     28.3700	  881.00	  807.03	-1719.28	  407.79
     28.4700	  806.00	  764.54	-1751.79	  407.47
     28.5700	  747.00	  735.00	-1781.25	  407.15
     28.6700	  729.00	  734.16	-1798.41	  406.83
     28.7700	  727.00	  757.39	-1823.64	  406.52
     28.8700	  797.00	  785.17	-1781.42	  406.20
     28.9700	  833.00	  789.92	-1750.17	  405.89
     29.0700	  763.00	  754.06	-1784.31	  405.57
     29.1700	  678.00	  692.86	-1808.11	  405.26
     29.2700	  634.00	  634.51	-1793.76	  404.95
     29.3700	  610.00	  592.48	-1775.73	  404.64
     29.4700	  634.00	  567.15	-1726.40	  404.33
     29.5700	  608.00	  553.51	-1738.76	  404.03
     29.6700	  604.00	  546.34	-1735.59	  403.72
     29.7700	  593.00	  542.29	-1742.54	  403.42
     29.8700	  570.00	  539.78	-1763.03	  403.11
     29.9700	  537.00	  538.20	-1794.45	  402.81
     30.0700	  608.00	  537.43	-1722.68	  402.51
     30.1700	  574.00	  537.63	-1756.88	  402.21
     30.2700	  564.00	  539.37	-1768.62	  401.92
     30.3700	  555.00	  543.75	-1782.00	  401.62
     30.4700	  550.00	  552.47	-1795.72	  401.32
     30.5700	  520.00	  567.34	-1840.59	  401.03
     30.6700	  573.00	  588.93	-1809.18	  400.74
     30.7700	  573.00	  614.62	-1834.87	  400.45
     30.8700	  613.00	  637.14	-1817.39	  400.16
     30.9700	  617.00	  645.31	-1821.56	  399.87
     31.0700	  627.00	  631.36	-1797.61	  399.58
     31.1700	  584.00	  602.64	-1811.89	  399.30
     31.2700	  572.00	  573.72	-1794.97	  399.01
     31.3700	  519.00	  552.41	-1826.66	  398.73
     31.4700	  546.00	  539.53	-1786.78	  398.45
     31.5700	  525.00	  532.69	-1800.94	  398.17
     31.6700	  586.00	  529.21	-1736.46	  397.89
     31.7700	  531.00	  527.30	-1789.55	  397.61
     31.8700	  526.00	  526.10	-1793.35	  397.34
     31.9700	  522.00	  525.27	-1796.52	  397.06
     32.0700	  553.00	  524.68	-1764.93	  396.79
     32.1700	  545.00	  524.28	-1772.53	  396.52
     32.2700	  535.00	  524.04	-1782.29	  396.25
     32.3700	  507.00	  523.96	-1810.21	  395.98
     32.4700	  503.00	  524.03	-1814.28	  395.72
     32.5700	  546.00	  524.28	-1771.53	  395.45
     32.6700	  519.00	  524.73	-1798.98	  395.19
     32.7700	  535.00	  525.42	-1783.67	  394.93
     32.8700	  544.00	  526.43	-1775.68	  394.67
     32.9700	  502.00	  527.87	-1819.12	  394.41
     33.0700	  569.00	  529.96	-1754.21	  394.15
     33.1700	  529.00	  533.15	-1797.40	  393.89
     33.2700	  509.00	  538.50	-1822.75	  393.64
     33.3700	  563.00	  548.37	-1778.62	  393.39
     33.4700	  533.00	  567.29	-1827.54	  393.14
     33.5700	  627.00	  602.60	-1768.85	  392.89
     33.6700	  675.00	  663.04	-1781.29	  392.64
     33.7700	  741.00	  752.81	-1805.06	  392.39
     33.8700	  878.00	  862.66	-1777.91	  392.15
     33.9700	 1029.00	  963.36	-1727.61	  391.90
     34.0700	 1155.00	 1009.35	-1647.60	  391.66
     34.1700	 1028.00	  966.17	-1731.42	  391.42
     34.2700	  924.00	  855.94	-1725.19	  391.19
     34.3700	  709.00	  736.41	-1820.66	  390.95
     34.4700	  635.00	  643.85	-1802.10	  390.71
     34.5700	  576.00	  585.90	-1803.15	  390.48
     34.6700	  574.00	  554.79	-1774.04	  390.25
     34.7700	  525.00	  539.34	-1807.59	  390.02
     34.8700	  576.00	  531.36	-1748.61	  389.79
     34.9700	  513.00	  526.63	-1806.88	  389.56
     35.0700	  516.00	  523.38	-1800.63	  389.34
     35.1700	  507.00	  520.93	-1807.18	  389.12
     35.2700	  535.00	  518.99	-1777.24	  388.90
     35.3700	  532.00	  517.44	-1778.69	  388.68
     35.4700	  511.00	  516.14	-1798.39	  388.46
     35.5700	  530.00	  515.04	-1778.29	  388.24
     35.6700	  526.00	  514.11	-1781.36	  388.03
     35.7700	  463.00	  513.29	-1843.54	  387.81
     35.8700	  554.00	  512.58	-1751.83	  387.60
     35.9700	  496.00	  512.44	-1809.69	  387.39
     36.0700	  558.00	  511.88	-1747.13	  387.18
     36.1700	  502.00	  511.38	-1802.63	  386.98
     36.2700	  529.00	  510.93	-1775.18	  386.77
     36.3700	  506.00	  510.52	-1797.77	  386.57
     36.4700	  552.00	  510.15	-1751.40	  386.37
     36.5700	  523.00	  509.82	-1780.07	  386.17
     36.6700	  507.00	  509.54	-1795.79	  385.97
     36.7700	  543.00	  509.29	-1759.54	  385.78
     36.8700	  494.00	  509.12	-1808.37	  385.58
     36.9700	  491.00	  509.05	-1811.30	  385.39
     37.0700	  529.00	  509.22	-1773.47	  385.20
     37.1700	  490.00	  509.86	-1813.11	  385.01
     37.2700	  517.00	  511.33	-1787.58	  384.82
     37.3700	  514.00	  514.03	-1793.28	  384.64
     37.4700	  566.00	  518.07	-1745.32	  384.45
     37.5700	  487.00	  522.86	-1829.11	  384.27
     37.6700	  511.00	  527.04	-1809.29	  384.09
     37.7700	  558.00	  528.91	-1764.16	  383.91
     37.8700	  534.00	  527.85	-1787.10	  383.74
     37.9700	  506.00	  524.94	-1812.19	  383.56
     38.0700	  500.00	  521.24	-1814.49	  383.39
     38.1700	  506.00	  517.17	-1804.42	  383.22
     38.2700	  526.00	  513.25	-1780.50	  383.05
     38.3700	  508.00	  510.08	-1795.33	  382.88
     38.4700	  535.00	  507.84	-1766.09	  382.72
     38.5700	  481.00	  506.41	-1818.66	  382.55
     38.6700	  544.00	  505.45	-1754.70	  382.39
     38.7700	  526.00	  504.92	-1772.17	  382.23
     38.8700	  508.00	  504.56	-1789.81	  382.07
     38.9700	  496.00	  504.28	-1801.53	  381.91
     39.0700	  477.00	  504.05	-1820.30	  381.76
     39.1700	  509.00	  503.76	-1788.01	  381.60
     39.2700	  468.00	  503.58	-1828.83	  381.45
     39.3700	  490.00	  503.40	-1806.65	  381.30
     39.4700	  497.00	  503.25	-1799.50	  381.15
     39.5700	  522.00	  503.10	-1774.35	  381.01
     39.6700	  491.00	  503.09	-1805.34	  380.86
     39.7700	  464.00	  502.96	-1832.21	  380.72
     39.8700	  508.00	  502.85	-1788.10	  380.58
     39.9700	  530.00	  502.75	-1766.00	  380.44
     40.0700	  494.00	  502.65	-1801.90	  380.30
     40.1700	  512.00	  502.57	-1783.82	  380.17
     40.2700	  512.00	  502.50	-1783.75	  380.03
     40.3700	  502.00	  502.44	-1793.69	  379.90
     40.4700	  508.00	  502.40	-1787.65	  379.77
     40.5700	  468.00	  502.37	-1827.62	  379.64
     40.6700	  488.00	  502.36	-1807.61	  379.51
     40.7700	  452.00	  502.37	-1843.62	  379.39
