MSG Master    CELL:    5.91959   5.91959  23.28281   90.0000   90.0000  120.0000   SPGR: P 63/m m c             TEMP:   1074.85
  1   1280     2.52000     0.00000    -0.12979     0.00000     0.00000    0
    99     0     2
       0.00000      10.00000
     125.00000     130.00000
 2Theta	Yobs	Ycal	Yobs-Ycal	Backg	Posr	(hkl)	K
      0.7700	    0.00	  545.11	-1725.50	  426.33
      0.8700	    0.00	  545.79	-1725.50	  427.01
      0.9700	   50.00	  546.46	-1725.50	  427.68
      1.0700	   40.00	  547.13	-1725.50	  428.35
      1.1700	   37.00	  547.78	-1725.50	  429.00
      1.2700	   32.00	  548.43	-1725.50	  429.64
      1.3700	   53.00	  549.06	-1725.50	  430.28
      1.4700	  106.00	  549.68	-1725.50	  430.90
      1.5700	  296.00	  550.29	-1725.50	  431.51
      1.6700	  477.00	  550.90	-1725.50	  432.12
      1.7700	  586.00	  551.49	-1725.50	  432.71
      1.8700	  664.00	  552.07	-1725.50	  433.29
      1.9700	  713.00	  552.65	-1725.50	  433.87
      2.0700	  798.00	  553.21	-1725.50	  434.43
      2.1700	  788.00	  553.77	-1725.50	  434.99
      2.2700	  706.00	  554.31	-1725.50	  435.53
      2.3700	  729.00	  554.85	-1725.50	  436.07
      2.4700	  666.00	  555.38	-1725.50	  436.60
      2.5700	  709.00	  555.89	-1725.50	  437.11
      2.6700	  660.00	  556.40	-1725.50	  437.62
      2.7700	  711.00	  556.90	-1725.50	  438.12
      2.8700	  620.00	  557.39	-1725.50	  438.61
      2.9700	  642.00	  557.87	-1725.50	  439.09
      3.0700	  584.00	  558.34	-1725.50	  439.56
      3.1700	  638.00	  558.80	-1725.50	  440.02
      3.2700	  616.00	  559.26	-1725.50	  440.48
      3.3700	  685.00	  559.70	-1725.50	  440.92
      3.4700	  772.00	  560.14	-1725.50	  441.36
      3.5700	  816.00	  560.57	-1725.50	  441.79
      3.6700	  866.00	  560.99	-1725.50	  442.21
      3.7700	  904.00	  561.40	-1725.50	  442.62
      3.8700	 1035.00	  561.80	-1725.50	  443.02
      3.9700	 1032.00	  562.20	-1725.50	  443.42
      4.0700	  967.00	  562.58	-1725.50	  443.80
      4.1700	 1066.00	  562.96	-1725.50	  444.18
      4.2700	 1078.00	  563.33	-1725.50	  444.55
      4.3700	 1122.00	  563.69	-1725.50	  444.91
      4.4700	 1156.00	  564.04	-1725.50	  445.26
      4.5700	 1002.00	  564.39	-1725.50	  445.61
      4.6700	 1078.00	  564.72	-1725.50	  445.94
      4.7700	 1063.00	  565.05	-1725.50	  446.27
      4.8700	  938.00	  565.38	-1725.50	  446.60
      4.9700	  927.00	  565.69	-1725.50	  446.91
      5.0700	  967.00	  566.00	-1725.50	  447.22
      5.1700	  968.00	  566.29	-1725.50	  447.51
      5.2700	  949.00	  566.58	-1725.50	  447.80
      5.3700	  905.00	  566.87	-1725.50	  448.09
      5.4700	  936.00	  567.14	-1725.50	  448.36
      5.5700	  892.00	  567.41	-1725.50	  448.63
      5.6700	  841.00	  567.67	-1725.50	  448.89
      5.7700	  839.00	  567.93	-1725.50	  449.15
      5.8700	  773.00	  568.17	-1725.50	  449.39
      5.9700	  836.00	  568.41	-1725.50	  449.63
      6.0700	  801.00	  568.65	-1725.50	  449.87
      6.1700	  788.00	  568.87	-1725.50	  450.09
      6.2700	  767.00	  569.09	-1725.50	  450.31
      6.3700	  765.00	  569.30	-1725.50	  450.52
      6.4700	  751.00	  569.51	-1725.50	  450.73
      6.5700	  734.00	  569.70	-1725.50	  450.92
      6.6700	  792.00	  569.89	-1725.50	  451.11
      6.7700	  693.00	  570.08	-1725.50	  451.30
      6.8700	  717.00	  570.26	-1725.50	  451.48
      6.9700	  683.00	  570.43	-1725.50	  451.65
      7.0700	  626.00	  570.59	-1725.50	  451.81
      7.1700	  703.00	  570.75	-1725.50	  451.97
      7.2700	  641.00	  570.90	-1725.50	  452.12
      7.3700	  673.00	  571.05	-1725.50	  452.27
      7.4700	  659.00	  571.19	-1725.50	  452.41
      7.5700	  697.00	  571.32	-1725.50	  452.54
      7.6700	  666.00	  571.45	-1725.50	  452.66
      7.7700	  647.00	  571.57	-1725.50	  452.78
      7.8700	  613.00	  571.68	-1725.50	  452.90
      7.9700	  628.00	  571.79	-1725.50	  453.01
      8.0700	  610.00	  571.89	-1725.50	  453.11
      8.1700	  642.00	  571.99	-1725.50	  453.21
      8.2700	  599.00	  572.08	-1725.50	  453.30
      8.3700	  691.00	  572.16	-1725.50	  453.38
      8.4700	  660.00	  572.24	-1725.50	  453.46
      8.5700	  613.00	  572.31	-1725.50	  453.53
      8.6700	  706.00	  572.38	-1725.50	  453.60
      8.7700	  602.00	  572.44	-1725.50	  453.66
      8.8700	  648.00	  572.50	-1725.50	  453.72
      8.9700	  622.00	  572.55	-1725.50	  453.77
      9.0700	  621.00	  572.60	-1725.50	  453.82
      9.1700	  581.00	  572.64	-1725.50	  453.86
      9.2700	  594.00	  572.67	-1725.50	  453.89
      9.3700	  633.00	  572.70	-1725.50	  453.92
      9.4700	  598.00	  572.72	-1725.50	  453.94
      9.5700	  635.00	  572.74	-1725.50	  453.96
      9.6700	  619.00	  572.76	-1725.50	  453.98
      9.7700	  628.00	  572.76	-1725.50	  453.98
      9.8700	  617.00	  572.77	-1725.50	  453.99
      9.9700	  601.00	  572.77	-1725.50	  453.99
     10.0700	  625.00	  573.81	-1674.31	  453.98
     10.1700	  610.00	  573.91	-1689.41	  453.97
     10.2700	  613.00	  574.04	-1686.54	  453.95
     10.3700	  615.00	  574.21	-1684.71	  453.93
     10.4700	  550.00	  574.46	-1749.96	  453.91
     10.5700	  581.00	  574.84	-1719.34	  453.87
     10.6700	  608.00	  575.45	-1692.95	  453.84
     10.7700	  547.00	  576.38	-1754.88	  453.80
     10.8700	  614.00	  577.70	-1689.20	  453.76
     10.9700	  602.00	  579.41	-1702.91	  453.71
     11.0700	  576.00	  581.48	-1730.98	  453.65
     11.1700	  609.00	  583.91	-1700.41	  453.60
     11.2700	  558.00	  586.76	-1754.26	  453.53
     11.3700	  556.00	  590.10	-1759.60	  453.47
     11.4700	  570.00	  594.07	-1749.57	  453.40
     11.5700	  602.00	  598.90	-1722.40	  453.32
     11.6700	  661.00	  604.97	-1669.47	  453.24
     11.7700	  631.00	  612.86	-1707.36	  453.16
     11.8700	  570.00	  623.26	-1778.76	  453.07
     11.9700	  676.00	  636.21	-1685.71	  452.98
     12.0700	  664.00	  649.54	-1711.04	  452.88
     12.1700	  668.00	  657.54	-1715.04	  452.78
     12.2700	  678.00	  652.40	-1699.90	  452.68
     12.3700	  701.00	  633.10	-1657.60	  452.57
     12.4700	  609.00	  610.63	-1727.13	  452.46
     12.5700	  644.00	  593.76	-1675.26	  452.35
     12.6700	  603.00	  583.83	-1706.33	  452.23
     12.7700	  567.00	  578.78	-1737.28	  452.11
     12.8700	  600.00	  576.26	-1701.76	  451.98
     12.9700	  615.00	  574.83	-1685.33	  451.85
     13.0700	  565.00	  573.88	-1734.38	  451.72
     13.1700	  555.00	  573.15	-1743.65	  451.58
     13.2700	  537.00	  572.58	-1761.08	  451.44
     13.3700	  553.00	  572.10	-1744.60	  451.30
     13.4700	  556.00	  571.68	-1741.19	  451.15
     13.5700	  569.00	  571.32	-1727.82	  451.00
     13.6700	  524.00	  571.00	-1772.50	  450.84
     13.7700	  562.00	  570.70	-1734.20	  450.69
     13.8700	  539.00	  570.42	-1756.92	  450.53
     13.9700	  586.00	  570.15	-1709.65	  450.36
     14.0700	  582.00	  569.90	-1713.40	  450.20
     14.1700	  597.00	  569.66	-1698.16	  450.03
     14.2700	  574.00	  569.42	-1720.92	  449.85
     14.3700	  590.00	  569.19	-1704.69	  449.68
     14.4700	  568.00	  568.96	-1726.46	  449.50
     14.5700	  520.00	  568.74	-1774.24	  449.32
     14.6700	  554.00	  568.52	-1740.02	  449.13
     14.7700	  526.00	  568.30	-1767.80	  448.94
     14.8700	  566.00	  568.08	-1727.58	  448.75
     14.9700	  572.00	  567.86	-1721.36	  448.56
     15.0700	  539.00	  567.64	-1754.14	  448.36
     15.1700	  560.00	  567.41	-1732.91	  448.16
     15.2700	  554.00	  567.19	-1738.69	  447.96
     15.3700	  556.00	  566.97	-1736.47	  447.76
     15.4700	  567.00	  566.77	-1725.27	  447.55
     15.5700	  518.00	  566.55	-1774.05	  447.34
     15.6700	  541.00	  566.33	-1750.83	  447.13
     15.7700	  545.00	  566.10	-1746.60	  446.91
     15.8700	  569.00	  565.87	-1722.37	  446.70
     15.9700	  552.00	  565.64	-1739.14	  446.48
     16.0700	  560.00	  565.41	-1730.91	  446.25
     16.1700	  527.00	  565.18	-1763.68	  446.03
     16.2700	  538.00	  564.94	-1752.44	  445.80
     16.3700	  560.00	  564.71	-1730.21	  445.58
     16.4700	  549.00	  564.47	-1740.97	  445.34
     16.5700	  611.00	  564.23	-1678.73	  445.11
     16.6700	  561.00	  563.99	-1728.49	  444.87
     16.7700	  569.00	  563.75	-1720.25	  444.64
     16.8700	  534.00	  563.50	-1755.00	  444.40
     16.9700	  534.00	  563.26	-1754.76	  444.16
     17.0700	  570.00	  563.01	-1718.51	  443.91
     17.1700	  552.00	  562.76	-1736.26	  443.67
     17.2700	  557.00	  562.51	-1731.01	  443.42
     17.3700	  558.00	  562.26	-1729.76	  443.17
     17.4700	  560.00	  562.00	-1727.50	  442.92
     17.5700	  557.00	  561.74	-1730.24	  442.66
     17.6700	  527.00	  561.49	-1759.99	  442.41
     17.7700	  583.00	  561.23	-1703.73	  442.15
     17.8700	  564.00	  560.97	-1722.47	  441.89
     17.9700	  565.00	  560.71	-1721.21	  441.63
     18.0700	  601.00	  560.44	-1684.94	  441.37
     18.1700	  559.00	  560.28	-1726.78	  441.10
     18.2700	  544.00	  560.02	-1741.52	  440.84
     18.3700	  563.00	  559.75	-1722.25	  440.57
     18.4700	  561.00	  559.48	-1723.98	  440.30
     18.5700	  546.00	  559.21	-1738.71	  440.03
     18.6700	  577.00	  558.95	-1707.45	  439.76
     18.7700	  522.00	  558.67	-1762.17	  439.49
     18.8700	  568.00	  558.48	-1715.98	  439.21
     18.9700	  543.00	  558.21	-1740.71	  438.93
     19.0700	  540.00	  557.94	-1743.44	  438.66
     19.1700	  539.00	  557.66	-1744.16	  438.38
     19.2700	  560.00	  557.39	-1722.89	  438.10
     19.3700	  594.00	  557.11	-1688.61	  437.82
     19.4700	  581.00	  556.84	-1701.34	  437.53
     19.5700	  565.00	  556.56	-1717.06	  437.25
     19.6700	  503.00	  556.28	-1778.78	  436.96
     19.7700	  562.00	  556.00	-1719.50	  436.68
     19.8700	  537.00	  555.72	-1744.22	  436.39
     19.9700	  517.00	  555.44	-1763.94	  436.10
     20.0700	  561.00	  555.16	-1719.66	  435.81
     20.1700	  552.00	  554.88	-1728.38	  435.52
     20.2700	  558.00	  554.60	-1722.10	  435.23
     20.3700	  562.00	  554.32	-1717.82	  434.93
     20.4700	  551.00	  554.04	-1728.54	  434.64
     20.5700	  492.00	  553.76	-1787.26	  434.35
     20.6700	  520.00	  553.51	-1759.01	  434.05
     20.7700	  492.00	  553.23	-1786.73	  433.75
     20.8700	  570.00	  552.94	-1708.44	  433.46
     20.9700	  537.00	  552.66	-1741.16	  433.16
     21.0700	  571.00	  552.38	-1706.88	  432.86
     21.1700	  541.00	  552.10	-1736.60	  432.56
     21.2700	  553.00	  551.82	-1724.32	  432.26
     21.3700	  553.00	  551.50	-1724.00	  431.96
     21.4700	  527.00	  551.23	-1749.73	  431.65
     21.5700	  546.00	  550.95	-1730.45	  431.35
     21.6700	  557.00	  550.67	-1719.17	  431.05
     21.7700	  532.00	  550.40	-1743.90	  430.74
     21.8700	  504.00	  550.13	-1771.63	  430.44
     21.9700	  553.00	  549.86	-1722.36	  430.13
     22.0700	  564.00	  549.59	-1711.09	  429.83
     22.1700	  575.00	  549.32	-1699.82	  429.52
     22.2700	  543.00	  549.06	-1731.56	  429.21
     22.3700	  539.00	  548.80	-1735.30	  428.91
     22.4700	  543.00	  548.55	-1731.05	  428.60
     22.5700	  551.00	  548.30	-1722.80	  428.29
     22.6700	  542.00	  548.06	-1731.56	  427.98
     22.7700	  556.00	  547.83	-1717.33	  427.67
     22.8700	  527.00	  547.61	-1746.11	  427.36
     22.9700	  561.00	  547.40	-1711.90	  427.06
     23.0700	  547.00	  547.20	-1725.70	  426.75
     23.1700	  572.00	  547.03	-1700.53	  426.44
     23.2700	  553.00	  546.87	-1719.37	  426.13
     23.3700	  582.00	  546.89	-1690.39	  425.81
     23.4700	  551.00	  546.82	-1721.32	  425.50
     23.5700	  572.00	  546.80	-1700.30	  425.19
     23.6700	  561.00	  546.86	-1711.36	  424.88
     23.7700	  553.00	  547.07	-1719.57	  424.57
     23.8700	  532.00	  547.54	-1741.04	  424.26
     23.9700	  580.00	  548.50	-1694.00	  423.95
     24.0700	  547.00	  550.34	-1728.84	  423.64
     24.1700	  535.00	  553.65	-1744.15	  423.32
     24.2700	  574.00	  559.14	-1710.64	  423.01
     24.3700	  574.00	  567.55	-1719.05	  422.70
     24.4700	  597.00	  579.42	-1707.92	  422.39
     24.5700	  640.00	  594.22	-1679.72	  422.08
     24.6700	  634.00	  608.99	-1700.49	  421.77
     24.7700	  621.00	  617.45	-1721.95	  421.46
     24.8700	  677.00	  612.53	-1661.03	  421.14
     24.9700	  606.00	  595.24	-1714.74	  420.83
     25.0700	  570.00	  575.76	-1731.26	  420.52
     25.1700	  552.00	  561.03	-1734.53	  420.21
     25.2700	  546.00	  552.15	-1731.65	  419.90
     25.3700	  556.00	  547.52	-1717.02	  419.59
     25.4700	  544.00	  545.18	-1726.68	  419.28
     25.5700	  580.00	  543.88	-1689.38	  418.97
     25.6700	  545.00	  543.03	-1723.53	  418.66
     25.7700	  511.00	  542.41	-1756.91	  418.35
     25.8700	  557.00	  541.95	-1710.45	  418.04
     25.9700	  555.00	  541.60	-1712.10	  417.73
     26.0700	  559.00	  541.34	-1707.84	  417.42
     26.1700	  513.00	  541.17	-1753.67	  417.12
     26.2700	  552.00	  541.07	-1714.57	  416.81
     26.3700	  583.00	  541.05	-1683.55	  416.50
     26.4700	  576.00	  541.12	-1690.62	  416.19
     26.5700	  550.00	  541.29	-1716.79	  415.89
     26.6700	  555.00	  541.57	-1712.07	  415.58
     26.7700	  563.00	  541.98	-1704.48	  415.28
     26.8700	  561.00	  542.57	-1707.07	  414.97
     26.9700	  553.00	  543.38	-1715.88	  414.67
     27.0700	  540.00	  544.49	-1729.99	  414.36
     27.1700	  535.00	  546.04	-1736.54	  414.06
     27.2700	  543.00	  548.28	-1730.78	  413.76
     27.3700	  559.00	  551.73	-1718.23	  413.45
     27.4700	  575.00	  557.42	-1707.92	  413.15
     27.5700	  522.00	  567.21	-1770.71	  412.85
     27.6700	  570.00	  584.03	-1739.53	  412.55
     27.7700	  615.00	  611.68	-1722.18	  412.25
     27.8700	  635.00	  653.44	-1743.94	  411.95
     27.9700	  652.00	  709.40	-1782.90	  411.65
     28.0700	  780.00	  772.79	-1718.29	  411.36
     28.1700	  876.00	  826.91	-1676.41	  411.06
     28.2700	  980.00	  847.11	-1592.61	  410.76
     28.3700	  919.00	  820.31	-1626.81	  410.47
     28.4700	  774.00	  771.14	-1722.64	  410.17
     28.5700	  690.00	  736.33	-1771.83	  409.88
     28.6700	  703.00	  731.38	-1753.88	  409.58
     28.7700	  782.00	  750.73	-1694.23	  409.29
     28.8700	  814.00	  774.45	-1685.95	  409.00
     28.9700	  805.00	  775.93	-1696.43	  408.71
     29.0700	  693.00	  739.99	-1772.49	  408.42
     29.1700	  721.00	  682.32	-1686.82	  408.13
     29.2700	  643.00	  628.50	-1711.00	  407.84
     29.3700	  558.00	  590.05	-1757.55	  407.55
     29.4700	  572.00	  566.89	-1720.39	  407.27
     29.5700	  566.00	  554.36	-1713.86	  406.98
     29.6700	  575.00	  547.71	-1698.21	  406.70
     29.7700	  556.00	  543.93	-1713.43	  406.41
     29.8700	  578.00	  541.58	-1689.08	  406.13
     29.9700	  583.00	  540.14	-1682.64	  405.85
     30.0700	  537.00	  539.48	-1727.98	  405.57
     30.1700	  607.00	  539.80	-1658.30	  405.29
     30.2700	  551.00	  541.65	-1716.15	  405.01
     30.3700	  607.00	  546.05	-1664.55	  404.73
     30.4700	  537.00	  554.49	-1742.99	  404.46
     30.5700	  534.00	  568.44	-1759.94	  404.18
     30.6700	  555.00	  587.95	-1758.45	  403.91
     30.7700	  600.00	  610.36	-1735.86	  403.63
     30.8700	  658.00	  629.05	-1696.55	  403.36
     30.9700	  602.00	  634.45	-1757.95	  403.09
     31.0700	  583.00	  620.85	-1763.35	  402.82
     31.1700	  562.00	  595.51	-1759.01	  402.55
     31.2700	  566.00	  570.62	-1730.12	  402.28
     31.3700	  547.00	  552.28	-1730.78	  402.01
     31.4700	  522.00	  541.02	-1744.52	  401.75
     31.5700	  536.00	  534.89	-1724.39	  401.48
     31.6700	  560.00	  531.68	-1697.18	  401.22
     31.7700	  551.00	  529.89	-1704.39	  400.96
     31.8700	  537.00	  528.78	-1717.28	  400.70
     31.9700	  527.00	  528.02	-1726.52	  400.44
     32.0700	  528.00	  527.51	-1725.01	  400.18
     32.1700	  513.00	  527.19	-1739.69	  399.92
     32.2700	  539.00	  527.04	-1713.54	  399.66
     32.3700	  571.00	  527.05	-1681.55	  399.41
     32.4700	  577.00	  527.23	-1675.73	  399.16
     32.5700	  541.00	  527.59	-1712.09	  398.90
     32.6700	  506.00	  528.19	-1747.69	  398.65
     32.7700	  563.00	  529.05	-1691.55	  398.40
     32.8700	  529.00	  530.28	-1726.78	  398.15
     32.9700	  559.00	  532.00	-1698.50	  397.91
     33.0700	  560.00	  534.48	-1699.98	  397.66
     33.1700	  528.00	  538.29	-1735.79	  397.42
     33.2700	  572.00	  544.64	-1698.14	  397.17
     33.3700	  514.00	  556.06	-1767.56	  396.93
     33.4700	  591.00	  577.11	-1711.61	  396.69
     33.5700	  638.00	  614.53	-1702.03	  396.45
     33.6700	  659.00	  675.24	-1741.74	  396.21
     33.7700	  821.00	  760.90	-1665.40	  395.98
     33.8700	  878.00	  860.53	-1708.03	  395.74
     33.9700	 1001.00	  946.53	-1671.03	  395.51
     34.0700	 1075.00	  978.93	-1629.43	  395.28
     34.1700	 1001.00	  931.99	-1656.49	  395.04
     34.2700	  905.00	  830.61	-1651.11	  394.81
     34.3700	  761.00	  724.36	-1688.86	  394.59
     34.4700	  644.00	  642.01	-1723.51	  394.36
     34.5700	  540.00	  589.21	-1774.71	  394.13
     34.6700	  571.00	  559.67	-1714.17	  393.91
     34.7700	  557.00	  544.20	-1712.70	  393.69
     34.8700	  556.00	  535.87	-1705.37	  393.47
     34.9700	  540.00	  530.83	-1716.32	  393.25
     35.0700	  486.00	  527.35	-1766.85	  393.03
     35.1700	  538.00	  524.73	-1712.23	  392.81
     35.2700	  477.00	  522.67	-1771.17	  392.60
     35.3700	  546.00	  521.00	-1700.50	  392.38
     35.4700	  530.00	  519.61	-1715.11	  392.17
     35.5700	  527.00	  518.45	-1716.95	  391.96
     35.6700	  550.00	  517.45	-1692.95	  391.75
     35.7700	  518.00	  516.59	-1724.09	  391.55
     35.8700	  536.00	  515.84	-1705.34	  391.34
     35.9700	  512.00	  515.17	-1728.67	  391.14
     36.0700	  528.00	  514.58	-1712.08	  390.93
     36.1700	  522.00	  514.50	-1718.00	  390.73
     36.2700	  495.00	  514.03	-1744.53	  390.53
     36.3700	  498.00	  513.61	-1741.11	  390.33
     36.4700	  498.00	  513.23	-1740.73	  390.14
     36.5700	  505.00	  512.90	-1733.40	  389.94
     36.6700	  517.00	  512.61	-1721.11	  389.75
     36.7700	  508.00	  512.38	-1729.88	  389.55
     36.8700	  512.00	  512.24	-1725.74	  389.36
     36.9700	  519.00	  512.25	-1718.75	  389.18
     37.0700	  502.00	  512.56	-1736.06	  388.99
     37.1700	  529.00	  513.37	-1709.87	  388.80
     37.2700	  516.00	  514.96	-1724.46	  388.62
     37.3700	  526.00	  517.48	-1716.98	  388.43
     37.4700	  508.00	  520.76	-1738.26	  388.25
     37.5700	  550.00	  524.07	-1699.57	  388.07
     37.6700	  574.00	  526.18	-1677.68	  387.90
     37.7700	  513.00	  525.91	-1738.41	  387.72
     37.8700	  512.00	  523.36	-1736.86	  387.55
     37.9700	  514.00	  519.88	-1731.38	  387.37
     38.0700	  492.00	  516.52	-1750.02	  387.20
     38.1700	  480.00	  513.72	-1759.22	  387.03
     38.2700	  533.00	  511.60	-1704.10	  386.86
     38.3700	  492.00	  510.13	-1743.63	  386.70
     38.4700	  543.00	  509.14	-1691.64	  386.53
     38.5700	  496.00	  508.37	-1737.88	  386.37
     38.6700	  528.00	  507.92	-1705.42	  386.21
     38.7700	  489.00	  507.58	-1744.08	  386.05
     38.8700	  522.00	  507.31	-1710.81	  385.89
     38.9700	  506.00	  507.22	-1726.72	  385.73
     39.0700	  500.00	  507.02	-1732.52	  385.58
     39.1700	  479.00	  506.83	-1753.33	  385.42
     39.2700	  495.00	  506.58	-1737.08	  385.27
     39.3700	  508.00	  506.42	-1723.92	  385.12
     39.4700	  526.00	  506.27	-1705.77	  384.97
     39.5700	  454.00	  506.14	-1777.64	  384.83
     39.6700	  548.00	  506.01	-1683.51	  384.68
     39.7700	  537.00	  505.89	-1694.39	  384.54
     39.8700	  516.00	  505.79	-1715.29	  384.40
     39.9700	  490.00	  505.69	-1741.19	  384.25
     40.0700	  470.00	  505.60	-1761.10	  384.12
     40.1700	  507.00	  505.52	-1724.02	  383.98
     40.2700	  542.00	  505.46	-1688.96	  383.84
     40.3700	  510.00	  505.41	-1720.91	  383.71
     40.4700	  497.00	  505.37	-1733.87	  383.58
     40.5700	  512.00	  505.35	-1718.85	  383.45
     40.6700	  530.00	  505.35	-1700.85	  383.32
     40.7700	  515.00	  505.37	-1715.87	  383.19
