MSG Master    CELL:    5.91909   5.91909  23.27295   90.0000   90.0000  120.0000   SPGR: P 63/m m c             TEMP:   1074.85
  1   1280     2.52000     0.00000    -0.12987     0.00000     0.00000    0
    99     0     2
       0.00000      10.00000
     125.00000     130.00000
 2Theta	Yobs	Ycal	Yobs-Ycal	Backg	Posr	(hkl)	K
      0.7700	    0.00	  553.28	-1758.25	  434.52
      0.8700	    0.00	  553.90	-1758.25	  435.14
      0.9700	   44.00	  554.51	-1758.25	  435.75
      1.0700	   38.00	  555.11	-1758.25	  436.35
      1.1700	   64.00	  555.70	-1758.25	  436.94
      1.2700	   39.00	  556.28	-1758.25	  437.52
      1.3700	   55.00	  556.86	-1758.25	  438.09
      1.4700	   99.00	  557.42	-1758.25	  438.65
      1.5700	  284.00	  557.97	-1758.25	  439.20
      1.6700	  461.00	  558.51	-1758.25	  439.75
      1.7700	  552.00	  559.05	-1758.25	  440.28
      1.8700	  685.00	  559.57	-1758.25	  440.81
      1.9700	  729.00	  560.09	-1758.25	  441.32
      2.0700	  725.00	  560.59	-1758.25	  441.83
      2.1700	  778.00	  561.09	-1758.25	  442.32
      2.2700	  740.00	  561.58	-1758.25	  442.81
      2.3700	  758.00	  562.06	-1758.25	  443.29
      2.4700	  691.00	  562.53	-1758.25	  443.76
      2.5700	  665.00	  562.99	-1758.25	  444.22
      2.6700	  670.00	  563.44	-1758.25	  444.68
      2.7700	  584.00	  563.89	-1758.25	  445.12
      2.8700	  640.00	  564.32	-1758.25	  445.56
      2.9700	  596.00	  564.75	-1758.25	  445.98
      3.0700	  605.00	  565.17	-1758.25	  446.40
      3.1700	  580.00	  565.58	-1758.25	  446.81
      3.2700	  580.00	  565.98	-1758.25	  447.21
      3.3700	  696.00	  566.37	-1758.25	  447.61
      3.4700	  783.00	  566.76	-1758.25	  447.99
      3.5700	  790.00	  567.14	-1758.25	  448.37
      3.6700	  904.00	  567.51	-1758.25	  448.74
      3.7700	  939.00	  567.87	-1758.25	  449.10
      3.8700	  997.00	  568.22	-1758.25	  449.45
      3.9700	  962.00	  568.56	-1758.25	  449.80
      4.0700	 1101.00	  568.90	-1758.25	  450.14
      4.1700	 1110.00	  569.23	-1758.25	  450.47
      4.2700	 1078.00	  569.55	-1758.25	  450.79
      4.3700	 1132.00	  569.87	-1758.25	  451.10
      4.4700	 1025.00	  570.17	-1758.25	  451.41
      4.5700	 1030.00	  570.47	-1758.25	  451.71
      4.6700	 1030.00	  570.76	-1758.25	  452.00
      4.7700	 1008.00	  571.05	-1758.25	  452.28
      4.8700	  953.00	  571.32	-1758.25	  452.56
      4.9700	  926.00	  571.59	-1758.25	  452.83
      5.0700	  940.00	  571.86	-1758.25	  453.09
      5.1700	  914.00	  572.11	-1758.25	  453.35
      5.2700	  941.00	  572.36	-1758.25	  453.59
      5.3700	  869.00	  572.60	-1758.25	  453.83
      5.4700	  835.00	  572.83	-1758.25	  454.07
      5.5700	  856.00	  573.06	-1758.25	  454.29
      5.6700	  863.00	  573.28	-1758.25	  454.51
      5.7700	  810.00	  573.49	-1758.25	  454.72
      5.8700	  765.00	  573.70	-1758.25	  454.93
      5.9700	  829.00	  573.89	-1758.25	  455.13
      6.0700	  804.00	  574.09	-1758.25	  455.32
      6.1700	  826.00	  574.27	-1758.25	  455.51
      6.2700	  812.00	  574.45	-1758.25	  455.69
      6.3700	  753.00	  574.62	-1758.25	  455.86
      6.4700	  726.00	  574.79	-1758.25	  456.02
      6.5700	  734.00	  574.95	-1758.25	  456.18
      6.6700	  730.00	  575.10	-1758.25	  456.34
      6.7700	  755.00	  575.25	-1758.25	  456.48
      6.8700	  762.00	  575.39	-1758.25	  456.62
      6.9700	  723.00	  575.52	-1758.25	  456.76
      7.0700	  687.00	  575.65	-1758.25	  456.89
      7.1700	  678.00	  575.77	-1758.25	  457.01
      7.2700	  651.00	  575.89	-1758.25	  457.12
      7.3700	  698.00	  576.00	-1758.25	  457.23
      7.4700	  680.00	  576.10	-1758.25	  457.34
      7.5700	  680.00	  576.20	-1758.25	  457.43
      7.6700	  659.00	  576.29	-1758.25	  457.53
      7.7700	  617.00	  576.38	-1758.25	  457.61
      7.8700	  607.00	  576.46	-1758.25	  457.69
      7.9700	  621.00	  576.53	-1758.25	  457.77
      8.0700	  619.00	  576.60	-1758.25	  457.84
      8.1700	  599.00	  576.66	-1758.25	  457.90
      8.2700	  675.00	  576.72	-1758.25	  457.96
      8.3700	  621.00	  576.77	-1758.25	  458.01
      8.4700	  584.00	  576.82	-1758.25	  458.05
      8.5700	  618.00	  576.86	-1758.25	  458.10
      8.6700	  592.00	  576.90	-1758.25	  458.13
      8.7700	  633.00	  576.93	-1758.25	  458.16
      8.8700	  646.00	  576.95	-1758.25	  458.19
      8.9700	  669.00	  576.97	-1758.25	  458.21
      9.0700	  649.00	  576.99	-1758.25	  458.22
      9.1700	  603.00	  577.00	-1758.25	  458.23
      9.2700	  607.00	  577.00	-1758.25	  458.24
      9.3700	  614.00	  577.00	-1758.25	  458.24
      9.4700	  589.00	  577.00	-1758.25	  458.23
      9.5700	  627.00	  576.99	-1758.25	  458.22
      9.6700	  625.00	  576.97	-1758.25	  458.21
      9.7700	  602.00	  576.95	-1758.25	  458.19
      9.8700	  610.00	  576.93	-1758.25	  458.16
      9.9700	  649.00	  576.90	-1758.25	  458.13
     10.0700	  577.00	  577.73	-1758.98	  458.10
     10.1700	  601.00	  577.78	-1735.03	  458.06
     10.2700	  589.00	  577.85	-1747.10	  458.01
     10.3700	  590.00	  577.95	-1746.20	  457.97
     10.4700	  646.00	  578.12	-1690.37	  457.91
     10.5700	  593.00	  578.40	-1743.65	  457.86
     10.6700	  588.00	  578.91	-1749.16	  457.79
     10.7700	  599.00	  579.75	-1739.00	  457.73
     10.8700	  597.00	  581.00	-1742.25	  457.66
     10.9700	  527.00	  582.64	-1813.89	  457.58
     11.0700	  590.00	  584.65	-1752.90	  457.50
     11.1700	  581.00	  587.01	-1764.26	  457.42
     11.2700	  569.00	  589.77	-1779.02	  457.33
     11.3700	  626.00	  593.01	-1725.26	  457.24
     11.4700	  621.00	  596.87	-1734.12	  457.15
     11.5700	  587.00	  601.57	-1772.82	  457.05
     11.6700	  619.00	  607.48	-1746.73	  456.94
     11.7700	  672.00	  615.25	-1701.50	  456.84
     11.8700	  629.00	  625.80	-1755.05	  456.73
     11.9700	  665.00	  639.72	-1732.97	  456.61
     12.0700	  650.00	  655.14	-1763.39	  456.49
     12.1700	  682.00	  665.58	-1741.83	  456.37
     12.2700	  702.00	  661.22	-1717.47	  456.24
     12.3700	  634.00	  639.72	-1763.97	  456.11
     12.4700	  640.00	  614.17	-1732.42	  455.98
     12.5700	  592.00	  595.62	-1761.87	  455.84
     12.6700	  572.00	  585.49	-1771.74	  455.70
     12.7700	  576.00	  580.82	-1763.07	  455.55
     12.8700	  565.00	  578.67	-1771.92	  455.41
     12.9700	  596.00	  577.47	-1739.72	  455.26
     13.0700	  596.00	  576.64	-1738.89	  455.10
     13.1700	  552.00	  576.00	-1782.25	  454.94
     13.2700	  515.00	  575.48	-1818.73	  454.78
     13.3700	  534.00	  575.04	-1799.29	  454.62
     13.4700	  593.00	  574.66	-1739.91	  454.45
     13.5700	  565.00	  574.32	-1767.57	  454.28
     13.6700	  570.00	  574.00	-1762.25	  454.10
     13.7700	  539.00	  573.71	-1792.96	  453.92
     13.8700	  509.00	  573.43	-1822.68	  453.74
     13.9700	  589.00	  573.17	-1742.42	  453.56
     14.0700	  543.00	  572.91	-1788.16	  453.37
     14.1700	  577.00	  572.66	-1753.91	  453.18
     14.2700	  545.00	  572.42	-1785.67	  452.99
     14.3700	  575.00	  572.18	-1755.43	  452.79
     14.4700	  560.00	  571.94	-1770.19	  452.60
     14.5700	  536.00	  571.71	-1793.96	  452.39
     14.6700	  587.00	  571.47	-1742.72	  452.19
     14.7700	  568.00	  571.24	-1761.49	  451.98
     14.8700	  585.00	  571.01	-1744.26	  451.77
     14.9700	  567.00	  570.77	-1762.02	  451.56
     15.0700	  556.00	  570.54	-1772.79	  451.35
     15.1700	  568.00	  570.30	-1760.55	  451.13
     15.2700	  593.00	  570.07	-1735.32	  450.91
     15.3700	  546.00	  569.83	-1782.08	  450.69
     15.4700	  551.00	  569.59	-1776.84	  450.46
     15.5700	  592.00	  569.35	-1735.60	  450.23
     15.6700	  582.00	  569.11	-1745.36	  450.00
     15.7700	  536.00	  568.87	-1791.12	  449.77
     15.8700	  552.00	  568.63	-1774.88	  449.54
     15.9700	  532.00	  568.38	-1794.63	  449.30
     16.0700	  579.00	  568.16	-1747.41	  449.06
     16.1700	  566.00	  567.91	-1760.16	  448.82
     16.2700	  606.00	  567.66	-1719.91	  448.57
     16.3700	  577.00	  567.41	-1748.66	  448.33
     16.4700	  569.00	  567.16	-1756.41	  448.08
     16.5700	  552.00	  566.90	-1773.15	  447.83
     16.6700	  591.00	  566.64	-1733.89	  447.58
     16.7700	  545.00	  566.39	-1779.64	  447.32
     16.8700	  550.00	  566.13	-1774.38	  447.07
     16.9700	  583.00	  565.86	-1741.11	  446.81
     17.0700	  562.00	  565.60	-1761.85	  446.55
     17.1700	  548.00	  565.34	-1775.59	  446.29
     17.2700	  592.00	  565.07	-1731.32	  446.02
     17.3700	  564.00	  564.80	-1759.05	  445.76
     17.4700	  591.00	  564.53	-1731.78	  445.49
     17.5700	  575.00	  564.26	-1747.51	  445.22
     17.6700	  497.00	  563.99	-1825.24	  444.95
     17.7700	  535.00	  563.71	-1786.96	  444.67
     17.8700	  561.00	  563.44	-1760.69	  444.40
     17.9700	  556.00	  563.27	-1765.52	  444.12
     18.0700	  560.00	  563.00	-1761.25	  443.85
     18.1700	  562.00	  562.72	-1758.97	  443.57
     18.2700	  528.00	  562.44	-1792.69	  443.29
     18.3700	  587.00	  562.16	-1733.41	  443.00
     18.4700	  599.00	  561.88	-1721.13	  442.72
     18.5700	  604.00	  561.59	-1715.84	  442.43
     18.6700	  595.00	  561.31	-1724.56	  442.15
     18.7700	  558.00	  561.02	-1761.27	  441.86
     18.8700	  577.00	  560.81	-1742.06	  441.57
     18.9700	  535.00	  560.53	-1783.78	  441.28
     19.0700	  561.00	  560.24	-1757.49	  440.98
     19.1700	  542.00	  559.95	-1776.20	  440.69
     19.2700	  562.00	  559.66	-1755.91	  440.40
     19.3700	  548.00	  559.37	-1769.62	  440.10
     19.4700	  543.00	  559.08	-1774.33	  439.80
     19.5700	  542.00	  558.79	-1775.04	  439.50
     19.6700	  509.00	  558.50	-1807.75	  439.20
     19.7700	  561.00	  558.21	-1755.46	  438.90
     19.8700	  528.00	  557.91	-1788.16	  438.60
     19.9700	  559.00	  557.62	-1756.87	  438.30
     20.0700	  514.00	  557.33	-1801.58	  437.99
     20.1700	  549.00	  557.03	-1766.28	  437.69
     20.2700	  535.00	  556.73	-1779.98	  437.38
     20.3700	  600.00	  556.44	-1714.69	  437.07
     20.4700	  523.00	  556.14	-1791.39	  436.77
     20.5700	  522.00	  555.85	-1792.10	  436.46
     20.6700	  560.00	  555.52	-1753.77	  436.15
     20.7700	  550.00	  555.22	-1763.47	  435.84
     20.8700	  592.00	  554.96	-1721.21	  435.53
     20.9700	  561.00	  554.66	-1751.91	  435.21
     21.0700	  554.00	  554.37	-1758.62	  434.90
     21.1700	  582.00	  554.07	-1730.32	  434.59
     21.2700	  539.00	  553.78	-1773.03	  434.27
     21.3700	  531.00	  553.48	-1780.73	  433.96
     21.4700	  518.00	  553.19	-1793.44	  433.64
     21.5700	  545.00	  552.90	-1766.15	  433.33
     21.6700	  620.00	  552.61	-1690.86	  433.01
     21.7700	  516.00	  552.32	-1794.57	  432.69
     21.8700	  547.00	  552.03	-1763.28	  432.37
     21.9700	  559.00	  551.74	-1750.99	  432.05
     22.0700	  542.00	  551.46	-1767.71	  431.73
     22.1700	  544.00	  551.18	-1765.43	  431.42
     22.2700	  581.00	  550.90	-1728.15	  431.09
     22.3700	  548.00	  550.62	-1760.87	  430.77
     22.4700	  588.00	  550.35	-1720.60	  430.45
     22.5700	  549.00	  550.08	-1759.33	  430.13
     22.6700	  529.00	  549.82	-1779.07	  429.81
     22.7700	  548.00	  549.57	-1759.82	  429.49
     22.8700	  556.00	  549.32	-1751.57	  429.17
     22.9700	  538.00	  549.09	-1769.34	  428.84
     23.0700	  545.00	  548.87	-1762.12	  428.52
     23.1700	  534.00	  548.66	-1772.91	  428.20
     23.2700	  565.00	  548.48	-1741.73	  427.87
     23.3700	  565.00	  548.32	-1741.57	  427.55
     23.4700	  525.00	  548.19	-1781.44	  427.23
     23.5700	  570.00	  548.12	-1736.37	  426.90
     23.6700	  530.00	  548.24	-1776.49	  426.58
     23.7700	  564.00	  548.35	-1742.60	  426.25
     23.8700	  600.00	  548.67	-1706.92	  425.93
     23.9700	  569.00	  549.44	-1738.69	  425.60
     24.0700	  588.00	  551.06	-1721.31	  425.28
     24.1700	  558.00	  554.16	-1754.41	  424.96
     24.2700	  548.00	  559.55	-1769.80	  424.63
     24.3700	  536.00	  568.14	-1790.39	  424.31
     24.4700	  559.00	  580.84	-1780.09	  423.98
     24.5700	  558.00	  597.72	-1797.97	  423.66
     24.6700	  633.00	  615.91	-1741.16	  423.33
     24.7700	  602.00	  627.94	-1784.19	  423.01
     24.8700	  649.00	  624.22	-1733.47	  422.68
     24.9700	  626.00	  604.22	-1736.47	  422.36
     25.0700	  592.00	  580.62	-1746.87	  422.04
     25.1700	  570.00	  563.07	-1751.32	  421.71
     25.2700	  583.00	  553.12	-1728.37	  421.39
     25.3700	  531.00	  548.38	-1775.63	  421.07
     25.4700	  528.00	  546.18	-1776.43	  420.74
     25.5700	  574.00	  545.01	-1729.26	  420.42
     25.6700	  544.00	  544.25	-1758.50	  420.10
     25.7700	  526.00	  543.69	-1775.94	  419.77
     25.8700	  564.00	  543.28	-1737.53	  419.45
     25.9700	  561.00	  542.97	-1740.22	  419.13
     26.0700	  534.00	  542.75	-1767.00	  418.81
     26.1700	  600.00	  542.60	-1700.85	  418.49
     26.2700	  580.00	  542.54	-1720.79	  418.17
     26.3700	  582.00	  542.56	-1718.81	  417.85
     26.4700	  568.00	  542.66	-1732.91	  417.53
     26.5700	  571.00	  542.87	-1730.12	  417.21
     26.6700	  574.00	  543.20	-1727.45	  416.89
     26.7700	  539.00	  543.68	-1762.93	  416.57
     26.8700	  558.00	  544.34	-1744.59	  416.25
     26.9700	  539.00	  545.24	-1764.49	  415.94
     27.0700	  573.00	  546.47	-1731.72	  415.62
     27.1700	  527.00	  548.18	-1779.43	  415.30
     27.2700	  525.00	  550.64	-1783.89	  414.99
     27.3700	  558.00	  554.42	-1754.67	  414.67
     27.4700	  517.00	  560.59	-1801.84	  414.36
     27.5700	  579.00	  571.13	-1750.38	  414.04
     27.6700	  544.00	  589.07	-1803.32	  413.73
     27.7700	  554.00	  618.34	-1822.59	  413.42
     27.8700	  625.00	  662.24	-1795.49	  413.11
     27.9700	  689.00	  720.71	-1789.96	  412.79
     28.0700	  814.00	  786.70	-1730.95	  412.48
     28.1700	  940.00	  843.14	-1661.39	  412.17
     28.2700	  983.00	  864.79	-1640.04	  411.86
     28.3700	  901.00	  837.57	-1694.82	  411.56
     28.4700	  792.00	  785.74	-1751.99	  411.25
     28.5700	  728.00	  747.28	-1777.53	  410.94
     28.6700	  672.00	  739.00	-1825.25	  410.63
     28.7700	  720.00	  756.09	-1794.34	  410.33
     28.8700	  771.00	  778.93	-1766.18	  410.02
     28.9700	  794.00	  780.65	-1744.90	  409.72
     29.0700	  752.00	  744.98	-1751.23	  409.42
     29.1700	  709.00	  686.78	-1736.03	  409.12
     29.2700	  634.00	  631.98	-1756.23	  408.81
     29.3700	  645.00	  592.62	-1705.87	  408.51
     29.4700	  640.00	  568.82	-1687.07	  408.21
     29.5700	  579.00	  555.89	-1735.14	  407.91
     29.6700	  581.00	  548.99	-1726.24	  407.62
     29.7700	  580.00	  545.03	-1723.28	  407.32
     29.8700	  581.00	  542.54	-1719.79	  407.02
     29.9700	  620.00	  540.93	-1679.18	  406.73
     30.0700	  608.00	  540.09	-1690.34	  406.44
     30.1700	  583.00	  540.17	-1715.42	  406.14
     30.2700	  586.00	  541.66	-1713.91	  405.85
     30.3700	  600.00	  545.55	-1703.80	  405.56
     30.4700	  530.00	  553.28	-1781.53	  405.27
     30.5700	  558.00	  566.35	-1766.60	  404.98
     30.6700	  591.00	  585.10	-1752.35	  404.69
     30.7700	  573.00	  607.09	-1792.34	  404.41
     30.8700	  628.00	  625.94	-1756.19	  404.12
     30.9700	  631.00	  632.15	-1759.40	  403.84
     31.0700	  600.00	  619.44	-1777.69	  403.55
     31.1700	  587.00	  594.56	-1765.81	  403.27
     31.2700	  546.00	  569.86	-1782.11	  402.99
     31.3700	  540.00	  551.68	-1769.93	  402.71
     31.4700	  526.00	  540.61	-1772.86	  402.43
     31.5700	  543.00	  534.67	-1749.92	  402.15
     31.6700	  527.00	  531.59	-1762.84	  401.87
     31.7700	  601.00	  529.88	-1687.13	  401.60
     31.8700	  525.00	  528.79	-1762.04	  401.32
     31.9700	  555.00	  528.05	-1731.30	  401.05
     32.0700	  528.00	  527.52	-1757.77	  400.78
     32.1700	  570.00	  527.17	-1715.42	  400.51
     32.2700	  540.00	  526.97	-1745.22	  400.24
     32.3700	  563.00	  526.92	-1722.17	  399.97
     32.4700	  523.00	  527.02	-1762.27	  399.70
     32.5700	  485.00	  527.29	-1800.54	  399.44
     32.6700	  499.00	  527.77	-1787.02	  399.17
     32.7700	  552.00	  528.49	-1734.74	  398.91
     32.8700	  539.00	  529.53	-1748.78	  398.65
     32.9700	  556.00	  531.00	-1733.25	  398.39
     33.0700	  533.00	  533.14	-1758.39	  398.13
     33.1700	  580.00	  536.42	-1714.67	  397.87
     33.2700	  590.00	  541.94	-1710.19	  397.61
     33.3700	  546.00	  552.04	-1764.29	  397.36
     33.4700	  566.00	  571.16	-1763.41	  397.10
     33.5700	  609.00	  606.25	-1755.50	  396.85
     33.6700	  634.00	  665.09	-1789.34	  396.60
     33.7700	  749.00	  750.84	-1760.09	  396.35
     33.8700	  877.00	  853.66	-1734.91	  396.10
     33.9700	  990.00	  945.62	-1713.87	  395.85
     34.0700	 1066.00	  984.52	-1676.77	  395.61
     34.1700	  991.00	  940.44	-1707.69	  395.36
     34.2700	  876.00	  836.48	-1718.73	  395.12
     34.3700	  755.00	  725.68	-1728.93	  394.88
     34.4700	  670.00	  640.08	-1728.33	  394.64
     34.5700	  600.00	  586.15	-1744.40	  394.40
     34.6700	  587.00	  556.79	-1728.04	  394.16
     34.7700	  557.00	  541.93	-1743.18	  393.92
     34.8700	  552.00	  534.13	-1740.38	  393.69
     34.9700	  521.00	  529.46	-1766.71	  393.46
     35.0700	  523.00	  526.23	-1761.48	  393.22
     35.1700	  519.00	  523.82	-1763.07	  392.99
     35.2700	  551.00	  521.89	-1729.14	  392.77
     35.3700	  549.00	  520.33	-1729.58	  392.54
     35.4700	  499.00	  519.02	-1778.27	  392.31
     35.5700	  512.00	  517.93	-1764.18	  392.09
     35.6700	  483.00	  516.98	-1792.23	  391.87
     35.7700	  521.00	  516.17	-1753.42	  391.64
     35.8700	  529.00	  515.45	-1744.70	  391.42
     35.9700	  496.00	  515.28	-1777.53	  391.21
     36.0700	  542.00	  514.72	-1730.97	  390.99
     36.1700	  535.00	  514.21	-1737.46	  390.77
     36.2700	  499.00	  513.75	-1773.00	  390.56
     36.3700	  521.00	  513.33	-1750.58	  390.35
     36.4700	  512.00	  512.95	-1759.20	  390.14
     36.5700	  496.00	  512.62	-1774.87	  389.93
     36.6700	  511.00	  512.32	-1759.57	  389.72
     36.7700	  543.00	  512.07	-1727.32	  389.52
     36.8700	  509.00	  511.89	-1761.14	  389.31
     36.9700	  521.00	  511.84	-1749.09	  389.11
     37.0700	  512.00	  512.04	-1758.29	  388.91
     37.1700	  510.00	  512.73	-1760.98	  388.71
     37.2700	  495.00	  514.25	-1777.50	  388.51
     37.3700	  534.00	  516.90	-1741.15	  388.31
     37.4700	  519.00	  520.68	-1759.93	  388.12
     37.5700	  524.00	  524.89	-1759.14	  387.93
     37.6700	  468.00	  528.14	-1818.39	  387.73
     37.7700	  524.00	  528.91	-1763.16	  387.54
     37.8700	  521.00	  526.88	-1764.13	  387.36
     37.9700	  504.00	  523.39	-1777.64	  387.17
     38.0700	  523.00	  519.64	-1754.90	  386.98
     38.1700	  509.00	  516.14	-1765.39	  386.80
     38.2700	  518.00	  513.19	-1753.44	  386.62
     38.3700	  507.00	  510.97	-1762.22	  386.44
     38.4700	  494.00	  509.44	-1773.69	  386.26
     38.5700	  476.00	  508.44	-1790.69	  386.08
     38.6700	  486.00	  507.80	-1780.05	  385.91
     38.7700	  493.00	  507.27	-1772.52	  385.73
     38.8700	  476.00	  506.95	-1789.20	  385.56
     38.9700	  532.00	  506.68	-1732.93	  385.39
     39.0700	  492.00	  506.45	-1772.70	  385.22
     39.1700	  557.00	  506.24	-1707.49	  385.05
     39.2700	  524.00	  505.97	-1740.22	  384.89
     39.3700	  502.00	  505.79	-1762.04	  384.73
     39.4700	  514.00	  505.75	-1750.00	  384.56
     39.5700	  514.00	  505.60	-1749.85	  384.40
     39.6700	  525.00	  505.45	-1738.70	  384.24
     39.7700	  508.00	  505.32	-1755.57	  384.09
     39.8700	  484.00	  505.19	-1779.44	  383.93
     39.9700	  546.00	  505.07	-1717.32	  383.78
     40.0700	  494.00	  504.96	-1769.21	  383.62
     40.1700	  481.00	  504.86	-1782.11	  383.47
     40.2700	  465.00	  504.77	-1798.02	  383.33
     40.3700	  519.00	  504.70	-1743.95	  383.18
     40.4700	  523.00	  504.63	-1739.88	  383.03
     40.5700	  497.00	  504.58	-1765.83	  382.89
     40.6700	  486.00	  504.55	-1776.80	  382.75
     40.7700	  464.00	  504.54	-1798.79	  382.61
