MSG Master    CELL:    5.91903   5.91903  23.27526   90.0000   90.0000  120.0000   SPGR: P 63/m m c             TEMP:   1074.85
  1   1280     2.52000     0.00000    -0.13212     0.00000     0.00000    0
    99     0     2
       0.00000      10.00000
     125.00000     130.00000
 2Theta	Yobs	Ycal	Yobs-Ycal	Backg	Posr	(hkl)	K
      0.7700	    0.00	  558.82	-1746.00	  439.95
      0.8700	    0.00	  559.42	-1746.00	  440.55
      0.9700	   54.00	  560.01	-1746.00	  441.14
      1.0700	   36.00	  560.59	-1746.00	  441.72
      1.1700	   41.00	  561.15	-1746.00	  442.29
      1.2700	   43.00	  561.71	-1746.00	  442.85
      1.3700	   49.00	  562.26	-1746.00	  443.40
      1.4700	  102.00	  562.80	-1746.00	  443.94
      1.5700	  278.00	  563.33	-1746.00	  444.47
      1.6700	  442.00	  563.85	-1746.00	  444.99
      1.7700	  581.00	  564.36	-1746.00	  445.50
      1.8700	  634.00	  564.86	-1746.00	  446.00
      1.9700	  694.00	  565.36	-1746.00	  446.49
      2.0700	  739.00	  565.84	-1746.00	  446.97
      2.1700	  836.00	  566.31	-1746.00	  447.44
      2.2700	  782.00	  566.77	-1746.00	  447.91
      2.3700	  743.00	  567.23	-1746.00	  448.36
      2.4700	  658.00	  567.67	-1746.00	  448.81
      2.5700	  685.00	  568.11	-1746.00	  449.24
      2.6700	  667.00	  568.53	-1746.00	  449.67
      2.7700	  637.00	  568.95	-1746.00	  450.09
      2.8700	  626.00	  569.36	-1746.00	  450.50
      2.9700	  621.00	  569.76	-1746.00	  450.90
      3.0700	  606.00	  570.15	-1746.00	  451.29
      3.1700	  580.00	  570.53	-1746.00	  451.67
      3.2700	  573.00	  570.91	-1746.00	  452.04
      3.3700	  648.00	  571.27	-1746.00	  452.41
      3.4700	  699.00	  571.63	-1746.00	  452.76
      3.5700	  811.00	  571.98	-1746.00	  453.11
      3.6700	  854.00	  572.32	-1746.00	  453.45
      3.7700	  943.00	  572.65	-1746.00	  453.78
      3.8700	  967.00	  572.97	-1746.00	  454.11
      3.9700	 1011.00	  573.29	-1746.00	  454.42
      4.0700	 1021.00	  573.60	-1746.00	  454.73
      4.1700	 1096.00	  573.89	-1746.00	  455.03
      4.2700	 1096.00	  574.19	-1746.00	  455.32
      4.3700	 1167.00	  574.47	-1746.00	  455.60
      4.4700	 1035.00	  574.74	-1746.00	  455.88
      4.5700	  990.00	  575.01	-1746.00	  456.15
      4.6700	 1070.00	  575.27	-1746.00	  456.41
      4.7700	  984.00	  575.52	-1746.00	  456.66
      4.8700	  991.00	  575.77	-1746.00	  456.90
      4.9700	  958.00	  576.00	-1746.00	  457.14
      5.0700	  935.00	  576.23	-1746.00	  457.37
      5.1700	  971.00	  576.46	-1746.00	  457.59
      5.2700	  864.00	  576.67	-1746.00	  457.80
      5.3700	  840.00	  576.88	-1746.00	  458.01
      5.4700	  808.00	  577.08	-1746.00	  458.21
      5.5700	  876.00	  577.27	-1746.00	  458.40
      5.6700	  811.00	  577.46	-1746.00	  458.59
      5.7700	  830.00	  577.63	-1746.00	  458.77
      5.8700	  759.00	  577.81	-1746.00	  458.94
      5.9700	  837.00	  577.97	-1746.00	  459.10
      6.0700	  818.00	  578.13	-1746.00	  459.26
      6.1700	  823.00	  578.28	-1746.00	  459.41
      6.2700	  805.00	  578.42	-1746.00	  459.56
      6.3700	  802.00	  578.56	-1746.00	  459.69
      6.4700	  781.00	  578.69	-1746.00	  459.83
      6.5700	  770.00	  578.82	-1746.00	  459.95
      6.6700	  721.00	  578.93	-1746.00	  460.07
      6.7700	  744.00	  579.04	-1746.00	  460.18
      6.8700	  714.00	  579.15	-1746.00	  460.28
      6.9700	  708.00	  579.25	-1746.00	  460.38
      7.0700	  728.00	  579.34	-1746.00	  460.47
      7.1700	  663.00	  579.42	-1746.00	  460.56
      7.2700	  763.00	  579.50	-1746.00	  460.64
      7.3700	  663.00	  579.58	-1746.00	  460.71
      7.4700	  656.00	  579.64	-1746.00	  460.78
      7.5700	  635.00	  579.71	-1746.00	  460.84
      7.6700	  650.00	  579.76	-1746.00	  460.90
      7.7700	  632.00	  579.81	-1746.00	  460.95
      7.8700	  654.00	  579.85	-1746.00	  460.99
      7.9700	  647.00	  579.89	-1746.00	  461.03
      8.0700	  684.00	  579.92	-1746.00	  461.06
      8.1700	  645.00	  579.95	-1746.00	  461.08
      8.2700	  602.00	  579.97	-1746.00	  461.10
      8.3700	  622.00	  579.99	-1746.00	  461.12
      8.4700	  646.00	  579.99	-1746.00	  461.13
      8.5700	  636.00	  580.00	-1746.00	  461.13
      8.6700	  653.00	  580.00	-1746.00	  461.13
      8.7700	  616.00	  579.99	-1746.00	  461.12
      8.8700	  592.00	  579.98	-1746.00	  461.11
      8.9700	  644.00	  579.96	-1746.00	  461.09
      9.0700	  665.00	  579.94	-1746.00	  461.07
      9.1700	  558.00	  579.91	-1746.00	  461.04
      9.2700	  584.00	  579.88	-1746.00	  461.01
      9.3700	  577.00	  579.84	-1746.00	  460.97
      9.4700	  644.00	  579.79	-1746.00	  460.93
      9.5700	  625.00	  579.75	-1746.00	  460.88
      9.6700	  594.00	  579.69	-1746.00	  460.83
      9.7700	  613.00	  579.64	-1746.00	  460.77
      9.8700	  600.00	  579.57	-1746.00	  460.71
      9.9700	  547.00	  579.51	-1746.00	  460.64
     10.0700	  605.00	  580.22	-1721.22	  460.57
     10.1700	  612.00	  580.22	-1714.22	  460.49
     10.2700	  573.00	  580.24	-1753.24	  460.41
     10.3700	  592.00	  580.29	-1734.29	  460.32
     10.4700	  619.00	  580.40	-1707.40	  460.23
     10.5700	  586.00	  580.61	-1740.61	  460.14
     10.6700	  594.00	  581.02	-1733.02	  460.04
     10.7700	  588.00	  581.74	-1739.74	  459.93
     10.8700	  611.00	  582.81	-1717.81	  459.82
     10.9700	  593.00	  584.23	-1737.23	  459.71
     11.0700	  596.00	  585.97	-1735.97	  459.59
     11.1700	  585.00	  588.03	-1749.03	  459.47
     11.2700	  550.00	  590.45	-1786.45	  459.35
     11.3700	  598.00	  593.29	-1741.29	  459.22
     11.4700	  608.00	  596.69	-1734.69	  459.09
     11.5700	  599.00	  600.83	-1747.83	  458.95
     11.6700	  626.00	  606.07	-1726.07	  458.81
     11.7700	  586.00	  612.97	-1772.97	  458.66
     11.8700	  679.00	  622.39	-1689.39	  458.51
     11.9700	  673.00	  634.77	-1707.77	  458.36
     12.0700	  730.00	  648.39	-1664.39	  458.20
     12.1700	  647.00	  657.33	-1756.33	  458.04
     12.2700	  629.00	  652.85	-1769.85	  457.88
     12.3700	  591.00	  633.36	-1788.36	  457.71
     12.4700	  639.00	  610.72	-1717.72	  457.54
     12.5700	  656.00	  594.46	-1684.46	  457.36
     12.6700	  587.00	  585.63	-1744.63	  457.18
     12.7700	  594.00	  581.56	-1733.56	  457.00
     12.8700	  600.00	  579.64	-1725.64	  456.82
     12.9700	  560.00	  578.54	-1764.54	  456.63
     13.0700	  552.00	  577.76	-1771.76	  456.44
     13.1700	  560.00	  577.14	-1763.14	  456.24
     13.2700	  564.00	  576.63	-1758.63	  456.04
     13.3700	  559.00	  576.19	-1763.19	  455.84
     13.4700	  610.00	  575.79	-1711.79	  455.64
     13.5700	  519.00	  575.43	-1802.43	  455.43
     13.6700	  576.00	  575.10	-1745.10	  455.22
     13.7700	  548.00	  574.78	-1772.78	  455.00
     13.8700	  565.00	  574.48	-1755.48	  454.78
     13.9700	  578.00	  574.19	-1742.19	  454.56
     14.0700	  572.00	  573.91	-1747.91	  454.34
     14.1700	  560.00	  573.63	-1759.63	  454.11
     14.2700	  520.00	  573.36	-1799.36	  453.89
     14.3700	  540.00	  573.08	-1779.08	  453.65
     14.4700	  549.00	  572.82	-1769.82	  453.42
     14.5700	  552.00	  572.55	-1766.55	  453.18
     14.6700	  545.00	  572.28	-1773.28	  452.94
     14.7700	  593.00	  572.02	-1725.02	  452.70
     14.8700	  618.00	  571.75	-1699.75	  452.45
     14.9700	  605.00	  571.48	-1712.48	  452.21
     15.0700	  549.00	  571.22	-1768.22	  451.96
     15.1700	  555.00	  570.95	-1761.95	  451.70
     15.2700	  549.00	  570.68	-1767.68	  451.45
     15.3700	  550.00	  570.41	-1766.41	  451.19
     15.4700	  550.00	  570.14	-1766.14	  450.93
     15.5700	  554.00	  569.86	-1761.86	  450.67
     15.6700	  555.00	  569.59	-1760.59	  450.40
     15.7700	  562.00	  569.31	-1753.31	  450.14
     15.8700	  572.00	  569.04	-1743.04	  449.87
     15.9700	  566.00	  568.76	-1748.76	  449.60
     16.0700	  576.00	  568.50	-1738.50	  449.32
     16.1700	  607.00	  568.22	-1707.22	  449.05
     16.2700	  612.00	  567.94	-1701.94	  448.77
     16.3700	  597.00	  567.66	-1716.66	  448.49
     16.4700	  541.00	  567.37	-1772.37	  448.21
     16.5700	  534.00	  567.08	-1779.08	  447.93
     16.6700	  567.00	  566.79	-1745.79	  447.64
     16.7700	  587.00	  566.50	-1725.50	  447.35
     16.8700	  612.00	  566.21	-1700.21	  447.06
     16.9700	  549.00	  565.92	-1762.92	  446.77
     17.0700	  550.00	  565.62	-1761.62	  446.48
     17.1700	  553.00	  565.32	-1758.32	  446.18
     17.2700	  561.00	  565.03	-1750.03	  445.89
     17.3700	  528.00	  564.73	-1782.73	  445.59
     17.4700	  534.00	  564.42	-1776.42	  445.29
     17.5700	  577.00	  564.12	-1733.12	  444.99
     17.6700	  563.00	  563.82	-1746.82	  444.69
     17.7700	  588.00	  563.51	-1721.51	  444.38
     17.8700	  565.00	  563.20	-1744.20	  444.07
     17.9700	  565.00	  562.90	-1743.90	  443.77
     18.0700	  549.00	  562.69	-1759.69	  443.46
     18.1700	  525.00	  562.38	-1783.38	  443.15
     18.2700	  536.00	  562.07	-1772.07	  442.84
     18.3700	  525.00	  561.76	-1782.76	  442.52
     18.4700	  599.00	  561.45	-1708.45	  442.21
     18.5700	  536.00	  561.13	-1771.13	  441.89
     18.6700	  551.00	  560.82	-1755.82	  441.58
     18.7700	  530.00	  560.50	-1776.50	  441.26
     18.8700	  542.00	  560.27	-1764.27	  440.94
     18.9700	  569.00	  559.96	-1736.96	  440.62
     19.0700	  539.00	  559.64	-1766.64	  440.30
     19.1700	  558.00	  559.32	-1747.32	  439.97
     19.2700	  562.00	  559.00	-1743.00	  439.65
     19.3700	  597.00	  558.69	-1707.69	  439.32
     19.4700	  543.00	  558.37	-1761.37	  439.00
     19.5700	  568.00	  558.05	-1736.05	  438.67
     19.6700	  576.00	  557.73	-1727.73	  438.34
     19.7700	  499.00	  557.41	-1804.41	  438.01
     19.8700	  547.00	  557.08	-1756.08	  437.68
     19.9700	  545.00	  556.76	-1757.76	  437.35
     20.0700	  534.00	  556.44	-1768.44	  437.02
     20.1700	  551.00	  556.12	-1751.12	  436.69
     20.2700	  538.00	  555.79	-1763.79	  436.36
     20.3700	  538.00	  555.47	-1763.47	  436.02
     20.4700	  547.00	  555.15	-1754.15	  435.69
     20.5700	  579.00	  554.83	-1721.83	  435.35
     20.6700	  518.00	  554.47	-1782.47	  435.02
     20.7700	  522.00	  554.15	-1778.15	  434.68
     20.8700	  551.00	  553.87	-1748.87	  434.34
     20.9700	  574.00	  553.54	-1725.54	  434.01
     21.0700	  553.00	  553.22	-1746.22	  433.67
     21.1700	  602.00	  552.90	-1696.90	  433.33
     21.2700	  527.00	  552.58	-1771.58	  432.99
     21.3700	  524.00	  552.27	-1774.27	  432.65
     21.4700	  549.00	  551.95	-1748.95	  432.31
     21.5700	  564.00	  551.63	-1733.63	  431.97
     21.6700	  534.00	  551.32	-1763.32	  431.63
     21.7700	  574.00	  551.00	-1723.00	  431.29
     21.8700	  570.00	  550.69	-1726.69	  430.95
     21.9700	  565.00	  550.38	-1731.38	  430.60
     22.0700	  579.00	  550.07	-1717.07	  430.26
     22.1700	  553.00	  549.77	-1742.77	  429.92
     22.2700	  565.00	  549.47	-1730.47	  429.58
     22.3700	  550.00	  549.17	-1745.17	  429.23
     22.4700	  527.00	  548.87	-1767.87	  428.89
     22.5700	  582.00	  548.58	-1712.58	  428.55
     22.6700	  523.00	  548.30	-1771.30	  428.20
     22.7700	  538.00	  548.03	-1756.03	  427.86
     22.8700	  549.00	  547.76	-1744.76	  427.52
     22.9700	  518.00	  547.50	-1775.50	  427.17
     23.0700	  516.00	  547.26	-1777.26	  426.83
     23.1700	  599.00	  547.04	-1694.04	  426.48
     23.2700	  564.00	  546.83	-1728.83	  426.14
     23.3700	  518.00	  546.65	-1774.65	  425.80
     23.4700	  500.00	  546.51	-1792.51	  425.45
     23.5700	  548.00	  546.42	-1744.42	  425.11
     23.6700	  534.00	  546.53	-1758.53	  424.77
     23.7700	  548.00	  546.63	-1744.63	  424.42
     23.8700	  583.00	  546.95	-1709.95	  424.08
     23.9700	  508.00	  547.73	-1785.73	  423.74
     24.0700	  545.00	  549.40	-1750.40	  423.39
     24.1700	  545.00	  552.60	-1753.60	  423.05
     24.2700	  537.00	  558.16	-1767.16	  422.71
     24.3700	  609.00	  567.00	-1704.00	  422.36
     24.4700	  595.00	  580.04	-1731.04	  422.02
     24.5700	  574.00	  597.30	-1769.30	  421.68
     24.6700	  577.00	  615.70	-1784.70	  421.34
     24.7700	  652.00	  627.48	-1721.48	  421.00
     24.8700	  599.00	  622.93	-1769.93	  420.66
     24.9700	  597.00	  602.15	-1751.15	  420.32
     25.0700	  556.00	  578.27	-1768.27	  419.98
     25.1700	  588.00	  560.75	-1718.75	  419.64
     25.2700	  569.00	  550.91	-1727.91	  419.30
     25.3700	  550.00	  546.23	-1742.23	  418.96
     25.4700	  563.00	  544.05	-1727.05	  418.62
     25.5700	  571.00	  542.86	-1717.86	  418.28
     25.6700	  527.00	  542.08	-1761.08	  417.95
     25.7700	  551.00	  541.50	-1736.50	  417.61
     25.8700	  569.00	  541.05	-1718.05	  417.27
     25.9700	  634.00	  540.71	-1652.71	  416.94
     26.0700	  543.00	  540.46	-1743.46	  416.60
     26.1700	  577.00	  540.28	-1709.28	  416.27
     26.2700	  544.00	  540.18	-1742.18	  415.93
     26.3700	  510.00	  540.16	-1776.16	  415.60
     26.4700	  536.00	  540.22	-1750.22	  415.27
     26.5700	  556.00	  540.37	-1730.37	  414.94
     26.6700	  543.00	  540.64	-1743.64	  414.60
     26.7700	  578.00	  541.04	-1709.04	  414.27
     26.8700	  533.00	  541.61	-1754.61	  413.94
     26.9700	  554.00	  542.41	-1734.41	  413.62
     27.0700	  583.00	  543.51	-1706.51	  413.29
     27.1700	  551.00	  545.04	-1740.04	  412.96
     27.2700	  618.00	  547.27	-1675.27	  412.63
     27.3700	  581.00	  550.68	-1715.68	  412.31
     27.4700	  589.00	  556.29	-1713.29	  411.98
     27.5700	  521.00	  565.86	-1790.86	  411.66
     27.6700	  518.00	  582.16	-1810.16	  411.33
     27.7700	  602.00	  608.74	-1752.74	  411.01
     27.8700	  633.00	  648.56	-1761.56	  410.69
     27.9700	  666.00	  701.56	-1781.56	  410.37
     28.0700	  788.00	  761.33	-1719.33	  410.05
     28.1700	  941.00	  812.44	-1617.44	  409.73
     28.2700	  956.00	  832.32	-1622.32	  409.41
     28.3700	  926.00	  809.17	-1629.17	  409.10
     28.4700	  779.00	  766.05	-1733.05	  408.78
     28.5700	  659.00	  737.52	-1824.52	  408.47
     28.6700	  716.00	  738.28	-1768.28	  408.15
     28.7700	  754.00	  762.64	-1754.64	  407.84
     28.8700	  816.00	  790.18	-1720.18	  407.53
     28.9700	  809.00	  792.97	-1729.97	  407.22
     29.0700	  828.00	  754.71	-1672.71	  406.91
     29.1700	  678.00	  692.44	-1760.44	  406.60
     29.2700	  600.00	  634.16	-1780.16	  406.29
     29.3700	  634.00	  592.56	-1704.56	  405.99
     29.4700	  571.00	  567.60	-1742.60	  405.68
     29.5700	  591.00	  554.16	-1709.16	  405.38
     29.6700	  593.00	  547.06	-1700.06	  405.08
     29.7700	  603.00	  543.04	-1686.04	  404.77
     29.8700	  601.00	  540.54	-1685.54	  404.47
     29.9700	  569.00	  538.98	-1715.98	  404.18
     30.0700	  576.00	  538.25	-1708.25	  403.88
     30.1700	  578.00	  538.52	-1706.52	  403.58
     30.2700	  538.00	  540.40	-1748.40	  403.29
     30.3700	  569.00	  544.99	-1721.99	  402.99
     30.4700	  558.00	  553.98	-1741.98	  402.70
     30.5700	  566.00	  569.06	-1749.06	  402.41
     30.6700	  568.00	  590.56	-1768.56	  402.12
     30.7700	  597.00	  615.64	-1764.64	  401.83
     30.8700	  586.00	  636.94	-1796.94	  401.54
     30.9700	  659.00	  643.59	-1730.59	  401.25
     31.0700	  560.00	  628.72	-1814.72	  400.97
     31.1700	  560.00	  600.36	-1786.36	  400.68
     31.2700	  553.00	  572.48	-1765.48	  400.40
     31.3700	  594.00	  552.11	-1704.11	  400.12
     31.4700	  527.00	  539.79	-1758.79	  399.84
     31.5700	  537.00	  533.22	-1742.22	  399.56
     31.6700	  510.00	  529.84	-1765.84	  399.29
     31.7700	  568.00	  527.96	-1705.96	  399.01
     31.8700	  542.00	  526.77	-1730.77	  398.74
     31.9700	  545.00	  525.96	-1726.96	  398.46
     32.0700	  553.00	  525.38	-1718.38	  398.19
     32.1700	  570.00	  524.99	-1700.99	  397.92
     32.2700	  550.00	  524.77	-1720.77	  397.65
     32.3700	  544.00	  524.70	-1726.70	  397.39
     32.4700	  582.00	  524.80	-1688.80	  397.12
     32.5700	  561.00	  525.07	-1710.07	  396.86
     32.6700	  512.00	  525.56	-1759.56	  396.60
     32.7700	  514.00	  526.29	-1758.29	  396.34
     32.8700	  537.00	  527.36	-1736.36	  396.08
     32.9700	  536.00	  528.88	-1738.88	  395.82
     33.0700	  550.00	  531.08	-1727.08	  395.56
     33.1700	  557.00	  534.47	-1723.47	  395.31
     33.2700	  530.00	  540.18	-1756.18	  395.05
     33.3700	  574.00	  550.66	-1722.66	  394.80
     33.4700	  560.00	  570.53	-1756.53	  394.55
     33.5700	  666.00	  606.97	-1686.97	  394.30
     33.6700	  643.00	  667.94	-1770.94	  394.06
     33.7700	  800.00	  756.43	-1702.43	  393.81
     33.8700	  881.00	  861.94	-1726.94	  393.57
     33.9700	  976.00	  955.25	-1725.25	  393.33
     34.0700	 1059.00	  992.91	-1679.91	  393.09
     34.1700	 1063.00	  945.32	-1628.32	  392.85
     34.2700	  898.00	  837.85	-1685.85	  392.61
     34.3700	  747.00	  724.80	-1723.80	  392.37
     34.4700	  571.00	  638.17	-1813.17	  392.14
     34.5700	  571.00	  583.94	-1758.94	  391.91
     34.6700	  541.00	  554.58	-1759.58	  391.68
     34.7700	  509.00	  539.76	-1776.76	  391.45
     34.8700	  569.00	  531.97	-1708.97	  391.22
     34.9700	  518.00	  527.29	-1755.29	  391.00
     35.0700	  528.00	  524.05	-1742.05	  390.77
     35.1700	  512.00	  521.61	-1755.61	  390.55
     35.2700	  530.00	  519.68	-1735.68	  390.33
     35.3700	  509.00	  518.10	-1755.10	  390.11
     35.4700	  525.00	  516.80	-1737.80	  389.89
     35.5700	  515.00	  515.70	-1746.70	  389.68
     35.6700	  504.00	  514.76	-1756.76	  389.46
     35.7700	  497.00	  513.94	-1762.94	  389.25
     35.8700	  515.00	  513.22	-1744.22	  389.04
     35.9700	  528.00	  512.58	-1730.58	  388.83
     36.0700	  524.00	  512.49	-1734.49	  388.63
     36.1700	  507.00	  511.99	-1750.99	  388.42
     36.2700	  573.00	  511.53	-1684.53	  388.22
     36.3700	  520.00	  511.12	-1737.12	  388.02
     36.4700	  519.00	  510.75	-1737.75	  387.82
     36.5700	  491.00	  510.42	-1765.42	  387.62
     36.6700	  474.00	  510.12	-1782.12	  387.42
     36.7700	  548.00	  509.88	-1707.88	  387.23
     36.8700	  520.00	  509.70	-1735.70	  387.03
     36.9700	  508.00	  509.65	-1747.65	  386.84
     37.0700	  559.00	  509.84	-1696.84	  386.65
     37.1700	  511.00	  510.49	-1745.49	  386.47
     37.2700	  528.00	  511.93	-1729.93	  386.28
     37.3700	  508.00	  514.43	-1752.43	  386.10
     37.4700	  543.00	  517.95	-1720.95	  385.92
     37.5700	  511.00	  521.84	-1756.84	  385.73
     37.6700	  518.00	  524.80	-1752.80	  385.56
     37.7700	  460.00	  525.44	-1811.44	  385.38
     37.8700	  503.00	  523.58	-1766.58	  385.20
     37.9700	  528.00	  520.43	-1738.43	  385.03
     38.0700	  555.00	  517.03	-1708.03	  384.86
     38.1700	  529.00	  513.78	-1730.78	  384.69
     38.2700	  483.00	  510.99	-1773.99	  384.52
     38.3700	  490.00	  508.87	-1764.87	  384.36
     38.4700	  463.00	  507.40	-1790.40	  384.19
     38.5700	  503.00	  506.44	-1749.44	  384.03
     38.6700	  463.00	  505.84	-1788.84	  383.87
     38.7700	  492.00	  505.34	-1759.34	  383.71
     38.8700	  501.00	  505.04	-1750.04	  383.56
     38.9700	  492.00	  504.80	-1758.80	  383.40
     39.0700	  484.00	  504.58	-1766.58	  383.25
     39.1700	  499.00	  504.39	-1751.39	  383.10
     39.2700	  498.00	  504.14	-1752.14	  382.95
     39.3700	  492.00	  503.98	-1757.98	  382.80
     39.4700	  467.00	  503.95	-1782.95	  382.65
     39.5700	  529.00	  503.82	-1720.82	  382.51
     39.6700	  535.00	  503.69	-1714.69	  382.37
     39.7700	  507.00	  503.57	-1742.57	  382.23
     39.8700	  499.00	  503.46	-1750.46	  382.09
     39.9700	  534.00	  503.37	-1715.37	  381.95
     40.0700	  463.00	  503.28	-1786.28	  381.82
     40.1700	  515.00	  503.20	-1734.20	  381.69
     40.2700	  514.00	  503.13	-1735.13	  381.56
     40.3700	  528.00	  503.08	-1721.08	  381.43
     40.4700	  538.00	  503.04	-1711.04	  381.30
     40.5700	  518.00	  503.01	-1731.01	  381.17
     40.6700	  483.00	  503.00	-1766.00	  381.05
     40.7700	  478.00	  503.01	-1771.01	  380.93
