MSG Master    CELL:    5.90351   5.90351  23.18921   90.0000   90.0000  120.0000   SPGR: P 63/m m c             TEMP:    826.15
  1   1280     2.52000     0.00000    -0.12448     0.00000     0.00000    0
    98     0     2
       0.00000      10.00000
     125.00000     130.00000
 2Theta	Yobs	Ycal	Yobs-Ycal	Backg	Posr	(hkl)	K
      0.7700	    0.00	  461.23	-1762.75	  352.09
      0.8700	    0.00	  463.12	-1762.75	  353.99
      0.9700	   47.00	  465.00	-1762.75	  355.86
      1.0700	   47.00	  466.85	-1762.75	  357.72
      1.1700	   33.00	  468.68	-1762.75	  359.55
      1.2700	   49.00	  470.50	-1762.75	  361.37
      1.3700	   57.00	  472.29	-1762.75	  363.16
      1.4700	   87.00	  474.07	-1762.75	  364.94
      1.5700	  316.00	  475.83	-1762.75	  366.69
      1.6700	  496.00	  477.56	-1762.75	  368.43
      1.7700	  650.00	  479.28	-1762.75	  370.15
      1.8700	  682.00	  480.98	-1762.75	  371.85
      1.9700	  753.00	  482.66	-1762.75	  373.53
      2.0700	  784.00	  484.32	-1762.75	  375.19
      2.1700	  780.00	  485.97	-1762.75	  376.83
      2.2700	  729.00	  487.59	-1762.75	  378.46
      2.3700	  740.00	  489.20	-1762.75	  380.06
      2.4700	  750.00	  490.78	-1762.75	  381.65
      2.5700	  721.00	  492.35	-1762.75	  383.22
      2.6700	  679.00	  493.90	-1762.75	  384.77
      2.7700	  636.00	  495.44	-1762.75	  386.30
      2.8700	  655.00	  496.95	-1762.75	  387.82
      2.9700	  617.00	  498.45	-1762.75	  389.32
      3.0700	  577.00	  499.93	-1762.75	  390.80
      3.1700	  625.00	  501.39	-1762.75	  392.26
      3.2700	  650.00	  502.84	-1762.75	  393.71
      3.3700	  774.00	  504.27	-1762.75	  395.13
      3.4700	  924.00	  505.68	-1762.75	  396.54
      3.5700	 1033.00	  507.07	-1762.75	  397.94
      3.6700	 1127.00	  508.45	-1762.75	  399.31
      3.7700	 1173.00	  509.81	-1762.75	  400.67
      3.8700	 1262.00	  511.15	-1762.75	  402.02
      3.9700	 1319.00	  512.47	-1762.75	  403.34
      4.0700	 1399.00	  513.78	-1762.75	  404.65
      4.1700	 1401.00	  515.08	-1762.75	  405.94
      4.2700	 1390.00	  516.35	-1762.75	  407.22
      4.3700	 1391.00	  517.61	-1762.75	  408.48
      4.4700	 1374.00	  518.86	-1762.75	  409.73
      4.5700	 1304.00	  520.09	-1762.75	  410.95
      4.6700	 1264.00	  521.30	-1762.75	  412.17
      4.7700	 1167.00	  522.50	-1762.75	  413.36
      4.8700	 1179.00	  523.68	-1762.75	  414.54
      4.9700	 1140.00	  524.84	-1762.75	  415.71
      5.0700	 1069.00	  525.99	-1762.75	  416.86
      5.1700	 1109.00	  527.12	-1762.75	  417.99
      5.2700	 1034.00	  528.24	-1762.75	  419.11
      5.3700	  959.00	  529.35	-1762.75	  420.21
      5.4700	  979.00	  530.44	-1762.75	  421.30
      5.5700	 1010.00	  531.51	-1762.75	  422.38
      5.6700	  870.00	  532.57	-1762.75	  423.43
      5.7700	  941.00	  533.61	-1762.75	  424.48
      5.8700	  971.00	  534.64	-1762.75	  425.51
      5.9700	  910.00	  535.65	-1762.75	  426.52
      6.0700	  875.00	  536.65	-1762.75	  427.52
      6.1700	  898.00	  537.64	-1762.75	  428.51
      6.2700	  920.00	  538.61	-1762.75	  429.48
      6.3700	  837.00	  539.57	-1762.75	  430.43
      6.4700	  834.00	  540.51	-1762.75	  431.38
      6.5700	  822.00	  541.44	-1762.75	  432.30
      6.6700	  831.00	  542.35	-1762.75	  433.22
      6.7700	  766.00	  543.25	-1762.75	  434.12
      6.8700	  736.00	  544.14	-1762.75	  435.01
      6.9700	  776.00	  545.01	-1762.75	  435.88
      7.0700	  774.00	  545.87	-1762.75	  436.74
      7.1700	  789.00	  546.72	-1762.75	  437.59
      7.2700	  747.00	  547.55	-1762.75	  438.42
      7.3700	  675.00	  548.37	-1762.75	  439.24
      7.4700	  661.00	  549.18	-1762.75	  440.05
      7.5700	  674.00	  549.97	-1762.75	  440.84
      7.6700	  665.00	  550.75	-1762.75	  441.62
      7.7700	  692.00	  551.52	-1762.75	  442.39
      7.8700	  673.00	  552.27	-1762.75	  443.14
      7.9700	  675.00	  553.02	-1762.75	  443.88
      8.0700	  698.00	  553.74	-1762.75	  444.61
      8.1700	  651.00	  554.46	-1762.75	  445.33
      8.2700	  664.00	  555.17	-1762.75	  446.03
      8.3700	  696.00	  555.86	-1762.75	  446.73
      8.4700	  633.00	  556.54	-1762.75	  447.40
      8.5700	  669.00	  557.20	-1762.75	  448.07
      8.6700	  619.00	  557.86	-1762.75	  448.73
      8.7700	  635.00	  558.50	-1762.75	  449.37
      8.8700	  654.00	  559.14	-1762.75	  450.00
      8.9700	  625.00	  559.75	-1762.75	  450.62
      9.0700	  583.00	  560.36	-1762.75	  451.23
      9.1700	  586.00	  560.96	-1762.75	  451.83
      9.2700	  624.00	  561.54	-1762.75	  452.41
      9.3700	  624.00	  562.12	-1762.75	  452.98
      9.4700	  625.00	  562.68	-1762.75	  453.55
      9.5700	  631.00	  563.23	-1762.75	  454.10
      9.6700	  567.00	  563.77	-1762.75	  454.64
      9.7700	  618.00	  564.30	-1762.75	  455.16
      9.8700	  616.00	  564.81	-1762.75	  455.68
      9.9700	  649.00	  565.32	-1762.75	  456.19
     10.0700	  593.00	  568.12	-1737.87	  456.68
     10.1700	  657.00	  568.81	-1674.56	  457.17
     10.2700	  597.00	  569.53	-1735.28	  457.64
     10.3700	  644.00	  570.31	-1689.06	  458.10
     10.4700	  595.00	  571.17	-1738.92	  458.56
     10.5700	  583.00	  572.17	-1751.92	  459.00
     10.6700	  570.00	  573.38	-1766.13	  459.43
     10.7700	  566.00	  574.89	-1771.64	  459.85
     10.8700	  574.00	  576.79	-1765.54	  460.26
     10.9700	  625.00	  579.12	-1716.87	  460.66
     11.0700	  604.00	  581.88	-1740.63	  461.05
     11.1700	  617.00	  585.09	-1730.84	  461.43
     11.2700	  586.00	  588.78	-1765.53	  461.81
     11.3700	  609.00	  593.03	-1746.78	  462.17
     11.4700	  596.00	  597.94	-1764.69	  462.52
     11.5700	  632.00	  603.74	-1734.49	  462.86
     11.6700	  592.00	  610.69	-1781.44	  463.19
     11.7700	  658.00	  619.17	-1723.92	  463.52
     11.8700	  657.00	  629.42	-1735.17	  463.83
     11.9700	  659.00	  641.24	-1744.99	  464.13
     12.0700	  710.00	  653.30	-1706.05	  464.43
     12.1700	  701.00	  662.49	-1724.24	  464.71
     12.2700	  673.00	  663.86	-1753.61	  464.99
     12.3700	  671.00	  653.67	-1745.42	  465.26
     12.4700	  602.00	  635.50	-1796.25	  465.52
     12.5700	  615.00	  617.32	-1765.07	  465.77
     12.6700	  588.00	  603.45	-1778.20	  466.01
     12.7700	  555.00	  594.32	-1802.07	  466.24
     12.8700	  585.00	  588.83	-1766.58	  466.46
     12.9700	  590.00	  585.65	-1758.40	  466.68
     13.0700	  586.00	  583.77	-1760.52	  466.88
     13.1700	  568.00	  582.60	-1777.35	  467.08
     13.2700	  582.00	  581.80	-1762.55	  467.27
     13.3700	  574.00	  581.24	-1769.99	  467.45
     13.4700	  583.00	  580.87	-1760.62	  467.63
     13.5700	  565.00	  580.58	-1778.33	  467.79
     13.6700	  576.00	  580.36	-1767.11	  467.95
     13.7700	  580.00	  580.21	-1762.96	  468.10
     13.8700	  548.00	  580.10	-1794.85	  468.24
     13.9700	  562.00	  580.02	-1780.77	  468.37
     14.0700	  581.00	  579.96	-1761.71	  468.50
     14.1700	  550.00	  579.93	-1792.68	  468.62
     14.2700	  602.00	  579.90	-1740.65	  468.73
     14.3700	  596.00	  579.89	-1746.64	  468.83
     14.4700	  524.00	  579.89	-1818.64	  468.92
     14.5700	  609.00	  579.89	-1733.64	  469.01
     14.6700	  579.00	  579.89	-1763.64	  469.09
     14.7700	  577.00	  579.89	-1765.64	  469.16
     14.8700	  543.00	  579.90	-1799.65	  469.23
     14.9700	  575.00	  579.90	-1767.65	  469.29
     15.0700	  561.00	  579.91	-1781.66	  469.34
     15.1700	  565.00	  579.91	-1777.66	  469.39
     15.2700	  618.00	  579.91	-1724.66	  469.42
     15.3700	  526.00	  579.90	-1816.65	  469.45
     15.4700	  556.00	  579.89	-1786.64	  469.48
     15.5700	  567.00	  579.88	-1775.63	  469.50
     15.6700	  590.00	  579.86	-1752.61	  469.51
     15.7700	  533.00	  579.84	-1809.59	  469.51
     15.8700	  543.00	  579.82	-1799.57	  469.51
     15.9700	  568.00	  579.79	-1774.54	  469.50
     16.0700	  542.00	  579.76	-1800.51	  469.48
     16.1700	  560.00	  579.72	-1782.47	  469.46
     16.2700	  581.00	  579.67	-1761.42	  469.43
     16.3700	  569.00	  579.62	-1773.37	  469.40
     16.4700	  535.00	  579.57	-1807.32	  469.36
     16.5700	  531.00	  579.51	-1811.26	  469.31
     16.6700	  553.00	  579.45	-1789.20	  469.26
     16.7700	  564.00	  579.38	-1778.13	  469.20
     16.8700	  529.00	  579.31	-1813.06	  469.14
     16.9700	  551.00	  579.23	-1790.98	  469.07
     17.0700	  567.00	  579.14	-1774.89	  468.99
     17.1700	  563.00	  579.05	-1778.80	  468.91
     17.2700	  560.00	  578.96	-1781.71	  468.82
     17.3700	  586.00	  578.86	-1755.61	  468.73
     17.4700	  563.00	  578.87	-1778.62	  468.63
     17.5700	  545.00	  578.76	-1796.51	  468.53
     17.6700	  583.00	  578.65	-1758.40	  468.42
     17.7700	  554.00	  578.53	-1787.28	  468.30
     17.8700	  565.00	  578.41	-1776.16	  468.18
     17.9700	  575.00	  578.40	-1766.15	  468.06
     18.0700	  611.00	  578.27	-1730.02	  467.93
     18.1700	  565.00	  578.14	-1775.89	  467.79
     18.2700	  552.00	  578.00	-1788.75	  467.65
     18.3700	  548.00	  577.86	-1792.61	  467.50
     18.4700	  553.00	  577.71	-1787.46	  467.35
     18.5700	  560.00	  577.56	-1780.31	  467.20
     18.6700	  580.00	  577.41	-1760.16	  467.04
     18.7700	  586.00	  577.25	-1754.00	  466.87
     18.8700	  532.00	  577.08	-1807.83	  466.70
     18.9700	  563.00	  576.92	-1776.67	  466.53
     19.0700	  576.00	  576.74	-1763.49	  466.35
     19.1700	  591.00	  576.57	-1748.32	  466.17
     19.2700	  543.00	  576.39	-1796.14	  465.98
     19.3700	  584.00	  576.21	-1754.96	  465.79
     19.4700	  581.00	  576.06	-1757.81	  465.59
     19.5700	  563.00	  575.87	-1775.62	  465.39
     19.6700	  550.00	  575.68	-1788.43	  465.18
     19.7700	  581.00	  575.48	-1757.23	  464.97
     19.8700	  552.00	  575.28	-1786.03	  464.76
     19.9700	  557.00	  575.08	-1780.83	  464.54
     20.0700	  537.00	  574.87	-1800.62	  464.32
     20.1700	  570.00	  574.66	-1767.41	  464.09
     20.2700	  576.00	  574.45	-1761.20	  463.86
     20.3700	  567.00	  574.23	-1769.98	  463.63
     20.4700	  560.00	  574.01	-1776.76	  463.39
     20.5700	  542.00	  573.79	-1794.54	  463.15
     20.6700	  556.00	  573.57	-1780.32	  462.91
     20.7700	  563.00	  573.34	-1773.09	  462.66
     20.8700	  556.00	  573.11	-1779.86	  462.41
     20.9700	  517.00	  572.88	-1818.63	  462.15
     21.0700	  500.00	  572.65	-1835.40	  461.89
     21.1700	  566.00	  572.42	-1769.17	  461.63
     21.2700	  590.00	  572.18	-1744.93	  461.36
     21.3700	  627.00	  571.94	-1707.69	  461.09
     21.4700	  598.00	  571.71	-1736.46	  460.82
     21.5700	  564.00	  571.47	-1770.22	  460.54
     21.6700	  592.00	  571.23	-1741.98	  460.26
     21.7700	  503.00	  570.99	-1830.74	  459.98
     21.8700	  581.00	  570.75	-1752.50	  459.69
     21.9700	  575.00	  570.51	-1758.26	  459.41
     22.0700	  528.00	  570.44	-1805.19	  459.11
     22.1700	  584.00	  570.21	-1748.96	  458.82
     22.2700	  568.00	  569.98	-1764.73	  458.52
     22.3700	  555.00	  569.76	-1777.51	  458.22
     22.4700	  607.00	  569.53	-1725.28	  457.92
     22.5700	  534.00	  569.32	-1798.07	  457.61
     22.6700	  615.00	  569.11	-1716.86	  457.30
     22.7700	  545.00	  568.91	-1786.66	  456.99
     22.8700	  616.00	  568.73	-1715.48	  456.67
     22.9700	  580.00	  568.56	-1751.31	  456.36
     23.0700	  563.00	  568.40	-1768.15	  456.04
     23.1700	  563.00	  568.27	-1768.02	  455.71
     23.2700	  537.00	  568.17	-1793.92	  455.39
     23.3700	  522.00	  568.06	-1808.81	  455.06
     23.4700	  539.00	  568.04	-1791.79	  454.73
     23.5700	  572.00	  568.10	-1758.85	  454.40
     23.6700	  562.00	  568.24	-1768.99	  454.07
     23.7700	  555.00	  568.53	-1776.28	  453.73
     23.8700	  580.00	  569.03	-1751.78	  453.39
     23.9700	  624.00	  569.89	-1708.64	  453.05
     24.0700	  604.00	  571.35	-1730.10	  452.71
     24.1700	  554.00	  573.75	-1782.50	  452.36
     24.2700	  572.00	  577.58	-1768.33	  452.01
     24.3700	  576.00	  583.38	-1770.13	  451.67
     24.4700	  666.00	  591.52	-1688.27	  451.31
     24.5700	  610.00	  601.93	-1754.68	  450.96
     24.6700	  627.00	  613.71	-1749.46	  450.61
     24.7700	  682.00	  624.59	-1705.34	  450.25
     24.8700	  660.00	  630.63	-1733.38	  449.89
     24.9700	  685.00	  627.58	-1705.33	  449.53
     25.0700	  660.00	  615.71	-1718.46	  449.17
     25.1700	  628.00	  600.85	-1735.60	  448.80
     25.2700	  599.00	  587.96	-1751.71	  448.44
     25.3700	  653.00	  578.63	-1688.38	  448.07
     25.4700	  589.00	  572.56	-1746.31	  447.70
     25.5700	  615.00	  568.85	-1716.60	  447.33
     25.6700	  602.00	  566.58	-1727.33	  446.96
     25.7700	  572.00	  565.13	-1755.88	  446.59
     25.8700	  593.00	  564.13	-1733.88	  446.21
     25.9700	  623.00	  563.40	-1703.15	  445.84
     26.0700	  554.00	  562.87	-1771.62	  445.46
     26.1700	  564.00	  562.48	-1761.23	  445.08
     26.2700	  586.00	  562.22	-1738.97	  444.70
     26.3700	  593.00	  562.07	-1731.82	  444.32
     26.4700	  583.00	  562.04	-1741.79	  443.94
     26.5700	  561.00	  562.13	-1763.88	  443.56
     26.6700	  584.00	  562.35	-1741.10	  443.17
     26.7700	  592.00	  562.73	-1733.48	  442.79
     26.8700	  601.00	  563.29	-1725.04	  442.40
     26.9700	  556.00	  564.08	-1770.83	  442.01
     27.0700	  581.00	  565.16	-1746.91	  441.62
     27.1700	  656.00	  566.65	-1673.40	  441.23
     27.2700	  604.00	  568.71	-1727.46	  440.84
     27.3700	  624.00	  571.69	-1710.44	  440.45
     27.4700	  618.00	  576.22	-1720.97	  440.06
     27.5700	  581.00	  583.49	-1765.24	  439.67
     27.6700	  607.00	  595.43	-1751.18	  439.27
     27.7700	  607.00	  614.90	-1770.65	  438.88
     27.8700	  638.00	  645.12	-1769.87	  438.48
     27.9700	  652.00	  688.14	-1798.89	  438.09
     28.0700	  786.00	  742.49	-1719.24	  437.69
     28.1700	  833.00	  800.68	-1730.43	  437.30
     28.2700	  889.00	  847.51	-1721.26	  436.90
     28.3700	  971.00	  863.32	-1655.07	  436.50
     28.4700	  907.00	  842.65	-1698.40	  436.10
     28.5700	  847.00	  810.29	-1726.04	  435.70
     28.6700	  766.00	  794.92	-1791.67	  435.30
     28.7700	  749.00	  805.80	-1819.55	  434.90
     28.8700	  822.00	  834.54	-1775.29	  434.50
     28.9700	  822.00	  860.17	-1800.92	  434.10
     29.0700	  851.00	  856.19	-1767.94	  433.70
     29.1700	  845.00	  811.03	-1728.78	  433.30
     29.2700	  761.00	  744.05	-1745.80	  432.90
     29.3700	  662.00	  681.38	-1782.13	  432.50
     29.4700	  623.00	  634.58	-1774.33	  432.10
     29.5700	  667.00	  604.18	-1699.93	  431.69
     29.6700	  642.00	  586.13	-1706.88	  431.29
     29.7700	  618.00	  575.80	-1720.55	  430.89
     29.8700	  614.00	  569.74	-1718.49	  430.49
     29.9700	  573.00	  566.03	-1755.78	  430.08
     30.0700	  574.00	  563.83	-1752.58	  429.68
     30.1700	  647.00	  562.91	-1678.66	  429.28
     30.2700	  620.00	  563.48	-1706.23	  428.88
     30.3700	  557.00	  566.15	-1771.90	  428.48
     30.4700	  583.00	  571.97	-1751.72	  428.07
     30.5700	  616.00	  582.22	-1728.97	  427.67
     30.6700	  600.00	  597.79	-1760.54	  427.27
     30.7700	  620.00	  618.12	-1760.87	  426.87
     30.8700	  652.00	  640.12	-1750.87	  426.47
     30.9700	  699.00	  657.57	-1721.32	  426.06
     31.0700	  713.00	  661.97	-1711.72	  425.66
     31.1700	  684.00	  648.67	-1727.42	  425.26
     31.2700	  588.00	  624.00	-1798.75	  424.86
     31.3700	  590.00	  598.69	-1771.44	  424.46
     31.4700	  623.00	  578.59	-1718.34	  424.06
     31.5700	  582.00	  564.83	-1745.58	  423.66
     31.6700	  578.00	  556.30	-1741.05	  423.26
     31.7700	  604.00	  551.26	-1710.01	  422.86
     31.8700	  547.00	  548.27	-1764.02	  422.47
     31.9700	  587.00	  546.38	-1722.13	  422.07
     32.0700	  569.00	  545.12	-1738.87	  421.67
     32.1700	  567.00	  544.26	-1740.01	  421.27
     32.2700	  609.00	  543.70	-1697.45	  420.88
     32.3700	  587.00	  543.40	-1719.15	  420.48
     32.4700	  532.00	  543.35	-1774.10	  420.09
     32.5700	  547.00	  543.55	-1759.30	  419.69
     32.6700	  567.00	  544.03	-1739.78	  419.30
     32.7700	  559.00	  544.83	-1748.58	  418.91
     32.8700	  595.00	  546.03	-1713.78	  418.51
     32.9700	  572.00	  547.74	-1738.49	  418.12
     33.0700	  602.00	  550.21	-1710.96	  417.73
     33.1700	  563.00	  553.74	-1753.49	  417.34
     33.2700	  586.00	  559.12	-1735.87	  416.95
     33.3700	  567.00	  567.73	-1763.48	  416.56
     33.4700	  552.00	  582.05	-1792.80	  416.17
     33.5700	  645.00	  605.92	-1723.67	  415.79
     33.6700	  618.00	  644.17	-1788.92	  415.40
     33.7700	  653.00	  700.85	-1810.60	  415.02
     33.8700	  781.00	  775.66	-1757.41	  414.63
     33.9700	  890.00	  859.75	-1732.50	  414.25
     34.0700	 1021.00	  933.03	-1674.78	  413.86
     34.1700	 1051.00	  966.35	-1678.10	  413.48
     34.2700	 1022.00	  937.92	-1678.67	  413.10
     34.3700	  893.00	  860.01	-1729.76	  412.72
     34.4700	  732.00	  768.74	-1799.49	  412.34
     34.5700	  622.00	  689.97	-1830.72	  411.97
     34.6700	  616.00	  632.33	-1779.08	  411.59
     34.7700	  581.00	  594.61	-1776.36	  411.21
     34.8700	  576.00	  571.63	-1758.38	  410.84
     34.9700	  556.00	  557.92	-1764.67	  410.47
     35.0700	  560.00	  549.43	-1752.18	  410.09
     35.1700	  521.00	  543.71	-1785.46	  409.72
     35.2700	  559.00	  539.53	-1743.28	  409.35
     35.3700	  545.00	  536.30	-1754.05	  408.98
     35.4700	  557.00	  533.66	-1739.41	  408.62
     35.5700	  536.00	  531.97	-1758.72	  408.25
     35.6700	  569.00	  530.13	-1723.88	  407.89
     35.7700	  511.00	  528.56	-1780.31	  407.52
     35.8700	  528.00	  527.19	-1761.94	  407.16
     35.9700	  514.00	  525.99	-1774.74	  406.80
     36.0700	  542.00	  524.93	-1745.68	  406.44
     36.1700	  497.00	  523.98	-1789.73	  406.08
     36.2700	  564.00	  523.13	-1721.88	  405.72
     36.3700	  525.00	  522.36	-1760.11	  405.37
     36.4700	  514.00	  521.63	-1770.38	  405.01
     36.5700	  511.00	  521.00	-1772.75	  404.66
     36.6700	  552.00	  520.44	-1731.19	  404.30
     36.7700	  508.00	  519.96	-1774.71	  403.95
     36.8700	  535.00	  519.56	-1747.31	  403.61
     36.9700	  490.00	  519.28	-1792.03	  403.26
     37.0700	  511.00	  519.18	-1770.93	  402.91
     37.1700	  514.00	  519.37	-1768.12	  402.57
     37.2700	  507.00	  520.17	-1775.92	  402.22
     37.3700	  516.00	  521.40	-1768.15	  401.88
     37.4700	  553.00	  523.35	-1733.10	  401.54
     37.5700	  537.00	  525.98	-1751.73	  401.20
     37.6700	  519.00	  528.93	-1772.68	  400.86
     37.7700	  551.00	  531.47	-1743.22	  400.53
     37.8700	  516.00	  532.57	-1779.32	  400.19
     37.9700	  538.00	  531.60	-1756.35	  399.86
     38.0700	  518.00	  528.96	-1773.71	  399.53
     38.1700	  477.00	  525.61	-1811.36	  399.20
     38.2700	  474.00	  522.19	-1810.94	  398.87
     38.3700	  527.00	  519.10	-1754.85	  398.55
     38.4700	  551.00	  516.58	-1728.33	  398.22
     38.5700	  512.00	  514.67	-1765.42	  397.90
     38.6700	  504.00	  513.28	-1772.03	  397.58
     38.7700	  481.00	  512.27	-1794.02	  397.26
     38.8700	  518.00	  511.50	-1756.25	  396.94
     38.9700	  541.00	  510.89	-1732.64	  396.62
     39.0700	  489.00	  510.38	-1784.13	  396.31
     39.1700	  472.00	  509.93	-1800.68	  395.99
     39.2700	  485.00	  509.52	-1787.27	  395.68
     39.3700	  490.00	  509.03	-1781.78	  395.37
     39.4700	  477.00	  508.68	-1794.43	  395.06
     39.5700	  495.00	  508.34	-1776.09	  394.76
     39.6700	  502.00	  508.02	-1768.77	  394.45
     39.7700	  524.00	  507.72	-1746.47	  394.15
     39.8700	  458.00	  507.44	-1812.19	  393.85
     39.9700	  529.00	  507.17	-1740.92	  393.55
     40.0700	  498.00	  506.91	-1771.66	  393.25
     40.1700	  521.00	  507.22	-1748.97	  392.96
     40.2700	  482.00	  507.00	-1787.75	  392.66
     40.3700	  443.00	  506.68	-1826.43	  392.37
     40.4700	  506.00	  506.55	-1763.30	  392.08
     40.5700	  468.00	  506.39	-1801.14	  391.79
     40.6700	  498.00	  506.25	-1771.00	  391.51
     40.7700	  492.00	  506.14	-1776.89	  391.22
