MSG Master    CELL:    5.91498   5.91498  23.24259   90.0000   90.0000  120.0000   SPGR: P 63/m m c             TEMP:    997.35
  1   1280     2.52000     0.00000    -0.12901     0.00000     0.00000    0
    99     0     2
       0.00000      10.00000
     125.00000     130.00000
 2Theta	Yobs	Ycal	Yobs-Ycal	Backg	Posr	(hkl)	K
      0.7700	    0.00	  531.60	-1805.50	  418.14
      0.8700	    0.00	  532.46	-1805.50	  419.00
      0.9700	   53.00	  533.31	-1805.50	  419.86
      1.0700	   48.00	  534.15	-1805.50	  420.69
      1.1700	   40.00	  534.97	-1805.50	  421.52
      1.2700	   34.00	  535.79	-1805.50	  422.33
      1.3700	   43.00	  536.59	-1805.50	  423.14
      1.4700	  100.00	  537.38	-1805.50	  423.93
      1.5700	  264.00	  538.16	-1805.50	  424.71
      1.6700	  464.00	  538.93	-1805.50	  425.48
      1.7700	  553.00	  539.69	-1805.50	  426.23
      1.8700	  654.00	  540.43	-1805.50	  426.98
      1.9700	  706.00	  541.17	-1805.50	  427.71
      2.0700	  763.00	  541.89	-1805.50	  428.44
      2.1700	  815.00	  542.60	-1805.50	  429.15
      2.2700	  734.00	  543.30	-1805.50	  429.85
      2.3700	  697.00	  543.99	-1805.50	  430.54
      2.4700	  706.00	  544.67	-1805.50	  431.22
      2.5700	  687.00	  545.34	-1805.50	  431.88
      2.6700	  618.00	  545.99	-1805.50	  432.54
      2.7700	  675.00	  546.64	-1805.50	  433.19
      2.8700	  600.00	  547.28	-1805.50	  433.82
      2.9700	  621.00	  547.90	-1805.50	  434.45
      3.0700	  625.00	  548.52	-1805.50	  435.06
      3.1700	  603.00	  549.12	-1805.50	  435.67
      3.2700	  588.00	  549.72	-1805.50	  436.26
      3.3700	  647.00	  550.30	-1805.50	  436.85
      3.4700	  763.00	  550.87	-1805.50	  437.42
      3.5700	  802.00	  551.44	-1805.50	  437.99
      3.6700	  865.00	  551.99	-1805.50	  438.54
      3.7700	  831.00	  552.54	-1805.50	  439.08
      3.8700	  952.00	  553.07	-1805.50	  439.62
      3.9700	 1049.00	  553.59	-1805.50	  440.14
      4.0700	  997.00	  554.11	-1805.50	  440.66
      4.1700	 1053.00	  554.61	-1805.50	  441.16
      4.2700	 1029.00	  555.11	-1805.50	  441.66
      4.3700	 1052.00	  555.60	-1805.50	  442.14
      4.4700	 1041.00	  556.07	-1805.50	  442.62
      4.5700	 1028.00	  556.54	-1805.50	  443.09
      4.6700	 1038.00	  557.00	-1805.50	  443.54
      4.7700	  981.00	  557.45	-1805.50	  443.99
      4.8700	  969.00	  557.88	-1805.50	  444.43
      4.9700	  938.00	  558.31	-1805.50	  444.86
      5.0700	  935.00	  558.74	-1805.50	  445.28
      5.1700	  903.00	  559.15	-1805.50	  445.70
      5.2700	  907.00	  559.55	-1805.50	  446.10
      5.3700	  881.00	  559.95	-1805.50	  446.49
      5.4700	  826.00	  560.33	-1805.50	  446.88
      5.5700	  870.00	  560.71	-1805.50	  447.26
      5.6700	  818.00	  561.08	-1805.50	  447.62
      5.7700	  842.00	  561.44	-1805.50	  447.98
      5.8700	  870.00	  561.79	-1805.50	  448.34
      5.9700	  803.00	  562.13	-1805.50	  448.68
      6.0700	  784.00	  562.47	-1805.50	  449.01
      6.1700	  791.00	  562.79	-1805.50	  449.34
      6.2700	  751.00	  563.11	-1805.50	  449.66
      6.3700	  766.00	  563.42	-1805.50	  449.97
      6.4700	  777.00	  563.72	-1805.50	  450.27
      6.5700	  717.00	  564.02	-1805.50	  450.56
      6.6700	  710.00	  564.30	-1805.50	  450.85
      6.7700	  740.00	  564.58	-1805.50	  451.13
      6.8700	  704.00	  564.85	-1805.50	  451.40
      6.9700	  724.00	  565.11	-1805.50	  451.66
      7.0700	  719.00	  565.37	-1805.50	  451.91
      7.1700	  652.00	  565.61	-1805.50	  452.16
      7.2700	  709.00	  565.85	-1805.50	  452.40
      7.3700	  670.00	  566.08	-1805.50	  452.63
      7.4700	  659.00	  566.31	-1805.50	  452.86
      7.5700	  690.00	  566.52	-1805.50	  453.07
      7.6700	  661.00	  566.73	-1805.50	  453.28
      7.7700	  663.00	  566.94	-1805.50	  453.48
      7.8700	  636.00	  567.13	-1805.50	  453.68
      7.9700	  663.00	  567.32	-1805.50	  453.87
      8.0700	  661.00	  567.50	-1805.50	  454.05
      8.1700	  642.00	  567.67	-1805.50	  454.22
      8.2700	  641.00	  567.84	-1805.50	  454.39
      8.3700	  645.00	  568.00	-1805.50	  454.55
      8.4700	  582.00	  568.15	-1805.50	  454.70
      8.5700	  592.00	  568.30	-1805.50	  454.85
      8.6700	  572.00	  568.44	-1805.50	  454.99
      8.7700	  604.00	  568.57	-1805.50	  455.12
      8.8700	  621.00	  568.70	-1805.50	  455.25
      8.9700	  614.00	  568.82	-1805.50	  455.36
      9.0700	  570.00	  568.93	-1805.50	  455.48
      9.1700	  630.00	  569.04	-1805.50	  455.58
      9.2700	  606.00	  569.14	-1805.50	  455.68
      9.3700	  561.00	  569.23	-1805.50	  455.78
      9.4700	  626.00	  569.32	-1805.50	  455.87
      9.5700	  616.00	  569.40	-1805.50	  455.95
      9.6700	  633.00	  569.47	-1805.50	  456.02
      9.7700	  582.00	  569.54	-1805.50	  456.09
      9.8700	  561.00	  569.61	-1805.50	  456.15
      9.9700	  616.00	  569.66	-1805.50	  456.21
     10.0700	  595.00	  570.46	-1780.96	  456.26
     10.1700	  618.00	  570.57	-1758.07	  456.31
     10.2700	  580.00	  570.69	-1796.19	  456.35
     10.3700	  592.00	  570.83	-1784.33	  456.38
     10.4700	  579.00	  571.00	-1797.50	  456.41
     10.5700	  593.00	  571.26	-1783.76	  456.43
     10.6700	  565.00	  571.68	-1812.18	  456.45
     10.7700	  589.00	  572.36	-1788.86	  456.46
     10.8700	  570.00	  573.39	-1808.89	  456.46
     10.9700	  604.00	  574.76	-1776.26	  456.46
     11.0700	  578.00	  576.43	-1803.93	  456.46
     11.1700	  596.00	  578.39	-1787.89	  456.45
     11.2700	  554.00	  580.67	-1832.17	  456.43
     11.3700	  597.00	  583.34	-1791.84	  456.41
     11.4700	  572.00	  586.49	-1819.99	  456.38
     11.5700	  593.00	  590.30	-1802.80	  456.35
     11.6700	  633.00	  595.05	-1767.55	  456.32
     11.7700	  668.00	  601.25	-1738.75	  456.27
     11.8700	  635.00	  609.72	-1780.22	  456.23
     11.9700	  647.00	  621.32	-1779.82	  456.18
     12.0700	  674.00	  635.22	-1766.72	  456.12
     12.1700	  687.00	  646.35	-1764.85	  456.06
     12.2700	  673.00	  645.59	-1778.09	  455.99
     12.3700	  667.00	  628.39	-1766.89	  455.92
     12.4700	  600.00	  605.23	-1810.73	  455.85
     12.5700	  576.00	  587.79	-1817.29	  455.77
     12.6700	  600.00	  578.38	-1783.88	  455.68
     12.7700	  573.00	  574.27	-1806.77	  455.59
     12.8700	  585.00	  572.51	-1793.01	  455.50
     12.9700	  526.00	  571.59	-1851.09	  455.40
     13.0700	  588.00	  570.97	-1788.47	  455.30
     13.1700	  550.00	  570.49	-1825.99	  455.19
     13.2700	  559.00	  570.11	-1816.61	  455.08
     13.3700	  560.00	  569.79	-1815.29	  454.97
     13.4700	  542.00	  569.51	-1833.01	  454.85
     13.5700	  544.00	  569.25	-1830.75	  454.72
     13.6700	  603.00	  569.02	-1771.52	  454.59
     13.7700	  515.00	  568.80	-1859.30	  454.46
     13.8700	  596.00	  568.60	-1778.10	  454.33
     13.9700	  556.00	  568.40	-1817.90	  454.19
     14.0700	  588.00	  568.20	-1785.70	  454.04
     14.1700	  520.00	  568.01	-1853.51	  453.90
     14.2700	  542.00	  567.82	-1831.32	  453.75
     14.3700	  547.00	  567.64	-1826.14	  453.59
     14.4700	  556.00	  567.45	-1816.95	  453.43
     14.5700	  538.00	  567.26	-1834.76	  453.27
     14.6700	  554.00	  567.07	-1818.57	  453.10
     14.7700	  566.00	  566.88	-1806.38	  452.93
     14.8700	  592.00	  566.69	-1780.19	  452.76
     14.9700	  487.00	  566.50	-1885.00	  452.58
     15.0700	  518.00	  566.31	-1853.81	  452.40
     15.1700	  555.00	  566.11	-1816.61	  452.22
     15.2700	  568.00	  565.91	-1803.41	  452.03
     15.3700	  540.00	  565.71	-1831.21	  451.84
     15.4700	  561.00	  565.51	-1810.01	  451.65
     15.5700	  529.00	  565.30	-1841.80	  451.45
     15.6700	  533.00	  565.10	-1837.60	  451.25
     15.7700	  539.00	  564.89	-1831.39	  451.05
     15.8700	  554.00	  564.67	-1816.17	  450.84
     15.9700	  568.00	  564.46	-1801.96	  450.63
     16.0700	  576.00	  564.24	-1793.74	  450.42
     16.1700	  580.00	  564.02	-1789.52	  450.21
     16.2700	  527.00	  563.80	-1842.30	  449.99
     16.3700	  598.00	  563.60	-1771.10	  449.77
     16.4700	  525.00	  563.37	-1843.87	  449.54
     16.5700	  552.00	  563.14	-1816.64	  449.31
     16.6700	  551.00	  562.91	-1817.41	  449.09
     16.7700	  574.00	  562.67	-1794.17	  448.85
     16.8700	  549.00	  562.43	-1818.93	  448.62
     16.9700	  549.00	  562.19	-1818.69	  448.38
     17.0700	  538.00	  561.95	-1829.45	  448.14
     17.1700	  541.00	  561.71	-1826.21	  447.90
     17.2700	  509.00	  561.46	-1857.96	  447.65
     17.3700	  569.00	  561.21	-1797.71	  447.40
     17.4700	  542.00	  560.96	-1824.46	  447.15
     17.5700	  535.00	  560.70	-1831.20	  446.90
     17.6700	  527.00	  560.45	-1838.95	  446.64
     17.7700	  555.00	  560.19	-1810.69	  446.39
     17.8700	  541.00	  560.04	-1824.54	  446.13
     17.9700	  586.00	  559.78	-1779.28	  445.86
     18.0700	  556.00	  559.52	-1809.02	  445.60
     18.1700	  560.00	  559.25	-1804.75	  445.33
     18.2700	  552.00	  558.99	-1812.49	  445.06
     18.3700	  556.00	  558.72	-1808.22	  444.79
     18.4700	  515.00	  558.45	-1848.95	  444.52
     18.5700	  549.00	  558.18	-1814.68	  444.25
     18.6700	  556.00	  557.90	-1807.40	  443.97
     18.7700	  583.00	  557.63	-1780.13	  443.69
     18.8700	  603.00	  557.44	-1759.94	  443.41
     18.9700	  553.00	  557.16	-1809.66	  443.13
     19.0700	  583.00	  556.88	-1779.38	  442.84
     19.1700	  587.00	  556.60	-1775.10	  442.55
     19.2700	  544.00	  556.32	-1817.82	  442.27
     19.3700	  580.00	  556.04	-1781.54	  441.98
     19.4700	  526.00	  555.75	-1835.25	  441.68
     19.5700	  530.00	  555.47	-1830.97	  441.39
     19.6700	  539.00	  555.18	-1821.68	  441.10
     19.7700	  556.00	  554.89	-1804.39	  440.80
     19.8700	  550.00	  554.60	-1810.10	  440.50
     19.9700	  607.00	  554.31	-1752.81	  440.20
     20.0700	  562.00	  554.02	-1797.52	  439.90
     20.1700	  555.00	  553.73	-1804.23	  439.60
     20.2700	  542.00	  553.43	-1816.93	  439.29
     20.3700	  531.00	  553.14	-1827.64	  438.99
     20.4700	  574.00	  552.82	-1784.32	  438.68
     20.5700	  549.00	  552.52	-1809.02	  438.37
     20.6700	  570.00	  552.23	-1787.73	  438.06
     20.7700	  507.00	  551.93	-1850.43	  437.75
     20.8700	  534.00	  551.66	-1823.16	  437.44
     20.9700	  528.00	  551.37	-1828.87	  437.12
     21.0700	  524.00	  551.07	-1832.57	  436.81
     21.1700	  522.00	  550.77	-1834.27	  436.49
     21.2700	  554.00	  550.47	-1801.97	  436.17
     21.3700	  529.00	  550.18	-1826.68	  435.86
     21.4700	  561.00	  549.88	-1794.38	  435.54
     21.5700	  550.00	  549.58	-1805.08	  435.22
     21.6700	  528.00	  549.29	-1826.79	  434.89
     21.7700	  570.00	  548.99	-1784.49	  434.57
     21.8700	  566.00	  548.70	-1788.20	  434.25
     21.9700	  539.00	  548.40	-1814.90	  433.92
     22.0700	  517.00	  548.11	-1836.61	  433.60
     22.1700	  557.00	  547.82	-1796.32	  433.27
     22.2700	  509.00	  547.53	-1844.03	  432.95
     22.3700	  507.00	  547.25	-1845.75	  432.62
     22.4700	  548.00	  546.97	-1804.47	  432.29
     22.5700	  583.00	  546.69	-1769.19	  431.96
     22.6700	  523.00	  546.42	-1828.92	  431.63
     22.7700	  544.00	  546.15	-1807.65	  431.30
     22.8700	  538.00	  545.89	-1813.39	  430.97
     22.9700	  582.00	  545.64	-1769.14	  430.64
     23.0700	  565.00	  545.40	-1785.90	  430.30
     23.1700	  562.00	  545.17	-1788.67	  429.97
     23.2700	  575.00	  544.96	-1775.46	  429.64
     23.3700	  573.00	  544.78	-1777.28	  429.30
     23.4700	  529.00	  544.62	-1821.12	  428.97
     23.5700	  553.00	  544.50	-1797.00	  428.63
     23.6700	  527.00	  544.44	-1822.94	  428.30
     23.7700	  554.00	  544.46	-1795.96	  427.96
     23.8700	  561.00	  544.77	-1789.27	  427.63
     23.9700	  540.00	  545.30	-1810.80	  427.29
     24.0700	  551.00	  546.53	-1801.03	  426.95
     24.1700	  566.00	  549.08	-1788.58	  426.62
     24.2700	  599.00	  553.78	-1760.28	  426.28
     24.3700	  552.00	  561.62	-1815.12	  425.94
     24.4700	  572.00	  573.71	-1807.21	  425.60
     24.5700	  573.00	  590.94	-1823.44	  425.26
     24.6700	  604.00	  611.84	-1813.34	  424.93
     24.7700	  613.00	  629.68	-1822.18	  424.59
     24.8700	  599.00	  632.87	-1839.37	  424.25
     24.9700	  627.00	  615.09	-1793.59	  423.91
     25.0700	  562.00	  587.63	-1831.13	  423.57
     25.1700	  561.00	  565.00	-1809.50	  423.23
     25.2700	  570.00	  551.66	-1787.16	  422.89
     25.3700	  592.00	  545.40	-1758.90	  422.55
     25.4700	  511.00	  542.69	-1837.19	  422.21
     25.5700	  531.00	  541.37	-1815.87	  421.87
     25.6700	  539.00	  540.55	-1807.05	  421.54
     25.7700	  583.00	  539.97	-1762.47	  421.20
     25.8700	  542.00	  539.53	-1803.03	  420.86
     25.9700	  579.00	  539.20	-1765.70	  420.52
     26.0700	  575.00	  538.97	-1769.47	  420.18
     26.1700	  559.00	  538.81	-1785.31	  419.84
     26.2700	  534.00	  538.74	-1810.24	  419.50
     26.3700	  575.00	  538.74	-1769.24	  419.17
     26.4700	  549.00	  538.83	-1795.33	  418.83
     26.5700	  560.00	  539.02	-1784.52	  418.49
     26.6700	  538.00	  539.33	-1806.83	  418.15
     26.7700	  586.00	  539.79	-1759.29	  417.82
     26.8700	  522.00	  540.42	-1823.92	  417.48
     26.9700	  578.00	  541.29	-1768.79	  417.14
     27.0700	  581.00	  542.47	-1766.97	  416.81
     27.1700	  569.00	  544.10	-1780.60	  416.47
     27.2700	  592.00	  546.42	-1759.92	  416.14
     27.3700	  553.00	  549.92	-1802.42	  415.80
     27.4700	  614.00	  555.53	-1747.03	  415.47
     27.5700	  563.00	  564.96	-1807.46	  415.14
     27.6700	  561.00	  580.90	-1825.40	  414.80
     27.7700	  577.00	  606.93	-1835.43	  414.47
     27.8700	  559.00	  646.36	-1892.86	  414.14
     27.9700	  678.00	  699.84	-1827.34	  413.81
     28.0700	  775.00	  762.21	-1792.71	  413.48
     28.1700	  897.00	  819.58	-1728.08	  413.15
     28.2700	  958.00	  849.55	-1697.05	  412.82
     28.3700	  889.00	  834.75	-1751.25	  412.49
     28.4700	  772.00	  790.65	-1824.15	  412.16
     28.5700	  733.00	  754.05	-1826.55	  411.83
     28.6700	  711.00	  745.74	-1840.24	  411.50
     28.7700	  787.00	  764.52	-1783.02	  411.18
     28.8700	  781.00	  792.90	-1817.40	  410.85
     28.9700	  766.00	  803.33	-1842.83	  410.52
     29.0700	  776.00	  773.65	-1803.15	  410.20
     29.1700	  768.00	  712.84	-1750.34	  409.88
     29.2700	  651.00	  650.16	-1804.66	  409.55
     29.3700	  582.00	  602.70	-1826.20	  409.23
     29.4700	  662.00	  572.90	-1716.40	  408.91
     29.5700	  615.00	  556.33	-1746.83	  408.59
     29.6700	  609.00	  547.50	-1744.00	  408.27
     29.7700	  620.00	  542.52	-1728.02	  407.95
     29.8700	  614.00	  539.42	-1730.92	  407.63
     29.9700	  607.00	  537.38	-1735.88	  407.32
     30.0700	  608.00	  536.15	-1733.65	  407.00
     30.1700	  593.00	  535.79	-1748.29	  406.69
     30.2700	  559.00	  536.68	-1783.18	  406.37
     30.3700	  525.00	  539.65	-1820.15	  406.06
     30.4700	  575.00	  546.03	-1776.53	  405.75
     30.5700	  559.00	  557.41	-1803.91	  405.44
     30.6700	  598.00	  574.59	-1782.09	  405.13
     30.7700	  568.00	  596.03	-1833.53	  404.82
     30.8700	  573.00	  616.45	-1848.95	  404.51
     30.9700	  603.00	  626.81	-1829.31	  404.20
     31.0700	  588.00	  618.93	-1836.43	  403.90
     31.1700	  597.00	  595.96	-1804.46	  403.59
     31.2700	  520.00	  570.37	-1855.87	  403.29
     31.3700	  585.00	  550.32	-1770.82	  402.98
     31.4700	  523.00	  537.61	-1820.11	  402.68
     31.5700	  565.00	  530.62	-1771.12	  402.38
     31.6700	  508.00	  527.00	-1824.50	  402.08
     31.7700	  504.00	  525.02	-1826.52	  401.78
     31.8700	  518.00	  523.79	-1811.29	  401.49
     31.9700	  530.00	  522.94	-1798.44	  401.19
     32.0700	  540.00	  522.32	-1787.82	  400.90
     32.1700	  523.00	  521.88	-1804.38	  400.60
     32.2700	  529.00	  521.59	-1798.09	  400.31
     32.3700	  545.00	  521.45	-1781.95	  400.02
     32.4700	  538.00	  521.44	-1788.94	  399.73
     32.5700	  530.00	  521.60	-1797.10	  399.44
     32.6700	  581.00	  521.93	-1746.43	  399.16
     32.7700	  549.00	  522.48	-1778.98	  398.87
     32.8700	  524.00	  523.31	-1804.81	  398.59
     32.9700	  553.00	  524.51	-1777.01	  398.30
     33.0700	  536.00	  526.25	-1795.75	  398.02
     33.1700	  529.00	  528.87	-1805.37	  397.74
     33.2700	  579.00	  533.19	-1759.69	  397.46
     33.3700	  558.00	  540.99	-1788.49	  397.18
     33.4700	  587.00	  555.87	-1774.37	  396.91
     33.5700	  584.00	  584.03	-1805.53	  396.63
     33.6700	  627.00	  633.51	-1812.01	  396.36
     33.7700	  721.00	  710.06	-1794.56	  396.08
     33.8700	  842.00	  809.16	-1772.66	  395.81
     33.9700	  961.00	  908.83	-1753.33	  395.54
     34.0700	 1092.00	  969.63	-1683.13	  395.28
     34.1700	 1064.00	  952.46	-1693.96	  395.01
     34.2700	  899.00	  861.64	-1768.14	  394.74
     34.3700	  808.00	  748.09	-1745.59	  394.48
     34.4700	  607.00	  653.36	-1851.86	  394.22
     34.5700	  568.00	  590.73	-1828.23	  393.96
     34.6700	  577.00	  555.73	-1784.23	  393.70
     34.7700	  528.00	  538.04	-1815.54	  393.44
     34.8700	  549.00	  529.07	-1785.57	  393.18
     34.9700	  488.00	  523.95	-1841.45	  392.93
     35.0700	  559.00	  520.54	-1767.04	  392.68
     35.1700	  556.00	  518.01	-1767.51	  392.43
     35.2700	  511.00	  516.02	-1810.52	  392.18
     35.3700	  542.00	  514.43	-1777.93	  391.93
     35.4700	  531.00	  513.09	-1787.59	  391.68
     35.5700	  548.00	  511.96	-1769.46	  391.43
     35.6700	  495.00	  511.00	-1821.50	  391.19
     35.7700	  543.00	  510.15	-1772.65	  390.95
     35.8700	  486.00	  509.91	-1829.41	  390.71
     35.9700	  521.00	  509.26	-1793.76	  390.47
     36.0700	  522.00	  508.67	-1792.17	  390.23
     36.1700	  514.00	  508.13	-1799.63	  389.99
     36.2700	  468.00	  507.65	-1845.15	  389.76
     36.3700	  480.00	  507.20	-1832.70	  389.53
     36.4700	  485.00	  506.80	-1827.30	  389.30
     36.5700	  536.00	  506.42	-1775.92	  389.07
     36.6700	  523.00	  506.09	-1788.59	  388.84
     36.7700	  482.00	  505.78	-1829.28	  388.61
     36.8700	  495.00	  505.53	-1816.03	  388.39
     36.9700	  527.00	  505.35	-1783.85	  388.17
     37.0700	  563.00	  505.31	-1747.81	  387.95
     37.1700	  492.00	  505.59	-1819.09	  387.73
     37.2700	  499.00	  506.45	-1812.95	  387.51
     37.3700	  521.00	  508.26	-1792.76	  387.29
     37.4700	  504.00	  511.24	-1812.74	  387.08
     37.5700	  521.00	  515.10	-1799.60	  386.86
     37.6700	  496.00	  518.79	-1828.29	  386.65
     37.7700	  511.00	  520.71	-1815.21	  386.44
     37.8700	  526.00	  519.72	-1799.22	  386.24
     37.9700	  480.00	  516.50	-1842.00	  386.03
     38.0700	  531.00	  512.64	-1787.14	  385.83
     38.1700	  471.00	  509.10	-1843.60	  385.63
     38.2700	  454.00	  506.24	-1857.74	  385.42
     38.3700	  493.00	  504.16	-1816.66	  385.23
     38.4700	  536.00	  502.74	-1772.24	  385.03
     38.5700	  545.00	  501.82	-1762.32	  384.83
     38.6700	  501.00	  501.21	-1805.71	  384.64
     38.7700	  504.00	  500.80	-1802.30	  384.45
     38.8700	  483.00	  500.37	-1822.87	  384.26
     38.9700	  468.00	  500.11	-1837.61	  384.07
     39.0700	  489.00	  499.88	-1816.38	  383.88
     39.1700	  512.00	  499.66	-1793.16	  383.70
     39.2700	  504.00	  499.37	-1800.87	  383.52
     39.3700	  524.00	  499.18	-1780.68	  383.33
     39.4700	  513.00	  499.01	-1791.51	  383.15
     39.5700	  507.00	  498.84	-1797.34	  382.98
     39.6700	  553.00	  498.68	-1751.18	  382.80
     39.7700	  563.00	  498.65	-1741.15	  382.63
     39.8700	  491.00	  498.51	-1813.01	  382.46
     39.9700	  501.00	  498.38	-1802.88	  382.28
     40.0700	  505.00	  498.25	-1798.75	  382.12
     40.1700	  432.00	  498.14	-1871.64	  381.95
     40.2700	  497.00	  498.04	-1806.54	  381.78
     40.3700	  514.00	  497.95	-1789.45	  381.62
     40.4700	  471.00	  497.87	-1832.37	  381.46
     40.5700	  511.00	  497.80	-1792.30	  381.30
     40.6700	  467.00	  497.75	-1836.25	  381.14
     40.7700	  545.00	  497.72	-1758.22	  380.99
