MSG Master    CELL:    5.91926   5.91926  23.27258   90.0000   90.0000  120.0000   SPGR: P 63/m m c             TEMP:   1074.95
  1   1280     2.52000     0.00000    -0.12399     0.00000     0.00000    0
    99     0     2
       0.00000      10.00000
     125.00000     130.00000
 2Theta	Yobs	Ycal	Yobs-Ycal	Backg	Posr	(hkl)	K
      0.7700	    0.00	  543.55	-1751.00	  426.29
      0.8700	    0.00	  544.28	-1751.00	  427.03
      0.9700	   40.00	  545.01	-1751.00	  427.75
      1.0700	   42.00	  545.72	-1751.00	  428.47
      1.1700	   43.00	  546.43	-1751.00	  429.17
      1.2700	   31.00	  547.12	-1751.00	  429.87
      1.3700	   47.00	  547.81	-1751.00	  430.55
      1.4700	  107.00	  548.48	-1751.00	  431.22
      1.5700	  289.00	  549.14	-1751.00	  431.89
      1.6700	  473.00	  549.80	-1751.00	  432.54
      1.7700	  554.00	  550.44	-1751.00	  433.18
      1.8700	  621.00	  551.07	-1751.00	  433.82
      1.9700	  716.00	  551.70	-1751.00	  434.44
      2.0700	  752.00	  552.31	-1751.00	  435.05
      2.1700	  810.00	  552.91	-1751.00	  435.66
      2.2700	  808.00	  553.51	-1751.00	  436.25
      2.3700	  743.00	  554.09	-1751.00	  436.83
      2.4700	  734.00	  554.66	-1751.00	  437.41
      2.5700	  689.00	  555.23	-1751.00	  437.97
      2.6700	  664.00	  555.78	-1751.00	  438.52
      2.7700	  636.00	  556.33	-1751.00	  439.07
      2.8700	  666.00	  556.86	-1751.00	  439.61
      2.9700	  593.00	  557.39	-1751.00	  440.13
      3.0700	  652.00	  557.91	-1751.00	  440.65
      3.1700	  574.00	  558.41	-1751.00	  441.16
      3.2700	  572.00	  558.91	-1751.00	  441.66
      3.3700	  641.00	  559.40	-1751.00	  442.15
      3.4700	  741.00	  559.88	-1751.00	  442.63
      3.5700	  794.00	  560.35	-1751.00	  443.10
      3.6700	  877.00	  560.82	-1751.00	  443.56
      3.7700	  858.00	  561.27	-1751.00	  444.01
      3.8700	  948.00	  561.72	-1751.00	  444.46
      3.9700	 1007.00	  562.15	-1751.00	  444.90
      4.0700	 1092.00	  562.58	-1751.00	  445.32
      4.1700	 1083.00	  563.00	-1751.00	  445.74
      4.2700	 1129.00	  563.41	-1751.00	  446.15
      4.3700	 1081.00	  563.81	-1751.00	  446.56
      4.4700	 1067.00	  564.21	-1751.00	  446.95
      4.5700	 1095.00	  564.59	-1751.00	  447.34
      4.6700	 1005.00	  564.97	-1751.00	  447.71
      4.7700	 1016.00	  565.34	-1751.00	  448.08
      4.8700	  962.00	  565.70	-1751.00	  448.44
      4.9700	  919.00	  566.05	-1751.00	  448.80
      5.0700	  951.00	  566.40	-1751.00	  449.14
      5.1700	  894.00	  566.74	-1751.00	  449.48
      5.2700	  873.00	  567.06	-1751.00	  449.81
      5.3700	  937.00	  567.39	-1751.00	  450.13
      5.4700	  930.00	  567.70	-1751.00	  450.44
      5.5700	  836.00	  568.01	-1751.00	  450.75
      5.6700	  849.00	  568.30	-1751.00	  451.05
      5.7700	  806.00	  568.59	-1751.00	  451.34
      5.8700	  804.00	  568.88	-1751.00	  451.62
      5.9700	  765.00	  569.15	-1751.00	  451.90
      6.0700	  813.00	  569.42	-1751.00	  452.16
      6.1700	  766.00	  569.68	-1751.00	  452.43
      6.2700	  773.00	  569.94	-1751.00	  452.68
      6.3700	  767.00	  570.18	-1751.00	  452.93
      6.4700	  726.00	  570.42	-1751.00	  453.16
      6.5700	  834.00	  570.65	-1751.00	  453.40
      6.6700	  782.00	  570.88	-1751.00	  453.62
      6.7700	  732.00	  571.10	-1751.00	  453.84
      6.8700	  699.00	  571.31	-1751.00	  454.05
      6.9700	  696.00	  571.51	-1751.00	  454.25
      7.0700	  677.00	  571.71	-1751.00	  454.45
      7.1700	  746.00	  571.90	-1751.00	  454.64
      7.2700	  682.00	  572.08	-1751.00	  454.83
      7.3700	  659.00	  572.26	-1751.00	  455.00
      7.4700	  651.00	  572.43	-1751.00	  455.17
      7.5700	  674.00	  572.59	-1751.00	  455.34
      7.6700	  589.00	  572.75	-1751.00	  455.49
      7.7700	  685.00	  572.90	-1751.00	  455.65
      7.8700	  634.00	  573.05	-1751.00	  455.79
      7.9700	  618.00	  573.18	-1751.00	  455.93
      8.0700	  652.00	  573.32	-1751.00	  456.06
      8.1700	  609.00	  573.44	-1751.00	  456.19
      8.2700	  610.00	  573.56	-1751.00	  456.31
      8.3700	  615.00	  573.67	-1751.00	  456.42
      8.4700	  639.00	  573.78	-1751.00	  456.53
      8.5700	  611.00	  573.88	-1751.00	  456.63
      8.6700	  645.00	  573.98	-1751.00	  456.72
      8.7700	  592.00	  574.07	-1751.00	  456.81
      8.8700	  615.00	  574.15	-1751.00	  456.90
      8.9700	  650.00	  574.23	-1751.00	  456.97
      9.0700	  612.00	  574.30	-1751.00	  457.05
      9.1700	  593.00	  574.37	-1751.00	  457.11
      9.2700	  638.00	  574.43	-1751.00	  457.17
      9.3700	  604.00	  574.48	-1751.00	  457.23
      9.4700	  618.00	  574.53	-1751.00	  457.28
      9.5700	  629.00	  574.58	-1751.00	  457.32
      9.6700	  592.00	  574.62	-1751.00	  457.36
      9.7700	  602.00	  574.65	-1751.00	  457.39
      9.8700	  590.00	  574.68	-1751.00	  457.42
      9.9700	  626.00	  574.70	-1751.00	  457.44
     10.0700	  574.00	  575.44	-1752.44	  457.46
     10.1700	  605.00	  575.52	-1721.52	  457.47
     10.2700	  586.00	  575.62	-1740.62	  457.48
     10.3700	  646.00	  575.74	-1680.74	  457.48
     10.4700	  588.00	  575.91	-1738.91	  457.48
     10.5700	  594.00	  576.17	-1733.17	  457.47
     10.6700	  607.00	  576.62	-1720.62	  457.46
     10.7700	  556.00	  577.37	-1772.37	  457.44
     10.8700	  581.00	  578.48	-1748.48	  457.41
     10.9700	  614.00	  579.94	-1716.94	  457.39
     11.0700	  585.00	  581.73	-1747.73	  457.35
     11.1700	  567.00	  583.82	-1767.82	  457.32
     11.2700	  592.00	  586.27	-1745.27	  457.28
     11.3700	  579.00	  589.13	-1761.13	  457.23
     11.4700	  553.00	  592.52	-1790.52	  457.18
     11.5700	  580.00	  596.64	-1767.64	  457.12
     11.6700	  643.00	  601.80	-1709.80	  457.06
     11.7700	  616.00	  608.58	-1743.58	  457.00
     11.8700	  616.00	  617.86	-1752.86	  456.93
     11.9700	  652.00	  630.40	-1729.40	  456.86
     12.0700	  689.00	  644.89	-1706.89	  456.78
     12.1700	  672.00	  655.51	-1734.51	  456.70
     12.2700	  680.00	  652.75	-1723.75	  456.61
     12.3700	  611.00	  633.39	-1773.39	  456.52
     12.4700	  615.00	  609.46	-1745.46	  456.43
     12.5700	  619.00	  592.07	-1724.07	  456.33
     12.6700	  582.00	  582.81	-1751.81	  456.22
     12.7700	  605.00	  578.75	-1724.75	  456.12
     12.8700	  557.00	  576.96	-1770.96	  456.01
     12.9700	  543.00	  575.98	-1783.98	  455.89
     13.0700	  537.00	  575.31	-1789.31	  455.78
     13.1700	  624.00	  574.80	-1701.80	  455.65
     13.2700	  600.00	  574.38	-1725.38	  455.53
     13.3700	  543.00	  574.03	-1782.03	  455.40
     13.4700	  586.00	  573.72	-1738.72	  455.27
     13.5700	  543.00	  573.45	-1781.45	  455.13
     13.6700	  568.00	  573.19	-1756.19	  454.99
     13.7700	  557.00	  572.96	-1766.96	  454.85
     13.8700	  583.00	  572.73	-1740.73	  454.70
     13.9700	  553.00	  572.52	-1770.52	  454.55
     14.0700	  594.00	  572.31	-1729.31	  454.39
     14.1700	  565.00	  572.10	-1758.10	  454.24
     14.2700	  561.00	  571.90	-1761.90	  454.07
     14.3700	  582.00	  571.70	-1740.70	  453.91
     14.4700	  572.00	  571.50	-1750.50	  453.74
     14.5700	  539.00	  571.31	-1783.31	  453.57
     14.6700	  579.00	  571.11	-1743.11	  453.40
     14.7700	  533.00	  570.91	-1788.91	  453.22
     14.8700	  578.00	  570.71	-1743.71	  453.04
     14.9700	  552.00	  570.51	-1769.51	  452.86
     15.0700	  570.00	  570.31	-1751.31	  452.67
     15.1700	  549.00	  570.10	-1772.10	  452.48
     15.2700	  562.00	  569.90	-1758.90	  452.29
     15.3700	  536.00	  569.69	-1784.69	  452.09
     15.4700	  569.00	  569.49	-1751.49	  451.90
     15.5700	  557.00	  569.28	-1763.28	  451.70
     15.6700	  547.00	  569.06	-1773.06	  451.49
     15.7700	  575.00	  568.85	-1744.85	  451.29
     15.8700	  529.00	  568.63	-1790.63	  451.08
     15.9700	  561.00	  568.41	-1758.41	  450.87
     16.0700	  577.00	  568.19	-1742.19	  450.65
     16.1700	  607.00	  567.97	-1711.97	  450.43
     16.2700	  602.00	  567.77	-1716.77	  450.21
     16.3700	  581.00	  567.55	-1737.55	  449.99
     16.4700	  560.00	  567.32	-1758.32	  449.77
     16.5700	  519.00	  567.09	-1799.09	  449.54
     16.6700	  535.00	  566.85	-1782.85	  449.31
     16.7700	  516.00	  566.62	-1801.62	  449.08
     16.8700	  562.00	  566.38	-1755.38	  448.85
     16.9700	  548.00	  566.14	-1769.14	  448.61
     17.0700	  566.00	  565.90	-1750.90	  448.37
     17.1700	  611.00	  565.66	-1705.66	  448.13
     17.2700	  552.00	  565.41	-1764.41	  447.89
     17.3700	  594.00	  565.17	-1722.17	  447.64
     17.4700	  579.00	  564.92	-1736.92	  447.39
     17.5700	  523.00	  564.67	-1792.67	  447.14
     17.6700	  523.00	  564.41	-1792.41	  446.89
     17.7700	  577.00	  564.16	-1738.16	  446.64
     17.8700	  520.00	  563.90	-1794.90	  446.38
     17.9700	  600.00	  563.74	-1714.74	  446.13
     18.0700	  535.00	  563.49	-1779.49	  445.87
     18.1700	  552.00	  563.23	-1762.23	  445.60
     18.2700	  589.00	  562.96	-1724.96	  445.34
     18.3700	  600.00	  562.70	-1713.70	  445.08
     18.4700	  531.00	  562.44	-1782.44	  444.81
     18.5700	  587.00	  562.17	-1726.17	  444.54
     18.6700	  531.00	  561.90	-1781.90	  444.27
     18.7700	  564.00	  561.63	-1748.63	  444.00
     18.8700	  551.00	  561.45	-1761.45	  443.72
     18.9700	  573.00	  561.18	-1739.18	  443.45
     19.0700	  562.00	  560.91	-1749.91	  443.17
     19.1700	  534.00	  560.63	-1777.63	  442.89
     19.2700	  545.00	  560.36	-1766.36	  442.61
     19.3700	  595.00	  560.08	-1716.08	  442.33
     19.4700	  555.00	  559.81	-1755.81	  442.05
     19.5700	  570.00	  559.53	-1740.53	  441.76
     19.6700	  563.00	  559.25	-1747.25	  441.48
     19.7700	  539.00	  558.97	-1770.97	  441.19
     19.8700	  512.00	  558.69	-1797.69	  440.90
     19.9700	  554.00	  558.41	-1755.41	  440.61
     20.0700	  553.00	  558.13	-1756.13	  440.32
     20.1700	  603.00	  557.84	-1705.84	  440.03
     20.2700	  546.00	  557.56	-1762.56	  439.73
     20.3700	  525.00	  557.25	-1783.25	  439.44
     20.4700	  527.00	  556.96	-1780.96	  439.14
     20.5700	  552.00	  556.68	-1755.68	  438.85
     20.6700	  543.00	  556.39	-1764.39	  438.55
     20.7700	  528.00	  556.11	-1779.11	  438.25
     20.8700	  502.00	  555.82	-1804.82	  437.95
     20.9700	  558.00	  555.57	-1748.57	  437.65
     21.0700	  567.00	  555.29	-1739.29	  437.34
     21.1700	  533.00	  555.00	-1773.00	  437.04
     21.2700	  497.00	  554.72	-1808.72	  436.73
     21.3700	  535.00	  554.43	-1770.43	  436.43
     21.4700	  564.00	  554.15	-1741.15	  436.12
     21.5700	  554.00	  553.86	-1750.86	  435.82
     21.6700	  547.00	  553.58	-1757.58	  435.51
     21.7700	  558.00	  553.30	-1746.30	  435.20
     21.8700	  542.00	  553.02	-1762.02	  434.89
     21.9700	  567.00	  552.74	-1736.74	  434.58
     22.0700	  560.00	  552.46	-1743.46	  434.27
     22.1700	  578.00	  552.18	-1725.18	  433.96
     22.2700	  552.00	  551.91	-1750.91	  433.64
     22.3700	  541.00	  551.64	-1761.64	  433.33
     22.4700	  536.00	  551.37	-1766.37	  433.02
     22.5700	  578.00	  551.11	-1724.11	  432.70
     22.6700	  564.00	  550.86	-1737.86	  432.39
     22.7700	  507.00	  550.61	-1794.61	  432.07
     22.8700	  501.00	  550.36	-1800.36	  431.76
     22.9700	  526.00	  550.13	-1775.13	  431.44
     23.0700	  536.00	  549.91	-1764.91	  431.12
     23.1700	  544.00	  549.71	-1756.71	  430.81
     23.2700	  587.00	  549.52	-1713.52	  430.49
     23.3700	  510.00	  549.36	-1790.36	  430.17
     23.4700	  600.00	  549.23	-1700.23	  429.85
     23.5700	  569.00	  549.15	-1731.15	  429.53
     23.6700	  572.00	  549.13	-1728.13	  429.21
     23.7700	  547.00	  549.34	-1753.34	  428.89
     23.8700	  571.00	  549.64	-1729.64	  428.57
     23.9700	  528.00	  550.36	-1773.36	  428.25
     24.0700	  580.00	  551.95	-1722.95	  427.93
     24.1700	  557.00	  555.09	-1749.09	  427.61
     24.2700	  591.00	  560.66	-1720.66	  427.29
     24.3700	  571.00	  569.67	-1749.67	  426.97
     24.4700	  568.00	  583.24	-1766.24	  426.65
     24.5700	  606.00	  601.82	-1746.82	  426.33
     24.6700	  647.00	  622.69	-1726.69	  426.01
     24.7700	  635.00	  637.55	-1753.55	  425.69
     24.8700	  667.00	  634.95	-1718.95	  425.37
     24.9700	  588.00	  612.97	-1775.97	  425.04
     25.0700	  593.00	  585.95	-1743.95	  424.72
     25.1700	  547.00	  565.79	-1769.79	  424.40
     25.2700	  561.00	  554.60	-1744.60	  424.08
     25.3700	  604.00	  549.47	-1696.47	  423.76
     25.4700	  559.00	  547.20	-1739.20	  423.44
     25.5700	  567.00	  546.01	-1730.01	  423.12
     25.6700	  589.00	  545.23	-1707.23	  422.80
     25.7700	  576.00	  544.67	-1719.67	  422.47
     25.8700	  555.00	  544.24	-1740.24	  422.15
     25.9700	  538.00	  543.91	-1756.91	  421.83
     26.0700	  562.00	  543.67	-1732.67	  421.51
     26.1700	  529.00	  543.50	-1765.50	  421.19
     26.2700	  588.00	  543.40	-1706.40	  420.87
     26.3700	  598.00	  543.39	-1696.39	  420.55
     26.4700	  573.00	  543.45	-1721.45	  420.24
     26.5700	  547.00	  543.60	-1747.60	  419.92
     26.6700	  573.00	  543.87	-1721.87	  419.60
     26.7700	  534.00	  544.26	-1761.26	  419.28
     26.8700	  541.00	  544.82	-1754.82	  418.96
     26.9700	  526.00	  545.60	-1770.60	  418.64
     27.0700	  550.00	  546.67	-1747.67	  418.33
     27.1700	  538.00	  548.15	-1761.15	  418.01
     27.2700	  603.00	  550.28	-1698.28	  417.69
     27.3700	  564.00	  553.54	-1740.54	  417.38
     27.4700	  542.00	  558.85	-1767.85	  417.06
     27.5700	  536.00	  567.85	-1782.85	  416.75
     27.6700	  560.00	  583.13	-1774.13	  416.43
     27.7700	  574.00	  608.06	-1785.06	  416.12
     27.8700	  642.00	  645.54	-1754.54	  415.81
     27.9700	  669.00	  695.70	-1777.70	  415.49
     28.0700	  739.00	  752.91	-1764.91	  415.18
     28.1700	  935.00	  803.11	-1619.11	  414.87
     28.2700	  995.00	  825.15	-1581.15	  414.56
     28.3700	  877.00	  806.36	-1680.36	  414.25
     28.4700	  773.00	  766.74	-1744.74	  413.94
     28.5700	  717.00	  739.88	-1773.88	  413.63
     28.6700	  690.00	  741.39	-1802.39	  413.32
     28.7700	  710.00	  766.73	-1807.73	  413.02
     28.8700	  763.00	  796.33	-1784.33	  412.71
     28.9700	  851.00	  802.19	-1702.19	  412.40
     29.0700	  824.00	  766.07	-1693.07	  412.10
     29.1700	  730.00	  703.27	-1724.27	  411.79
     29.2700	  615.00	  642.93	-1778.93	  411.49
     29.3700	  633.00	  599.24	-1717.24	  411.18
     29.4700	  596.00	  572.78	-1727.78	  410.88
     29.5700	  626.00	  558.47	-1683.47	  410.58
     29.6700	  627.00	  550.94	-1674.94	  410.28
     29.7700	  601.00	  546.68	-1696.68	  409.98
     29.8700	  619.00	  544.04	-1676.04	  409.68
     29.9700	  587.00	  542.35	-1706.35	  409.38
     30.0700	  599.00	  541.46	-1693.46	  409.09
     30.1700	  565.00	  541.52	-1727.52	  408.79
     30.2700	  551.00	  543.04	-1743.04	  408.49
     30.3700	  536.00	  547.06	-1762.06	  408.20
     30.4700	  588.00	  555.14	-1718.14	  407.91
     30.5700	  614.00	  568.98	-1705.98	  407.61
     30.6700	  585.00	  589.11	-1755.11	  407.32
     30.7700	  606.00	  613.11	-1758.11	  407.03
     30.8700	  603.00	  634.23	-1782.23	  406.74
     30.9700	  600.00	  642.02	-1793.02	  406.45
     31.0700	  618.00	  629.13	-1762.13	  406.17
     31.1700	  565.00	  602.29	-1788.29	  405.88
     31.2700	  544.00	  575.10	-1782.10	  405.59
     31.3700	  576.00	  554.96	-1729.96	  405.31
     31.4700	  569.00	  542.72	-1724.72	  405.03
     31.5700	  545.00	  536.18	-1742.18	  404.74
     31.6700	  554.00	  532.82	-1729.82	  404.46
     31.7700	  553.00	  530.97	-1728.97	  404.18
     31.8700	  544.00	  529.79	-1736.79	  403.90
     31.9700	  505.00	  528.96	-1774.96	  403.63
     32.0700	  511.00	  528.36	-1768.36	  403.35
     32.1700	  556.00	  527.95	-1722.95	  403.07
     32.2700	  556.00	  527.68	-1722.68	  402.80
     32.3700	  594.00	  527.56	-1684.56	  402.53
     32.4700	  543.00	  527.58	-1735.58	  402.26
     32.5700	  564.00	  527.76	-1714.76	  401.98
     32.6700	  537.00	  528.13	-1742.13	  401.71
     32.7700	  520.00	  528.72	-1759.72	  401.45
     32.8700	  529.00	  529.60	-1751.60	  401.18
     32.9700	  522.00	  530.87	-1759.87	  400.91
     33.0700	  580.00	  532.73	-1703.73	  400.65
     33.1700	  571.00	  535.60	-1715.60	  400.39
     33.2700	  598.00	  540.40	-1693.40	  400.12
     33.3700	  591.00	  549.31	-1709.31	  399.86
     33.4700	  513.00	  566.41	-1804.41	  399.60
     33.5700	  590.00	  598.32	-1759.32	  399.35
     33.6700	  621.00	  652.82	-1782.82	  399.09
     33.7700	  777.00	  733.74	-1707.74	  398.83
     33.8700	  892.00	  832.74	-1691.74	  398.58
     33.9700	 1018.00	  923.59	-1656.59	  398.33
     34.0700	 1028.00	  965.34	-1688.34	  398.07
     34.1700	 1034.00	  926.80	-1643.80	  397.82
     34.2700	  868.00	  827.59	-1710.59	  397.58
     34.3700	  726.00	  719.70	-1744.70	  397.33
     34.4700	  647.00	  635.92	-1739.92	  397.08
     34.5700	  584.00	  583.28	-1750.28	  396.84
     34.6700	  550.00	  554.91	-1755.91	  396.59
     34.7700	  529.00	  540.76	-1762.76	  396.35
     34.8700	  538.00	  533.43	-1746.43	  396.11
     34.9700	  564.00	  529.07	-1716.07	  395.87
     35.0700	  548.00	  526.06	-1729.06	  395.64
     35.1700	  528.00	  523.79	-1746.79	  395.40
     35.2700	  543.00	  521.99	-1729.99	  395.17
     35.3700	  479.00	  520.54	-1792.54	  394.93
     35.4700	  530.00	  519.32	-1740.32	  394.70
     35.5700	  490.00	  518.29	-1779.29	  394.47
     35.6700	  537.00	  517.40	-1731.40	  394.24
     35.7700	  507.00	  516.62	-1760.62	  394.01
     35.8700	  529.00	  515.94	-1737.94	  393.79
     35.9700	  487.00	  515.81	-1779.81	  393.56
     36.0700	  489.00	  515.27	-1777.27	  393.34
     36.1700	  495.00	  514.78	-1770.78	  393.12
     36.2700	  527.00	  514.33	-1738.33	  392.90
     36.3700	  488.00	  513.93	-1776.93	  392.68
     36.4700	  507.00	  513.56	-1757.56	  392.47
     36.5700	  525.00	  513.23	-1739.23	  392.25
     36.6700	  515.00	  512.94	-1748.94	  392.04
     36.7700	  550.00	  512.69	-1713.69	  391.83
     36.8700	  528.00	  512.49	-1735.49	  391.62
     36.9700	  511.00	  512.41	-1752.41	  391.41
     37.0700	  503.00	  512.53	-1760.53	  391.20
     37.1700	  526.00	  513.08	-1738.08	  390.99
     37.2700	  506.00	  514.38	-1759.38	  390.79
     37.3700	  508.00	  516.78	-1759.78	  390.59
     37.4700	  504.00	  520.38	-1767.38	  390.39
     37.5700	  511.00	  524.69	-1764.69	  390.19
     37.6700	  503.00	  528.54	-1776.54	  389.99
     37.7700	  530.00	  530.46	-1751.46	  389.79
     37.8700	  530.00	  529.90	-1750.90	  389.60
     37.9700	  501.00	  527.70	-1777.70	  389.40
     38.0700	  511.00	  524.59	-1764.59	  389.21
     38.1700	  521.00	  520.78	-1750.78	  389.02
     38.2700	  470.00	  516.88	-1797.88	  388.84
     38.3700	  516.00	  513.60	-1748.60	  388.65
     38.4700	  502.00	  511.23	-1760.23	  388.46
     38.5700	  500.00	  509.70	-1760.70	  388.28
     38.6700	  497.00	  508.77	-1762.77	  388.10
     38.7700	  489.00	  508.11	-1770.11	  387.92
     38.8700	  504.00	  507.73	-1754.73	  387.74
     38.9700	  499.00	  507.43	-1759.43	  387.57
     39.0700	  489.00	  507.18	-1769.18	  387.39
     39.1700	  534.00	  506.95	-1723.95	  387.22
     39.2700	  532.00	  506.66	-1725.66	  387.05
     39.3700	  520.00	  506.47	-1737.47	  386.88
     39.4700	  506.00	  506.29	-1751.29	  386.71
     39.5700	  499.00	  506.13	-1758.13	  386.54
     39.6700	  477.00	  506.10	-1780.10	  386.38
     39.7700	  521.00	  505.95	-1735.95	  386.21
     39.8700	  515.00	  505.82	-1741.82	  386.05
     39.9700	  504.00	  505.70	-1752.70	  385.89
     40.0700	  491.00	  505.59	-1765.59	  385.73
     40.1700	  523.00	  505.49	-1733.49	  385.58
     40.2700	  539.00	  505.40	-1717.40	  385.42
     40.3700	  521.00	  505.32	-1735.32	  385.27
     40.4700	  518.00	  505.25	-1738.25	  385.12
     40.5700	  522.00	  505.21	-1734.21	  384.97
     40.6700	  522.00	  505.17	-1734.17	  384.82
     40.7700	  501.00	  505.16	-1755.16	  384.67
