MSG Master    CELL:    5.89616   5.89616  23.16570   90.0000   90.0000  120.0000   SPGR: P 63/m m c             TEMP:    728.05
  2   1280     2.52000     0.00000    -0.11836     0.00000     0.00000    0
    96    96     0     0     2
       0.00000      10.00000
     125.00000     130.00000
 2Theta	Yobs	Ycal	Yobs-Ycal	Backg	Posr	(hkl)	K
      0.7700	    0.00	  520.50	-1793.50	  404.75
      0.8700	    0.00	  522.40	-1793.50	  406.64
      0.9700	   36.00	  524.27	-1793.50	  408.52
      1.0700	   49.00	  526.13	-1793.50	  410.37
      1.1700	   40.00	  527.96	-1793.50	  412.21
      1.2700	   46.00	  529.77	-1793.50	  414.02
      1.3700	   46.00	  531.57	-1793.50	  415.81
      1.4700	  108.00	  533.34	-1793.50	  417.59
      1.5700	  287.00	  535.09	-1793.50	  419.34
      1.6700	  474.00	  536.83	-1793.50	  421.08
      1.7700	  556.00	  538.54	-1793.50	  422.79
      1.8700	  654.00	  540.24	-1793.50	  424.48
      1.9700	  691.00	  541.91	-1793.50	  426.16
      2.0700	  750.00	  543.57	-1793.50	  427.82
      2.1700	  760.00	  545.21	-1793.50	  429.45
      2.2700	  763.00	  546.83	-1793.50	  431.07
      2.3700	  741.00	  548.42	-1793.50	  432.67
      2.4700	  706.00	  550.00	-1793.50	  434.25
      2.5700	  723.00	  551.57	-1793.50	  435.81
      2.6700	  698.00	  553.11	-1793.50	  437.36
      2.7700	  691.00	  554.63	-1793.50	  438.88
      2.8700	  641.00	  556.14	-1793.50	  440.39
      2.9700	  622.00	  557.63	-1793.50	  441.88
      3.0700	  619.00	  559.10	-1793.50	  443.35
      3.1700	  625.00	  560.55	-1793.50	  444.80
      3.2700	  712.00	  561.98	-1793.50	  446.23
      3.3700	  821.00	  563.40	-1793.50	  447.65
      3.4700	 1044.00	  564.80	-1793.50	  449.05
      3.5700	 1175.00	  566.18	-1793.50	  450.43
      3.6700	 1301.00	  567.54	-1793.50	  451.79
      3.7700	 1388.00	  568.89	-1793.50	  453.14
      3.8700	 1451.00	  570.22	-1793.50	  454.47
      3.9700	 1447.00	  571.53	-1793.50	  455.78
      4.0700	 1532.00	  572.83	-1793.50	  457.07
      4.1700	 1595.00	  574.11	-1793.50	  458.35
      4.2700	 1621.00	  575.37	-1793.50	  459.61
      4.3700	 1630.00	  576.61	-1793.50	  460.86
      4.4700	 1544.00	  577.84	-1793.50	  462.09
      4.5700	 1419.00	  579.05	-1793.50	  463.30
      4.6700	 1468.00	  580.25	-1793.50	  464.49
      4.7700	 1346.00	  581.42	-1793.50	  465.67
      4.8700	 1404.00	  582.59	-1793.50	  466.83
      4.9700	 1332.00	  583.73	-1793.50	  467.98
      5.0700	 1273.00	  584.87	-1793.50	  469.11
      5.1700	 1214.00	  585.98	-1793.50	  470.23
      5.2700	 1206.00	  587.08	-1793.50	  471.33
      5.3700	 1184.00	  588.16	-1793.50	  472.41
      5.4700	 1060.00	  589.23	-1793.50	  473.48
      5.5700	 1122.00	  590.28	-1793.50	  474.53
      5.6700	 1060.00	  591.32	-1793.50	  475.57
      5.7700	 1049.00	  592.34	-1793.50	  476.59
      5.8700	  989.00	  593.35	-1793.50	  477.60
      5.9700	 1015.00	  594.34	-1793.50	  478.59
      6.0700	  923.00	  595.32	-1793.50	  479.57
      6.1700	  977.00	  596.28	-1793.50	  480.53
      6.2700	  969.00	  597.23	-1793.50	  481.48
      6.3700	  906.00	  598.16	-1793.50	  482.41
      6.4700	  943.00	  599.08	-1793.50	  483.33
      6.5700	  902.00	  599.99	-1793.50	  484.23
      6.6700	  880.00	  600.88	-1793.50	  485.12
      6.7700	  844.00	  601.75	-1793.50	  486.00
      6.8700	  904.00	  602.61	-1793.50	  486.86
      6.9700	  874.00	  603.46	-1793.50	  487.71
      7.0700	  825.00	  604.29	-1793.50	  488.54
      7.1700	  785.00	  605.11	-1793.50	  489.36
      7.2700	  840.00	  605.92	-1793.50	  490.17
      7.3700	  781.00	  606.71	-1793.50	  490.96
      7.4700	  840.00	  607.49	-1793.50	  491.74
      7.5700	  800.00	  608.26	-1793.50	  492.50
      7.6700	  769.00	  609.01	-1793.50	  493.25
      7.7700	  785.00	  609.75	-1793.50	  493.99
      7.8700	  767.00	  610.47	-1793.50	  494.72
      7.9700	  721.00	  611.19	-1793.50	  495.43
      8.0700	  770.00	  611.88	-1793.50	  496.13
      8.1700	  714.00	  612.57	-1793.50	  496.82
      8.2700	  741.00	  613.25	-1793.50	  497.49
      8.3700	  672.00	  613.91	-1793.50	  498.15
      8.4700	  746.00	  614.56	-1793.50	  498.80
      8.5700	  739.00	  615.19	-1793.50	  499.44
      8.6700	  705.00	  615.82	-1793.50	  500.06
      8.7700	  709.00	  616.43	-1793.50	  500.67
      8.8700	  722.00	  617.03	-1793.50	  501.27
      8.9700	  727.00	  617.61	-1793.50	  501.86
      9.0700	  709.00	  618.19	-1793.50	  502.44
      9.1700	  692.00	  618.75	-1793.50	  503.00
      9.2700	  677.00	  619.30	-1793.50	  503.55
      9.3700	  689.00	  619.84	-1793.50	  504.09
      9.4700	  688.00	  620.37	-1793.50	  504.62
      9.5700	  721.00	  620.89	-1793.50	  505.14
      9.6700	  641.00	  621.39	-1793.50	  505.64
      9.7700	  723.00	  621.89	-1793.50	  506.13
      9.8700	  643.00	  622.37	-1793.50	  506.62
      9.9700	  629.00	  622.84	-1793.50	  507.09
     10.0700	  657.00	  625.66	-1762.16	  507.55
     10.1700	  672.00	  626.38	-1747.88	  507.99
     10.2700	  678.00	  627.14	-1742.64	  508.43
     10.3700	  633.00	  627.98	-1788.48	  508.86
     10.4700	  653.00	  628.93	-1769.43	  509.28
     10.5700	  668.00	  630.04	-1755.54	  509.68
     10.6700	  697.00	  631.39	-1727.89	  510.08
     10.7700	  662.00	  633.09	-1764.59	  510.46
     10.8700	  683.00	  635.23	-1745.73	  510.83
     10.9700	  681.00	  637.87	-1750.37	  511.20
     11.0700	  647.00	  641.05	-1787.55	  511.55
     11.1700	  684.00	  644.76	-1754.26	  511.89
     11.2700	  658.00	  649.06	-1784.56	  512.22
     11.3700	  707.00	  654.02	-1740.52	  512.55
     11.4700	  695.00	  659.78	-1758.28	  512.86
     11.5700	  728.00	  666.55	-1732.05	  513.16
     11.6700	  658.00	  674.62	-1810.12	  513.45
     11.7700	  724.00	  684.32	-1753.82	  513.74
     11.8700	  704.00	  695.85	-1785.35	  514.01
     11.9700	  729.00	  708.90	-1773.40	  514.28
     12.0700	  795.00	  722.16	-1720.66	  514.53
     12.1700	  772.00	  732.65	-1754.15	  514.77
     12.2700	  757.00	  735.56	-1772.06	  515.01
     12.3700	  778.00	  726.57	-1742.07	  515.24
     12.4700	  734.00	  707.81	-1767.31	  515.45
     12.5700	  645.00	  687.19	-1835.69	  515.66
     12.6700	  633.00	  670.27	-1830.77	  515.86
     12.7700	  617.00	  658.28	-1834.78	  516.05
     12.8700	  611.00	  650.51	-1833.01	  516.23
     12.9700	  630.00	  645.71	-1809.21	  516.40
     13.0700	  634.00	  642.74	-1802.24	  516.57
     13.1700	  630.00	  640.84	-1804.34	  516.72
     13.2700	  631.00	  639.54	-1802.04	  516.87
     13.3700	  621.00	  638.60	-1811.10	  517.01
     13.4700	  635.00	  637.89	-1796.39	  517.14
     13.5700	  602.00	  637.35	-1828.85	  517.26
     13.6700	  631.00	  636.93	-1799.43	  517.37
     13.7700	  642.00	  636.60	-1788.10	  517.48
     13.8700	  622.00	  636.33	-1807.83	  517.57
     13.9700	  633.00	  636.11	-1796.61	  517.66
     14.0700	  650.00	  635.93	-1779.43	  517.74
     14.1700	  551.00	  635.79	-1878.29	  517.82
     14.2700	  607.00	  635.66	-1822.16	  517.88
     14.3700	  639.00	  635.55	-1790.05	  517.94
     14.4700	  626.00	  635.46	-1802.96	  517.99
     14.5700	  615.00	  635.37	-1813.87	  518.03
     14.6700	  600.00	  635.30	-1828.80	  518.07
     14.7700	  648.00	  635.23	-1780.73	  518.09
     14.8700	  588.00	  635.16	-1840.66	  518.11
     14.9700	  620.00	  635.09	-1808.59	  518.13
     15.0700	  631.00	  635.03	-1797.53	  518.13
     15.1700	  642.00	  634.96	-1786.46	  518.13
     15.2700	  630.00	  634.89	-1798.39	  518.12
     15.3700	  607.00	  634.83	-1821.33	  518.10
     15.4700	  622.00	  634.76	-1806.26	  518.08
     15.5700	  584.00	  634.68	-1844.18	  518.05
     15.6700	  618.00	  634.61	-1810.11	  518.01
     15.7700	  618.00	  634.53	-1810.03	  517.97
     15.8700	  646.00	  634.44	-1781.94	  517.92
     15.9700	  604.00	  634.36	-1823.86	  517.86
     16.0700	  621.00	  634.26	-1806.76	  517.80
     16.1700	  617.00	  634.17	-1810.67	  517.73
     16.2700	  651.00	  634.07	-1776.57	  517.65
     16.3700	  620.00	  633.96	-1807.46	  517.57
     16.4700	  652.00	  633.86	-1775.36	  517.48
     16.5700	  594.00	  633.74	-1833.24	  517.39
     16.6700	  595.00	  633.62	-1832.12	  517.29
     16.7700	  610.00	  633.50	-1817.00	  517.18
     16.8700	  654.00	  633.37	-1772.87	  517.06
     16.9700	  555.00	  633.24	-1871.74	  516.95
     17.0700	  560.00	  633.10	-1866.60	  516.82
     17.1700	  626.00	  632.96	-1800.46	  516.69
     17.2700	  619.00	  632.81	-1807.31	  516.55
     17.3700	  601.00	  632.66	-1825.16	  516.41
     17.4700	  607.00	  632.50	-1819.00	  516.26
     17.5700	  611.00	  632.66	-1815.16	  516.11
     17.6700	  608.00	  632.50	-1818.00	  515.95
     17.7700	  603.00	  632.33	-1822.83	  515.78
     17.8700	  605.00	  632.43	-1820.93	  515.61
     17.9700	  603.00	  632.26	-1822.76	  515.44
     18.0700	  614.00	  632.08	-1811.58	  515.25
     18.1700	  615.00	  631.90	-1810.40	  515.07
     18.2700	  647.00	  631.72	-1778.22	  514.88
     18.3700	  625.00	  631.53	-1800.03	  514.68
     18.4700	  618.00	  631.34	-1806.84	  514.48
     18.5700	  639.00	  631.14	-1785.64	  514.27
     18.6700	  601.00	  630.94	-1823.44	  514.06
     18.7700	  627.00	  630.74	-1797.24	  513.84
     18.8700	  581.00	  630.53	-1843.03	  513.62
     18.9700	  599.00	  630.32	-1824.82	  513.40
     19.0700	  568.00	  630.10	-1855.60	  513.17
     19.1700	  623.00	  629.88	-1800.38	  512.93
     19.2700	  605.00	  629.71	-1818.21	  512.69
     19.3700	  585.00	  629.49	-1837.99	  512.45
     19.4700	  597.00	  629.26	-1825.76	  512.20
     19.5700	  613.00	  629.03	-1809.53	  511.94
     19.6700	  562.00	  628.79	-1860.29	  511.69
     19.7700	  635.00	  628.55	-1787.05	  511.42
     19.8700	  602.00	  628.31	-1819.81	  511.16
     19.9700	  628.00	  628.07	-1793.57	  510.89
     20.0700	  614.00	  627.82	-1807.32	  510.61
     20.1700	  629.00	  627.57	-1792.07	  510.33
     20.2700	  618.00	  627.32	-1802.82	  510.05
     20.3700	  611.00	  627.07	-1809.57	  509.76
     20.4700	  573.00	  626.81	-1847.31	  509.47
     20.5700	  582.00	  626.55	-1838.05	  509.18
     20.6700	  586.00	  626.29	-1833.79	  508.88
     20.7700	  651.00	  626.03	-1768.53	  508.58
     20.8700	  579.00	  625.76	-1840.26	  508.27
     20.9700	  592.00	  625.50	-1827.00	  507.96
     21.0700	  642.00	  625.23	-1776.73	  507.65
     21.1700	  591.00	  624.97	-1827.47	  507.33
     21.2700	  625.00	  624.70	-1793.20	  507.01
     21.3700	  628.00	  624.43	-1789.93	  506.69
     21.4700	  591.00	  624.16	-1826.66	  506.36
     21.5700	  604.00	  623.89	-1813.39	  506.03
     21.6700	  601.00	  623.80	-1816.30	  505.70
     21.7700	  620.00	  623.54	-1797.04	  505.36
     21.8700	  615.00	  623.27	-1801.77	  505.02
     21.9700	  598.00	  623.02	-1818.52	  504.68
     22.0700	  583.00	  622.76	-1833.26	  504.33
     22.1700	  659.00	  622.51	-1757.01	  503.99
     22.2700	  632.00	  622.26	-1783.76	  503.63
     22.3700	  641.00	  622.02	-1774.52	  503.28
     22.4700	  600.00	  621.78	-1815.28	  502.92
     22.5700	  592.00	  621.56	-1823.06	  502.56
     22.6700	  625.00	  621.34	-1789.84	  502.20
     22.7700	  617.00	  621.13	-1797.63	  501.83
     22.8700	  606.00	  620.94	-1808.44	  501.46
     22.9700	  616.00	  620.77	-1798.27	  501.09
     23.0700	  615.00	  620.62	-1799.12	  500.71
     23.1700	  599.00	  620.49	-1814.99	  500.34
     23.2700	  672.00	  620.40	-1741.90	  499.96
     23.3700	  637.00	  620.35	-1776.85	  499.57
     23.4700	  659.00	  620.35	-1754.85	  499.19
     23.5700	  677.00	  620.42	-1736.92	  498.80
     23.6700	  602.00	  620.59	-1812.09	  498.41
     23.7700	  633.00	  620.90	-1781.40	  498.02
     23.8700	  615.00	  621.41	-1799.91	  497.63
     23.9700	  630.00	  622.27	-1785.77	  497.23
     24.0700	  629.00	  623.64	-1788.14	  496.83
     24.1700	  622.00	  625.82	-1797.32	  496.43
     24.2700	  583.00	  629.17	-1839.67	  496.03
     24.3700	  647.00	  634.23	-1780.73	  495.63
     24.4700	  655.00	  641.28	-1779.78	  495.22
     24.5700	  663.00	  650.28	-1780.78	  494.81
     24.6700	  708.00	  660.62	-1746.12	  494.40
     24.7700	  690.00	  670.68	-1774.18	  493.99
     24.8700	  768.00	  677.58	-1703.08	  493.57
     24.9700	  727.00	  677.64	-1744.14	  493.16
     25.0700	  692.00	  669.61	-1771.11	  492.74
     25.1700	  693.00	  657.14	-1757.64	  492.32
     25.2700	  705.00	  645.02	-1733.52	  491.90
     25.3700	  699.00	  635.53	-1730.03	  491.48
     25.4700	  678.00	  628.95	-1744.45	  491.05
     25.5700	  622.00	  624.75	-1796.25	  490.63
     25.6700	  642.00	  622.19	-1773.69	  490.20
     25.7700	  626.00	  620.68	-1788.18	  489.77
     25.8700	  670.00	  619.81	-1743.31	  489.34
     25.9700	  671.00	  619.34	-1741.84	  488.91
     26.0700	  674.00	  619.17	-1738.67	  488.48
     26.1700	  658.00	  619.23	-1754.73	  488.04
     26.2700	  657.00	  619.52	-1756.02	  487.61
     26.3700	  677.00	  620.03	-1736.53	  487.17
     26.4700	  678.00	  620.77	-1736.27	  486.73
     26.5700	  627.00	  621.78	-1788.28	  486.29
     26.6700	  675.00	  623.10	-1741.60	  485.85
     26.7700	  725.00	  624.78	-1693.28	  485.41
     26.8700	  674.00	  626.91	-1746.41	  484.97
     26.9700	  776.00	  629.61	-1647.11	  484.52
     27.0700	  711.00	  633.04	-1715.54	  484.08
     27.1700	  698.00	  637.46	-1732.96	  483.64
     27.2700	  727.00	  643.28	-1709.78	  483.19
     27.3700	  758.00	  651.25	-1686.75	  482.74
     27.4700	  724.00	  662.85	-1732.35	  482.29
     27.5700	  688.00	  680.80	-1786.30	  481.85
     27.6700	  723.00	  709.92	-1780.42	  481.40
     27.7700	  775.00	  757.77	-1776.27	  480.95
     27.8700	  842.00	  834.14	-1785.64	  480.49
     27.9700	  896.00	  947.66	-1845.16	  480.04
     28.0700	 1052.00	 1099.41	-1840.91	  479.59
     28.1700	 1198.00	 1274.89	-1870.39	  479.14
     28.2700	 1461.00	 1436.90	-1769.40	  478.68
     28.3700	 1562.00	 1525.73	-1757.23	  478.23
     28.4700	 1554.00	 1493.39	-1732.89	  477.78
     28.5700	 1427.00	 1376.16	-1742.66	  477.32
     28.6700	 1196.00	 1269.29	-1866.79	  476.86
     28.7700	 1030.00	 1228.50	-1992.00	  476.41
     28.8700	 1196.00	 1253.21	-1850.71	  475.95
     28.9700	 1268.00	 1304.66	-1830.16	  475.50
     29.0700	 1288.00	 1322.12	-1827.62	  475.04
     29.1700	 1232.00	 1255.31	-1816.81	  474.58
     29.2700	 1160.00	 1116.87	-1750.37	  474.13
     29.3700	 1042.00	  966.36	-1717.86	  473.67
     29.4700	  938.00	  843.90	-1699.40	  473.21
     29.5700	  870.00	  759.18	-1682.68	  472.75
     29.6700	  833.00	  706.46	-1666.96	  472.29
     29.7700	  724.00	  675.45	-1744.95	  471.84
     29.8700	  772.00	  657.09	-1678.59	  471.38
     29.9700	  744.00	  645.61	-1695.11	  470.92
     30.0700	  774.00	  638.02	-1657.52	  470.46
     30.1700	  723.00	  633.03	-1703.53	  470.00
     30.2700	  681.00	  630.32	-1742.82	  469.54
     30.3700	  682.00	  630.16	-1741.66	  469.09
     30.4700	  648.00	  633.36	-1778.86	  468.63
     30.5700	  652.00	  641.12	-1782.62	  468.17
     30.6700	  717.00	  654.58	-1731.08	  467.71
     30.7700	  693.00	  673.81	-1774.31	  467.25
     30.8700	  751.00	  696.69	-1739.19	  466.80
     30.9700	  754.00	  717.99	-1757.49	  466.34
     31.0700	  684.00	  729.36	-1838.86	  465.88
     31.1700	  689.00	  722.82	-1827.32	  465.43
     31.2700	  707.00	  699.69	-1786.19	  464.97
     31.3700	  660.00	  670.87	-1804.37	  464.52
     31.4700	  658.00	  645.44	-1780.94	  464.06
     31.5700	  645.00	  626.60	-1775.10	  463.60
     31.6700	  646.00	  614.12	-1761.62	  463.15
     31.7700	  617.00	  606.37	-1782.87	  462.70
     31.8700	  669.00	  601.64	-1726.14	  462.24
     31.9700	  628.00	  598.63	-1764.13	  461.79
     32.0700	  620.00	  596.60	-1770.10	  461.34
     32.1700	  598.00	  595.16	-1790.66	  460.88
     32.2700	  595.00	  594.13	-1792.63	  460.43
     32.3700	  600.00	  593.43	-1786.93	  459.98
     32.4700	  624.00	  593.06	-1762.56	  459.53
     32.5700	  629.00	  592.96	-1757.46	  459.08
     32.6700	  561.00	  593.16	-1825.66	  458.63
     32.7700	  575.00	  593.70	-1812.20	  458.18
     32.8700	  619.00	  594.65	-1769.15	  457.74
     32.9700	  605.00	  596.11	-1784.61	  457.29
     33.0700	  643.00	  598.26	-1748.76	  456.84
     33.1700	  620.00	  601.40	-1774.90	  456.40
     33.2700	  592.00	  606.13	-1807.63	  455.95
     33.3700	  623.00	  613.54	-1784.04	  455.51
     33.4700	  650.00	  625.62	-1769.12	  455.07
     33.5700	  665.00	  645.48	-1773.98	  454.62
     33.6700	  644.00	  677.33	-1826.83	  454.18
     33.7700	  698.00	  725.41	-1820.91	  453.74
     33.8700	  746.00	  791.41	-1838.91	  453.30
     33.9700	  920.00	  870.74	-1744.24	  452.86
     34.0700	 1026.00	  949.31	-1716.81	  452.43
     34.1700	 1061.00	 1002.79	-1735.29	  451.99
     34.2700	 1147.00	 1004.41	-1650.91	  451.55
     34.3700	 1063.00	  948.71	-1679.21	  451.12
     34.4700	  921.00	  862.76	-1735.26	  450.69
     34.5700	  725.00	  778.17	-1846.67	  450.25
     34.6700	  722.00	  710.57	-1782.07	  449.82
     34.7700	  630.00	  662.93	-1826.43	  449.39
     34.8700	  647.00	  632.15	-1778.65	  448.96
     34.9700	  602.00	  613.17	-1804.67	  448.54
     35.0700	  601.00	  601.44	-1793.94	  448.11
     35.1700	  622.00	  593.81	-1765.31	  447.68
     35.2700	  581.00	  588.44	-1800.94	  447.26
     35.3700	  605.00	  584.38	-1772.88	  446.84
     35.4700	  555.00	  581.15	-1819.65	  446.41
     35.5700	  588.00	  578.50	-1784.00	  445.99
     35.6700	  534.00	  576.76	-1836.26	  445.57
     35.7700	  550.00	  574.87	-1818.37	  445.16
     35.8700	  545.00	  573.24	-1821.74	  444.74
     35.9700	  574.00	  571.82	-1791.32	  444.32
     36.0700	  558.00	  570.56	-1806.06	  443.91
     36.1700	  537.00	  569.45	-1825.95	  443.50
     36.2700	  578.00	  568.46	-1783.96	  443.08
     36.3700	  537.00	  567.57	-1824.07	  442.67
     36.4700	  496.00	  566.78	-1864.28	  442.27
     36.5700	  575.00	  566.07	-1784.57	  441.86
     36.6700	  551.00	  565.66	-1808.16	  441.45
     36.7700	  502.00	  565.13	-1856.63	  441.05
     36.8700	  528.00	  564.72	-1830.22	  440.65
     36.9700	  495.00	  564.43	-1862.93	  440.24
     37.0700	  591.00	  564.35	-1766.85	  439.84
     37.1700	  536.00	  564.54	-1822.04	  439.45
     37.2700	  540.00	  565.14	-1818.64	  439.05
     37.3700	  569.00	  566.39	-1790.89	  438.65
     37.4700	  598.00	  568.47	-1763.97	  438.26
     37.5700	  548.00	  571.58	-1817.08	  437.87
     37.6700	  582.00	  575.76	-1787.26	  437.48
     37.7700	  575.00	  580.73	-1799.23	  437.09
     37.8700	  568.00	  585.82	-1811.32	  436.70
     37.9700	  578.00	  590.06	-1805.56	  436.31
     38.0700	  560.00	  592.61	-1826.11	  435.93
     38.1700	  558.00	  592.91	-1828.41	  435.55
     38.2700	  560.00	  590.14	-1823.64	  435.17
     38.3700	  540.00	  584.49	-1837.99	  434.79
     38.4700	  631.00	  577.46	-1739.96	  434.41
     38.5700	  505.00	  570.80	-1859.30	  434.03
     38.6700	  555.00	  565.35	-1803.85	  433.66
     38.7700	  554.00	  561.30	-1800.80	  433.28
     38.8700	  540.00	  558.45	-1811.95	  432.91
     38.9700	  537.00	  556.49	-1812.99	  432.54
     39.0700	  537.00	  555.11	-1811.61	  432.18
     39.1700	  559.00	  554.09	-1788.59	  431.81
     39.2700	  541.00	  553.27	-1805.77	  431.45
     39.3700	  510.00	  552.27	-1835.77	  431.08
     39.4700	  537.00	  551.68	-1808.18	  430.72
     39.5700	  551.00	  551.14	-1793.64	  430.37
     39.6700	  532.00	  550.64	-1812.14	  430.01
     39.7700	  556.00	  550.19	-1787.69	  429.65
     39.8700	  547.00	  550.33	-1796.83	  429.30
     39.9700	  549.00	  549.95	-1794.45	  428.95
     40.0700	  496.00	  549.58	-1847.08	  428.60
     40.1700	  561.00	  549.24	-1781.74	  428.25
     40.2700	  579.00	  548.93	-1763.43	  427.91
     40.3700	  494.00	  548.63	-1848.13	  427.56
     40.4700	  572.00	  548.11	-1769.61	  427.22
     40.5700	  543.00	  547.87	-1798.37	  426.88
     40.6700	  545.00	  547.65	-1796.15	  426.54
     40.7700	  521.00	  547.46	-1819.96	  426.20
