MSG Master    CELL:    5.92027   5.92027  23.28826   90.0000   90.0000  120.0000   SPGR: P 63/m m c             TEMP:   1074.85
  1   1280     2.52000     0.00000    -0.11940     0.00000     0.00000    0
    99     0     2
       0.00000      10.00000
     125.00000     130.00000
 2Theta	Yobs	Ycal	Yobs-Ycal	Backg	Posr	(hkl)	K
      0.7700	    0.00	  539.65	-1720.50	  419.41
      0.8700	    0.00	  540.44	-1720.50	  420.21
      0.9700	   33.00	  541.23	-1720.50	  421.00
      1.0700	   47.00	  542.01	-1720.50	  421.77
      1.1700	   62.00	  542.77	-1720.50	  422.54
      1.2700	   43.00	  543.53	-1720.50	  423.29
      1.3700	   40.00	  544.27	-1720.50	  424.03
      1.4700	   81.00	  545.00	-1720.50	  424.76
      1.5700	  327.00	  545.72	-1720.50	  425.48
      1.6700	  472.00	  546.43	-1720.50	  426.19
      1.7700	  516.00	  547.13	-1720.50	  426.89
      1.8700	  636.00	  547.81	-1720.50	  427.58
      1.9700	  668.00	  548.49	-1720.50	  428.25
      2.0700	  772.00	  549.15	-1720.50	  428.92
      2.1700	  751.00	  549.81	-1720.50	  429.57
      2.2700	  730.00	  550.45	-1720.50	  430.22
      2.3700	  763.00	  551.09	-1720.50	  430.85
      2.4700	  746.00	  551.71	-1720.50	  431.47
      2.5700	  660.00	  552.32	-1720.50	  432.09
      2.6700	  682.00	  552.93	-1720.50	  432.69
      2.7700	  634.00	  553.52	-1720.50	  433.28
      2.8700	  618.00	  554.10	-1720.50	  433.87
      2.9700	  598.00	  554.67	-1720.50	  434.44
      3.0700	  579.00	  555.24	-1720.50	  435.00
      3.1700	  611.00	  555.79	-1720.50	  435.55
      3.2700	  629.00	  556.33	-1720.50	  436.10
      3.3700	  644.00	  556.86	-1720.50	  436.63
      3.4700	  797.00	  557.39	-1720.50	  437.15
      3.5700	  831.00	  557.90	-1720.50	  437.67
      3.6700	  825.00	  558.41	-1720.50	  438.17
      3.7700	  909.00	  558.90	-1720.50	  438.66
      3.8700	  971.00	  559.39	-1720.50	  439.15
      3.9700	 1090.00	  559.86	-1720.50	  439.63
      4.0700	 1092.00	  560.33	-1720.50	  440.09
      4.1700	 1051.00	  560.78	-1720.50	  440.55
      4.2700	 1126.00	  561.23	-1720.50	  441.00
      4.3700	 1123.00	  561.67	-1720.50	  441.44
      4.4700	 1143.00	  562.10	-1720.50	  441.87
      4.5700	 1049.00	  562.52	-1720.50	  442.29
      4.6700	 1022.00	  562.94	-1720.50	  442.70
      4.7700	 1020.00	  563.34	-1720.50	  443.10
      4.8700	  949.00	  563.73	-1720.50	  443.50
      4.9700	  941.00	  564.12	-1720.50	  443.88
      5.0700	  924.00	  564.50	-1720.50	  444.26
      5.1700	  941.00	  564.87	-1720.50	  444.63
      5.2700	  952.00	  565.23	-1720.50	  444.99
      5.3700	  895.00	  565.58	-1720.50	  445.34
      5.4700	  855.00	  565.92	-1720.50	  445.69
      5.5700	  822.00	  566.26	-1720.50	  446.02
      5.6700	  838.00	  566.59	-1720.50	  446.35
      5.7700	  819.00	  566.90	-1720.50	  446.67
      5.8700	  837.00	  567.22	-1720.50	  446.98
      5.9700	  786.00	  567.52	-1720.50	  447.28
      6.0700	  784.00	  567.81	-1720.50	  447.58
      6.1700	  750.00	  568.10	-1720.50	  447.86
      6.2700	  792.00	  568.38	-1720.50	  448.14
      6.3700	  757.00	  568.65	-1720.50	  448.42
      6.4700	  814.00	  568.91	-1720.50	  448.68
      6.5700	  713.00	  569.17	-1720.50	  448.94
      6.6700	  736.00	  569.42	-1720.50	  449.18
      6.7700	  680.00	  569.66	-1720.50	  449.42
      6.8700	  767.00	  569.89	-1720.50	  449.66
      6.9700	  690.00	  570.12	-1720.50	  449.88
      7.0700	  703.00	  570.34	-1720.50	  450.10
      7.1700	  650.00	  570.55	-1720.50	  450.31
      7.2700	  706.00	  570.75	-1720.50	  450.52
      7.3700	  680.00	  570.95	-1720.50	  450.72
      7.4700	  625.00	  571.14	-1720.50	  450.91
      7.5700	  668.00	  571.33	-1720.50	  451.09
      7.6700	  662.00	  571.50	-1720.50	  451.27
      7.7700	  635.00	  571.67	-1720.50	  451.43
      7.8700	  661.00	  571.83	-1720.50	  451.60
      7.9700	  643.00	  571.99	-1720.50	  451.75
      8.0700	  618.00	  572.14	-1720.50	  451.90
      8.1700	  687.00	  572.28	-1720.50	  452.04
      8.2700	  635.00	  572.41	-1720.50	  452.18
      8.3700	  672.00	  572.54	-1720.50	  452.31
      8.4700	  642.00	  572.67	-1720.50	  452.43
      8.5700	  603.00	  572.78	-1720.50	  452.55
      8.6700	  610.00	  572.89	-1720.50	  452.66
      8.7700	  603.00	  572.99	-1720.50	  452.76
      8.8700	  639.00	  573.09	-1720.50	  452.86
      8.9700	  603.00	  573.18	-1720.50	  452.95
      9.0700	  604.00	  573.27	-1720.50	  453.03
      9.1700	  604.00	  573.35	-1720.50	  453.11
      9.2700	  597.00	  573.42	-1720.50	  453.18
      9.3700	  621.00	  573.48	-1720.50	  453.25
      9.4700	  639.00	  573.54	-1720.50	  453.31
      9.5700	  611.00	  573.60	-1720.50	  453.36
      9.6700	  568.00	  573.65	-1720.50	  453.41
      9.7700	  585.00	  573.69	-1720.50	  453.45
      9.8700	  607.00	  573.73	-1720.50	  453.49
      9.9700	  571.00	  573.76	-1720.50	  453.52
     10.0700	  658.00	  574.93	-1637.43	  453.55
     10.1700	  563.00	  575.08	-1732.58	  453.57
     10.2700	  562.00	  575.26	-1733.76	  453.58
     10.3700	  563.00	  575.48	-1732.98	  453.59
     10.4700	  546.00	  575.78	-1750.28	  453.60
     10.5700	  597.00	  576.22	-1699.72	  453.60
     10.6700	  592.00	  576.90	-1705.40	  453.59
     10.7700	  576.00	  577.92	-1722.42	  453.58
     10.8700	  595.00	  579.35	-1704.85	  453.56
     10.9700	  633.00	  581.21	-1668.71	  453.54
     11.0700	  577.00	  583.45	-1726.95	  453.51
     11.1700	  564.00	  586.10	-1742.60	  453.48
     11.2700	  580.00	  589.18	-1729.68	  453.44
     11.3700	  603.00	  592.80	-1710.30	  453.40
     11.4700	  592.00	  597.09	-1725.59	  453.35
     11.5700	  643.00	  602.29	-1679.79	  453.30
     11.6700	  627.00	  608.78	-1702.28	  453.24
     11.7700	  628.00	  617.18	-1709.68	  453.18
     11.8700	  648.00	  628.17	-1700.67	  453.12
     11.9700	  676.00	  641.80	-1686.30	  453.04
     12.0700	  656.00	  655.96	-1720.46	  452.97
     12.1700	  680.00	  664.97	-1705.47	  452.89
     12.2700	  742.00	  660.71	-1639.21	  452.80
     12.3700	  656.00	  641.24	-1705.74	  452.72
     12.4700	  628.00	  617.38	-1709.88	  452.62
     12.5700	  573.00	  598.85	-1746.35	  452.52
     12.6700	  620.00	  587.61	-1688.11	  452.42
     12.7700	  588.00	  581.74	-1714.24	  452.32
     12.8700	  567.00	  578.78	-1732.28	  452.21
     12.9700	  554.00	  577.14	-1743.64	  452.09
     13.0700	  597.00	  576.05	-1699.55	  451.97
     13.1700	  587.00	  575.26	-1708.76	  451.85
     13.2700	  568.00	  574.62	-1727.12	  451.72
     13.3700	  489.00	  574.11	-1805.61	  451.59
     13.4700	  576.00	  573.67	-1718.17	  451.46
     13.5700	  555.00	  573.28	-1738.78	  451.32
     13.6700	  541.00	  572.94	-1752.44	  451.18
     13.7700	  540.00	  572.63	-1753.13	  451.03
     13.8700	  570.00	  572.35	-1722.85	  450.88
     13.9700	  549.00	  572.08	-1743.58	  450.73
     14.0700	  577.00	  571.82	-1715.32	  450.57
     14.1700	  572.00	  571.58	-1720.08	  450.41
     14.2700	  601.00	  571.34	-1690.84	  450.24
     14.3700	  549.00	  571.11	-1742.61	  450.07
     14.4700	  526.00	  570.89	-1765.39	  449.90
     14.5700	  583.00	  570.66	-1708.16	  449.73
     14.6700	  585.00	  570.44	-1705.94	  449.55
     14.7700	  544.00	  570.22	-1746.72	  449.37
     14.8700	  582.00	  570.00	-1708.50	  449.18
     14.9700	  568.00	  569.78	-1722.28	  448.99
     15.0700	  516.00	  569.56	-1774.06	  448.80
     15.1700	  568.00	  569.34	-1721.84	  448.61
     15.2700	  532.00	  569.15	-1757.65	  448.41
     15.3700	  537.00	  568.93	-1752.43	  448.21
     15.4700	  589.00	  568.71	-1700.21	  448.01
     15.5700	  566.00	  568.49	-1722.99	  447.80
     15.6700	  560.00	  568.26	-1728.76	  447.59
     15.7700	  565.00	  568.04	-1723.54	  447.38
     15.8700	  573.00	  567.81	-1715.31	  447.16
     15.9700	  590.00	  567.58	-1698.08	  446.94
     16.0700	  548.00	  567.35	-1739.85	  446.72
     16.1700	  537.00	  567.11	-1750.61	  446.50
     16.2700	  581.00	  566.88	-1706.38	  446.27
     16.3700	  541.00	  566.64	-1746.14	  446.04
     16.4700	  570.00	  566.40	-1716.90	  445.81
     16.5700	  582.00	  566.16	-1704.66	  445.57
     16.6700	  546.00	  565.91	-1740.41	  445.34
     16.7700	  628.00	  565.67	-1658.17	  445.10
     16.8700	  541.00	  565.42	-1744.92	  444.85
     16.9700	  562.00	  565.17	-1723.67	  444.61
     17.0700	  608.00	  564.92	-1677.42	  444.36
     17.1700	  547.00	  564.66	-1738.16	  444.11
     17.2700	  558.00	  564.41	-1726.91	  443.86
     17.3700	  546.00	  564.15	-1738.65	  443.60
     17.4700	  574.00	  563.89	-1710.39	  443.35
     17.5700	  503.00	  563.63	-1781.13	  443.09
     17.6700	  571.00	  563.37	-1712.87	  442.83
     17.7700	  535.00	  563.10	-1748.60	  442.57
     17.8700	  552.00	  562.83	-1731.33	  442.30
     17.9700	  517.00	  562.57	-1766.07	  442.03
     18.0700	  574.00	  562.29	-1708.79	  441.76
     18.1700	  558.00	  562.13	-1724.63	  441.49
     18.2700	  560.00	  561.86	-1722.36	  441.22
     18.3700	  581.00	  561.59	-1701.09	  440.94
     18.4700	  593.00	  561.31	-1688.81	  440.67
     18.5700	  531.00	  561.03	-1750.53	  440.39
     18.6700	  578.00	  560.76	-1703.26	  440.11
     18.7700	  529.00	  560.48	-1751.98	  439.82
     18.8700	  583.00	  560.28	-1697.78	  439.54
     18.9700	  559.00	  560.00	-1721.50	  439.25
     19.0700	  507.00	  559.72	-1773.22	  438.96
     19.1700	  581.00	  559.43	-1698.93	  438.68
     19.2700	  564.00	  559.15	-1715.65	  438.38
     19.3700	  532.00	  558.86	-1747.36	  438.09
     19.4700	  544.00	  558.57	-1735.07	  437.80
     19.5700	  589.00	  558.29	-1689.79	  437.50
     19.6700	  592.00	  558.00	-1686.50	  437.20
     19.7700	  557.00	  557.71	-1721.21	  436.90
     19.8700	  557.00	  557.42	-1720.92	  436.60
     19.9700	  541.00	  557.12	-1736.62	  436.30
     20.0700	  575.00	  556.83	-1702.33	  436.00
     20.1700	  565.00	  556.54	-1712.04	  435.70
     20.2700	  607.00	  556.24	-1669.74	  435.39
     20.3700	  533.00	  555.95	-1743.45	  435.08
     20.4700	  541.00	  555.65	-1735.15	  434.78
     20.5700	  547.00	  555.36	-1728.86	  434.47
     20.6700	  560.00	  555.10	-1715.60	  434.16
     20.7700	  572.00	  554.80	-1703.30	  433.84
     20.8700	  555.00	  554.51	-1720.01	  433.53
     20.9700	  519.00	  554.21	-1755.71	  433.22
     21.0700	  558.00	  553.92	-1716.42	  432.90
     21.1700	  551.00	  553.62	-1723.12	  432.59
     21.2700	  518.00	  553.33	-1755.83	  432.27
     21.3700	  556.00	  553.04	-1717.54	  431.95
     21.4700	  569.00	  552.70	-1704.20	  431.63
     21.5700	  569.00	  552.41	-1703.91	  431.31
     21.6700	  523.00	  552.12	-1749.62	  430.99
     21.7700	  556.00	  551.83	-1716.33	  430.67
     21.8700	  534.00	  551.55	-1738.05	  430.35
     21.9700	  559.00	  551.26	-1712.76	  430.03
     22.0700	  552.00	  550.98	-1719.48	  429.70
     22.1700	  525.00	  550.70	-1746.20	  429.38
     22.2700	  551.00	  550.43	-1719.93	  429.05
     22.3700	  584.00	  550.16	-1686.66	  428.73
     22.4700	  526.00	  549.89	-1744.39	  428.40
     22.5700	  574.00	  549.63	-1696.13	  428.07
     22.6700	  525.00	  549.38	-1744.88	  427.75
     22.7700	  556.00	  549.14	-1713.64	  427.42
     22.8700	  597.00	  548.91	-1672.41	  427.09
     22.9700	  544.00	  548.69	-1725.19	  426.76
     23.0700	  579.00	  548.49	-1689.99	  426.43
     23.1700	  526.00	  548.31	-1742.81	  426.10
     23.2700	  545.00	  548.15	-1723.65	  425.77
     23.3700	  588.00	  548.18	-1680.68	  425.44
     23.4700	  514.00	  548.12	-1754.62	  425.11
     23.5700	  530.00	  548.11	-1738.61	  424.78
     23.6700	  586.00	  548.20	-1682.70	  424.44
     23.7700	  562.00	  548.45	-1706.95	  424.11
     23.8700	  586.00	  548.99	-1683.49	  423.78
     23.9700	  577.00	  550.05	-1693.55	  423.45
     24.0700	  542.00	  552.06	-1730.56	  423.11
     24.1700	  621.00	  555.64	-1655.14	  422.78
     24.2700	  566.00	  561.55	-1716.05	  422.45
     24.3700	  572.00	  570.58	-1719.08	  422.11
     24.4700	  604.00	  583.27	-1699.77	  421.78
     24.5700	  591.00	  599.08	-1728.58	  421.44
     24.6700	  657.00	  614.95	-1678.45	  421.11
     24.7700	  643.00	  624.44	-1701.94	  420.78
     24.8700	  567.00	  619.96	-1773.46	  420.44
     24.9700	  580.00	  601.99	-1742.49	  420.11
     25.0700	  560.00	  581.05	-1741.55	  419.78
     25.1700	  547.00	  564.83	-1738.33	  419.44
     25.2700	  553.00	  554.81	-1722.31	  419.11
     25.3700	  573.00	  549.44	-1696.94	  418.77
     25.4700	  553.00	  546.69	-1714.19	  418.44
     25.5700	  557.00	  545.16	-1708.66	  418.11
     25.6700	  568.00	  544.18	-1696.68	  417.77
     25.7700	  563.00	  543.47	-1700.97	  417.44
     25.8700	  530.00	  542.93	-1733.43	  417.11
     25.9700	  524.00	  542.53	-1739.03	  416.77
     26.0700	  532.00	  542.23	-1730.73	  416.44
     26.1700	  573.00	  542.02	-1689.52	  416.11
     26.2700	  573.00	  541.89	-1689.39	  415.78
     26.3700	  554.00	  541.86	-1708.36	  415.44
     26.4700	  564.00	  541.92	-1698.42	  415.11
     26.5700	  521.00	  542.07	-1741.57	  414.78
     26.6700	  545.00	  542.35	-1717.85	  414.45
     26.7700	  508.00	  542.78	-1755.28	  414.12
     26.8700	  561.00	  543.38	-1702.88	  413.79
     26.9700	  521.00	  544.22	-1743.72	  413.46
     27.0700	  535.00	  545.38	-1730.88	  413.13
     27.1700	  565.00	  546.98	-1702.48	  412.80
     27.2700	  520.00	  549.29	-1749.79	  412.48
     27.3700	  579.00	  552.85	-1694.35	  412.15
     27.4700	  595.00	  558.70	-1684.20	  411.82
     27.5700	  555.00	  568.75	-1734.25	  411.49
     27.6700	  553.00	  586.09	-1753.59	  411.17
     27.7700	  582.00	  614.78	-1753.28	  410.84
     27.8700	  605.00	  658.48	-1773.98	  410.52
     27.9700	  755.00	  717.70	-1683.20	  410.19
     28.0700	  813.00	  785.85	-1693.35	  409.87
     28.1700	  901.00	  845.72	-1665.22	  409.55
     28.2700	  965.00	  870.93	-1626.43	  409.23
     28.3700	  936.00	  845.23	-1629.73	  408.90
     28.4700	  803.00	  792.42	-1709.92	  408.58
     28.5700	  739.00	  752.90	-1734.40	  408.26
     28.6700	  694.00	  745.19	-1771.69	  407.94
     28.7700	  751.00	  764.60	-1734.10	  407.62
     28.8700	  820.00	  790.56	-1691.06	  407.31
     28.9700	  808.00	  794.62	-1707.12	  406.99
     29.0700	  771.00	  758.74	-1708.24	  406.67
     29.1700	  693.00	  697.61	-1725.11	  406.36
     29.2700	  622.00	  639.09	-1737.59	  406.04
     29.3700	  648.00	  596.63	-1669.13	  405.73
     29.4700	  629.00	  570.77	-1662.27	  405.42
     29.5700	  583.00	  556.69	-1694.19	  405.10
     29.6700	  584.00	  549.21	-1685.71	  404.79
     29.7700	  542.00	  544.98	-1723.48	  404.48
     29.8700	  594.00	  542.37	-1668.87	  404.17
     29.9700	  563.00	  540.74	-1698.24	  403.87
     30.0700	  605.00	  539.96	-1655.46	  403.56
     30.1700	  561.00	  540.20	-1699.70	  403.25
     30.2700	  543.00	  542.01	-1719.51	  402.95
     30.3700	  590.00	  546.42	-1676.92	  402.64
     30.4700	  550.00	  554.99	-1725.49	  402.34
     30.5700	  550.00	  569.17	-1739.67	  402.04
     30.6700	  602.00	  589.22	-1707.72	  401.74
     30.7700	  583.00	  612.52	-1750.02	  401.44
     30.8700	  622.00	  632.46	-1730.96	  401.14
     30.9700	  647.00	  639.18	-1712.68	  400.84
     31.0700	  550.00	  626.16	-1796.66	  400.54
     31.1700	  572.00	  600.11	-1748.61	  400.25
     31.2700	  605.00	  573.85	-1689.35	  399.95
     31.3700	  550.00	  554.16	-1724.66	  399.66
     31.4700	  573.00	  541.89	-1689.39	  399.36
     31.5700	  535.00	  535.13	-1720.63	  399.07
     31.6700	  541.00	  531.57	-1711.07	  398.78
     31.7700	  551.00	  529.59	-1699.09	  398.49
     31.8700	  516.00	  528.36	-1732.86	  398.21
     31.9700	  513.00	  527.53	-1735.03	  397.92
     32.0700	  554.00	  526.96	-1693.46	  397.64
     32.1700	  584.00	  526.59	-1663.09	  397.35
     32.2700	  547.00	  526.41	-1699.91	  397.07
     32.3700	  577.00	  526.39	-1669.89	  396.79
     32.4700	  499.00	  526.56	-1748.06	  396.51
     32.5700	  527.00	  526.93	-1720.43	  396.23
     32.6700	  550.00	  527.53	-1698.03	  395.95
     32.7700	  559.00	  528.41	-1689.91	  395.68
     32.8700	  555.00	  529.68	-1695.18	  395.40
     32.9700	  576.00	  531.46	-1675.96	  395.13
     33.0700	  527.00	  534.02	-1727.52	  394.85
     33.1700	  520.00	  537.95	-1738.45	  394.58
     33.2700	  513.00	  544.48	-1751.98	  394.31
     33.3700	  513.00	  556.15	-1763.65	  394.05
     33.4700	  564.00	  577.55	-1734.05	  393.78
     33.5700	  627.00	  615.48	-1708.98	  393.51
     33.6700	  667.00	  677.01	-1730.51	  393.25
     33.7700	  792.00	  764.01	-1692.51	  392.99
     33.8700	  924.00	  865.90	-1662.40	  392.73
     33.9700	 1015.00	  955.25	-1660.75	  392.47
     34.0700	 1047.00	  991.67	-1665.17	  392.21
     34.1700	 1013.00	  947.37	-1654.87	  391.95
     34.2700	  884.00	  845.19	-1681.69	  391.70
     34.3700	  758.00	  735.69	-1698.19	  391.44
     34.4700	  651.00	  649.52	-1719.02	  391.19
     34.5700	  540.00	  593.47	-1773.97	  390.94
     34.6700	  529.00	  561.64	-1753.14	  390.69
     34.7700	  529.00	  544.83	-1736.33	  390.44
     34.8700	  562.00	  535.75	-1694.25	  390.20
     34.9700	  482.00	  530.28	-1768.78	  389.95
     35.0700	  503.00	  526.54	-1744.04	  389.71
     35.1700	  535.00	  523.72	-1709.22	  389.47
     35.2700	  529.00	  521.51	-1713.01	  389.23
     35.3700	  528.00	  519.71	-1712.21	  388.99
     35.4700	  460.00	  518.23	-1778.73	  388.75
     35.5700	  502.00	  516.98	-1735.48	  388.52
     35.6700	  529.00	  515.91	-1707.41	  388.28
     35.7700	  555.00	  514.98	-1680.48	  388.05
     35.8700	  536.00	  514.18	-1698.68	  387.82
     35.9700	  493.00	  513.46	-1740.96	  387.59
     36.0700	  496.00	  512.83	-1737.33	  387.37
     36.1700	  536.00	  512.72	-1697.22	  387.14
     36.2700	  510.00	  512.22	-1722.72	  386.92
     36.3700	  513.00	  511.77	-1719.27	  386.69
     36.4700	  517.00	  511.38	-1714.88	  386.47
     36.5700	  528.00	  511.03	-1703.53	  386.25
     36.6700	  510.00	  510.75	-1721.25	  386.04
     36.7700	  489.00	  510.54	-1742.04	  385.82
     36.8700	  554.00	  510.44	-1676.94	  385.61
     36.9700	  497.00	  510.56	-1734.06	  385.39
     37.0700	  537.00	  511.08	-1694.58	  385.18
     37.1700	  510.00	  512.28	-1722.78	  384.97
     37.2700	  492.00	  514.51	-1743.01	  384.76
     37.3700	  503.00	  517.97	-1735.47	  384.56
     37.4700	  488.00	  522.43	-1754.93	  384.35
     37.5700	  514.00	  526.91	-1733.41	  384.15
     37.6700	  520.00	  529.79	-1730.29	  383.95
     37.7700	  557.00	  529.50	-1693.00	  383.75
     37.8700	  514.00	  526.15	-1732.65	  383.56
     37.9700	  544.00	  521.51	-1698.01	  383.36
     38.0700	  491.00	  517.03	-1746.53	  383.17
     38.1700	  477.00	  513.29	-1756.79	  382.97
     38.2700	  512.00	  510.45	-1718.95	  382.78
     38.3700	  520.00	  508.48	-1708.98	  382.59
     38.4700	  499.00	  507.16	-1728.66	  382.41
     38.5700	  542.00	  506.18	-1684.68	  382.22
     38.6700	  541.00	  505.59	-1685.09	  382.04
     38.7700	  478.00	  505.16	-1747.66	  381.86
     38.8700	  507.00	  504.97	-1718.47	  381.68
     38.9700	  526.00	  504.68	-1699.18	  381.50
     39.0700	  498.00	  504.43	-1726.93	  381.32
     39.1700	  519.00	  504.20	-1705.70	  381.15
     39.2700	  508.00	  503.91	-1716.41	  380.97
     39.3700	  486.00	  503.71	-1738.21	  380.80
     39.4700	  541.00	  503.53	-1683.03	  380.63
     39.5700	  525.00	  503.37	-1698.87	  380.47
     39.6700	  510.00	  503.21	-1713.71	  380.30
     39.7700	  491.00	  503.07	-1732.57	  380.14
     39.8700	  501.00	  502.93	-1722.43	  379.97
     39.9700	  528.00	  502.81	-1695.31	  379.81
     40.0700	  475.00	  502.70	-1748.20	  379.65
     40.1700	  480.00	  502.60	-1743.10	  379.50
     40.2700	  554.00	  502.52	-1669.02	  379.34
     40.3700	  496.00	  502.44	-1726.94	  379.19
     40.4700	  503.00	  502.39	-1719.89	  379.04
     40.5700	  505.00	  502.35	-1717.85	  378.89
     40.6700	  510.00	  502.33	-1712.83	  378.74
     40.7700	  524.00	  502.33	-1698.83	  378.59
