MSG Master    CELL:    5.91916   5.91916  23.26917   90.0000   90.0000  120.0000   SPGR: P 63/m m c             TEMP:   1074.85
  1   1280     2.52000     0.00000    -0.12735     0.00000     0.00000    0
    99     0     2
       0.00000      10.00000
     125.00000     130.00000
 2Theta	Yobs	Ycal	Yobs-Ycal	Backg	Posr	(hkl)	K
      0.7700	    0.00	  540.39	-1752.50	  422.91
      0.8700	    0.00	  541.16	-1752.50	  423.68
      0.9700	   44.00	  541.91	-1752.50	  424.43
      1.0700	   31.00	  542.66	-1752.50	  425.18
      1.1700	   43.00	  543.39	-1752.50	  425.91
      1.2700	   42.00	  544.11	-1752.50	  426.63
      1.3700	   41.00	  544.82	-1752.50	  427.34
      1.4700	   76.00	  545.52	-1752.50	  428.04
      1.5700	  289.00	  546.21	-1752.50	  428.73
      1.6700	  432.00	  546.89	-1752.50	  429.41
      1.7700	  576.00	  547.56	-1752.50	  430.08
      1.8700	  702.00	  548.22	-1752.50	  430.74
      1.9700	  733.00	  548.86	-1752.50	  431.38
      2.0700	  790.00	  549.50	-1752.50	  432.02
      2.1700	  777.00	  550.13	-1752.50	  432.65
      2.2700	  746.00	  550.74	-1752.50	  433.26
      2.3700	  742.00	  551.35	-1752.50	  433.87
      2.4700	  766.00	  551.94	-1752.50	  434.46
      2.5700	  694.00	  552.53	-1752.50	  435.05
      2.6700	  669.00	  553.10	-1752.50	  435.62
      2.7700	  665.00	  553.67	-1752.50	  436.19
      2.8700	  618.00	  554.22	-1752.50	  436.75
      2.9700	  621.00	  554.77	-1752.50	  437.29
      3.0700	  548.00	  555.31	-1752.50	  437.83
      3.1700	  588.00	  555.83	-1752.50	  438.35
      3.2700	  593.00	  556.35	-1752.50	  438.87
      3.3700	  727.00	  556.86	-1752.50	  439.38
      3.4700	  734.00	  557.35	-1752.50	  439.87
      3.5700	  787.00	  557.84	-1752.50	  440.36
      3.6700	  809.00	  558.32	-1752.50	  440.84
      3.7700	  868.00	  558.79	-1752.50	  441.31
      3.8700	  900.00	  559.25	-1752.50	  441.77
      3.9700	 1048.00	  559.70	-1752.50	  442.22
      4.0700	 1053.00	  560.15	-1752.50	  442.67
      4.1700	 1101.00	  560.58	-1752.50	  443.10
      4.2700	 1143.00	  561.00	-1752.50	  443.53
      4.3700	 1103.00	  561.42	-1752.50	  443.94
      4.4700	 1034.00	  561.83	-1752.50	  444.35
      4.5700	 1067.00	  562.22	-1752.50	  444.75
      4.6700	 1006.00	  562.61	-1752.50	  445.14
      4.7700	  967.00	  563.00	-1752.50	  445.52
      4.8700	  957.00	  563.37	-1752.50	  445.89
      4.9700	  898.00	  563.73	-1752.50	  446.25
      5.0700	  997.00	  564.09	-1752.50	  446.61
      5.1700	  903.00	  564.44	-1752.50	  446.96
      5.2700	  866.00	  564.78	-1752.50	  447.30
      5.3700	  841.00	  565.11	-1752.50	  447.63
      5.4700	  920.00	  565.43	-1752.50	  447.95
      5.5700	  896.00	  565.74	-1752.50	  448.27
      5.6700	  833.00	  566.05	-1752.50	  448.57
      5.7700	  864.00	  566.35	-1752.50	  448.87
      5.8700	  839.00	  566.64	-1752.50	  449.16
      5.9700	  822.00	  566.93	-1752.50	  449.45
      6.0700	  838.00	  567.20	-1752.50	  449.72
      6.1700	  791.00	  567.47	-1752.50	  449.99
      6.2700	  795.00	  567.73	-1752.50	  450.25
      6.3700	  771.00	  567.98	-1752.50	  450.50
      6.4700	  780.00	  568.23	-1752.50	  450.75
      6.5700	  725.00	  568.47	-1752.50	  450.99
      6.6700	  751.00	  568.70	-1752.50	  451.22
      6.7700	  723.00	  568.92	-1752.50	  451.44
      6.8700	  727.00	  569.14	-1752.50	  451.66
      6.9700	  735.00	  569.35	-1752.50	  451.87
      7.0700	  729.00	  569.55	-1752.50	  452.07
      7.1700	  669.00	  569.74	-1752.50	  452.26
      7.2700	  688.00	  569.93	-1752.50	  452.45
      7.3700	  606.00	  570.11	-1752.50	  452.63
      7.4700	  679.00	  570.29	-1752.50	  452.81
      7.5700	  646.00	  570.45	-1752.50	  452.97
      7.6700	  670.00	  570.61	-1752.50	  453.13
      7.7700	  678.00	  570.77	-1752.50	  453.29
      7.8700	  672.00	  570.91	-1752.50	  453.44
      7.9700	  634.00	  571.05	-1752.50	  453.58
      8.0700	  666.00	  571.19	-1752.50	  453.71
      8.1700	  595.00	  571.32	-1752.50	  453.84
      8.2700	  616.00	  571.44	-1752.50	  453.96
      8.3700	  633.00	  571.55	-1752.50	  454.07
      8.4700	  604.00	  571.66	-1752.50	  454.18
      8.5700	  686.00	  571.76	-1752.50	  454.28
      8.6700	  588.00	  571.86	-1752.50	  454.38
      8.7700	  640.00	  571.95	-1752.50	  454.47
      8.8700	  594.00	  572.03	-1752.50	  454.55
      8.9700	  622.00	  572.11	-1752.50	  454.63
      9.0700	  594.00	  572.18	-1752.50	  454.70
      9.1700	  577.00	  572.25	-1752.50	  454.77
      9.2700	  606.00	  572.31	-1752.50	  454.83
      9.3700	  552.00	  572.36	-1752.50	  454.89
      9.4700	  595.00	  572.41	-1752.50	  454.93
      9.5700	  599.00	  572.46	-1752.50	  454.98
      9.6700	  607.00	  572.49	-1752.50	  455.01
      9.7700	  665.00	  572.52	-1752.50	  455.05
      9.8700	  593.00	  572.55	-1752.50	  455.07
      9.9700	  631.00	  572.57	-1752.50	  455.09
     10.0700	  541.00	  573.27	-1784.77	  455.11
     10.1700	  605.00	  573.34	-1720.84	  455.12
     10.2700	  570.00	  573.43	-1755.94	  455.12
     10.3700	  587.00	  573.55	-1739.05	  455.12
     10.4700	  586.00	  573.70	-1740.20	  455.12
     10.5700	  596.00	  573.95	-1730.45	  455.11
     10.6700	  553.00	  574.38	-1773.88	  455.09
     10.7700	  579.00	  575.11	-1748.61	  455.07
     10.8700	  600.00	  576.19	-1728.69	  455.04
     10.9700	  626.00	  577.62	-1704.12	  455.01
     11.0700	  636.00	  579.36	-1695.86	  454.98
     11.1700	  579.00	  581.41	-1754.91	  454.94
     11.2700	  579.00	  583.79	-1757.29	  454.89
     11.3700	  564.00	  586.57	-1775.07	  454.84
     11.4700	  619.00	  589.89	-1723.39	  454.79
     11.5700	  613.00	  593.91	-1733.41	  454.73
     11.6700	  592.00	  598.96	-1759.46	  454.66
     11.7700	  616.00	  605.59	-1742.09	  454.59
     11.8700	  681.00	  614.72	-1686.22	  454.52
     11.9700	  634.00	  627.15	-1745.65	  454.44
     12.0700	  699.00	  641.59	-1695.09	  454.36
     12.1700	  622.00	  652.15	-1782.65	  454.27
     12.2700	  718.00	  649.18	-1683.68	  454.18
     12.3700	  659.00	  629.65	-1723.15	  454.09
     12.4700	  604.00	  605.86	-1754.36	  453.99
     12.5700	  604.00	  588.83	-1737.33	  453.89
     12.6700	  572.00	  579.95	-1760.45	  453.78
     12.7700	  575.00	  576.13	-1753.63	  453.67
     12.8700	  576.00	  574.46	-1750.96	  453.55
     12.9700	  523.00	  573.55	-1803.05	  453.43
     13.0700	  507.00	  572.92	-1818.42	  453.31
     13.1700	  553.00	  572.43	-1771.93	  453.18
     13.2700	  611.00	  572.02	-1713.52	  453.05
     13.3700	  520.00	  571.68	-1804.18	  452.92
     13.4700	  583.00	  571.38	-1740.88	  452.78
     13.5700	  555.00	  571.11	-1768.61	  452.63
     13.6700	  568.00	  570.86	-1755.36	  452.49
     13.7700	  510.00	  570.62	-1813.12	  452.34
     13.8700	  564.00	  570.40	-1758.90	  452.19
     13.9700	  553.00	  570.18	-1769.68	  452.03
     14.0700	  529.00	  569.97	-1793.47	  451.87
     14.1700	  593.00	  569.76	-1729.26	  451.70
     14.2700	  573.00	  569.55	-1749.05	  451.54
     14.3700	  570.00	  569.35	-1751.85	  451.37
     14.4700	  591.00	  569.15	-1730.65	  451.19
     14.5700	  591.00	  568.95	-1730.45	  451.02
     14.6700	  536.00	  568.74	-1785.24	  450.84
     14.7700	  554.00	  568.54	-1767.04	  450.65
     14.8700	  543.00	  568.34	-1777.84	  450.47
     14.9700	  569.00	  568.13	-1751.63	  450.28
     15.0700	  552.00	  567.92	-1768.42	  450.08
     15.1700	  533.00	  567.72	-1787.22	  449.89
     15.2700	  518.00	  567.51	-1802.01	  449.69
     15.3700	  540.00	  567.29	-1779.79	  449.49
     15.4700	  552.00	  567.08	-1767.58	  449.28
     15.5700	  520.00	  566.86	-1799.36	  449.08
     15.6700	  532.00	  566.64	-1787.14	  448.87
     15.7700	  604.00	  566.42	-1714.92	  448.65
     15.8700	  565.00	  566.20	-1753.70	  448.44
     15.9700	  536.00	  565.98	-1782.48	  448.22
     16.0700	  576.00	  565.75	-1742.25	  448.00
     16.1700	  579.00	  565.52	-1739.02	  447.78
     16.2700	  569.00	  565.29	-1748.79	  447.55
     16.3700	  590.00	  565.08	-1727.58	  447.32
     16.4700	  537.00	  564.85	-1780.35	  447.09
     16.5700	  536.00	  564.61	-1781.11	  446.86
     16.6700	  590.00	  564.37	-1726.87	  446.62
     16.7700	  508.00	  564.13	-1808.63	  446.38
     16.8700	  551.00	  563.89	-1765.39	  446.14
     16.9700	  542.00	  563.64	-1774.14	  445.90
     17.0700	  608.00	  563.39	-1707.89	  445.65
     17.1700	  558.00	  563.14	-1757.64	  445.41
     17.2700	  581.00	  562.89	-1734.39	  445.16
     17.3700	  564.00	  562.64	-1751.14	  444.91
     17.4700	  577.00	  562.38	-1737.88	  444.65
     17.5700	  563.00	  562.13	-1751.63	  444.40
     17.6700	  555.00	  561.87	-1759.37	  444.14
     17.7700	  594.00	  561.61	-1720.11	  443.88
     17.8700	  551.00	  561.34	-1762.84	  443.62
     17.9700	  531.00	  561.18	-1782.68	  443.35
     18.0700	  565.00	  560.92	-1748.42	  443.09
     18.1700	  586.00	  560.65	-1727.15	  442.82
     18.2700	  596.00	  560.39	-1716.89	  442.55
     18.3700	  593.00	  560.12	-1719.62	  442.28
     18.4700	  549.00	  559.85	-1763.35	  442.01
     18.5700	  531.00	  559.57	-1781.07	  441.73
     18.6700	  549.00	  559.30	-1762.80	  441.45
     18.7700	  540.00	  559.03	-1771.53	  441.18
     18.8700	  506.00	  558.83	-1805.33	  440.90
     18.9700	  555.00	  558.55	-1756.05	  440.62
     19.0700	  624.00	  558.28	-1686.78	  440.33
     19.1700	  562.00	  558.00	-1748.50	  440.05
     19.2700	  548.00	  557.72	-1762.22	  439.76
     19.3700	  539.00	  557.44	-1770.94	  439.48
     19.4700	  537.00	  557.15	-1772.65	  439.19
     19.5700	  566.00	  556.87	-1743.37	  438.90
     19.6700	  562.00	  556.59	-1747.09	  438.61
     19.7700	  571.00	  556.30	-1737.80	  438.31
     19.8700	  524.00	  556.02	-1784.52	  438.02
     19.9700	  542.00	  555.73	-1766.23	  437.72
     20.0700	  575.00	  555.44	-1732.94	  437.43
     20.1700	  590.00	  555.15	-1717.65	  437.13
     20.2700	  522.00	  554.86	-1785.36	  436.83
     20.3700	  556.00	  554.57	-1751.07	  436.53
     20.4700	  492.00	  554.26	-1814.76	  436.23
     20.5700	  556.00	  553.97	-1750.47	  435.93
     20.6700	  567.00	  553.68	-1739.18	  435.62
     20.7700	  568.00	  553.39	-1737.89	  435.32
     20.8700	  520.00	  553.09	-1785.59	  435.02
     20.9700	  550.00	  552.84	-1755.34	  434.71
     21.0700	  519.00	  552.55	-1786.05	  434.40
     21.1700	  587.00	  552.26	-1717.76	  434.09
     21.2700	  546.00	  551.97	-1758.47	  433.79
     21.3700	  513.00	  551.68	-1791.18	  433.48
     21.4700	  538.00	  551.39	-1765.89	  433.17
     21.5700	  581.00	  551.10	-1722.60	  432.85
     21.6700	  586.00	  550.81	-1717.31	  432.54
     21.7700	  533.00	  550.52	-1770.02	  432.23
     21.8700	  574.00	  550.23	-1728.73	  431.92
     21.9700	  534.00	  549.95	-1768.45	  431.60
     22.0700	  518.00	  549.66	-1784.16	  431.29
     22.1700	  603.00	  549.38	-1698.88	  430.97
     22.2700	  569.00	  549.10	-1732.60	  430.66
     22.3700	  540.00	  548.83	-1761.33	  430.34
     22.4700	  502.00	  548.55	-1799.05	  430.02
     22.5700	  558.00	  548.28	-1742.78	  429.71
     22.6700	  586.00	  548.02	-1714.52	  429.39
     22.7700	  564.00	  547.76	-1736.26	  429.07
     22.8700	  553.00	  547.50	-1747.00	  428.75
     22.9700	  563.00	  547.26	-1736.76	  428.43
     23.0700	  513.00	  547.03	-1786.53	  428.11
     23.1700	  567.00	  546.81	-1732.31	  427.79
     23.2700	  512.00	  546.60	-1787.10	  427.47
     23.3700	  542.00	  546.42	-1756.92	  427.15
     23.4700	  605.00	  546.26	-1693.76	  426.83
     23.5700	  557.00	  546.15	-1741.65	  426.51
     23.6700	  568.00	  546.08	-1730.58	  426.19
     23.7700	  568.00	  546.11	-1730.61	  425.87
     23.8700	  557.00	  546.44	-1741.94	  425.55
     23.9700	  581.00	  547.02	-1718.52	  425.22
     24.0700	  540.00	  548.35	-1760.85	  424.90
     24.1700	  530.00	  551.04	-1773.54	  424.58
     24.2700	  550.00	  555.87	-1758.37	  424.26
     24.3700	  556.00	  563.74	-1760.24	  423.94
     24.4700	  567.00	  575.66	-1761.16	  423.62
     24.5700	  605.00	  592.11	-1739.61	  423.29
     24.6700	  639.00	  610.70	-1724.20	  422.97
     24.7700	  641.00	  623.97	-1735.47	  422.65
     24.8700	  636.00	  621.57	-1738.07	  422.33
     24.9700	  575.00	  601.82	-1779.32	  422.01
     25.0700	  617.00	  577.69	-1713.19	  421.68
     25.1700	  565.00	  559.87	-1747.37	  421.36
     25.2700	  543.00	  550.12	-1759.62	  421.04
     25.3700	  534.00	  545.72	-1764.22	  420.72
     25.4700	  591.00	  543.80	-1705.30	  420.40
     25.5700	  569.00	  542.78	-1726.28	  420.08
     25.6700	  569.00	  542.12	-1725.62	  419.76
     25.7700	  549.00	  541.63	-1745.13	  419.44
     25.8700	  584.00	  541.26	-1709.76	  419.12
     25.9700	  572.00	  540.98	-1721.48	  418.80
     26.0700	  529.00	  540.78	-1764.28	  418.48
     26.1700	  575.00	  540.66	-1718.16	  418.16
     26.2700	  576.00	  540.60	-1717.10	  417.84
     26.3700	  635.00	  540.61	-1658.11	  417.52
     26.4700	  555.00	  540.71	-1738.21	  417.21
     26.5700	  506.00	  540.90	-1787.40	  416.89
     26.6700	  557.00	  541.21	-1736.71	  416.57
     26.7700	  520.00	  541.65	-1774.15	  416.26
     26.8700	  572.00	  542.26	-1722.76	  415.94
     26.9700	  563.00	  543.10	-1732.60	  415.62
     27.0700	  537.00	  544.25	-1759.75	  415.31
     27.1700	  527.00	  545.84	-1771.34	  414.99
     27.2700	  542.00	  548.12	-1758.62	  414.68
     27.3700	  580.00	  551.62	-1724.12	  414.37
     27.4700	  575.00	  557.31	-1734.81	  414.06
     27.5700	  522.00	  566.96	-1797.46	  413.74
     27.6700	  546.00	  583.34	-1789.84	  413.43
     27.7700	  548.00	  609.97	-1814.47	  413.12
     27.8700	  585.00	  649.84	-1817.34	  412.81
     27.9700	  703.00	  702.92	-1752.42	  412.50
     28.0700	  825.00	  762.98	-1690.48	  412.19
     28.1700	  906.00	  814.91	-1661.41	  411.89
     28.2700	  947.00	  836.22	-1641.72	  411.58
     28.3700	  905.00	  814.16	-1661.66	  411.27
     28.4700	  802.00	  770.38	-1720.88	  410.97
     28.5700	  700.00	  739.70	-1792.20	  410.66
     28.6700	  690.00	  737.87	-1800.37	  410.36
     28.7700	  731.00	  760.16	-1781.66	  410.06
     28.8700	  756.00	  787.00	-1783.50	  409.75
     28.9700	  833.00	  790.90	-1710.40	  409.45
     29.0700	  793.00	  754.61	-1714.11	  409.15
     29.1700	  691.00	  693.55	-1755.05	  408.85
     29.2700	  632.00	  635.57	-1756.07	  408.55
     29.3700	  614.00	  593.84	-1732.34	  408.26
     29.4700	  602.00	  568.66	-1719.16	  407.96
     29.5700	  605.00	  555.06	-1702.56	  407.66
     29.6700	  607.00	  547.88	-1693.38	  407.37
     29.7700	  592.00	  543.82	-1704.32	  407.07
     29.8700	  587.00	  541.28	-1706.78	  406.78
     29.9700	  555.00	  539.68	-1737.18	  406.49
     30.0700	  605.00	  538.88	-1686.38	  406.20
     30.1700	  516.00	  539.05	-1775.55	  405.91
     30.2700	  561.00	  540.73	-1732.23	  405.62
     30.3700	  562.00	  545.02	-1735.52	  405.33
     30.4700	  550.00	  553.59	-1756.09	  405.05
     30.5700	  579.00	  568.19	-1741.69	  404.76
     30.6700	  589.00	  589.37	-1752.87	  404.48
     30.7700	  550.00	  614.51	-1817.01	  404.19
     30.8700	  614.00	  636.46	-1774.96	  403.91
     30.9700	  593.00	  644.22	-1803.72	  403.63
     31.0700	  630.00	  630.32	-1752.82	  403.35
     31.1700	  577.00	  602.08	-1777.58	  403.07
     31.2700	  585.00	  573.85	-1741.35	  402.79
     31.3700	  558.00	  553.08	-1747.58	  402.52
     31.4700	  519.00	  540.55	-1774.05	  402.24
     31.5700	  548.00	  533.91	-1738.41	  401.97
     31.6700	  563.00	  530.52	-1720.02	  401.70
     31.7700	  525.00	  528.65	-1756.15	  401.42
     31.8700	  551.00	  527.47	-1728.97	  401.15
     31.9700	  512.00	  526.65	-1767.15	  400.89
     32.0700	  519.00	  526.06	-1759.56	  400.62
     32.1700	  532.00	  525.66	-1746.16	  400.35
     32.2700	  543.00	  525.41	-1734.91	  400.09
     32.3700	  536.00	  525.31	-1741.81	  399.82
     32.4700	  549.00	  525.37	-1728.87	  399.56
     32.5700	  542.00	  525.59	-1736.09	  399.30
     32.6700	  549.00	  526.00	-1729.50	  399.04
     32.7700	  520.00	  526.65	-1759.15	  398.78
     32.8700	  505.00	  527.60	-1775.10	  398.53
     32.9700	  546.00	  528.96	-1735.46	  398.27
     33.0700	  565.00	  530.94	-1718.44	  398.02
     33.1700	  566.00	  533.98	-1720.48	  397.76
     33.2700	  533.00	  539.10	-1758.60	  397.51
     33.3700	  546.00	  548.55	-1755.05	  397.26
     33.4700	  561.00	  566.73	-1758.23	  397.01
     33.5700	  585.00	  600.80	-1768.30	  396.77
     33.6700	  638.00	  659.13	-1773.63	  396.52
     33.7700	  803.00	  745.82	-1695.32	  396.28
     33.8700	  928.00	  851.79	-1676.29	  396.04
     33.9700	 1015.00	  948.64	-1686.14	  395.79
     34.0700	 1124.00	  992.26	-1620.76	  395.55
     34.1700	 1010.00	  949.68	-1692.18	  395.32
     34.2700	  905.00	  842.90	-1690.40	  395.08
     34.3700	  755.00	  727.80	-1725.30	  394.85
     34.4700	  601.00	  639.05	-1790.55	  394.61
     34.5700	  600.00	  583.72	-1736.22	  394.38
     34.6700	  558.00	  554.16	-1748.66	  394.15
     34.7700	  547.00	  539.51	-1745.01	  393.92
     34.8700	  533.00	  531.96	-1751.46	  393.69
     34.9700	  550.00	  527.47	-1729.97	  393.47
     35.0700	  559.00	  524.37	-1717.87	  393.24
     35.1700	  530.00	  522.03	-1744.53	  393.02
     35.2700	  515.00	  520.18	-1757.68	  392.80
     35.3700	  543.00	  518.69	-1728.19	  392.58
     35.4700	  529.00	  517.44	-1740.94	  392.36
     35.5700	  566.00	  516.39	-1702.89	  392.15
     35.6700	  508.00	  515.48	-1759.98	  391.93
     35.7700	  531.00	  514.70	-1736.20	  391.72
     35.8700	  519.00	  514.00	-1747.50	  391.51
     35.9700	  506.00	  513.88	-1760.38	  391.30
     36.0700	  488.00	  513.33	-1777.83	  391.09
     36.1700	  519.00	  512.84	-1746.34	  390.88
     36.2700	  485.00	  512.39	-1779.89	  390.68
     36.3700	  541.00	  511.99	-1723.49	  390.47
     36.4700	  469.00	  511.62	-1795.12	  390.27
     36.5700	  514.00	  511.29	-1749.79	  390.07
     36.6700	  562.00	  510.99	-1701.49	  389.87
     36.7700	  518.00	  510.74	-1745.24	  389.68
     36.8700	  487.00	  510.53	-1776.03	  389.48
     36.9700	  508.00	  510.43	-1754.93	  389.29
     37.0700	  517.00	  510.51	-1746.01	  389.10
     37.1700	  494.00	  510.98	-1769.48	  388.91
     37.2700	  561.00	  512.15	-1703.65	  388.72
     37.3700	  514.00	  514.35	-1752.85	  388.53
     37.4700	  493.00	  517.67	-1777.17	  388.35
     37.5700	  526.00	  521.62	-1748.12	  388.17
     37.6700	  528.00	  525.04	-1749.54	  387.99
     37.7700	  512.00	  526.49	-1766.99	  387.81
     37.8700	  479.00	  525.47	-1798.97	  387.63
     37.9700	  508.00	  522.93	-1767.43	  387.45
     38.0700	  568.00	  519.79	-1704.29	  387.28
     38.1700	  518.00	  516.40	-1750.90	  387.10
     38.2700	  506.00	  513.18	-1759.68	  386.93
     38.3700	  516.00	  510.60	-1747.10	  386.76
     38.4700	  488.00	  508.77	-1773.27	  386.60
     38.5700	  466.00	  507.59	-1794.09	  386.43
     38.6700	  491.00	  506.87	-1768.37	  386.27
     38.7700	  468.00	  506.32	-1790.82	  386.11
     38.8700	  526.00	  506.00	-1732.50	  385.95
     38.9700	  558.00	  505.75	-1700.25	  385.79
     39.0700	  528.00	  505.53	-1730.03	  385.63
     39.1700	  481.00	  505.33	-1776.83	  385.48
     39.2700	  512.00	  505.07	-1745.57	  385.32
     39.3700	  477.00	  504.91	-1780.41	  385.17
     39.4700	  502.00	  504.75	-1755.25	  385.02
     39.5700	  471.00	  504.61	-1786.11	  384.87
     39.6700	  487.00	  504.47	-1769.97	  384.73
     39.7700	  480.00	  504.46	-1776.96	  384.58
     39.8700	  515.00	  504.35	-1741.85	  384.44
     39.9700	  480.00	  504.25	-1776.75	  384.30
     40.0700	  494.00	  504.15	-1762.65	  384.16
     40.1700	  466.00	  504.06	-1790.56	  384.02
     40.2700	  492.00	  503.99	-1764.49	  383.89
     40.3700	  532.00	  503.92	-1724.42	  383.75
     40.4700	  478.00	  503.87	-1778.37	  383.62
     40.5700	  482.00	  503.83	-1774.33	  383.49
     40.6700	  476.00	  503.81	-1780.31	  383.36
     40.7700	  507.00	  503.81	-1749.31	  383.24
