MSG Master    CELL:    5.90405   5.90405  23.18879   90.0000   90.0000  120.0000   SPGR: P 63/m m c             TEMP:    830.85
  1   1280     2.52000     0.00000    -0.12650     0.00000     0.00000    0
    98     0     2
       0.00000      10.00000
     125.00000     130.00000
 2Theta	Yobs	Ycal	Yobs-Ycal	Backg	Posr	(hkl)	K
      0.7700	    0.00	  466.95	-1749.94	  358.63
      0.8700	    0.00	  468.69	-1749.94	  360.38
      0.9700	   35.00	  470.42	-1749.94	  362.11
      1.0700	   43.00	  472.13	-1749.94	  363.82
      1.1700	   39.00	  473.82	-1749.94	  365.51
      1.2700	   49.00	  475.49	-1749.94	  367.18
      1.3700	   43.00	  477.15	-1749.94	  368.83
      1.4700	   97.00	  478.78	-1749.94	  370.47
      1.5700	  288.00	  480.40	-1749.94	  372.09
      1.6700	  474.00	  482.00	-1749.94	  373.69
      1.7700	  592.00	  483.58	-1749.94	  375.27
      1.8700	  658.00	  485.14	-1749.94	  376.83
      1.9700	  741.00	  486.69	-1749.94	  378.38
      2.0700	  771.00	  488.22	-1749.94	  379.90
      2.1700	  815.00	  489.73	-1749.94	  381.41
      2.2700	  771.00	  491.22	-1749.94	  382.91
      2.3700	  791.00	  492.69	-1749.94	  384.38
      2.4700	  704.00	  494.15	-1749.94	  385.84
      2.5700	  703.00	  495.59	-1749.94	  387.28
      2.6700	  643.00	  497.02	-1749.94	  388.71
      2.7700	  613.00	  498.43	-1749.94	  390.11
      2.8700	  598.00	  499.82	-1749.94	  391.50
      2.9700	  624.00	  501.19	-1749.94	  392.88
      3.0700	  583.00	  502.55	-1749.94	  394.23
      3.1700	  592.00	  503.89	-1749.94	  395.57
      3.2700	  651.00	  505.21	-1749.94	  396.90
      3.3700	  798.00	  506.52	-1749.94	  398.21
      3.4700	  861.00	  507.81	-1749.94	  399.50
      3.5700	 1005.00	  509.09	-1749.94	  400.77
      3.6700	 1101.00	  510.35	-1749.94	  402.03
      3.7700	 1216.00	  511.59	-1749.94	  403.28
      3.8700	 1249.00	  512.82	-1749.94	  404.50
      3.9700	 1338.00	  514.03	-1749.94	  405.72
      4.0700	 1350.00	  515.23	-1749.94	  406.91
      4.1700	 1388.00	  516.41	-1749.94	  408.09
      4.2700	 1432.00	  517.57	-1749.94	  409.26
      4.3700	 1312.00	  518.72	-1749.94	  410.41
      4.4700	 1336.00	  519.86	-1749.94	  411.55
      4.5700	 1239.00	  520.98	-1749.94	  412.67
      4.6700	 1234.00	  522.08	-1749.94	  413.77
      4.7700	 1191.00	  523.18	-1749.94	  414.86
      4.8700	 1137.00	  524.25	-1749.94	  415.94
      4.9700	 1125.00	  525.31	-1749.94	  417.00
      5.0700	 1095.00	  526.36	-1749.94	  418.05
      5.1700	 1081.00	  527.39	-1749.94	  419.08
      5.2700	 1025.00	  528.41	-1749.94	  420.10
      5.3700	 1019.00	  529.41	-1749.94	  421.10
      5.4700	 1013.00	  530.40	-1749.94	  422.09
      5.5700	  960.00	  531.38	-1749.94	  423.06
      5.6700	  960.00	  532.34	-1749.94	  424.02
      5.7700	  916.00	  533.28	-1749.94	  424.97
      5.8700	  951.00	  534.22	-1749.94	  425.90
      5.9700	  885.00	  535.14	-1749.94	  426.82
      6.0700	  889.00	  536.04	-1749.94	  427.73
      6.1700	  842.00	  536.94	-1749.94	  428.62
      6.2700	  845.00	  537.81	-1749.94	  429.50
      6.3700	  819.00	  538.68	-1749.94	  430.37
      6.4700	  812.00	  539.53	-1749.94	  431.22
      6.5700	  797.00	  540.37	-1749.94	  432.06
      6.6700	  733.00	  541.20	-1749.94	  432.89
      6.7700	  766.00	  542.01	-1749.94	  433.70
      6.8700	  714.00	  542.81	-1749.94	  434.50
      6.9700	  731.00	  543.60	-1749.94	  435.29
      7.0700	  705.00	  544.38	-1749.94	  436.06
      7.1700	  731.00	  545.14	-1749.94	  436.82
      7.2700	  705.00	  545.89	-1749.94	  437.57
      7.3700	  694.00	  546.62	-1749.94	  438.31
      7.4700	  735.00	  547.35	-1749.94	  439.04
      7.5700	  699.00	  548.06	-1749.94	  439.75
      7.6700	  682.00	  548.76	-1749.94	  440.45
      7.7700	  697.00	  549.45	-1749.94	  441.14
      7.8700	  699.00	  550.13	-1749.94	  441.82
      7.9700	  624.00	  550.79	-1749.94	  442.48
      8.0700	  678.00	  551.45	-1749.94	  443.13
      8.1700	  696.00	  552.09	-1749.94	  443.77
      8.2700	  678.00	  552.72	-1749.94	  444.40
      8.3700	  627.00	  553.34	-1749.94	  445.02
      8.4700	  641.00	  553.94	-1749.94	  445.63
      8.5700	  643.00	  554.54	-1749.94	  446.22
      8.6700	  635.00	  555.12	-1749.94	  446.81
      8.7700	  646.00	  555.69	-1749.94	  447.38
      8.8700	  660.00	  556.26	-1749.94	  447.94
      8.9700	  621.00	  556.81	-1749.94	  448.49
      9.0700	  624.00	  557.35	-1749.94	  449.03
      9.1700	  630.00	  557.87	-1749.94	  449.56
      9.2700	  631.00	  558.39	-1749.94	  450.08
      9.3700	  602.00	  558.90	-1749.94	  450.59
      9.4700	  588.00	  559.40	-1749.94	  451.08
      9.5700	  594.00	  559.88	-1749.94	  451.57
      9.6700	  618.00	  560.36	-1749.94	  452.05
      9.7700	  573.00	  560.82	-1749.94	  452.51
      9.8700	  585.00	  561.28	-1749.94	  452.97
      9.9700	  588.00	  561.72	-1749.94	  453.41
     10.0700	  591.00	  564.26	-1723.20	  453.84
     10.1700	  579.00	  564.87	-1735.81	  454.27
     10.2700	  648.00	  565.52	-1667.45	  454.68
     10.3700	  600.00	  566.21	-1716.15	  455.09
     10.4700	  625.00	  566.99	-1691.92	  455.48
     10.5700	  642.00	  567.89	-1675.83	  455.87
     10.6700	  562.00	  569.00	-1756.93	  456.24
     10.7700	  616.00	  570.40	-1704.33	  456.61
     10.8700	  643.00	  572.16	-1679.10	  456.97
     10.9700	  598.00	  574.35	-1726.28	  457.31
     11.0700	  621.00	  576.94	-1705.88	  457.65
     11.1700	  579.00	  579.97	-1750.90	  457.98
     11.2700	  587.00	  583.45	-1746.38	  458.30
     11.3700	  613.00	  587.45	-1724.39	  458.61
     11.4700	  584.00	  592.10	-1758.04	  458.91
     11.5700	  587.00	  597.59	-1760.53	  459.20
     11.6700	  640.00	  604.21	-1714.14	  459.49
     11.7700	  615.00	  612.30	-1747.24	  459.76
     11.8700	  669.00	  622.17	-1703.11	  460.03
     11.9700	  675.00	  633.64	-1708.57	  460.28
     12.0700	  674.00	  645.41	-1721.35	  460.53
     12.1700	  654.00	  654.41	-1750.34	  460.77
     12.2700	  672.00	  655.66	-1733.60	  461.00
     12.3700	  653.00	  645.43	-1742.37	  461.23
     12.4700	  658.00	  627.46	-1719.40	  461.44
     12.5700	  608.00	  609.73	-1751.67	  461.65
     12.6700	  586.00	  596.39	-1760.33	  461.85
     12.7700	  554.00	  587.73	-1783.67	  462.04
     12.8700	  545.00	  582.61	-1787.55	  462.22
     12.9700	  568.00	  579.68	-1761.61	  462.39
     13.0700	  586.00	  577.95	-1741.89	  462.56
     13.1700	  610.00	  576.85	-1716.79	  462.72
     13.2700	  518.00	  576.11	-1808.05	  462.87
     13.3700	  571.00	  575.57	-1754.51	  463.01
     13.4700	  552.00	  575.18	-1773.12	  463.15
     13.5700	  574.00	  574.89	-1750.83	  463.28
     13.6700	  597.00	  574.70	-1727.64	  463.40
     13.7700	  562.00	  574.54	-1762.47	  463.51
     13.8700	  535.00	  574.41	-1789.35	  463.62
     13.9700	  544.00	  574.31	-1780.25	  463.72
     14.0700	  548.00	  574.24	-1776.18	  463.81
     14.1700	  586.00	  574.19	-1738.12	  463.89
     14.2700	  556.00	  574.14	-1768.08	  463.97
     14.3700	  547.00	  574.11	-1777.04	  464.04
     14.4700	  550.00	  574.08	-1774.02	  464.11
     14.5700	  552.00	  574.06	-1771.99	  464.16
     14.6700	  549.00	  574.04	-1774.97	  464.21
     14.7700	  566.00	  574.02	-1757.95	  464.26
     14.8700	  548.00	  574.00	-1775.93	  464.29
     14.9700	  549.00	  573.98	-1774.91	  464.32
     15.0700	  573.00	  573.96	-1750.89	  464.35
     15.1700	  579.00	  573.93	-1744.87	  464.36
     15.2700	  540.00	  573.91	-1783.85	  464.38
     15.3700	  543.00	  573.88	-1780.82	  464.38
     15.4700	  545.00	  573.85	-1778.79	  464.38
     15.5700	  577.00	  573.82	-1746.75	  464.37
     15.6700	  532.00	  573.78	-1791.71	  464.36
     15.7700	  576.00	  573.73	-1747.67	  464.34
     15.8700	  572.00	  573.69	-1751.63	  464.31
     15.9700	  542.00	  573.64	-1781.57	  464.28
     16.0700	  525.00	  573.58	-1798.52	  464.24
     16.1700	  570.00	  573.52	-1753.46	  464.20
     16.2700	  545.00	  573.46	-1778.40	  464.15
     16.3700	  525.00	  573.39	-1798.33	  464.09
     16.4700	  543.00	  573.32	-1780.26	  464.03
     16.5700	  591.00	  573.24	-1732.18	  463.97
     16.6700	  526.00	  573.16	-1797.10	  463.89
     16.7700	  549.00	  573.07	-1774.01	  463.82
     16.8700	  556.00	  572.98	-1766.92	  463.73
     16.9700	  542.00	  572.89	-1780.82	  463.65
     17.0700	  581.00	  572.79	-1741.72	  463.55
     17.1700	  545.00	  572.68	-1777.62	  463.45
     17.2700	  530.00	  572.57	-1792.51	  463.35
     17.3700	  527.00	  572.46	-1795.39	  463.24
     17.4700	  595.00	  572.34	-1727.28	  463.13
     17.5700	  583.00	  572.32	-1739.26	  463.01
     17.6700	  544.00	  572.20	-1778.13	  462.89
     17.7700	  548.00	  572.07	-1774.00	  462.76
     17.8700	  568.00	  571.93	-1753.87	  462.62
     17.9700	  538.00	  571.90	-1783.84	  462.49
     18.0700	  567.00	  571.76	-1754.70	  462.34
     18.1700	  576.00	  571.62	-1745.56	  462.19
     18.2700	  578.00	  571.47	-1743.41	  462.04
     18.3700	  545.00	  571.32	-1776.25	  461.89
     18.4700	  551.00	  571.16	-1770.10	  461.72
     18.5700	  542.00	  571.00	-1778.94	  461.56
     18.6700	  613.00	  570.83	-1707.77	  461.39
     18.7700	  565.00	  570.67	-1755.60	  461.22
     18.8700	  503.00	  570.49	-1817.43	  461.04
     18.9700	  588.00	  570.32	-1732.25	  460.85
     19.0700	  546.00	  570.14	-1774.07	  460.67
     19.1700	  543.00	  569.95	-1776.89	  460.48
     19.2700	  563.00	  569.77	-1756.71	  460.28
     19.3700	  576.00	  569.58	-1743.51	  460.08
     19.4700	  581.00	  569.38	-1738.32	  459.88
     19.5700	  542.00	  569.23	-1777.16	  459.67
     19.6700	  584.00	  569.03	-1734.97	  459.46
     19.7700	  557.00	  568.83	-1761.76	  459.25
     19.8700	  562.00	  568.62	-1756.56	  459.03
     19.9700	  527.00	  568.41	-1791.35	  458.81
     20.0700	  600.00	  568.20	-1718.14	  458.58
     20.1700	  553.00	  567.99	-1764.92	  458.35
     20.2700	  535.00	  567.77	-1782.71	  458.12
     20.3700	  526.00	  567.55	-1791.49	  457.88
     20.4700	  547.00	  567.33	-1770.27	  457.64
     20.5700	  548.00	  567.11	-1769.04	  457.40
     20.6700	  551.00	  566.88	-1765.82	  457.15
     20.7700	  548.00	  566.65	-1768.59	  456.90
     20.8700	  550.00	  566.42	-1766.36	  456.65
     20.9700	  571.00	  566.19	-1745.13	  456.40
     21.0700	  547.00	  565.96	-1768.90	  456.14
     21.1700	  548.00	  565.73	-1767.66	  455.87
     21.2700	  559.00	  565.49	-1756.43	  455.61
     21.3700	  532.00	  565.25	-1783.19	  455.34
     21.4700	  566.00	  565.02	-1748.95	  455.07
     21.5700	  536.00	  564.78	-1778.72	  454.79
     21.6700	  526.00	  564.54	-1788.48	  454.52
     21.7700	  526.00	  564.30	-1788.24	  454.24
     21.8700	  568.00	  564.07	-1746.00	  453.95
     21.9700	  543.00	  563.83	-1770.77	  453.67
     22.0700	  573.00	  563.60	-1740.53	  453.38
     22.1700	  584.00	  563.53	-1729.46	  453.09
     22.2700	  577.00	  563.30	-1736.24	  452.80
     22.3700	  582.00	  563.08	-1731.02	  452.50
     22.4700	  543.00	  562.86	-1769.80	  452.20
     22.5700	  542.00	  562.65	-1770.59	  451.90
     22.6700	  547.00	  562.45	-1765.39	  451.60
     22.7700	  568.00	  562.26	-1744.19	  451.29
     22.8700	  556.00	  562.08	-1756.01	  450.98
     22.9700	  608.00	  561.91	-1703.85	  450.67
     23.0700	  596.00	  561.76	-1715.70	  450.36
     23.1700	  586.00	  561.64	-1725.58	  450.05
     23.2700	  566.00	  561.50	-1745.44	  449.73
     23.3700	  556.00	  561.44	-1755.38	  449.41
     23.4700	  531.00	  561.44	-1780.37	  449.09
     23.5700	  576.00	  561.50	-1735.44	  448.77
     23.6700	  570.00	  561.66	-1741.59	  448.44
     23.7700	  598.00	  561.95	-1713.89	  448.11
     23.8700	  519.00	  562.47	-1793.41	  447.78
     23.9700	  589.00	  563.36	-1724.30	  447.45
     24.0700	  587.00	  564.86	-1727.80	  447.12
     24.1700	  557.00	  567.35	-1760.29	  446.79
     24.2700	  546.00	  571.36	-1775.30	  446.45
     24.3700	  609.00	  577.46	-1718.40	  446.11
     24.4700	  600.00	  586.06	-1736.00	  445.77
     24.5700	  605.00	  597.13	-1742.07	  445.43
     24.6700	  614.00	  609.71	-1745.65	  445.09
     24.7700	  607.00	  621.35	-1764.28	  444.74
     24.8700	  647.00	  627.74	-1730.68	  444.40
     24.9700	  663.00	  624.28	-1711.22	  444.05
     25.0700	  647.00	  611.39	-1714.33	  443.70
     25.1700	  646.00	  595.51	-1699.45	  443.35
     25.2700	  576.00	  581.93	-1755.87	  443.00
     25.3700	  560.00	  572.25	-1762.18	  442.64
     25.4700	  595.00	  566.06	-1721.00	  442.29
     25.5700	  553.00	  562.33	-1759.27	  441.93
     25.6700	  601.00	  560.08	-1709.02	  441.58
     25.7700	  600.00	  558.65	-1708.58	  441.22
     25.8700	  609.00	  557.66	-1698.59	  440.86
     25.9700	  607.00	  556.94	-1699.88	  440.50
     26.0700	  581.00	  556.41	-1725.34	  440.14
     26.1700	  616.00	  556.02	-1689.95	  439.77
     26.2700	  565.00	  555.75	-1740.69	  439.41
     26.3700	  595.00	  555.60	-1710.54	  439.05
     26.4700	  598.00	  555.56	-1707.50	  438.68
     26.5700	  595.00	  555.64	-1710.58	  438.31
     26.6700	  578.00	  555.85	-1727.79	  437.95
     26.7700	  554.00	  556.20	-1752.14	  437.58
     26.8700	  647.00	  556.74	-1659.68	  437.21
     26.9700	  536.00	  557.49	-1771.43	  436.84
     27.0700	  611.00	  558.53	-1697.47	  436.47
     27.1700	  600.00	  559.96	-1709.90	  436.10
     27.2700	  645.00	  561.95	-1666.89	  435.73
     27.3700	  663.00	  564.83	-1651.77	  435.35
     27.4700	  621.00	  569.23	-1698.16	  434.98
     27.5700	  577.00	  576.28	-1749.22	  434.61
     27.6700	  613.00	  587.89	-1724.83	  434.23
     27.7700	  626.00	  606.80	-1730.74	  433.86
     27.8700	  621.00	  636.07	-1765.01	  433.48
     27.9700	  653.00	  677.54	-1774.48	  433.11
     28.0700	  715.00	  729.63	-1764.56	  432.73
     28.1700	  819.00	  784.90	-1715.83	  432.35
     28.2700	  895.00	  828.58	-1683.52	  431.98
     28.3700	  922.00	  842.10	-1670.04	  431.60
     28.4700	  917.00	  821.62	-1654.56	  431.22
     28.5700	  815.00	  791.86	-1726.80	  430.84
     28.6700	  744.00	  779.58	-1785.51	  430.47
     28.7700	  747.00	  792.66	-1795.60	  430.09
     28.8700	  805.00	  822.18	-1767.12	  429.71
     28.9700	  837.00	  847.13	-1760.07	  429.33
     29.0700	  814.00	  841.70	-1777.64	  428.95
     29.1700	  787.00	  795.85	-1758.79	  428.57
     29.2700	  758.00	  729.81	-1721.75	  428.19
     29.3700	  672.00	  668.96	-1746.89	  427.81
     29.4700	  665.00	  623.99	-1708.93	  427.44
     29.5700	  650.00	  595.04	-1694.97	  427.06
     29.6700	  599.00	  577.96	-1728.90	  426.68
     29.7700	  663.00	  568.20	-1655.13	  426.30
     29.8700	  581.00	  562.44	-1731.37	  425.92
     29.9700	  582.00	  558.87	-1726.80	  425.54
     30.0700	  601.00	  556.68	-1705.62	  425.16
     30.1700	  584.00	  555.67	-1721.61	  424.78
     30.2700	  615.00	  556.01	-1690.94	  424.40
     30.3700	  622.00	  558.23	-1686.17	  424.03
     30.4700	  555.00	  563.27	-1758.20	  423.65
     30.5700	  594.00	  572.26	-1728.19	  423.27
     30.6700	  633.00	  585.97	-1702.91	  422.89
     30.7700	  633.00	  603.87	-1720.80	  422.52
     30.8700	  642.00	  623.12	-1731.06	  422.14
     30.9700	  643.00	  638.11	-1745.05	  421.76
     31.0700	  683.00	  641.31	-1708.24	  421.39
     31.1700	  647.00	  628.89	-1731.83	  421.01
     31.2700	  616.00	  606.90	-1740.84	  420.64
     31.3700	  556.00	  584.76	-1778.70	  420.26
     31.4700	  587.00	  567.39	-1730.33	  419.89
     31.5700	  610.00	  555.63	-1695.56	  419.51
     31.6700	  562.00	  548.40	-1736.34	  419.14
     31.7700	  563.00	  544.17	-1731.10	  418.77
     31.8700	  559.00	  541.65	-1732.59	  418.40
     31.9700	  532.00	  540.07	-1758.00	  418.02
     32.0700	  589.00	  539.01	-1699.95	  417.65
     32.1700	  503.00	  538.30	-1785.23	  417.28
     32.2700	  545.00	  537.85	-1742.79	  416.91
     32.3700	  533.00	  537.64	-1754.57	  416.55
     32.4700	  559.00	  537.65	-1728.58	  416.18
     32.5700	  552.00	  537.89	-1735.83	  415.81
     32.6700	  588.00	  538.40	-1700.34	  415.44
     32.7700	  557.00	  539.22	-1732.15	  415.08
     32.8700	  602.00	  540.41	-1688.35	  414.71
     32.9700	  534.00	  542.11	-1758.04	  414.35
     33.0700	  588.00	  544.49	-1706.43	  413.98
     33.1700	  581.00	  547.97	-1716.91	  413.62
     33.2700	  576.00	  553.22	-1727.16	  413.26
     33.3700	  570.00	  561.66	-1741.60	  412.90
     33.4700	  566.00	  575.77	-1759.70	  412.54
     33.5700	  618.00	  599.40	-1731.34	  412.18
     33.6700	  637.00	  637.45	-1750.38	  411.82
     33.7700	  697.00	  694.00	-1746.93	  411.46
     33.8700	  735.00	  768.63	-1783.57	  411.11
     33.9700	  862.00	  852.19	-1740.12	  410.75
     34.0700	  915.00	  924.19	-1759.12	  410.40
     34.1700	 1043.00	  955.22	-1662.16	  410.04
     34.2700	  953.00	  924.32	-1721.26	  409.69
     34.3700	  858.00	  845.42	-1737.35	  409.34
     34.4700	  767.00	  754.93	-1737.86	  408.99
     34.5700	  677.00	  677.86	-1750.80	  408.64
     34.6700	  620.00	  622.16	-1752.10	  408.29
     34.7700	  571.00	  586.15	-1765.09	  407.95
     34.8700	  530.00	  564.47	-1784.40	  407.60
     34.9700	  559.00	  551.63	-1742.57	  407.26
     35.0700	  552.00	  543.69	-1741.63	  406.91
     35.1700	  551.00	  538.33	-1737.27	  406.57
     35.2700	  536.00	  534.40	-1748.34	  406.23
     35.3700	  525.00	  531.34	-1756.27	  405.89
     35.4700	  543.00	  528.85	-1735.79	  405.55
     35.5700	  515.00	  527.29	-1762.23	  405.22
     35.6700	  510.00	  525.56	-1765.50	  404.88
     35.7700	  491.00	  524.08	-1783.01	  404.55
     35.8700	  503.00	  522.79	-1769.73	  404.21
     35.9700	  485.00	  521.66	-1786.60	  403.88
     36.0700	  485.00	  520.66	-1785.60	  403.55
     36.1700	  534.00	  519.77	-1735.70	  403.22
     36.2700	  484.00	  518.96	-1784.90	  402.90
     36.3700	  499.00	  518.21	-1769.15	  402.57
     36.4700	  498.00	  517.55	-1769.49	  402.24
     36.5700	  530.00	  516.96	-1736.90	  401.92
     36.6700	  489.00	  516.44	-1777.37	  401.60
     36.7700	  513.00	  515.98	-1752.91	  401.28
     36.8700	  504.00	  515.60	-1761.53	  400.96
     36.9700	  492.00	  515.33	-1773.26	  400.64
     37.0700	  538.00	  515.22	-1727.16	  400.32
     37.1700	  523.00	  515.39	-1742.32	  400.01
     37.2700	  475.00	  515.96	-1790.90	  399.70
     37.3700	  488.00	  517.12	-1779.05	  399.38
     37.4700	  546.00	  519.14	-1723.08	  399.07
     37.5700	  503.00	  521.61	-1768.55	  398.77
     37.6700	  559.00	  524.34	-1715.28	  398.46
     37.7700	  561.00	  526.56	-1715.50	  398.15
     37.8700	  535.00	  527.28	-1742.21	  397.85
     37.9700	  505.00	  525.89	-1770.83	  397.55
     38.0700	  519.00	  522.95	-1753.88	  397.24
     38.1700	  463.00	  519.51	-1806.45	  396.95
     38.2700	  502.00	  516.33	-1764.27	  396.65
     38.3700	  539.00	  513.72	-1724.66	  396.35
     38.4700	  506.00	  511.75	-1755.69	  396.06
     38.5700	  529.00	  510.34	-1731.28	  395.76
     38.6700	  465.00	  509.33	-1794.27	  395.47
     38.7700	  448.00	  508.59	-1810.53	  395.18
     38.8700	  499.00	  508.01	-1758.95	  394.90
     38.9700	  515.00	  507.53	-1742.46	  394.61
     39.0700	  509.00	  507.10	-1748.04	  394.33
     39.1700	  482.00	  506.72	-1774.66	  394.04
     39.2700	  528.00	  506.37	-1728.30	  393.76
     39.3700	  554.00	  505.94	-1701.87	  393.48
     39.4700	  548.00	  505.62	-1707.56	  393.20
     39.5700	  496.00	  505.33	-1759.27	  392.93
     39.6700	  488.00	  505.05	-1766.99	  392.65
     39.7700	  504.00	  504.78	-1750.72	  392.38
     39.8700	  498.00	  504.53	-1756.47	  392.11
     39.9700	  519.00	  504.29	-1735.23	  391.84
     40.0700	  517.00	  504.06	-1737.00	  391.58
     40.1700	  489.00	  504.38	-1765.32	  391.31
     40.2700	  549.00	  504.19	-1705.12	  391.05
     40.3700	  543.00	  503.90	-1710.84	  390.78
     40.4700	  487.00	  503.74	-1766.68	  390.52
     40.5700	  490.00	  503.59	-1763.53	  390.27
     40.6700	  487.00	  503.47	-1766.41	  390.01
     40.7700	  493.00	  503.37	-1760.30	  389.76
