MSG Master    CELL:    5.91898   5.91898  23.26438   90.0000   90.0000  120.0000   SPGR: P 63/m m c             TEMP:   1074.95
  1   1280     2.52000     0.00000    -0.13253     0.00000     0.00000    0
    99     0     2
       0.00000      10.00000
     125.00000     130.00000
 2Theta	Yobs	Ycal	Yobs-Ycal	Backg	Posr	(hkl)	K
      0.7700	    0.00	  569.41	-1769.50	  450.66
      0.8700	    0.00	  569.86	-1769.50	  451.11
      0.9700	   32.00	  570.30	-1769.50	  451.55
      1.0700	   40.00	  570.73	-1769.50	  451.98
      1.1700	   35.00	  571.15	-1769.50	  452.40
      1.2700	   45.00	  571.56	-1769.50	  452.82
      1.3700	   49.00	  571.97	-1769.50	  453.22
      1.4700	   97.00	  572.36	-1769.50	  453.62
      1.5700	  292.00	  572.75	-1769.50	  454.00
      1.6700	  456.00	  573.13	-1769.50	  454.38
      1.7700	  551.00	  573.50	-1769.50	  454.75
      1.8700	  674.00	  573.86	-1769.50	  455.12
      1.9700	  752.00	  574.22	-1769.50	  455.47
      2.0700	  706.00	  574.57	-1769.50	  455.82
      2.1700	  833.00	  574.90	-1769.50	  456.16
      2.2700	  720.00	  575.23	-1769.50	  456.49
      2.3700	  730.00	  575.56	-1769.50	  456.81
      2.4700	  707.00	  575.87	-1769.50	  457.13
      2.5700	  670.00	  576.18	-1769.50	  457.43
      2.6700	  698.00	  576.48	-1769.50	  457.73
      2.7700	  662.00	  576.77	-1769.50	  458.03
      2.8700	  642.00	  577.06	-1769.50	  458.31
      2.9700	  630.00	  577.33	-1769.50	  458.59
      3.0700	  593.00	  577.60	-1769.50	  458.86
      3.1700	  632.00	  577.86	-1769.50	  459.12
      3.2700	  636.00	  578.12	-1769.50	  459.37
      3.3700	  702.00	  578.37	-1769.50	  459.62
      3.4700	  726.00	  578.61	-1769.50	  459.86
      3.5700	  768.00	  578.84	-1769.50	  460.09
      3.6700	  828.00	  579.06	-1769.50	  460.32
      3.7700	  898.00	  579.28	-1769.50	  460.54
      3.8700	 1006.00	  579.49	-1769.50	  460.75
      3.9700	 1041.00	  579.70	-1769.50	  460.95
      4.0700	 1005.00	  579.90	-1769.50	  461.15
      4.1700	 1088.00	  580.09	-1769.50	  461.34
      4.2700	 1128.00	  580.27	-1769.50	  461.53
      4.3700	 1085.00	  580.45	-1769.50	  461.70
      4.4700	 1049.00	  580.62	-1769.50	  461.87
      4.5700	 1038.00	  580.78	-1769.50	  462.04
      4.6700	 1049.00	  580.94	-1769.50	  462.19
      4.7700	  964.00	  581.09	-1769.50	  462.35
      4.8700	  983.00	  581.24	-1769.50	  462.49
      4.9700	  966.00	  581.37	-1769.50	  462.63
      5.0700	  921.00	  581.50	-1769.50	  462.76
      5.1700	  915.00	  581.63	-1769.50	  462.88
      5.2700	  957.00	  581.75	-1769.50	  463.00
      5.3700	  922.00	  581.86	-1769.50	  463.12
      5.4700	  830.00	  581.97	-1769.50	  463.22
      5.5700	  903.00	  582.07	-1769.50	  463.32
      5.6700	  895.00	  582.16	-1769.50	  463.42
      5.7700	  831.00	  582.25	-1769.50	  463.50
      5.8700	  862.00	  582.33	-1769.50	  463.59
      5.9700	  825.00	  582.41	-1769.50	  463.66
      6.0700	  820.00	  582.48	-1769.50	  463.73
      6.1700	  813.00	  582.54	-1769.50	  463.80
      6.2700	  782.00	  582.60	-1769.50	  463.86
      6.3700	  765.00	  582.66	-1769.50	  463.91
      6.4700	  773.00	  582.70	-1769.50	  463.96
      6.5700	  777.00	  582.75	-1769.50	  464.00
      6.6700	  738.00	  582.78	-1769.50	  464.04
      6.7700	  701.00	  582.81	-1769.50	  464.07
      6.8700	  720.00	  582.84	-1769.50	  464.09
      6.9700	  754.00	  582.86	-1769.50	  464.11
      7.0700	  713.00	  582.87	-1769.50	  464.13
      7.1700	  719.00	  582.88	-1769.50	  464.14
      7.2700	  667.00	  582.89	-1769.50	  464.14
      7.3700	  674.00	  582.89	-1769.50	  464.14
      7.4700	  638.00	  582.88	-1769.50	  464.13
      7.5700	  672.00	  582.87	-1769.50	  464.12
      7.6700	  609.00	  582.85	-1769.50	  464.11
      7.7700	  657.00	  582.83	-1769.50	  464.08
      7.8700	  645.00	  582.80	-1769.50	  464.06
      7.9700	  644.00	  582.77	-1769.50	  464.03
      8.0700	  665.00	  582.74	-1769.50	  463.99
      8.1700	  642.00	  582.70	-1769.50	  463.95
      8.2700	  646.00	  582.65	-1769.50	  463.90
      8.3700	  626.00	  582.60	-1769.50	  463.85
      8.4700	  639.00	  582.54	-1769.50	  463.80
      8.5700	  640.00	  582.48	-1769.50	  463.74
      8.6700	  666.00	  582.42	-1769.50	  463.67
      8.7700	  617.00	  582.35	-1769.50	  463.60
      8.8700	  603.00	  582.28	-1769.50	  463.53
      8.9700	  615.00	  582.20	-1769.50	  463.45
      9.0700	  587.00	  582.12	-1769.50	  463.37
      9.1700	  621.00	  582.03	-1769.50	  463.28
      9.2700	  607.00	  581.94	-1769.50	  463.19
      9.3700	  671.00	  581.84	-1769.50	  463.10
      9.4700	  590.00	  581.74	-1769.50	  463.00
      9.5700	  622.00	  581.64	-1769.50	  462.89
      9.6700	  615.00	  581.53	-1769.50	  462.79
      9.7700	  563.00	  581.42	-1769.50	  462.67
      9.8700	  632.00	  581.30	-1769.50	  462.56
      9.9700	  583.00	  581.18	-1769.50	  462.44
     10.0700	  578.00	  581.91	-1773.41	  462.31
     10.1700	  624.00	  581.87	-1727.37	  462.18
     10.2700	  556.00	  581.85	-1795.35	  462.05
     10.3700	  605.00	  581.86	-1746.36	  461.92
     10.4700	  601.00	  581.93	-1750.43	  461.78
     10.5700	  600.00	  582.13	-1751.63	  461.63
     10.6700	  611.00	  582.54	-1741.04	  461.49
     10.7700	  577.00	  583.31	-1775.81	  461.34
     10.8700	  575.00	  584.49	-1778.99	  461.18
     10.9700	  598.00	  586.09	-1757.59	  461.02
     11.0700	  584.00	  588.05	-1773.55	  460.86
     11.1700	  579.00	  590.38	-1780.88	  460.70
     11.2700	  586.00	  593.12	-1776.62	  460.53
     11.3700	  627.00	  596.35	-1738.85	  460.35
     11.4700	  575.00	  600.21	-1794.71	  460.18
     11.5700	  579.00	  604.93	-1795.43	  460.00
     11.6700	  583.00	  610.88	-1797.38	  459.82
     11.7700	  618.00	  618.73	-1770.23	  459.63
     11.8700	  649.00	  629.48	-1749.98	  459.44
     11.9700	  662.00	  643.83	-1751.33	  459.25
     12.0700	  732.00	  660.02	-1697.52	  459.06
     12.1700	  711.00	  671.28	-1729.78	  458.86
     12.2700	  653.00	  667.07	-1783.57	  458.66
     12.3700	  639.00	  644.59	-1775.09	  458.45
     12.4700	  676.00	  617.64	-1711.14	  458.25
     12.5700	  574.00	  598.11	-1793.61	  458.04
     12.6700	  605.00	  587.57	-1752.07	  457.82
     12.7700	  597.00	  582.78	-1755.28	  457.61
     12.8700	  565.00	  580.56	-1785.06	  457.39
     12.9700	  552.00	  579.30	-1796.80	  457.17
     13.0700	  571.00	  578.42	-1776.92	  456.94
     13.1700	  590.00	  577.72	-1757.22	  456.71
     13.2700	  542.00	  577.14	-1804.64	  456.48
     13.3700	  575.00	  576.63	-1771.13	  456.25
     13.4700	  580.00	  576.19	-1765.69	  456.02
     13.5700	  604.00	  575.78	-1741.28	  455.78
     13.6700	  581.00	  575.40	-1763.90	  455.54
     13.7700	  528.00	  575.05	-1816.55	  455.29
     13.8700	  551.00	  574.71	-1793.21	  455.05
     13.9700	  610.00	  574.38	-1733.88	  454.80
     14.0700	  578.00	  574.06	-1765.56	  454.55
     14.1700	  592.00	  573.75	-1751.25	  454.30
     14.2700	  525.00	  573.45	-1817.95	  454.04
     14.3700	  562.00	  573.14	-1780.64	  453.79
     14.4700	  586.00	  572.85	-1756.35	  453.53
     14.5700	  498.00	  572.55	-1844.05	  453.26
     14.6700	  552.00	  572.26	-1789.76	  453.00
     14.7700	  573.00	  571.97	-1768.47	  452.73
     14.8700	  554.00	  571.67	-1787.17	  452.47
     14.9700	  553.00	  571.38	-1787.88	  452.20
     15.0700	  581.00	  571.09	-1759.59	  451.92
     15.1700	  531.00	  570.80	-1809.30	  451.65
     15.2700	  542.00	  570.51	-1798.01	  451.37
     15.3700	  551.00	  570.22	-1788.72	  451.09
     15.4700	  580.00	  569.92	-1759.42	  450.81
     15.5700	  554.00	  569.63	-1785.13	  450.53
     15.6700	  563.00	  569.33	-1775.83	  450.25
     15.7700	  602.00	  569.04	-1736.54	  449.96
     15.8700	  566.00	  568.74	-1772.24	  449.67
     15.9700	  571.00	  568.44	-1766.94	  449.38
     16.0700	  553.00	  568.14	-1784.64	  449.09
     16.1700	  587.00	  567.87	-1750.37	  448.80
     16.2700	  589.00	  567.57	-1748.07	  448.50
     16.3700	  601.00	  567.27	-1735.77	  448.21
     16.4700	  574.00	  566.96	-1762.46	  447.91
     16.5700	  566.00	  566.66	-1770.16	  447.61
     16.6700	  573.00	  566.36	-1762.86	  447.31
     16.7700	  572.00	  566.05	-1763.55	  447.00
     16.8700	  562.00	  565.74	-1773.24	  446.70
     16.9700	  552.00	  565.43	-1782.93	  446.39
     17.0700	  533.00	  565.12	-1801.62	  446.09
     17.1700	  533.00	  564.81	-1801.31	  445.78
     17.2700	  577.00	  564.50	-1757.00	  445.47
     17.3700	  554.00	  564.19	-1779.69	  445.16
     17.4700	  583.00	  563.87	-1750.37	  444.85
     17.5700	  574.00	  563.56	-1759.06	  444.53
     17.6700	  553.00	  563.24	-1779.74	  444.22
     17.7700	  568.00	  562.92	-1764.42	  443.90
     17.8700	  560.00	  562.60	-1772.10	  443.58
     17.9700	  628.00	  562.28	-1703.78	  443.26
     18.0700	  580.00	  562.06	-1751.56	  442.94
     18.1700	  565.00	  561.74	-1766.24	  442.62
     18.2700	  548.00	  561.42	-1782.92	  442.30
     18.3700	  587.00	  561.10	-1743.60	  441.98
     18.4700	  582.00	  560.78	-1748.28	  441.65
     18.5700	  547.00	  560.46	-1782.96	  441.33
     18.6700	  573.00	  560.13	-1756.63	  441.00
     18.7700	  574.00	  559.81	-1755.31	  440.68
     18.8700	  564.00	  559.48	-1764.98	  440.35
     18.9700	  539.00	  559.25	-1789.75	  440.02
     19.0700	  546.00	  558.93	-1782.43	  439.69
     19.1700	  547.00	  558.60	-1781.10	  439.36
     19.2700	  560.00	  558.28	-1767.78	  439.03
     19.3700	  540.00	  557.95	-1787.45	  438.70
     19.4700	  548.00	  557.62	-1779.12	  438.36
     19.5700	  564.00	  557.30	-1762.80	  438.03
     19.6700	  527.00	  556.97	-1799.47	  437.70
     19.7700	  564.00	  556.64	-1762.14	  437.36
     19.8700	  550.00	  556.32	-1775.82	  437.02
     19.9700	  549.00	  555.99	-1776.49	  436.69
     20.0700	  552.00	  555.66	-1773.16	  436.35
     20.1700	  542.00	  555.33	-1782.83	  436.01
     20.2700	  525.00	  555.01	-1799.51	  435.68
     20.3700	  523.00	  554.68	-1801.18	  435.34
     20.4700	  556.00	  554.32	-1767.82	  435.00
     20.5700	  544.00	  553.99	-1779.49	  434.66
     20.6700	  545.00	  553.67	-1778.17	  434.32
     20.7700	  505.00	  553.34	-1817.84	  433.98
     20.8700	  582.00	  553.01	-1740.51	  433.64
     20.9700	  523.00	  552.73	-1799.23	  433.30
     21.0700	  553.00	  552.40	-1768.90	  432.96
     21.1700	  537.00	  552.08	-1784.58	  432.61
     21.2700	  572.00	  551.76	-1749.26	  432.27
     21.3700	  528.00	  551.44	-1792.94	  431.93
     21.4700	  529.00	  551.12	-1791.62	  431.59
     21.5700	  521.00	  550.80	-1799.30	  431.24
     21.6700	  596.00	  550.48	-1723.98	  430.90
     21.7700	  586.00	  550.17	-1733.67	  430.56
     21.8700	  532.00	  549.85	-1787.35	  430.21
     21.9700	  523.00	  549.54	-1796.04	  429.87
     22.0700	  574.00	  549.23	-1744.73	  429.53
     22.1700	  563.00	  548.93	-1755.43	  429.18
     22.2700	  590.00	  548.63	-1728.13	  428.84
     22.3700	  553.00	  548.33	-1764.83	  428.49
     22.4700	  589.00	  548.04	-1728.54	  428.15
     22.5700	  529.00	  547.75	-1788.25	  427.81
     22.6700	  571.00	  547.46	-1745.96	  427.46
     22.7700	  508.00	  547.19	-1808.69	  427.12
     22.8700	  530.00	  546.92	-1786.42	  426.77
     22.9700	  549.00	  546.67	-1767.17	  426.43
     23.0700	  541.00	  546.43	-1774.93	  426.09
     23.1700	  533.00	  546.20	-1782.70	  425.74
     23.2700	  564.00	  546.00	-1751.50	  425.40
     23.3700	  556.00	  545.83	-1759.33	  425.06
     23.4700	  543.00	  545.69	-1772.19	  424.71
     23.5700	  519.00	  545.59	-1796.09	  424.37
     23.6700	  538.00	  545.57	-1777.07	  424.03
     23.7700	  561.00	  545.80	-1754.30	  423.68
     23.8700	  535.00	  546.11	-1780.61	  423.34
     23.9700	  553.00	  546.88	-1763.38	  423.00
     24.0700	  554.00	  548.53	-1764.03	  422.66
     24.1700	  572.00	  551.76	-1749.26	  422.32
     24.2700	  540.00	  557.45	-1786.95	  421.97
     24.3700	  565.00	  566.60	-1771.10	  421.63
     24.4700	  589.00	  580.29	-1760.79	  421.29
     24.5700	  568.00	  598.80	-1800.30	  420.95
     24.6700	  614.00	  619.33	-1774.83	  420.61
     24.7700	  632.00	  633.74	-1771.24	  420.27
     24.8700	  629.00	  630.98	-1771.48	  419.93
     24.9700	  604.00	  609.32	-1774.82	  419.60
     25.0700	  599.00	  582.69	-1753.19	  419.26
     25.1700	  568.00	  562.63	-1764.13	  418.92
     25.2700	  554.00	  551.28	-1766.78	  418.58
     25.3700	  586.00	  545.94	-1729.44	  418.25
     25.4700	  496.00	  543.52	-1817.02	  417.91
     25.5700	  562.00	  542.24	-1749.74	  417.57
     25.6700	  556.00	  541.42	-1754.92	  417.24
     25.7700	  564.00	  540.81	-1746.31	  416.91
     25.8700	  573.00	  540.35	-1736.85	  416.57
     25.9700	  522.00	  540.00	-1787.50	  416.24
     26.0700	  518.00	  539.74	-1791.24	  415.91
     26.1700	  574.00	  539.56	-1735.06	  415.57
     26.2700	  563.00	  539.46	-1745.96	  415.24
     26.3700	  523.00	  539.44	-1785.94	  414.91
     26.4700	  534.00	  539.50	-1775.00	  414.58
     26.5700	  532.00	  539.65	-1777.15	  414.25
     26.6700	  602.00	  539.93	-1707.43	  413.93
     26.7700	  602.00	  540.34	-1707.84	  413.60
     26.8700	  528.00	  540.92	-1782.42	  413.27
     26.9700	  600.00	  541.72	-1711.22	  412.95
     27.0700	  550.00	  542.83	-1762.33	  412.62
     27.1700	  526.00	  544.37	-1787.87	  412.30
     27.2700	  504.00	  546.61	-1812.11	  411.97
     27.3700	  551.00	  550.04	-1768.54	  411.65
     27.4700	  513.00	  555.68	-1812.18	  411.33
     27.5700	  596.00	  565.30	-1738.80	  411.01
     27.6700	  561.00	  581.73	-1790.23	  410.69
     27.7700	  555.00	  608.56	-1823.06	  410.37
     27.8700	  589.00	  648.87	-1829.37	  410.05
     27.9700	  662.00	  702.65	-1810.15	  409.73
     28.0700	  762.00	  763.44	-1770.94	  409.42
     28.1700	  914.00	  815.55	-1671.05	  409.10
     28.2700	  953.00	  836.05	-1652.55	  408.79
     28.3700	  864.00	  813.08	-1718.58	  408.47
     28.4700	  823.00	  770.55	-1717.05	  408.16
     28.5700	  727.00	  743.91	-1786.41	  407.85
     28.6700	  709.00	  748.16	-1808.66	  407.54
     28.7700	  720.00	  777.05	-1826.55	  407.23
     28.8700	  748.00	  808.60	-1830.10	  406.92
     28.9700	  836.00	  812.61	-1746.11	  406.61
     29.0700	  770.00	  771.44	-1770.94	  406.31
     29.1700	  718.00	  703.86	-1755.36	  406.00
     29.2700	  628.00	  640.66	-1782.16	  405.70
     29.3700	  670.00	  595.73	-1695.23	  405.39
     29.4700	  631.00	  568.96	-1707.46	  405.09
     29.5700	  625.00	  554.68	-1699.18	  404.79
     29.6700	  666.00	  547.21	-1650.71	  404.49
     29.7700	  629.00	  542.99	-1683.49	  404.19
     29.8700	  653.00	  540.37	-1656.87	  403.89
     29.9700	  527.00	  538.73	-1781.23	  403.60
     30.0700	  579.00	  537.94	-1728.44	  403.30
     30.1700	  567.00	  538.19	-1740.69	  403.01
     30.2700	  568.00	  540.07	-1741.57	  402.72
     30.3700	  520.00	  544.76	-1794.26	  402.42
     30.4700	  559.00	  554.02	-1764.52	  402.13
     30.5700	  548.00	  569.69	-1791.19	  401.85
     30.6700	  592.00	  592.23	-1769.73	  401.56
     30.7700	  635.00	  618.75	-1753.25	  401.27
     30.8700	  603.00	  641.55	-1808.05	  400.99
     30.9700	  671.00	  649.02	-1747.52	  400.70
     31.0700	  583.00	  633.72	-1820.22	  400.42
     31.1700	  603.00	  603.81	-1770.31	  400.14
     31.2700	  571.00	  574.25	-1772.75	  399.86
     31.3700	  573.00	  552.67	-1749.17	  399.58
     31.4700	  516.00	  539.69	-1793.19	  399.30
     31.5700	  544.00	  532.81	-1758.31	  399.03
     31.6700	  523.00	  529.30	-1775.80	  398.75
     31.7700	  557.00	  527.36	-1739.86	  398.48
     31.8700	  516.00	  526.12	-1779.62	  398.21
     31.9700	  523.00	  525.27	-1771.77	  397.94
     32.0700	  510.00	  524.66	-1784.16	  397.67
     32.1700	  500.00	  524.23	-1793.73	  397.40
     32.2700	  523.00	  523.98	-1770.48	  397.13
     32.3700	  574.00	  523.87	-1719.37	  396.87
     32.4700	  513.00	  523.93	-1780.43	  396.60
     32.5700	  560.00	  524.15	-1733.65	  396.34
     32.6700	  520.00	  524.57	-1774.07	  396.08
     32.7700	  513.00	  525.24	-1781.74	  395.82
     32.8700	  540.00	  526.21	-1755.71	  395.56
     32.9700	  518.00	  527.61	-1779.11	  395.31
     33.0700	  522.00	  529.64	-1777.14	  395.05
     33.1700	  522.00	  532.77	-1780.27	  394.80
     33.2700	  518.00	  538.05	-1789.55	  394.55
     33.3700	  561.00	  547.77	-1756.27	  394.30
     33.4700	  579.00	  566.33	-1756.83	  394.05
     33.5700	  607.00	  600.80	-1763.30	  393.80
     33.6700	  654.00	  659.26	-1774.76	  393.55
     33.7700	  767.00	  745.28	-1747.78	  393.31
     33.8700	  902.00	  849.40	-1716.90	  393.07
     33.9700	  999.00	  943.44	-1713.94	  392.82
     34.0700	 1089.00	  984.30	-1664.80	  392.58
     34.1700	 1033.00	  940.73	-1677.23	  392.35
     34.2700	  892.00	  835.50	-1713.00	  392.11
     34.3700	  753.00	  722.95	-1739.45	  391.87
     34.4700	  581.00	  636.23	-1824.73	  391.64
     34.5700	  595.00	  581.97	-1756.47	  391.41
     34.6700	  558.00	  552.77	-1764.27	  391.18
     34.7700	  570.00	  538.17	-1737.67	  390.95
     34.8700	  509.00	  530.57	-1791.07	  390.72
     34.9700	  496.00	  526.04	-1799.54	  390.49
     35.0700	  554.00	  522.91	-1738.41	  390.27
     35.1700	  507.00	  520.55	-1783.05	  390.05
     35.2700	  532.00	  518.70	-1756.20	  389.83
     35.3700	  534.00	  517.18	-1752.68	  389.61
     35.4700	  490.00	  515.92	-1795.42	  389.39
     35.5700	  531.00	  514.86	-1753.36	  389.17
     35.6700	  553.00	  513.95	-1730.45	  388.96
     35.7700	  521.00	  513.16	-1761.66	  388.74
     35.8700	  483.00	  512.47	-1798.97	  388.53
     35.9700	  542.00	  511.85	-1739.35	  388.32
     36.0700	  485.00	  511.79	-1796.29	  388.12
     36.1700	  533.00	  511.30	-1747.80	  387.91
     36.2700	  532.00	  510.87	-1748.37	  387.70
     36.3700	  557.00	  510.47	-1722.97	  387.50
     36.4700	  518.00	  510.12	-1761.62	  387.30
     36.5700	  490.00	  509.81	-1789.31	  387.10
     36.6700	  529.00	  509.55	-1750.05	  386.90
     36.7700	  493.00	  509.33	-1785.83	  386.71
     36.8700	  536.00	  509.19	-1742.69	  386.51
     36.9700	  572.00	  509.19	-1706.69	  386.32
     37.0700	  492.00	  509.46	-1786.96	  386.13
     37.1700	  537.00	  510.28	-1742.78	  385.94
     37.2700	  494.00	  512.06	-1787.56	  385.75
     37.3700	  562.00	  515.24	-1722.74	  385.56
     37.4700	  517.00	  519.94	-1772.44	  385.38
     37.5700	  512.00	  525.50	-1783.00	  385.19
     37.6700	  519.00	  530.36	-1780.86	  385.01
     37.7700	  528.00	  532.57	-1774.07	  384.83
     37.8700	  551.00	  531.39	-1749.89	  384.65
     37.9700	  534.00	  528.02	-1763.52	  384.48
     38.0700	  540.00	  523.70	-1753.20	  384.30
     38.1700	  508.00	  518.95	-1780.45	  384.13
     38.2700	  535.00	  514.44	-1748.94	  383.96
     38.3700	  505.00	  510.82	-1775.32	  383.79
     38.4700	  509.00	  508.28	-1768.78	  383.62
     38.5700	  557.00	  506.66	-1719.16	  383.46
     38.6700	  508.00	  505.60	-1767.10	  383.29
     38.7700	  508.00	  505.01	-1766.51	  383.13
     38.8700	  504.00	  504.61	-1770.11	  382.97
     38.9700	  501.00	  504.31	-1772.81	  382.81
     39.0700	  483.00	  504.05	-1790.55	  382.65
     39.1700	  476.00	  503.74	-1797.24	  382.50
     39.2700	  511.00	  503.54	-1762.04	  382.34
     39.3700	  509.00	  503.36	-1763.86	  382.19
     39.4700	  521.00	  503.19	-1751.69	  382.04
     39.5700	  517.00	  503.17	-1755.67	  381.89
     39.6700	  485.00	  503.03	-1787.53	  381.74
     39.7700	  489.00	  502.90	-1783.40	  381.60
     39.8700	  518.00	  502.78	-1754.28	  381.45
     39.9700	  475.00	  502.67	-1797.17	  381.31
     40.0700	  497.00	  502.57	-1775.07	  381.17
     40.1700	  474.00	  502.49	-1797.99	  381.03
     40.2700	  487.00	  502.41	-1784.91	  380.90
     40.3700	  468.00	  502.35	-1803.85	  380.76
     40.4700	  493.00	  502.30	-1778.80	  380.63
     40.5700	  505.00	  502.27	-1766.77	  380.50
     40.6700	  506.00	  502.26	-1765.76	  380.37
     40.7700	  494.00	  502.26	-1777.76	  380.24
