MSG Master    CELL:    5.91940   5.91940  23.27202   90.0000   90.0000  120.0000   SPGR: P 63/m m c             TEMP:   1074.85
  1   1280     2.52000     0.00000    -0.12579     0.00000     0.00000    0
    99     0     2
       0.00000      10.00000
     125.00000     130.00000
 2Theta	Yobs	Ycal	Yobs-Ycal	Backg	Posr	(hkl)	K
      0.7700	    0.00	  528.43	-1775.50	  410.87
      0.8700	    0.00	  529.40	-1775.50	  411.85
      0.9700	   44.00	  530.36	-1775.50	  412.81
      1.0700	   52.00	  531.31	-1775.50	  413.76
      1.1700	   43.00	  532.24	-1775.50	  414.69
      1.2700	   40.00	  533.16	-1775.50	  415.61
      1.3700	   31.00	  534.07	-1775.50	  416.52
      1.4700	   97.00	  534.97	-1775.50	  417.42
      1.5700	  318.00	  535.85	-1775.50	  418.30
      1.6700	  484.00	  536.72	-1775.50	  419.17
      1.7700	  539.00	  537.58	-1775.50	  420.03
      1.8700	  664.00	  538.42	-1775.50	  420.87
      1.9700	  713.00	  539.26	-1775.50	  421.70
      2.0700	  773.00	  540.08	-1775.50	  422.53
      2.1700	  785.00	  540.88	-1775.50	  423.33
      2.2700	  790.00	  541.68	-1775.50	  424.13
      2.3700	  779.00	  542.47	-1775.50	  424.91
      2.4700	  700.00	  543.24	-1775.50	  425.69
      2.5700	  657.00	  544.00	-1775.50	  426.45
      2.6700	  657.00	  544.75	-1775.50	  427.20
      2.7700	  672.00	  545.48	-1775.50	  427.93
      2.8700	  640.00	  546.21	-1775.50	  428.66
      2.9700	  616.00	  546.92	-1775.50	  429.37
      3.0700	  587.00	  547.62	-1775.50	  430.07
      3.1700	  620.00	  548.32	-1775.50	  430.76
      3.2700	  664.00	  548.99	-1775.50	  431.44
      3.3700	  641.00	  549.66	-1775.50	  432.11
      3.4700	  740.00	  550.32	-1775.50	  432.77
      3.5700	  823.00	  550.97	-1775.50	  433.41
      3.6700	  863.00	  551.60	-1775.50	  434.05
      3.7700	  915.00	  552.23	-1775.50	  434.67
      3.8700	 1001.00	  552.84	-1775.50	  435.29
      3.9700	  979.00	  553.44	-1775.50	  435.89
      4.0700	 1084.00	  554.03	-1775.50	  436.48
      4.1700	 1091.00	  554.61	-1775.50	  437.06
      4.2700	 1113.00	  555.19	-1775.50	  437.63
      4.3700	 1084.00	  555.75	-1775.50	  438.19
      4.4700	 1086.00	  556.30	-1775.50	  438.74
      4.5700	 1015.00	  556.84	-1775.50	  439.28
      4.6700	  998.00	  557.37	-1775.50	  439.81
      4.7700	  980.00	  557.88	-1775.50	  440.33
      4.8700	  986.00	  558.39	-1775.50	  440.84
      4.9700	  978.00	  558.89	-1775.50	  441.34
      5.0700	  931.00	  559.38	-1775.50	  441.83
      5.1700	  897.00	  559.86	-1775.50	  442.31
      5.2700	  880.00	  560.33	-1775.50	  442.78
      5.3700	  887.00	  560.79	-1775.50	  443.24
      5.4700	  948.00	  561.24	-1775.50	  443.69
      5.5700	  841.00	  561.68	-1775.50	  444.13
      5.6700	  841.00	  562.12	-1775.50	  444.56
      5.7700	  823.00	  562.54	-1775.50	  444.99
      5.8700	  830.00	  562.95	-1775.50	  445.40
      5.9700	  793.00	  563.35	-1775.50	  445.80
      6.0700	  781.00	  563.75	-1775.50	  446.20
      6.1700	  779.00	  564.13	-1775.50	  446.58
      6.2700	  807.00	  564.51	-1775.50	  446.96
      6.3700	  755.00	  564.88	-1775.50	  447.33
      6.4700	  772.00	  565.24	-1775.50	  447.69
      6.5700	  740.00	  565.59	-1775.50	  448.04
      6.6700	  745.00	  565.93	-1775.50	  448.38
      6.7700	  708.00	  566.26	-1775.50	  448.71
      6.8700	  716.00	  566.58	-1775.50	  449.03
      6.9700	  744.00	  566.90	-1775.50	  449.35
      7.0700	  684.00	  567.21	-1775.50	  449.65
      7.1700	  747.00	  567.50	-1775.50	  449.95
      7.2700	  675.00	  567.79	-1775.50	  450.24
      7.3700	  742.00	  568.08	-1775.50	  450.52
      7.4700	  685.00	  568.35	-1775.50	  450.80
      7.5700	  662.00	  568.62	-1775.50	  451.06
      7.6700	  673.00	  568.87	-1775.50	  451.32
      7.7700	  659.00	  569.12	-1775.50	  451.57
      7.8700	  610.00	  569.36	-1775.50	  451.81
      7.9700	  634.00	  569.60	-1775.50	  452.05
      8.0700	  646.00	  569.82	-1775.50	  452.27
      8.1700	  644.00	  570.04	-1775.50	  452.49
      8.2700	  640.00	  570.25	-1775.50	  452.70
      8.3700	  683.00	  570.46	-1775.50	  452.90
      8.4700	  619.00	  570.65	-1775.50	  453.10
      8.5700	  612.00	  570.84	-1775.50	  453.29
      8.6700	  631.00	  571.02	-1775.50	  453.47
      8.7700	  612.00	  571.19	-1775.50	  453.64
      8.8700	  642.00	  571.36	-1775.50	  453.81
      8.9700	  652.00	  571.52	-1775.50	  453.97
      9.0700	  596.00	  571.67	-1775.50	  454.12
      9.1700	  670.00	  571.82	-1775.50	  454.26
      9.2700	  640.00	  571.95	-1775.50	  454.40
      9.3700	  624.00	  572.08	-1775.50	  454.53
      9.4700	  583.00	  572.21	-1775.50	  454.66
      9.5700	  605.00	  572.32	-1775.50	  454.77
      9.6700	  630.00	  572.44	-1775.50	  454.88
      9.7700	  594.00	  572.54	-1775.50	  454.99
      9.8700	  630.00	  572.64	-1775.50	  455.08
      9.9700	  617.00	  572.73	-1775.50	  455.18
     10.0700	  606.00	  573.63	-1743.13	  455.26
     10.1700	  592.00	  573.80	-1757.30	  455.34
     10.2700	  574.00	  573.98	-1775.48	  455.41
     10.3700	  602.00	  574.19	-1747.69	  455.47
     10.4700	  567.00	  574.45	-1782.95	  455.53
     10.5700	  618.00	  574.82	-1732.32	  455.58
     10.6700	  615.00	  575.39	-1735.89	  455.63
     10.7700	  593.00	  576.27	-1758.77	  455.67
     10.8700	  579.00	  577.53	-1774.03	  455.71
     10.9700	  593.00	  579.16	-1761.66	  455.73
     11.0700	  540.00	  581.14	-1816.64	  455.76
     11.1700	  586.00	  583.45	-1772.95	  455.77
     11.2700	  606.00	  586.14	-1755.64	  455.78
     11.3700	  609.00	  589.27	-1755.77	  455.79
     11.4700	  581.00	  592.98	-1787.48	  455.79
     11.5700	  608.00	  597.47	-1764.97	  455.78
     11.6700	  614.00	  603.08	-1764.58	  455.77
     11.7700	  617.00	  610.41	-1768.91	  455.75
     11.8700	  653.00	  620.33	-1742.83	  455.73
     11.9700	  654.00	  633.41	-1754.91	  455.70
     12.0700	  634.00	  648.07	-1789.57	  455.67
     12.1700	  696.00	  658.38	-1737.88	  455.63
     12.2700	  655.00	  655.11	-1775.61	  455.59
     12.3700	  671.00	  635.44	-1739.94	  455.54
     12.4700	  627.00	  611.29	-1759.79	  455.48
     12.5700	  578.00	  593.47	-1790.97	  455.42
     12.6700	  583.00	  583.66	-1776.16	  455.36
     12.7700	  542.00	  579.15	-1812.65	  455.29
     12.8700	  588.00	  577.10	-1764.60	  455.21
     12.9700	  532.00	  576.00	-1819.50	  455.14
     13.0700	  626.00	  575.27	-1724.77	  455.05
     13.1700	  574.00	  574.72	-1776.22	  454.96
     13.2700	  564.00	  574.28	-1785.78	  454.87
     13.3700	  577.00	  573.92	-1772.42	  454.77
     13.4700	  583.00	  573.61	-1766.11	  454.67
     13.5700	  616.00	  573.34	-1732.84	  454.56
     13.6700	  585.00	  573.09	-1763.59	  454.45
     13.7700	  574.00	  572.87	-1774.37	  454.34
     13.8700	  523.00	  572.66	-1825.16	  454.22
     13.9700	  614.00	  572.46	-1733.96	  454.09
     14.0700	  540.00	  572.26	-1807.76	  453.96
     14.1700	  566.00	  572.07	-1781.57	  453.83
     14.2700	  562.00	  571.89	-1785.39	  453.69
     14.3700	  574.00	  571.70	-1773.20	  453.55
     14.4700	  536.00	  571.52	-1811.02	  453.41
     14.5700	  554.00	  571.34	-1792.84	  453.26
     14.6700	  533.00	  571.16	-1813.66	  453.10
     14.7700	  549.00	  570.97	-1797.47	  452.95
     14.8700	  568.00	  570.79	-1778.29	  452.79
     14.9700	  573.00	  570.60	-1773.10	  452.62
     15.0700	  501.00	  570.42	-1844.92	  452.45
     15.1700	  594.00	  570.23	-1751.73	  452.28
     15.2700	  586.00	  570.04	-1759.54	  452.10
     15.3700	  583.00	  569.84	-1762.34	  451.92
     15.4700	  539.00	  569.65	-1806.15	  451.74
     15.5700	  579.00	  569.45	-1765.95	  451.55
     15.6700	  557.00	  569.25	-1787.75	  451.36
     15.7700	  577.00	  569.05	-1767.55	  451.17
     15.8700	  554.00	  568.84	-1790.34	  450.97
     15.9700	  536.00	  568.63	-1808.13	  450.77
     16.0700	  547.00	  568.45	-1796.95	  450.57
     16.1700	  575.00	  568.23	-1768.73	  450.36
     16.2700	  550.00	  568.02	-1793.52	  450.15
     16.3700	  539.00	  567.80	-1804.30	  449.94
     16.4700	  538.00	  567.58	-1805.08	  449.72
     16.5700	  525.00	  567.35	-1817.85	  449.50
     16.6700	  555.00	  567.13	-1787.63	  449.28
     16.7700	  564.00	  566.90	-1778.40	  449.05
     16.8700	  559.00	  566.66	-1783.16	  448.82
     16.9700	  550.00	  566.43	-1791.93	  448.59
     17.0700	  553.00	  566.19	-1788.69	  448.36
     17.1700	  532.00	  565.95	-1809.45	  448.12
     17.2700	  561.00	  565.71	-1780.21	  447.88
     17.3700	  570.00	  565.47	-1770.97	  447.64
     17.4700	  564.00	  565.22	-1776.72	  447.39
     17.5700	  552.00	  564.97	-1788.47	  447.15
     17.6700	  568.00	  564.72	-1772.22	  446.89
     17.7700	  543.00	  564.46	-1796.96	  446.64
     17.8700	  534.00	  564.21	-1805.71	  446.39
     17.9700	  528.00	  564.05	-1811.55	  446.13
     18.0700	  553.00	  563.79	-1786.29	  445.87
     18.1700	  531.00	  563.53	-1808.03	  445.60
     18.2700	  561.00	  563.27	-1777.77	  445.34
     18.3700	  559.00	  563.00	-1779.50	  445.07
     18.4700	  534.00	  562.73	-1804.23	  444.80
     18.5700	  547.00	  562.46	-1790.96	  444.53
     18.6700	  544.00	  562.19	-1793.69	  444.25
     18.7700	  552.00	  561.92	-1785.42	  443.98
     18.8700	  557.00	  561.73	-1780.23	  443.70
     18.9700	  571.00	  561.45	-1765.95	  443.42
     19.0700	  591.00	  561.17	-1745.67	  443.14
     19.1700	  563.00	  560.89	-1773.39	  442.85
     19.2700	  556.00	  560.61	-1780.11	  442.56
     19.3700	  510.00	  560.33	-1825.83	  442.28
     19.4700	  521.00	  560.05	-1814.55	  441.99
     19.5700	  532.00	  559.76	-1803.26	  441.69
     19.6700	  556.00	  559.47	-1778.97	  441.40
     19.7700	  569.00	  559.19	-1765.69	  441.10
     19.8700	  547.00	  558.90	-1787.40	  440.81
     19.9700	  575.00	  558.61	-1759.11	  440.51
     20.0700	  533.00	  558.31	-1800.81	  440.21
     20.1700	  544.00	  558.02	-1789.52	  439.90
     20.2700	  564.00	  557.73	-1769.23	  439.60
     20.3700	  538.00	  557.43	-1794.93	  439.29
     20.4700	  544.00	  557.14	-1788.64	  438.99
     20.5700	  610.00	  556.84	-1722.34	  438.68
     20.6700	  591.00	  556.54	-1741.04	  438.37
     20.7700	  575.00	  556.24	-1756.74	  438.06
     20.8700	  591.00	  555.95	-1740.45	  437.74
     20.9700	  555.00	  555.65	-1776.15	  437.43
     21.0700	  570.00	  555.35	-1760.85	  437.11
     21.1700	  524.00	  555.05	-1806.55	  436.80
     21.2700	  562.00	  554.75	-1768.25	  436.48
     21.3700	  580.00	  554.46	-1749.96	  436.16
     21.4700	  538.00	  554.16	-1791.66	  435.84
     21.5700	  572.00	  553.86	-1757.36	  435.52
     21.6700	  558.00	  553.56	-1771.06	  435.19
     21.7700	  551.00	  553.26	-1777.76	  434.87
     21.8700	  582.00	  552.97	-1746.47	  434.54
     21.9700	  565.00	  552.67	-1763.17	  434.22
     22.0700	  561.00	  552.38	-1766.88	  433.89
     22.1700	  561.00	  552.09	-1766.59	  433.56
     22.2700	  533.00	  551.80	-1794.30	  433.24
     22.3700	  554.00	  551.52	-1773.02	  432.91
     22.4700	  596.00	  551.23	-1730.73	  432.58
     22.5700	  586.00	  550.96	-1740.46	  432.24
     22.6700	  581.00	  550.68	-1745.18	  431.91
     22.7700	  581.00	  550.42	-1744.92	  431.58
     22.8700	  550.00	  550.16	-1775.66	  431.25
     22.9700	  542.00	  549.91	-1783.41	  430.91
     23.0700	  505.00	  549.67	-1820.17	  430.58
     23.1700	  550.00	  549.45	-1774.95	  430.24
     23.2700	  524.00	  549.25	-1800.75	  429.91
     23.3700	  533.00	  549.07	-1791.57	  429.57
     23.4700	  554.00	  548.92	-1770.42	  429.23
     23.5700	  515.00	  548.82	-1809.32	  428.89
     23.6700	  537.00	  548.92	-1787.42	  428.56
     23.7700	  521.00	  549.00	-1803.50	  428.22
     23.8700	  555.00	  549.27	-1769.77	  427.88
     23.9700	  593.00	  549.96	-1732.46	  427.54
     24.0700	  551.00	  551.44	-1775.94	  427.20
     24.1700	  525.00	  554.33	-1804.83	  426.86
     24.2700	  576.00	  559.38	-1758.88	  426.52
     24.3700	  590.00	  567.47	-1752.97	  426.18
     24.4700	  585.00	  579.49	-1769.99	  425.84
     24.5700	  623.00	  595.60	-1748.10	  425.50
     24.6700	  642.00	  613.24	-1746.74	  425.15
     24.7700	  618.00	  625.42	-1782.92	  424.81
     24.8700	  696.00	  622.78	-1702.28	  424.47
     24.9700	  583.00	  604.02	-1796.52	  424.13
     25.0700	  656.00	  581.05	-1700.55	  423.79
     25.1700	  575.00	  563.64	-1764.14	  423.44
     25.2700	  586.00	  553.62	-1743.12	  423.10
     25.3700	  553.00	  548.79	-1771.29	  422.76
     25.4700	  566.00	  546.54	-1756.04	  422.42
     25.5700	  544.00	  545.34	-1776.84	  422.08
     25.6700	  529.00	  544.55	-1791.05	  421.73
     25.7700	  578.00	  543.98	-1741.48	  421.39
     25.8700	  534.00	  543.54	-1785.04	  421.05
     25.9700	  567.00	  543.20	-1751.70	  420.71
     26.0700	  522.00	  542.95	-1796.45	  420.37
     26.1700	  541.00	  542.77	-1777.27	  420.03
     26.2700	  561.00	  542.67	-1757.17	  419.68
     26.3700	  562.00	  542.65	-1756.15	  419.34
     26.4700	  555.00	  542.71	-1763.21	  419.00
     26.5700	  553.00	  542.87	-1765.37	  418.66
     26.6700	  611.00	  543.15	-1707.65	  418.32
     26.7700	  560.00	  543.56	-1759.06	  417.98
     26.8700	  508.00	  544.14	-1811.64	  417.64
     26.9700	  494.00	  544.96	-1826.46	  417.30
     27.0700	  566.00	  546.07	-1755.57	  416.96
     27.1700	  515.00	  547.63	-1808.13	  416.63
     27.2700	  564.00	  549.89	-1761.39	  416.29
     27.3700	  591.00	  553.35	-1737.85	  415.95
     27.4700	  575.00	  559.00	-1759.50	  415.61
     27.5700	  502.00	  568.60	-1842.10	  415.28
     27.6700	  656.00	  584.90	-1704.40	  414.94
     27.7700	  564.00	  611.44	-1822.94	  414.61
     27.8700	  624.00	  651.22	-1802.72	  414.27
     27.9700	  690.00	  704.24	-1789.74	  413.94
     28.0700	  750.00	  764.33	-1789.83	  413.60
     28.1700	  875.00	  816.41	-1716.91	  413.27
     28.2700	  983.00	  838.02	-1630.52	  412.94
     28.3700	  919.00	  816.25	-1672.75	  412.60
     28.4700	  752.00	  772.58	-1796.08	  412.27
     28.5700	  689.00	  741.78	-1828.28	  411.94
     28.6700	  674.00	  739.59	-1841.09	  411.61
     28.7700	  719.00	  761.33	-1817.83	  411.28
     28.8700	  793.00	  787.63	-1770.13	  410.96
     28.9700	  785.00	  791.39	-1781.89	  410.63
     29.0700	  783.00	  755.57	-1748.07	  410.30
     29.1700	  721.00	  695.17	-1749.67	  409.98
     29.2700	  632.00	  637.58	-1781.08	  409.65
     29.3700	  656.00	  595.86	-1715.36	  409.33
     29.4700	  593.00	  570.47	-1752.97	  409.00
     29.5700	  582.00	  556.60	-1750.10	  408.68
     29.6700	  627.00	  549.21	-1697.71	  408.36
     29.7700	  566.00	  544.98	-1754.48	  408.04
     29.8700	  572.00	  542.31	-1745.81	  407.72
     29.9700	  569.00	  540.58	-1747.08	  407.40
     30.0700	  575.00	  539.63	-1740.13	  407.08
     30.1700	  593.00	  539.59	-1722.09	  406.77
     30.2700	  601.00	  540.92	-1715.42	  406.45
     30.3700	  516.00	  544.55	-1804.05	  406.14
     30.4700	  590.00	  551.87	-1737.37	  405.82
     30.5700	  582.00	  564.32	-1757.82	  405.51
     30.6700	  543.00	  582.24	-1814.74	  405.20
     30.7700	  599.00	  603.37	-1779.87	  404.89
     30.8700	  635.00	  621.68	-1762.18	  404.58
     30.9700	  637.00	  628.07	-1766.57	  404.27
     31.0700	  596.00	  616.26	-1795.76	  403.96
     31.1700	  591.00	  592.42	-1776.92	  403.66
     31.2700	  574.00	  568.44	-1769.94	  403.35
     31.3700	  564.00	  550.63	-1762.13	  403.05
     31.4700	  521.00	  539.69	-1794.19	  402.75
     31.5700	  564.00	  533.76	-1745.26	  402.44
     31.6700	  574.00	  530.67	-1732.17	  402.14
     31.7700	  553.00	  528.95	-1751.45	  401.85
     31.8700	  559.00	  527.86	-1744.36	  401.55
     31.9700	  543.00	  527.10	-1759.60	  401.25
     32.0700	  559.00	  526.57	-1743.07	  400.96
     32.1700	  563.00	  526.21	-1738.71	  400.66
     32.2700	  582.00	  526.01	-1719.51	  400.37
     32.3700	  550.00	  525.95	-1751.45	  400.08
     32.4700	  532.00	  526.06	-1769.56	  399.79
     32.5700	  504.00	  526.34	-1797.84	  399.50
     32.6700	  579.00	  526.82	-1723.32	  399.21
     32.7700	  538.00	  527.55	-1765.05	  398.93
     32.8700	  510.00	  528.61	-1794.11	  398.64
     32.9700	  546.00	  530.13	-1759.63	  398.36
     33.0700	  501.00	  532.31	-1806.81	  398.08
     33.1700	  579.00	  535.67	-1732.17	  397.80
     33.2700	  560.00	  541.28	-1756.78	  397.52
     33.3700	  556.00	  551.53	-1771.03	  397.24
     33.4700	  564.00	  570.89	-1782.39	  396.97
     33.5700	  586.00	  606.41	-1795.91	  396.69
     33.6700	  656.00	  666.05	-1785.55	  396.42
     33.7700	  721.00	  753.18	-1807.68	  396.15
     33.8700	  829.00	  858.22	-1804.72	  395.88
     33.9700	 1044.00	  953.20	-1684.70	  395.61
     34.0700	 1093.00	  995.28	-1677.78	  395.34
     34.1700	 1022.00	  952.81	-1706.31	  395.08
     34.2700	  937.00	  847.54	-1686.04	  394.82
     34.3700	  768.00	  733.65	-1741.15	  394.55
     34.4700	  633.00	  644.85	-1787.35	  394.29
     34.5700	  588.00	  588.41	-1775.91	  394.03
     34.6700	  579.00	  557.46	-1753.96	  393.78
     34.7700	  551.00	  541.72	-1766.22	  393.52
     34.8700	  520.00	  533.46	-1788.96	  393.27
     34.9700	  525.00	  528.53	-1779.03	  393.01
     35.0700	  501.00	  525.13	-1799.63	  392.76
     35.1700	  519.00	  522.59	-1779.09	  392.51
     35.2700	  521.00	  520.57	-1775.07	  392.26
     35.3700	  514.00	  518.92	-1780.42	  392.02
     35.4700	  542.00	  517.55	-1751.05	  391.77
     35.5700	  522.00	  516.40	-1769.90	  391.53
     35.6700	  511.00	  515.40	-1779.91	  391.29
     35.7700	  528.00	  514.54	-1762.04	  391.05
     35.8700	  522.00	  513.78	-1767.28	  390.81
     35.9700	  533.00	  513.57	-1756.07	  390.58
     36.0700	  536.00	  512.97	-1752.47	  390.34
     36.1700	  528.00	  512.43	-1759.93	  390.11
     36.2700	  474.00	  511.94	-1813.44	  389.88
     36.3700	  502.00	  511.49	-1784.99	  389.65
     36.4700	  502.00	  511.09	-1784.59	  389.42
     36.5700	  534.00	  510.72	-1752.22	  389.19
     36.6700	  492.00	  510.39	-1793.89	  388.97
     36.7700	  505.00	  510.11	-1780.61	  388.75
     36.8700	  515.00	  509.90	-1770.40	  388.53
     36.9700	  536.00	  509.80	-1749.30	  388.31
     37.0700	  477.00	  509.94	-1808.44	  388.09
     37.1700	  501.00	  510.51	-1785.01	  387.88
     37.2700	  503.00	  511.85	-1784.35	  387.66
     37.3700	  528.00	  514.25	-1761.75	  387.45
     37.4700	  510.00	  517.71	-1783.21	  387.24
     37.5700	  498.00	  521.62	-1799.12	  387.03
     37.6700	  513.00	  524.69	-1787.19	  386.83
     37.7700	  509.00	  525.44	-1791.94	  386.62
     37.8700	  479.00	  523.52	-1820.02	  386.42
     37.9700	  508.00	  520.14	-1787.64	  386.22
     38.0700	  526.00	  516.54	-1766.04	  386.02
     38.1700	  536.00	  513.22	-1752.72	  385.82
     38.2700	  488.00	  510.47	-1797.97	  385.63
     38.3700	  492.00	  508.43	-1791.93	  385.43
     38.4700	  514.00	  507.02	-1768.52	  385.24
     38.5700	  514.00	  506.09	-1767.59	  385.05
     38.6700	  512.00	  505.38	-1768.88	  384.86
     38.7700	  512.00	  504.96	-1768.46	  384.68
     38.8700	  505.00	  504.64	-1775.14	  384.49
     38.9700	  501.00	  504.37	-1778.87	  384.31
     39.0700	  461.00	  504.13	-1818.63	  384.13
     39.1700	  513.00	  503.83	-1766.33	  383.95
     39.2700	  517.00	  503.63	-1762.13	  383.77
     39.3700	  481.00	  503.44	-1797.94	  383.60
     39.4700	  493.00	  503.39	-1785.89	  383.43
     39.5700	  519.00	  503.22	-1759.72	  383.25
     39.6700	  522.00	  503.07	-1756.57	  383.08
     39.7700	  464.00	  502.92	-1814.42	  382.92
     39.8700	  531.00	  502.78	-1747.28	  382.75
     39.9700	  476.00	  502.65	-1802.15	  382.59
     40.0700	  538.00	  502.53	-1740.03	  382.43
     40.1700	  539.00	  502.42	-1738.92	  382.27
     40.2700	  514.00	  502.32	-1763.82	  382.11
     40.3700	  504.00	  502.24	-1773.74	  381.95
     40.4700	  477.00	  502.16	-1800.66	  381.80
     40.5700	  443.00	  502.10	-1834.60	  381.65
     40.6700	  483.00	  502.06	-1794.56	  381.49
     40.7700	  524.00	  502.03	-1753.53	  381.35
