MSG Master    CELL:    5.89278   5.89278  23.15968   90.0000   90.0000  120.0000   SPGR: P 63/m m c             TEMP:    673.75
  2   1280     2.52000     0.00000    -0.09505     0.00000     0.00000    0
    96    96     0     0     2
       0.00000      10.00000
     125.00000     130.00000
 2Theta	Yobs	Ycal	Yobs-Ycal	Backg	Posr	(hkl)	K
      0.7700	    0.00	  724.08	-1850.80	  603.64
      0.8700	    0.00	  723.33	-1850.80	  602.89
      0.9700	   42.00	  722.58	-1850.80	  602.14
      1.0700	   42.00	  721.84	-1850.80	  601.39
      1.1700	   45.00	  721.09	-1850.80	  600.64
      1.2700	   47.00	  720.34	-1850.80	  599.90
      1.3700	   43.00	  719.59	-1850.80	  599.15
      1.4700	  110.00	  718.85	-1850.80	  598.40
      1.5700	  294.00	  718.10	-1850.80	  597.65
      1.6700	  456.00	  717.35	-1850.80	  596.91
      1.7700	  575.00	  716.61	-1850.80	  596.16
      1.8700	  620.00	  715.86	-1850.80	  595.42
      1.9700	  774.00	  715.12	-1850.80	  594.67
      2.0700	  845.00	  714.37	-1850.80	  593.93
      2.1700	  758.00	  713.63	-1850.80	  593.18
      2.2700	  702.00	  712.89	-1850.80	  592.44
      2.3700	  771.00	  712.14	-1850.80	  591.70
      2.4700	  699.00	  711.40	-1850.80	  590.96
      2.5700	  694.00	  710.66	-1850.80	  590.21
      2.6700	  719.00	  709.92	-1850.80	  589.47
      2.7700	  616.00	  709.18	-1850.80	  588.73
      2.8700	  655.00	  708.44	-1850.80	  587.99
      2.9700	  650.00	  707.70	-1850.80	  587.25
      3.0700	  616.00	  706.96	-1850.80	  586.52
      3.1700	  616.00	  706.22	-1850.80	  585.78
      3.2700	  704.00	  705.48	-1850.80	  585.04
      3.3700	  817.00	  704.75	-1850.80	  584.30
      3.4700	 1025.00	  704.01	-1850.80	  583.57
      3.5700	 1073.00	  703.28	-1850.80	  582.83
      3.6700	 1274.00	  702.54	-1850.80	  582.10
      3.7700	 1338.00	  701.81	-1850.80	  581.36
      3.8700	 1401.00	  701.08	-1850.80	  580.63
      3.9700	 1461.00	  700.34	-1850.80	  579.90
      4.0700	 1594.00	  699.61	-1850.80	  579.17
      4.1700	 1619.00	  698.88	-1850.80	  578.44
      4.2700	 1578.00	  698.15	-1850.80	  577.71
      4.3700	 1560.00	  697.42	-1850.80	  576.98
      4.4700	 1552.00	  696.69	-1850.80	  576.25
      4.5700	 1479.00	  695.97	-1850.80	  575.52
      4.6700	 1394.00	  695.24	-1850.80	  574.80
      4.7700	 1382.00	  694.51	-1850.80	  574.07
      4.8700	 1237.00	  693.79	-1850.80	  573.35
      4.9700	 1274.00	  693.07	-1850.80	  572.62
      5.0700	 1238.00	  692.34	-1850.80	  571.90
      5.1700	 1224.00	  691.62	-1850.80	  571.18
      5.2700	 1231.00	  690.90	-1850.80	  570.45
      5.3700	 1166.00	  690.18	-1850.80	  569.73
      5.4700	 1093.00	  689.46	-1850.80	  569.02
      5.5700	 1149.00	  688.74	-1850.80	  568.30
      5.6700	 1049.00	  688.02	-1850.80	  567.58
      5.7700	 1036.00	  687.31	-1850.80	  566.86
      5.8700	 1069.00	  686.59	-1850.80	  566.15
      5.9700	 1007.00	  685.88	-1850.80	  565.43
      6.0700	  961.00	  685.16	-1850.80	  564.72
      6.1700	 1047.00	  684.45	-1850.80	  564.01
      6.2700	  958.00	  683.74	-1850.80	  563.30
      6.3700	  895.00	  683.03	-1850.80	  562.59
      6.4700	  924.00	  682.32	-1850.80	  561.88
      6.5700	  896.00	  681.61	-1850.80	  561.17
      6.6700	  935.00	  680.91	-1850.80	  560.46
      6.7700	  894.00	  680.20	-1850.80	  559.76
      6.8700	  844.00	  679.50	-1850.80	  559.05
      6.9700	  862.00	  678.79	-1850.80	  558.35
      7.0700	  779.00	  678.09	-1850.80	  557.65
      7.1700	  779.00	  677.39	-1850.80	  556.95
      7.2700	  837.00	  676.69	-1850.80	  556.25
      7.3700	  832.00	  675.99	-1850.80	  555.55
      7.4700	  791.00	  675.29	-1850.80	  554.85
      7.5700	  756.00	  674.60	-1850.80	  554.15
      7.6700	  804.00	  673.90	-1850.80	  553.46
      7.7700	  791.00	  673.21	-1850.80	  552.76
      7.8700	  810.00	  672.51	-1850.80	  552.07
      7.9700	  741.00	  671.82	-1850.80	  551.38
      8.0700	  759.00	  671.13	-1850.80	  550.69
      8.1700	  689.00	  670.44	-1850.80	  550.00
      8.2700	  802.00	  669.75	-1850.80	  549.31
      8.3700	  758.00	  669.07	-1850.80	  548.62
      8.4700	  668.00	  668.38	-1850.80	  547.94
      8.5700	  707.00	  667.70	-1850.80	  547.26
      8.6700	  749.00	  667.02	-1850.80	  546.57
      8.7700	  719.00	  666.34	-1850.80	  545.89
      8.8700	  765.00	  665.66	-1850.80	  545.21
      8.9700	  672.00	  664.98	-1850.80	  544.53
      9.0700	  703.00	  664.30	-1850.80	  543.85
      9.1700	  732.00	  663.62	-1850.80	  543.18
      9.2700	  721.00	  662.95	-1850.80	  542.50
      9.3700	  721.00	  662.28	-1850.80	  541.83
      9.4700	  738.00	  661.60	-1850.80	  541.16
      9.5700	  688.00	  660.93	-1850.80	  540.49
      9.6700	  657.00	  660.26	-1850.80	  539.82
      9.7700	  710.00	  659.60	-1850.80	  539.15
      9.8700	  717.00	  658.93	-1850.80	  538.49
      9.9700	  670.00	  658.26	-1850.80	  537.82
     10.0700	  703.00	  659.72	-1807.52	  537.16
     10.1700	  688.00	  659.29	-1822.09	  536.50
     10.2700	  704.00	  658.92	-1805.72	  535.84
     10.3700	  646.00	  658.61	-1863.41	  535.18
     10.4700	  647.00	  658.41	-1862.21	  534.52
     10.5700	  698.00	  658.35	-1811.15	  533.86
     10.6700	  681.00	  658.52	-1828.32	  533.21
     10.7700	  635.00	  659.00	-1874.80	  532.55
     10.8700	  667.00	  659.90	-1843.70	  531.90
     10.9700	  656.00	  661.30	-1856.10	  531.25
     11.0700	  684.00	  663.22	-1830.02	  530.60
     11.1700	  679.00	  665.68	-1837.48	  529.96
     11.2700	  660.00	  668.70	-1859.50	  529.31
     11.3700	  687.00	  672.35	-1836.15	  528.67
     11.4700	  638.00	  676.74	-1889.54	  528.03
     11.5700	  671.00	  682.06	-1861.86	  527.38
     11.6700	  720.00	  688.59	-1819.39	  526.75
     11.7700	  737.00	  696.66	-1810.46	  526.11
     11.8700	  706.00	  706.60	-1851.40	  525.47
     11.9700	  793.00	  718.35	-1776.15	  524.84
     12.0700	  827.00	  730.98	-1754.78	  524.20
     12.1700	  780.00	  742.00	-1812.80	  523.57
     12.2700	  736.00	  746.89	-1861.69	  522.94
     12.3700	  772.00	  740.42	-1819.22	  522.31
     12.4700	  765.00	  722.48	-1808.28	  521.69
     12.5700	  726.00	  700.56	-1825.36	  521.06
     12.6700	  678.00	  681.57	-1854.37	  520.44
     12.7700	  645.00	  667.72	-1873.52	  519.82
     12.8700	  633.00	  658.47	-1876.27	  519.20
     12.9700	  643.00	  652.53	-1860.33	  518.58
     13.0700	  633.00	  648.66	-1866.47	  517.96
     13.1700	  607.00	  645.94	-1889.74	  517.35
     13.2700	  620.00	  643.87	-1874.68	  516.74
     13.3700	  639.00	  642.19	-1853.99	  516.12
     13.4700	  619.00	  640.76	-1872.56	  515.51
     13.5700	  635.00	  639.51	-1855.31	  514.91
     13.6700	  613.00	  638.38	-1876.18	  514.30
     13.7700	  664.00	  637.35	-1824.15	  513.69
     13.8700	  620.00	  636.39	-1867.19	  513.09
     13.9700	  623.00	  635.49	-1863.29	  512.49
     14.0700	  597.00	  634.64	-1888.45	  511.89
     14.1700	  658.00	  633.83	-1826.63	  511.29
     14.2700	  562.00	  633.06	-1921.86	  510.70
     14.3700	  641.00	  632.30	-1842.10	  510.10
     14.4700	  618.00	  631.57	-1864.37	  509.51
     14.5700	  594.00	  630.86	-1887.66	  508.92
     14.6700	  672.00	  630.17	-1808.97	  508.33
     14.7700	  612.00	  629.48	-1868.29	  507.74
     14.8700	  591.00	  628.82	-1888.62	  507.15
     14.9700	  615.00	  628.16	-1863.96	  506.57
     15.0700	  623.00	  627.51	-1855.31	  505.99
     15.1700	  594.00	  626.87	-1883.67	  505.41
     15.2700	  625.00	  626.23	-1852.03	  504.83
     15.3700	  612.00	  625.61	-1864.41	  504.25
     15.4700	  611.00	  624.99	-1864.79	  503.68
     15.5700	  576.00	  624.38	-1899.18	  503.10
     15.6700	  630.00	  623.77	-1844.57	  502.53
     15.7700	  608.00	  623.16	-1865.96	  501.96
     15.8700	  582.00	  622.56	-1891.36	  501.40
     15.9700	  620.00	  621.97	-1852.77	  500.83
     16.0700	  627.00	  621.38	-1845.18	  500.27
     16.1700	  635.00	  620.79	-1836.59	  499.70
     16.2700	  621.00	  620.21	-1850.01	  499.14
     16.3700	  566.00	  619.63	-1904.43	  498.58
     16.4700	  627.00	  619.06	-1842.86	  498.03
     16.5700	  618.00	  618.48	-1851.28	  497.47
     16.6700	  608.00	  617.91	-1860.71	  496.92
     16.7700	  609.00	  617.35	-1859.15	  496.37
     16.8700	  625.00	  616.78	-1842.58	  495.82
     16.9700	  599.00	  616.22	-1868.02	  495.27
     17.0700	  652.00	  615.67	-1814.47	  494.73
     17.1700	  630.00	  615.11	-1835.91	  494.18
     17.2700	  582.00	  614.56	-1883.36	  493.64
     17.3700	  650.00	  614.01	-1814.81	  493.10
     17.4700	  645.00	  613.46	-1819.26	  492.56
     17.5700	  585.00	  612.92	-1878.72	  492.02
     17.6700	  586.00	  612.38	-1877.18	  491.49
     17.7700	  565.00	  611.84	-1897.64	  490.96
     17.8700	  643.00	  611.30	-1819.10	  490.43
     17.9700	  616.00	  610.77	-1845.57	  489.90
     18.0700	  595.00	  610.23	-1866.03	  489.37
     18.1700	  629.00	  610.65	-1832.45	  488.85
     18.2700	  627.00	  610.14	-1833.94	  488.32
     18.3700	  600.00	  610.20	-1861.00	  487.80
     18.4700	  563.00	  609.71	-1897.51	  487.28
     18.5700	  622.00	  609.22	-1838.02	  486.76
     18.6700	  618.00	  608.73	-1841.53	  486.25
     18.7700	  576.00	  608.25	-1883.05	  485.74
     18.8700	  600.00	  607.77	-1858.57	  485.22
     18.9700	  590.00	  607.30	-1868.10	  484.71
     19.0700	  596.00	  606.83	-1861.63	  484.21
     19.1700	  626.00	  606.36	-1831.16	  483.70
     19.2700	  603.00	  605.89	-1853.69	  483.20
     19.3700	  615.00	  605.43	-1841.23	  482.69
     19.4700	  578.00	  604.97	-1877.78	  482.19
     19.5700	  600.00	  604.52	-1855.32	  481.70
     19.6700	  559.00	  604.07	-1895.87	  481.20
     19.7700	  597.00	  603.68	-1857.48	  480.71
     19.8700	  604.00	  603.24	-1850.04	  480.21
     19.9700	  623.00	  602.80	-1830.60	  479.72
     20.0700	  604.00	  602.37	-1849.17	  479.23
     20.1700	  590.00	  601.94	-1862.74	  478.75
     20.2700	  552.00	  601.52	-1900.32	  478.26
     20.3700	  603.00	  601.10	-1848.90	  477.78
     20.4700	  612.00	  600.68	-1839.49	  477.30
     20.5700	  630.00	  600.28	-1821.08	  476.82
     20.6700	  593.00	  599.87	-1857.67	  476.34
     20.7700	  538.00	  599.47	-1912.27	  475.87
     20.8700	  631.00	  599.08	-1818.88	  475.40
     20.9700	  614.00	  598.69	-1835.49	  474.93
     21.0700	  602.00	  598.31	-1847.11	  474.46
     21.1700	  628.00	  597.94	-1820.74	  473.99
     21.2700	  594.00	  597.57	-1854.37	  473.53
     21.3700	  609.00	  597.20	-1839.00	  473.06
     21.4700	  551.00	  596.85	-1896.65	  472.60
     21.5700	  568.00	  596.50	-1879.30	  472.14
     21.6700	  561.00	  596.16	-1885.96	  471.69
     21.7700	  584.00	  595.83	-1862.63	  471.23
     21.8700	  592.00	  595.51	-1854.31	  470.78
     21.9700	  617.00	  595.20	-1829.00	  470.33
     22.0700	  617.00	  594.90	-1828.70	  469.88
     22.1700	  587.00	  594.79	-1858.59	  469.43
     22.2700	  590.00	  594.51	-1855.31	  468.98
     22.3700	  562.00	  594.25	-1883.05	  468.54
     22.4700	  592.00	  594.00	-1852.80	  468.10
     22.5700	  612.00	  593.77	-1832.57	  467.66
     22.6700	  576.00	  593.56	-1868.36	  467.22
     22.7700	  590.00	  593.36	-1854.16	  466.79
     22.8700	  559.00	  593.19	-1884.99	  466.35
     22.9700	  614.00	  593.04	-1829.84	  465.92
     23.0700	  575.00	  592.92	-1868.73	  465.49
     23.1700	  609.00	  592.84	-1834.64	  465.06
     23.2700	  633.00	  592.80	-1810.60	  464.64
     23.3700	  617.00	  592.80	-1826.60	  464.22
     23.4700	  613.00	  592.86	-1830.66	  463.79
     23.5700	  554.00	  592.99	-1889.79	  463.37
     23.6700	  565.00	  593.22	-1879.02	  462.96
     23.7700	  646.00	  593.58	-1798.38	  462.54
     23.8700	  596.00	  594.12	-1848.92	  462.13
     23.9700	  603.00	  594.89	-1842.69	  461.72
     24.0700	  592.00	  596.17	-1854.97	  461.31
     24.1700	  605.00	  598.16	-1843.96	  460.90
     24.2700	  636.00	  601.24	-1816.04	  460.49
     24.3700	  633.00	  605.86	-1823.66	  460.09
     24.4700	  629.00	  612.42	-1834.22	  459.69
     24.5700	  690.00	  621.10	-1781.90	  459.29
     24.6700	  678.00	  631.51	-1804.31	  458.89
     24.7700	  713.00	  642.38	-1780.18	  458.49
     24.8700	  735.00	  651.16	-1766.96	  458.10
     24.9700	  704.00	  654.09	-1800.89	  457.71
     25.0700	  702.00	  648.59	-1797.39	  457.32
     25.1700	  667.00	  637.09	-1820.89	  456.93
     25.2700	  655.00	  624.90	-1820.70	  456.54
     25.3700	  649.00	  615.12	-1816.92	  456.16
     25.4700	  610.00	  608.48	-1849.28	  455.78
     25.5700	  609.00	  604.53	-1846.33	  455.39
     25.6700	  633.00	  602.50	-1820.30	  455.02
     25.7700	  617.00	  601.72	-1835.52	  454.64
     25.8700	  618.00	  601.73	-1834.53	  454.27
     25.9700	  651.00	  602.28	-1802.08	  453.89
     26.0700	  628.00	  603.26	-1826.06	  453.52
     26.1700	  623.00	  604.63	-1832.43	  453.15
     26.2700	  604.00	  606.39	-1853.19	  452.79
     26.3700	  600.00	  608.58	-1859.38	  452.42
     26.4700	  620.00	  611.25	-1842.05	  452.06
     26.5700	  628.00	  614.47	-1837.27	  451.70
     26.6700	  709.00	  618.37	-1760.17	  451.34
     26.7700	  661.00	  623.07	-1812.87	  450.98
     26.8700	  615.00	  628.78	-1864.58	  450.63
     26.9700	  666.00	  635.77	-1820.57	  450.28
     27.0700	  613.00	  644.41	-1882.21	  449.93
     27.1700	  626.00	  655.23	-1880.03	  449.58
     27.2700	  722.00	  669.11	-1797.91	  449.23
     27.3700	  712.00	  687.54	-1826.34	  448.88
     27.4700	  711.00	  713.52	-1853.32	  448.54
     27.5700	  754.00	  753.05	-1849.85	  448.20
     27.6700	  767.00	  817.64	-1901.44	  447.86
     27.7700	  781.00	  927.25	-1997.05	  447.52
     27.8700	  852.00	 1111.69	-2110.49	  447.19
     27.9700	 1053.00	 1405.57	-2203.37	  446.85
     28.0700	 1525.00	 1831.32	-2157.12	  446.52
     28.1700	 2267.00	 2371.42	-1955.22	  446.19
     28.2700	 3270.00	 2935.62	-1516.42	  445.86
     28.3700	 3872.00	 3341.98	-1320.78	  445.54
     28.4700	 3893.00	 3370.39	-1328.19	  445.21
     28.5700	 3166.00	 2997.30	-1682.10	  444.89
     28.6700	 2312.00	 2515.06	-2053.86	  444.57
     28.7700	 2009.00	 2195.65	-2037.45	  444.25
     28.8700	 1926.00	 2111.70	-2036.50	  443.94
     28.9700	 2175.00	 2189.87	-1865.67	  443.62
     29.0700	 2423.00	 2275.20	-1703.00	  443.31
     29.1700	 2323.00	 2199.96	-1727.76	  443.00
     29.2700	 2021.00	 1914.18	-1743.98	  442.69
     29.3700	 1512.00	 1542.73	-1881.54	  442.38
     29.4700	 1204.00	 1217.99	-1864.79	  442.08
     29.5700	  952.00	  987.65	-1886.45	  441.78
     29.6700	  860.00	  844.86	-1835.66	  441.47
     29.7700	  754.00	  762.95	-1859.75	  441.18
     29.8700	  728.00	  716.14	-1838.94	  440.88
     29.9700	  721.00	  687.48	-1817.28	  440.58
     30.0700	  726.00	  668.21	-1793.01	  440.29
     30.1700	  711.00	  654.48	-1794.28	  440.00
     30.2700	  733.00	  644.72	-1762.52	  439.71
     30.3700	  675.00	  638.51	-1814.31	  439.42
     30.4700	  630.00	  636.22	-1857.02	  439.13
     30.5700	  706.00	  638.87	-1783.67	  438.85
     30.6700	  651.00	  647.83	-1847.63	  438.56
     30.7700	  692.00	  663.94	-1822.74	  438.28
     30.8700	  674.00	  686.13	-1862.93	  438.00
     30.9700	  731.00	  710.07	-1829.87	  437.73
     31.0700	  735.00	  727.54	-1843.34	  437.45
     31.1700	  717.00	  728.09	-1861.89	  437.18
     31.2700	  706.00	  707.60	-1852.40	  436.91
     31.3700	  709.00	  675.61	-1817.41	  436.64
     31.4700	  622.00	  644.75	-1873.55	  436.37
     31.5700	  612.00	  621.00	-1859.80	  436.10
     31.6700	  630.00	  605.02	-1825.82	  435.84
     31.7700	  598.00	  595.13	-1847.93	  435.58
     31.8700	  546.00	  589.15	-1893.95	  435.32
     31.9700	  591.00	  585.40	-1845.20	  435.06
     32.0700	  606.00	  582.85	-1827.65	  434.80
     32.1700	  580.00	  581.02	-1851.82	  434.54
     32.2700	  626.00	  579.66	-1804.46	  434.29
     32.3700	  609.00	  578.68	-1820.48	  434.04
     32.4700	  576.00	  578.02	-1852.82	  433.79
     32.5700	  628.00	  577.68	-1800.48	  433.54
     32.6700	  549.00	  577.65	-1879.45	  433.29
     32.7700	  606.00	  577.96	-1822.76	  433.05
     32.8700	  611.00	  578.70	-1818.50	  432.81
     32.9700	  610.00	  579.87	-1820.67	  432.57
     33.0700	  629.00	  581.65	-1803.45	  432.33
     33.1700	  634.00	  584.27	-1801.07	  432.09
     33.2700	  619.00	  588.16	-1819.96	  431.85
     33.3700	  628.00	  594.18	-1816.98	  431.62
     33.4700	  577.00	  603.97	-1877.77	  431.39
     33.5700	  663.00	  620.38	-1808.18	  431.16
     33.6700	  643.00	  647.77	-1855.57	  430.93
     33.7700	  699.00	  691.50	-1843.30	  430.70
     33.8700	  800.00	  755.72	-1806.52	  430.47
     33.9700	  844.00	  839.29	-1846.09	  430.25
     34.0700	 1026.00	  931.18	-1755.98	  430.03
     34.1700	 1128.00	 1007.97	-1730.77	  429.81
     34.2700	 1104.00	 1037.26	-1784.06	  429.59
     34.3700	  982.00	  998.29	-1867.09	  429.37
     34.4700	  950.00	  909.39	-1810.19	  429.16
     34.5700	  788.00	  810.38	-1873.18	  428.94
     34.6700	  776.00	  727.08	-1801.88	  428.73
     34.7700	  633.00	  667.20	-1885.00	  428.52
     34.8700	  650.00	  628.55	-1829.35	  428.31
     34.9700	  663.00	  605.26	-1793.06	  428.11
     35.0700	  602.00	  591.43	-1840.23	  427.90
     35.1700	  583.00	  582.85	-1850.65	  427.70
     35.2700	  628.00	  577.07	-1799.88	  427.50
     35.3700	  524.00	  572.85	-1899.66	  427.30
     35.4700	  574.00	  569.59	-1846.39	  427.10
     35.5700	  558.00	  566.98	-1859.78	  426.90
     35.6700	  546.00	  564.85	-1869.65	  426.71
     35.7700	  537.00	  563.08	-1876.88	  426.51
     35.8700	  560.00	  561.60	-1852.40	  426.32
     35.9700	  556.00	  560.35	-1855.15	  426.13
     36.0700	  536.00	  559.28	-1874.09	  425.94
     36.1700	  527.00	  558.38	-1882.18	  425.75
     36.2700	  584.00	  558.12	-1824.92	  425.57
     36.3700	  570.00	  557.49	-1838.29	  425.38
     36.4700	  545.00	  556.96	-1862.76	  425.20
     36.5700	  520.00	  556.55	-1887.35	  425.02
     36.6700	  581.00	  556.25	-1826.05	  424.84
     36.7700	  588.00	  556.06	-1818.86	  424.66
     36.8700	  547.00	  556.02	-1859.82	  424.49
     36.9700	  621.00	  556.14	-1785.94	  424.31
     37.0700	  549.00	  556.70	-1858.50	  424.14
     37.1700	  550.00	  557.38	-1858.18	  423.97
     37.2700	  558.00	  558.63	-1851.43	  423.80
     37.3700	  570.00	  560.70	-1841.50	  423.63
     37.4700	  588.00	  564.06	-1826.86	  423.47
     37.5700	  548.00	  569.29	-1872.09	  423.30
     37.6700	  586.00	  577.07	-1841.87	  423.14
     37.7700	  545.00	  587.92	-1893.72	  422.97
     37.8700	  577.00	  601.78	-1875.58	  422.81
     37.9700	  606.00	  617.56	-1862.36	  422.65
     38.0700	  599.00	  632.96	-1884.76	  422.50
     38.1700	  614.00	  644.44	-1881.24	  422.34
     38.2700	  620.00	  647.33	-1878.13	  422.19
     38.3700	  619.00	  638.71	-1870.51	  422.03
     38.4700	  618.00	  621.55	-1854.35	  421.88
     38.5700	  592.00	  602.30	-1861.10	  421.73
     38.6700	  585.00	  585.50	-1851.30	  421.58
     38.7700	  543.00	  571.94	-1879.74	  421.44
     38.8700	  511.00	  563.27	-1903.07	  421.29
     38.9700	  546.00	  557.72	-1862.52	  421.15
     39.0700	  524.00	  554.27	-1881.07	  421.00
     39.1700	  519.00	  552.09	-1883.89	  420.86
     39.2700	  544.00	  550.61	-1857.41	  420.72
     39.3700	  551.00	  549.53	-1849.34	  420.58
     39.4700	  532.00	  548.70	-1867.50	  420.45
     39.5700	  559.00	  548.02	-1839.82	  420.31
     39.6700	  559.00	  547.46	-1839.27	  420.18
     39.7700	  554.00	  546.99	-1843.79	  420.05
     39.8700	  543.00	  546.59	-1854.39	  419.91
     39.9700	  557.00	  546.25	-1840.05	  419.78
     40.0700	  540.00	  545.42	-1856.22	  419.66
     40.1700	  555.00	  545.18	-1840.98	  419.53
     40.2700	  528.00	  544.98	-1867.78	  419.40
     40.3700	  510.00	  545.35	-1886.15	  419.28
     40.4700	  505.00	  545.22	-1891.02	  419.15
     40.5700	  587.00	  545.11	-1808.92	  419.03
     40.6700	  537.00	  545.04	-1858.84	  418.91
     40.7700	  520.00	  545.01	-1875.81	  418.79
