MSG Master    CELL:    5.90642   5.90642  23.20293   90.0000   90.0000  120.0000   SPGR: P 63/m m c             TEMP:    860.05
  1   1280     2.52000     0.00000    -0.12020     0.00000     0.00000    0
    98     0     2
       0.00000      10.00000
     125.00000     130.00000
 2Theta	Yobs	Ycal	Yobs-Ycal	Backg	Posr	(hkl)	K
      0.7700	    0.00	  475.83	-1745.23	  364.90
      0.8700	    0.00	  477.28	-1745.23	  366.36
      0.9700	   35.00	  478.72	-1745.23	  367.79
      1.0700	   46.00	  480.14	-1745.23	  369.21
      1.1700	   53.00	  481.54	-1745.23	  370.62
      1.2700	   57.00	  482.93	-1745.23	  372.01
      1.3700	   42.00	  484.31	-1745.23	  373.39
      1.4700	   96.00	  485.67	-1745.23	  374.74
      1.5700	  286.00	  487.01	-1745.23	  376.09
      1.6700	  440.00	  488.34	-1745.23	  377.42
      1.7700	  615.00	  489.65	-1745.23	  378.73
      1.8700	  649.00	  490.95	-1745.23	  380.03
      1.9700	  701.00	  492.23	-1745.23	  381.31
      2.0700	  770.00	  493.50	-1745.23	  382.58
      2.1700	  813.00	  494.76	-1745.23	  383.83
      2.2700	  729.00	  495.99	-1745.23	  385.07
      2.3700	  763.00	  497.22	-1745.23	  386.29
      2.4700	  712.00	  498.43	-1745.23	  387.50
      2.5700	  671.00	  499.62	-1745.23	  388.70
      2.6700	  695.00	  500.80	-1745.23	  389.88
      2.7700	  652.00	  501.97	-1745.23	  391.05
      2.8700	  657.00	  503.12	-1745.23	  392.20
      2.9700	  571.00	  504.26	-1745.23	  393.34
      3.0700	  639.00	  505.38	-1745.23	  394.46
      3.1700	  609.00	  506.49	-1745.23	  395.57
      3.2700	  686.00	  507.59	-1745.23	  396.67
      3.3700	  746.00	  508.67	-1745.23	  397.75
      3.4700	  887.00	  509.74	-1745.23	  398.82
      3.5700	  992.00	  510.80	-1745.23	  399.87
      3.6700	 1097.00	  511.84	-1745.23	  400.91
      3.7700	 1125.00	  512.87	-1745.23	  401.94
      3.8700	 1247.00	  513.88	-1745.23	  402.96
      3.9700	 1227.00	  514.88	-1745.23	  403.96
      4.0700	 1284.00	  515.87	-1745.23	  404.95
      4.1700	 1292.00	  516.85	-1745.23	  405.92
      4.2700	 1309.00	  517.81	-1745.23	  406.89
      4.3700	 1383.00	  518.76	-1745.23	  407.84
      4.4700	 1192.00	  519.69	-1745.23	  408.77
      4.5700	 1185.00	  520.62	-1745.23	  409.70
      4.6700	 1163.00	  521.53	-1745.23	  410.61
      4.7700	 1135.00	  522.43	-1745.23	  411.51
      4.8700	 1213.00	  523.32	-1745.23	  412.39
      4.9700	 1109.00	  524.19	-1745.23	  413.27
      5.0700	 1077.00	  525.05	-1745.23	  414.13
      5.1700	 1074.00	  525.90	-1745.23	  414.98
      5.2700	 1019.00	  526.74	-1745.23	  415.81
      5.3700	 1028.00	  527.56	-1745.23	  416.64
      5.4700	  977.00	  528.38	-1745.23	  417.45
      5.5700	  933.00	  529.18	-1745.23	  418.25
      5.6700	  921.00	  529.97	-1745.23	  419.04
      5.7700	  844.00	  530.74	-1745.23	  419.82
      5.8700	  907.00	  531.51	-1745.23	  420.59
      5.9700	  876.00	  532.26	-1745.23	  421.34
      6.0700	  886.00	  533.01	-1745.23	  422.08
      6.1700	  837.00	  533.74	-1745.23	  422.82
      6.2700	  776.00	  534.46	-1745.23	  423.54
      6.3700	  838.00	  535.17	-1745.23	  424.24
      6.4700	  759.00	  535.86	-1745.23	  424.94
      6.5700	  741.00	  536.55	-1745.23	  425.63
      6.6700	  750.00	  537.23	-1745.23	  426.30
      6.7700	  764.00	  537.89	-1745.23	  426.97
      6.8700	  782.00	  538.54	-1745.23	  427.62
      6.9700	  734.00	  539.19	-1745.23	  428.26
      7.0700	  689.00	  539.82	-1745.23	  428.90
      7.1700	  701.00	  540.44	-1745.23	  429.52
      7.2700	  673.00	  541.05	-1745.23	  430.13
      7.3700	  718.00	  541.65	-1745.23	  430.73
      7.4700	  680.00	  542.24	-1745.23	  431.32
      7.5700	  690.00	  542.82	-1745.23	  431.90
      7.6700	  678.00	  543.39	-1745.23	  432.47
      7.7700	  692.00	  543.95	-1745.23	  433.03
      7.8700	  647.00	  544.50	-1745.23	  433.58
      7.9700	  641.00	  545.04	-1745.23	  434.11
      8.0700	  679.00	  545.57	-1745.23	  434.64
      8.1700	  646.00	  546.09	-1745.23	  435.16
      8.2700	  629.00	  546.59	-1745.23	  435.67
      8.3700	  637.00	  547.09	-1745.23	  436.17
      8.4700	  677.00	  547.58	-1745.23	  436.66
      8.5700	  642.00	  548.06	-1745.23	  437.14
      8.6700	  624.00	  548.53	-1745.23	  437.61
      8.7700	  629.00	  548.99	-1745.23	  438.07
      8.8700	  667.00	  549.45	-1745.23	  438.52
      8.9700	  617.00	  549.89	-1745.23	  438.97
      9.0700	  591.00	  550.32	-1745.23	  439.40
      9.1700	  558.00	  550.75	-1745.23	  439.82
      9.2700	  609.00	  551.16	-1745.23	  440.24
      9.3700	  630.00	  551.57	-1745.23	  440.64
      9.4700	  631.00	  551.96	-1745.23	  441.04
      9.5700	  590.00	  552.35	-1745.23	  441.43
      9.6700	  581.00	  552.73	-1745.23	  441.81
      9.7700	  592.00	  553.10	-1745.23	  442.18
      9.8700	  601.00	  553.46	-1745.23	  442.54
      9.9700	  616.00	  553.81	-1745.23	  442.89
     10.0700	  571.00	  556.15	-1730.38	  443.23
     10.1700	  551.00	  556.69	-1750.91	  443.57
     10.2700	  604.00	  557.26	-1698.48	  443.90
     10.3700	  585.00	  557.88	-1718.11	  444.22
     10.4700	  593.00	  558.59	-1710.82	  444.53
     10.5700	  609.00	  559.44	-1695.67	  444.83
     10.6700	  573.00	  560.49	-1732.72	  445.12
     10.7700	  582.00	  561.85	-1725.08	  445.41
     10.8700	  611.00	  563.58	-1697.81	  445.69
     10.9700	  567.00	  565.73	-1743.96	  445.96
     11.0700	  596.00	  568.31	-1717.53	  446.22
     11.1700	  614.00	  571.32	-1702.54	  446.47
     11.2700	  577.00	  574.79	-1743.02	  446.72
     11.3700	  647.00	  578.81	-1677.04	  446.96
     11.4700	  568.00	  583.49	-1760.72	  447.19
     11.5700	  552.00	  589.02	-1782.25	  447.41
     11.6700	  576.00	  595.70	-1764.93	  447.63
     11.7700	  606.00	  603.86	-1743.09	  447.84
     11.8700	  636.00	  613.75	-1722.98	  448.04
     11.9700	  628.00	  625.15	-1742.37	  448.23
     12.0700	  657.00	  636.71	-1724.94	  448.42
     12.1700	  674.00	  645.37	-1716.60	  448.60
     12.2700	  650.00	  646.30	-1741.52	  448.77
     12.3700	  625.00	  635.97	-1756.20	  448.93
     12.4700	  620.00	  618.13	-1743.36	  449.09
     12.5700	  566.00	  600.51	-1779.73	  449.24
     12.6700	  615.00	  587.12	-1717.35	  449.39
     12.7700	  631.00	  578.31	-1692.54	  449.52
     12.8700	  523.00	  573.00	-1795.22	  449.65
     12.9700	  555.00	  569.89	-1760.12	  449.78
     13.0700	  514.00	  568.02	-1799.25	  449.90
     13.1700	  576.00	  566.82	-1736.04	  450.01
     13.2700	  560.00	  565.98	-1751.21	  450.11
     13.3700	  518.00	  565.36	-1792.59	  450.21
     13.4700	  542.00	  564.93	-1768.16	  450.30
     13.5700	  589.00	  564.58	-1720.80	  450.38
     13.6700	  566.00	  564.30	-1743.53	  450.46
     13.7700	  557.00	  564.08	-1752.30	  450.53
     13.8700	  512.00	  563.90	-1797.13	  450.60
     13.9700	  568.00	  563.75	-1740.98	  450.66
     14.0700	  571.00	  563.63	-1737.86	  450.71
     14.1700	  541.00	  563.53	-1767.76	  450.76
     14.2700	  556.00	  563.45	-1752.67	  450.80
     14.3700	  568.00	  563.37	-1740.60	  450.84
     14.4700	  553.00	  563.30	-1755.53	  450.87
     14.5700	  575.00	  563.24	-1733.47	  450.89
     14.6700	  567.00	  563.19	-1741.41	  450.91
     14.7700	  532.00	  563.13	-1776.36	  450.92
     14.8700	  518.00	  563.08	-1790.31	  450.93
     14.9700	  577.00	  563.03	-1731.26	  450.93
     15.0700	  530.00	  562.98	-1778.21	  450.93
     15.1700	  589.00	  562.93	-1719.15	  450.92
     15.2700	  533.00	  562.87	-1775.10	  450.90
     15.3700	  541.00	  562.82	-1767.05	  450.88
     15.4700	  573.00	  562.76	-1734.99	  450.86
     15.5700	  559.00	  562.70	-1748.93	  450.83
     15.6700	  521.00	  562.64	-1786.87	  450.79
     15.7700	  503.00	  562.58	-1804.80	  450.75
     15.8700	  549.00	  562.51	-1758.74	  450.70
     15.9700	  529.00	  562.44	-1778.66	  450.65
     16.0700	  579.00	  562.36	-1728.59	  450.60
     16.1700	  539.00	  562.28	-1768.51	  450.53
     16.2700	  529.00	  562.20	-1778.43	  450.47
     16.3700	  593.00	  562.12	-1714.35	  450.40
     16.4700	  561.00	  562.03	-1746.26	  450.32
     16.5700	  529.00	  561.94	-1778.16	  450.24
     16.6700	  600.00	  561.84	-1707.07	  450.16
     16.7700	  540.00	  561.74	-1766.97	  450.07
     16.8700	  576.00	  561.64	-1730.86	  449.97
     16.9700	  545.00	  561.53	-1761.76	  449.87
     17.0700	  542.00	  561.42	-1764.65	  449.77
     17.1700	  575.00	  561.30	-1731.53	  449.66
     17.2700	  596.00	  561.19	-1710.41	  449.55
     17.3700	  541.00	  561.06	-1765.29	  449.43
     17.4700	  517.00	  560.94	-1789.16	  449.31
     17.5700	  572.00	  560.81	-1734.03	  449.19
     17.6700	  543.00	  560.78	-1763.01	  449.06
     17.7700	  544.00	  560.65	-1761.87	  448.93
     17.8700	  528.00	  560.51	-1777.74	  448.79
     17.9700	  542.00	  560.37	-1763.59	  448.65
     18.0700	  561.00	  560.33	-1744.55	  448.50
     18.1700	  573.00	  560.18	-1732.41	  448.35
     18.2700	  519.00	  560.03	-1786.26	  448.20
     18.3700	  581.00	  559.88	-1724.10	  448.04
     18.4700	  548.00	  559.72	-1756.95	  447.88
     18.5700	  556.00	  559.56	-1748.78	  447.72
     18.6700	  542.00	  559.39	-1762.62	  447.55
     18.7700	  580.00	  559.23	-1724.45	  447.38
     18.8700	  566.00	  559.06	-1738.28	  447.20
     18.9700	  532.00	  558.88	-1772.11	  447.02
     19.0700	  577.00	  558.71	-1726.94	  446.84
     19.1700	  526.00	  558.53	-1777.76	  446.65
     19.2700	  540.00	  558.35	-1763.57	  446.46
     19.3700	  539.00	  558.16	-1764.39	  446.27
     19.4700	  531.00	  557.98	-1772.20	  446.07
     19.5700	  565.00	  557.82	-1738.05	  445.87
     19.6700	  552.00	  557.63	-1750.86	  445.67
     19.7700	  555.00	  557.43	-1747.66	  445.46
     19.8700	  577.00	  557.24	-1725.46	  445.25
     19.9700	  545.00	  557.04	-1757.27	  445.04
     20.0700	  550.00	  556.84	-1752.06	  444.83
     20.1700	  519.00	  556.63	-1782.86	  444.61
     20.2700	  567.00	  556.43	-1734.65	  444.39
     20.3700	  561.00	  556.22	-1740.45	  444.16
     20.4700	  590.00	  556.01	-1711.24	  443.93
     20.5700	  524.00	  555.80	-1777.03	  443.70
     20.6700	  502.00	  555.59	-1798.81	  443.47
     20.7700	  558.00	  555.37	-1742.60	  443.23
     20.8700	  596.00	  555.15	-1704.38	  442.99
     20.9700	  547.00	  554.94	-1753.17	  442.75
     21.0700	  564.00	  554.72	-1735.95	  442.51
     21.1700	  571.00	  554.50	-1728.73	  442.26
     21.2700	  516.00	  554.28	-1783.51	  442.01
     21.3700	  552.00	  554.06	-1747.29	  441.76
     21.4700	  539.00	  553.84	-1760.07	  441.51
     21.5700	  493.00	  553.62	-1805.85	  441.25
     21.6700	  575.00	  553.40	-1723.63	  440.99
     21.7700	  529.00	  553.18	-1769.41	  440.73
     21.8700	  555.00	  552.96	-1743.19	  440.46
     21.9700	  571.00	  552.75	-1726.98	  440.20
     22.0700	  547.00	  552.69	-1750.91	  439.93
     22.1700	  538.00	  552.48	-1759.71	  439.66
     22.2700	  568.00	  552.27	-1729.50	  439.38
     22.3700	  561.00	  552.07	-1736.30	  439.11
     22.4700	  549.00	  551.88	-1748.11	  438.83
     22.5700	  587.00	  551.69	-1709.92	  438.55
     22.6700	  536.00	  551.51	-1760.74	  438.27
     22.7700	  531.00	  551.35	-1765.57	  437.99
     22.8700	  537.00	  551.19	-1759.42	  437.70
     22.9700	  551.00	  551.05	-1745.28	  437.41
     23.0700	  556.00	  550.88	-1740.11	  437.12
     23.1700	  540.00	  550.79	-1756.02	  436.83
     23.2700	  515.00	  550.73	-1780.95	  436.54
     23.3700	  561.00	  550.71	-1734.93	  436.24
     23.4700	  528.00	  550.74	-1767.97	  435.95
     23.5700	  598.00	  550.84	-1698.07	  435.65
     23.6700	  568.00	  551.05	-1728.27	  435.35
     23.7700	  526.00	  551.40	-1770.63	  435.04
     23.8700	  567.00	  552.00	-1730.23	  434.74
     23.9700	  555.00	  552.99	-1743.22	  434.44
     24.0700	  527.00	  554.62	-1772.85	  434.13
     24.1700	  583.00	  557.30	-1719.52	  433.82
     24.2700	  557.00	  561.52	-1749.75	  433.51
     24.3700	  572.00	  567.84	-1741.07	  433.20
     24.4700	  600.00	  576.61	-1721.83	  432.89
     24.5700	  623.00	  587.68	-1709.91	  432.57
     24.6700	  632.00	  600.01	-1713.24	  432.26
     24.7700	  621.00	  611.05	-1735.27	  431.94
     24.8700	  638.00	  616.52	-1723.74	  431.62
     24.9700	  635.00	  612.24	-1722.46	  431.30
     25.0700	  634.00	  599.25	-1710.48	  430.98
     25.1700	  565.00	  583.88	-1764.11	  430.66
     25.2700	  575.00	  570.90	-1741.13	  430.34
     25.3700	  594.00	  561.65	-1712.88	  430.01
     25.4700	  562.00	  555.71	-1738.94	  429.69
     25.5700	  596.00	  552.10	-1701.33	  429.36
     25.6700	  589.00	  549.90	-1706.13	  429.04
     25.7700	  537.00	  548.49	-1756.72	  428.71
     25.8700	  570.00	  547.53	-1722.75	  428.38
     25.9700	  540.00	  546.83	-1752.05	  428.05
     26.0700	  551.00	  546.31	-1740.54	  427.72
     26.1700	  565.00	  545.95	-1726.17	  427.38
     26.2700	  534.00	  545.70	-1756.93	  427.05
     26.3700	  568.00	  545.58	-1722.80	  426.72
     26.4700	  624.00	  545.56	-1666.79	  426.38
     26.5700	  555.00	  545.66	-1735.89	  426.05
     26.6700	  604.00	  545.90	-1687.13	  425.71
     26.7700	  564.00	  546.28	-1727.51	  425.37
     26.8700	  496.00	  546.85	-1796.07	  425.04
     26.9700	  602.00	  547.63	-1690.86	  424.70
     27.0700	  640.00	  548.71	-1653.94	  424.36
     27.1700	  544.00	  550.19	-1751.41	  424.02
     27.2700	  579.00	  552.24	-1718.46	  423.68
     27.3700	  599.00	  555.21	-1701.44	  423.34
     27.4700	  623.00	  559.78	-1682.01	  423.00
     27.5700	  568.00	  567.17	-1744.40	  422.66
     27.6700	  575.00	  579.45	-1749.68	  422.32
     27.7700	  563.00	  599.61	-1781.83	  421.97
     27.8700	  604.00	  630.97	-1772.19	  421.63
     27.9700	  697.00	  675.53	-1723.76	  421.29
     28.0700	  717.00	  731.44	-1759.66	  420.94
     28.1700	  854.00	  790.26	-1681.49	  420.60
     28.2700	  847.00	  835.35	-1733.58	  420.26
     28.3700	  926.00	  846.24	-1665.47	  419.91
     28.4700	  896.00	  819.88	-1669.11	  419.57
     28.5700	  799.00	  784.16	-1730.39	  419.22
     28.6700	  708.00	  767.26	-1804.48	  418.88
     28.7700	  765.00	  776.85	-1757.08	  418.53
     28.8700	  778.00	  803.34	-1770.57	  418.18
     28.9700	  845.00	  825.26	-1725.49	  417.84
     29.0700	  815.00	  817.34	-1747.56	  417.49
     29.1700	  787.00	  771.10	-1729.33	  417.15
     29.2700	  747.00	  707.37	-1705.60	  416.80
     29.3700	  680.00	  649.86	-1715.09	  416.45
     29.4700	  636.00	  608.00	-1717.23	  416.11
     29.5700	  596.00	  581.37	-1730.60	  415.76
     29.6700	  619.00	  565.82	-1692.05	  415.42
     29.7700	  629.00	  556.94	-1673.17	  415.07
     29.8700	  652.00	  551.68	-1644.91	  414.72
     29.9700	  594.00	  548.38	-1699.60	  414.38
     30.0700	  561.00	  546.32	-1730.55	  414.03
     30.1700	  564.00	  545.34	-1726.57	  413.69
     30.2700	  581.00	  545.59	-1709.81	  413.34
     30.3700	  555.00	  547.55	-1737.78	  413.00
     30.4700	  552.00	  552.07	-1745.30	  412.65
     30.5700	  542.00	  560.12	-1763.35	  412.31
     30.6700	  609.00	  572.34	-1708.56	  411.96
     30.7700	  590.00	  588.11	-1743.34	  411.62
     30.8700	  603.00	  604.81	-1747.03	  411.27
     30.9700	  670.00	  617.32	-1692.54	  410.93
     31.0700	  587.00	  619.05	-1777.28	  410.59
     31.1700	  605.00	  607.23	-1747.46	  410.24
     31.2700	  591.00	  587.71	-1741.94	  409.90
     31.3700	  529.00	  568.57	-1784.80	  409.56
     31.4700	  560.00	  553.78	-1739.01	  409.22
     31.5700	  571.00	  543.86	-1718.09	  408.88
     31.6700	  536.00	  537.81	-1747.04	  408.54
     31.7700	  565.00	  534.28	-1714.50	  408.20
     31.8700	  537.00	  532.18	-1740.40	  407.86
     31.9700	  528.00	  530.85	-1748.08	  407.52
     32.0700	  588.00	  529.98	-1687.20	  407.18
     32.1700	  551.00	  529.40	-1723.63	  406.84
     32.2700	  567.00	  529.06	-1707.29	  406.50
     32.3700	  541.00	  528.93	-1733.16	  406.16
     32.4700	  541.00	  529.01	-1733.24	  405.83
     32.5700	  499.00	  529.31	-1775.54	  405.49
     32.6700	  552.00	  529.87	-1723.09	  405.16
     32.7700	  542.00	  530.72	-1733.94	  404.82
     32.8700	  546.00	  531.94	-1731.16	  404.49
     32.9700	  528.00	  533.65	-1750.88	  404.15
     33.0700	  540.00	  536.08	-1741.31	  403.82
     33.1700	  584.00	  539.56	-1700.79	  403.49
     33.2700	  589.00	  544.86	-1701.08	  403.16
     33.3700	  605.00	  553.39	-1693.62	  402.83
     33.4700	  568.00	  567.66	-1744.89	  402.50
     33.5700	  604.00	  591.44	-1732.67	  402.17
     33.6700	  623.00	  629.39	-1751.61	  401.84
     33.7700	  703.00	  685.08	-1727.30	  401.52
     33.8700	  728.00	  757.41	-1774.63	  401.19
     33.9700	  901.00	  836.64	-1680.87	  400.86
     34.0700	  934.00	  902.28	-1713.51	  400.54
     34.1700	 1025.00	  926.23	-1646.46	  400.22
     34.2700	  974.00	  891.10	-1662.32	  399.89
     34.3700	  827.00	  813.61	-1731.84	  399.57
     34.4700	  731.00	  728.29	-1742.52	  399.25
     34.5700	  648.00	  657.02	-1754.25	  398.93
     34.6700	  580.00	  606.08	-1771.31	  398.61
     34.7700	  564.00	  573.38	-1754.61	  398.29
     34.8700	  522.00	  553.73	-1776.96	  397.98
     34.9700	  545.00	  542.06	-1742.29	  397.66
     35.0700	  533.00	  534.78	-1747.01	  397.35
     35.1700	  507.00	  529.83	-1768.06	  397.03
     35.2700	  519.00	  526.18	-1752.41	  396.72
     35.3700	  547.00	  523.33	-1721.56	  396.41
     35.4700	  508.00	  521.01	-1758.24	  396.10
     35.5700	  532.00	  519.09	-1732.32	  395.79
     35.6700	  516.00	  517.93	-1747.16	  395.48
     35.7700	  506.00	  516.54	-1755.77	  395.17
     35.8700	  513.00	  515.34	-1747.57	  394.87
     35.9700	  517.00	  514.29	-1742.52	  394.56
     36.0700	  528.00	  513.32	-1730.55	  394.26
     36.1700	  488.00	  512.49	-1769.72	  393.95
     36.2700	  478.00	  511.75	-1778.98	  393.65
     36.3700	  494.00	  511.08	-1762.31	  393.35
     36.4700	  489.00	  510.48	-1766.70	  393.05
     36.5700	  476.00	  509.94	-1779.16	  392.76
     36.6700	  479.00	  509.46	-1775.69	  392.46
     36.7700	  467.00	  509.05	-1787.28	  392.16
     36.8700	  512.00	  508.73	-1741.95	  391.87
     36.9700	  521.00	  508.52	-1732.75	  391.58
     37.0700	  472.00	  508.50	-1781.73	  391.29
     37.1700	  500.00	  508.76	-1753.99	  390.99
     37.2700	  539.00	  509.65	-1715.88	  390.71
     37.3700	  526.00	  510.93	-1730.16	  390.42
     37.4700	  545.00	  512.88	-1713.11	  390.13
     37.5700	  458.00	  515.39	-1802.61	  389.85
     37.6700	  488.00	  518.04	-1775.26	  389.56
     37.7700	  575.00	  520.04	-1690.26	  389.28
     37.8700	  537.00	  520.45	-1728.68	  389.00
     37.9700	  532.00	  518.87	-1732.09	  388.72
     38.0700	  514.00	  515.95	-1747.17	  388.44
     38.1700	  499.00	  512.67	-1758.90	  388.16
     38.2700	  492.00	  509.66	-1762.89	  387.89
     38.3700	  525.00	  507.18	-1727.41	  387.61
     38.4700	  495.00	  505.29	-1755.52	  387.34
     38.5700	  500.00	  503.93	-1749.15	  387.07
     38.6700	  472.00	  502.95	-1776.18	  386.80
     38.7700	  494.00	  502.23	-1753.46	  386.53
     38.8700	  546.00	  501.67	-1700.89	  386.27
     38.9700	  463.00	  501.20	-1783.43	  386.00
     39.0700	  464.00	  500.80	-1782.03	  385.74
     39.1700	  472.00	  500.44	-1773.67	  385.47
     39.2700	  485.00	  500.00	-1760.23	  385.21
     39.3700	  516.00	  499.70	-1728.92	  384.95
     39.4700	  472.00	  499.41	-1772.63	  384.69
     39.5700	  527.00	  499.13	-1717.36	  384.44
     39.6700	  472.00	  498.87	-1772.10	  384.18
     39.7700	  492.00	  498.63	-1751.86	  383.93
     39.8700	  494.00	  498.40	-1749.63	  383.68
     39.9700	  476.00	  498.18	-1767.41	  383.43
     40.0700	  480.00	  497.97	-1763.20	  383.18
     40.1700	  486.00	  498.21	-1757.44	  382.93
     40.2700	  482.00	  498.04	-1761.27	  382.68
     40.3700	  488.00	  497.88	-1755.11	  382.44
     40.4700	  518.00	  497.74	-1724.97	  382.20
     40.5700	  549.00	  497.62	-1693.85	  381.96
     40.6700	  495.00	  497.52	-1747.75	  381.72
     40.7700	  496.00	  497.45	-1746.67	  381.48
