MSG Master    CELL:    5.91390   5.91390  23.23467   90.0000   90.0000  120.0000   SPGR: P 63/m m c             TEMP:    978.25
  1   1280     2.52000     0.00000    -0.13161     0.00000     0.00000    0
    99     0     2
       0.00000      10.00000
     125.00000     130.00000
 2Theta	Yobs	Ycal	Yobs-Ycal	Backg	Posr	(hkl)	K
      0.7700	    0.00	  491.69	-1823.00	  381.28
      0.8700	    0.00	  493.10	-1823.00	  382.68
      0.9700	   54.00	  494.48	-1823.00	  384.07
      1.0700	   37.00	  495.86	-1823.00	  385.44
      1.1700	   41.00	  497.21	-1823.00	  386.80
      1.2700	   56.00	  498.55	-1823.00	  388.14
      1.3700	   52.00	  499.87	-1823.00	  389.46
      1.4700	   94.00	  501.18	-1823.00	  390.76
      1.5700	  283.00	  502.47	-1823.00	  392.05
      1.6700	  469.00	  503.74	-1823.00	  393.33
      1.7700	  567.00	  505.00	-1823.00	  394.59
      1.8700	  671.00	  506.24	-1823.00	  395.83
      1.9700	  722.00	  507.47	-1823.00	  397.06
      2.0700	  797.00	  508.68	-1823.00	  398.27
      2.1700	  767.00	  509.88	-1823.00	  399.46
      2.2700	  778.00	  511.06	-1823.00	  400.65
      2.3700	  773.00	  512.23	-1823.00	  401.81
      2.4700	  697.00	  513.38	-1823.00	  402.96
      2.5700	  708.00	  514.51	-1823.00	  404.10
      2.6700	  647.00	  515.63	-1823.00	  405.22
      2.7700	  650.00	  516.74	-1823.00	  406.32
      2.8700	  616.00	  517.83	-1823.00	  407.41
      2.9700	  610.00	  518.90	-1823.00	  408.49
      3.0700	  588.00	  519.96	-1823.00	  409.55
      3.1700	  551.00	  521.01	-1823.00	  410.60
      3.2700	  610.00	  522.04	-1823.00	  411.63
      3.3700	  701.00	  523.06	-1823.00	  412.65
      3.4700	  767.00	  524.06	-1823.00	  413.65
      3.5700	  779.00	  525.05	-1823.00	  414.64
      3.6700	  900.00	  526.03	-1823.00	  415.62
      3.7700	  880.00	  526.99	-1823.00	  416.58
      3.8700	  938.00	  527.94	-1823.00	  417.53
      3.9700	  976.00	  528.88	-1823.00	  418.46
      4.0700	 1052.00	  529.80	-1823.00	  419.38
      4.1700	 1098.00	  530.70	-1823.00	  420.29
      4.2700	 1061.00	  531.60	-1823.00	  421.18
      4.3700	 1038.00	  532.48	-1823.00	  422.06
      4.4700	 1040.00	  533.34	-1823.00	  422.93
      4.5700	 1085.00	  534.20	-1823.00	  423.78
      4.6700	  943.00	  535.04	-1823.00	  424.63
      4.7700	  961.00	  535.87	-1823.00	  425.45
      4.8700	  925.00	  536.68	-1823.00	  426.27
      4.9700	  882.00	  537.49	-1823.00	  427.07
      5.0700	  940.00	  538.28	-1823.00	  427.86
      5.1700	  906.00	  539.05	-1823.00	  428.64
      5.2700	  870.00	  539.82	-1823.00	  429.40
      5.3700	  884.00	  540.57	-1823.00	  430.15
      5.4700	  831.00	  541.31	-1823.00	  430.89
      5.5700	  868.00	  542.04	-1823.00	  431.62
      5.6700	  857.00	  542.75	-1823.00	  432.34
      5.7700	  842.00	  543.46	-1823.00	  433.04
      5.8700	  808.00	  544.15	-1823.00	  433.73
      5.9700	  798.00	  544.83	-1823.00	  434.41
      6.0700	  783.00	  545.49	-1823.00	  435.08
      6.1700	  773.00	  546.15	-1823.00	  435.73
      6.2700	  788.00	  546.79	-1823.00	  436.38
      6.3700	  772.00	  547.43	-1823.00	  437.01
      6.4700	  721.00	  548.05	-1823.00	  437.63
      6.5700	  763.00	  548.66	-1823.00	  438.24
      6.6700	  751.00	  549.26	-1823.00	  438.84
      6.7700	  701.00	  549.84	-1823.00	  439.43
      6.8700	  714.00	  550.42	-1823.00	  440.01
      6.9700	  688.00	  550.98	-1823.00	  440.57
      7.0700	  699.00	  551.54	-1823.00	  441.12
      7.1700	  701.00	  552.08	-1823.00	  441.67
      7.2700	  696.00	  552.61	-1823.00	  442.20
      7.3700	  695.00	  553.14	-1823.00	  442.72
      7.4700	  658.00	  553.65	-1823.00	  443.23
      7.5700	  651.00	  554.15	-1823.00	  443.73
      7.6700	  634.00	  554.64	-1823.00	  444.22
      7.7700	  621.00	  555.12	-1823.00	  444.70
      7.8700	  622.00	  555.59	-1823.00	  445.17
      7.9700	  650.00	  556.05	-1823.00	  445.63
      8.0700	  597.00	  556.50	-1823.00	  446.08
      8.1700	  589.00	  556.94	-1823.00	  446.52
      8.2700	  580.00	  557.36	-1823.00	  446.95
      8.3700	  604.00	  557.78	-1823.00	  447.37
      8.4700	  662.00	  558.19	-1823.00	  447.78
      8.5700	  578.00	  558.59	-1823.00	  448.18
      8.6700	  569.00	  558.98	-1823.00	  448.57
      8.7700	  622.00	  559.36	-1823.00	  448.95
      8.8700	  566.00	  559.73	-1823.00	  449.32
      8.9700	  635.00	  560.10	-1823.00	  449.68
      9.0700	  591.00	  560.45	-1823.00	  450.03
      9.1700	  601.00	  560.79	-1823.00	  450.38
      9.2700	  656.00	  561.13	-1823.00	  450.71
      9.3700	  583.00	  561.45	-1823.00	  451.04
      9.4700	  589.00	  561.77	-1823.00	  451.35
      9.5700	  631.00	  562.07	-1823.00	  451.66
      9.6700	  565.00	  562.37	-1823.00	  451.95
      9.7700	  620.00	  562.66	-1823.00	  452.24
      9.8700	  632.00	  562.94	-1823.00	  452.52
      9.9700	  619.00	  563.21	-1823.00	  452.80
     10.0700	  602.00	  565.14	-1786.14	  453.06
     10.1700	  654.00	  565.46	-1734.46	  453.31
     10.2700	  544.00	  565.79	-1844.79	  453.56
     10.3700	  583.00	  566.14	-1806.14	  453.80
     10.4700	  590.00	  566.53	-1799.53	  454.03
     10.5700	  632.00	  566.99	-1757.99	  454.25
     10.6700	  582.00	  567.63	-1808.63	  454.46
     10.7700	  552.00	  568.53	-1839.53	  454.66
     10.8700	  575.00	  569.77	-1817.77	  454.86
     10.9700	  584.00	  571.36	-1810.36	  455.05
     11.0700	  556.00	  573.26	-1840.26	  455.23
     11.1700	  577.00	  575.46	-1821.46	  455.40
     11.2700	  595.00	  577.99	-1805.99	  455.57
     11.3700	  604.00	  580.90	-1799.90	  455.73
     11.4700	  573.00	  584.32	-1834.32	  455.88
     11.5700	  605.00	  588.40	-1806.40	  456.02
     11.6700	  608.00	  593.45	-1808.45	  456.15
     11.7700	  618.00	  599.96	-1804.96	  456.28
     11.8700	  640.00	  608.77	-1791.77	  456.40
     11.9700	  610.00	  620.71	-1833.71	  456.52
     12.0700	  684.00	  634.89	-1773.89	  456.62
     12.1700	  704.00	  646.32	-1765.32	  456.72
     12.2700	  628.00	  645.91	-1840.91	  456.81
     12.3700	  661.00	  628.94	-1790.94	  456.90
     12.4700	  615.00	  605.70	-1813.70	  456.98
     12.5700	  586.00	  587.99	-1824.99	  457.05
     12.6700	  591.00	  578.33	-1810.33	  457.11
     12.7700	  577.00	  574.10	-1820.10	  457.17
     12.8700	  534.00	  572.36	-1861.36	  457.22
     12.9700	  553.00	  571.51	-1841.51	  457.26
     13.0700	  558.00	  570.99	-1835.99	  457.30
     13.1700	  539.00	  570.63	-1854.63	  457.33
     13.2700	  565.00	  570.36	-1828.36	  457.36
     13.3700	  574.00	  570.16	-1819.16	  457.38
     13.4700	  524.00	  570.00	-1869.00	  457.39
     13.5700	  570.00	  569.87	-1822.87	  457.40
     13.6700	  554.00	  569.76	-1838.76	  457.40
     13.7700	  499.00	  569.66	-1893.66	  457.39
     13.8700	  537.00	  569.58	-1855.58	  457.38
     13.9700	  557.00	  569.50	-1835.50	  457.36
     14.0700	  604.00	  569.42	-1788.42	  457.34
     14.1700	  547.00	  569.34	-1845.34	  457.31
     14.2700	  552.00	  569.27	-1840.27	  457.27
     14.3700	  541.00	  569.20	-1851.20	  457.23
     14.4700	  538.00	  569.12	-1854.12	  457.19
     14.5700	  525.00	  569.04	-1867.04	  457.13
     14.6700	  531.00	  568.96	-1860.96	  457.08
     14.7700	  541.00	  568.88	-1850.88	  457.01
     14.8700	  576.00	  568.79	-1815.79	  456.94
     14.9700	  555.00	  568.70	-1836.70	  456.87
     15.0700	  577.00	  568.61	-1814.61	  456.79
     15.1700	  561.00	  568.51	-1830.51	  456.71
     15.2700	  574.00	  568.41	-1817.41	  456.62
     15.3700	  535.00	  568.31	-1856.31	  456.52
     15.4700	  595.00	  568.20	-1796.20	  456.42
     15.5700	  548.00	  568.09	-1843.09	  456.32
     15.6700	  551.00	  567.97	-1839.97	  456.21
     15.7700	  541.00	  567.85	-1849.85	  456.09
     15.8700	  539.00	  567.72	-1851.72	  455.97
     15.9700	  567.00	  567.60	-1823.60	  455.85
     16.0700	  552.00	  567.46	-1838.46	  455.72
     16.1700	  552.00	  567.32	-1838.32	  455.59
     16.2700	  511.00	  567.18	-1879.18	  455.45
     16.3700	  546.00	  567.06	-1844.06	  455.31
     16.4700	  583.00	  566.91	-1806.91	  455.16
     16.5700	  609.00	  566.76	-1780.76	  455.01
     16.6700	  526.00	  566.60	-1863.60	  454.85
     16.7700	  558.00	  566.44	-1831.44	  454.69
     16.8700	  540.00	  566.27	-1849.27	  454.53
     16.9700	  592.00	  566.11	-1797.11	  454.36
     17.0700	  549.00	  565.93	-1839.93	  454.19
     17.1700	  587.00	  565.75	-1801.75	  454.01
     17.2700	  573.00	  565.57	-1815.57	  453.83
     17.3700	  554.00	  565.39	-1834.39	  453.65
     17.4700	  530.00	  565.20	-1858.20	  453.46
     17.5700	  570.00	  565.01	-1818.01	  453.26
     17.6700	  569.00	  564.81	-1818.81	  453.07
     17.7700	  553.00	  564.61	-1834.61	  452.87
     17.8700	  578.00	  564.41	-1809.41	  452.66
     17.9700	  532.00	  564.31	-1855.31	  452.45
     18.0700	  575.00	  564.10	-1812.10	  452.24
     18.1700	  547.00	  563.89	-1839.89	  452.03
     18.2700	  559.00	  563.67	-1827.67	  451.81
     18.3700	  543.00	  563.45	-1843.45	  451.59
     18.4700	  527.00	  563.23	-1859.23	  451.36
     18.5700	  560.00	  563.01	-1826.01	  451.13
     18.6700	  582.00	  562.78	-1803.78	  450.90
     18.7700	  557.00	  562.55	-1828.55	  450.67
     18.8700	  585.00	  562.41	-1800.41	  450.43
     18.9700	  597.00	  562.17	-1788.17	  450.19
     19.0700	  540.00	  561.93	-1844.93	  449.94
     19.1700	  543.00	  561.69	-1841.69	  449.69
     19.2700	  572.00	  561.45	-1812.45	  449.44
     19.3700	  546.00	  561.20	-1838.20	  449.19
     19.4700	  563.00	  560.95	-1820.95	  448.93
     19.5700	  555.00	  560.70	-1828.70	  448.67
     19.6700	  565.00	  560.45	-1818.45	  448.41
     19.7700	  557.00	  560.19	-1826.19	  448.14
     19.8700	  619.00	  559.94	-1763.94	  447.87
     19.9700	  515.00	  559.67	-1867.67	  447.60
     20.0700	  528.00	  559.41	-1854.41	  447.33
     20.1700	  566.00	  559.15	-1816.15	  447.05
     20.2700	  567.00	  558.88	-1814.88	  446.77
     20.3700	  542.00	  558.58	-1839.58	  446.49
     20.4700	  515.00	  558.31	-1866.31	  446.21
     20.5700	  593.00	  558.04	-1788.04	  445.92
     20.6700	  558.00	  557.77	-1822.77	  445.63
     20.7700	  558.00	  557.49	-1822.49	  445.34
     20.8700	  505.00	  557.21	-1875.21	  445.05
     20.9700	  580.00	  556.97	-1799.97	  444.75
     21.0700	  527.00	  556.69	-1852.69	  444.45
     21.1700	  536.00	  556.41	-1843.41	  444.15
     21.2700	  543.00	  556.13	-1836.13	  443.85
     21.3700	  535.00	  555.85	-1843.85	  443.54
     21.4700	  555.00	  555.57	-1823.57	  443.24
     21.5700	  594.00	  555.29	-1784.29	  442.93
     21.6700	  573.00	  555.00	-1805.00	  442.62
     21.7700	  553.00	  554.72	-1824.72	  442.30
     21.8700	  561.00	  554.43	-1816.43	  441.99
     21.9700	  565.00	  554.15	-1812.15	  441.67
     22.0700	  525.00	  553.87	-1851.87	  441.36
     22.1700	  575.00	  553.59	-1801.59	  441.04
     22.2700	  567.00	  553.31	-1809.31	  440.71
     22.3700	  567.00	  553.03	-1809.03	  440.39
     22.4700	  574.00	  552.75	-1801.75	  440.06
     22.5700	  555.00	  552.48	-1820.48	  439.74
     22.6700	  572.00	  552.21	-1803.21	  439.41
     22.7700	  510.00	  551.95	-1864.95	  439.08
     22.8700	  534.00	  551.69	-1840.69	  438.75
     22.9700	  554.00	  551.45	-1820.45	  438.42
     23.0700	  564.00	  551.21	-1810.21	  438.08
     23.1700	  514.00	  550.99	-1859.99	  437.75
     23.2700	  566.00	  550.78	-1807.78	  437.41
     23.3700	  566.00	  550.60	-1807.60	  437.07
     23.4700	  589.00	  550.44	-1784.44	  436.73
     23.5700	  581.00	  550.33	-1792.33	  436.39
     23.6700	  550.00	  550.27	-1823.27	  436.05
     23.7700	  540.00	  550.43	-1833.43	  435.70
     23.8700	  591.00	  550.63	-1782.63	  435.36
     23.9700	  588.00	  551.17	-1786.17	  435.01
     24.0700	  541.00	  552.41	-1834.41	  434.67
     24.1700	  594.00	  554.97	-1783.97	  434.32
     24.2700	  541.00	  559.70	-1841.70	  433.97
     24.3700	  608.00	  567.57	-1782.57	  433.62
     24.4700	  569.00	  579.73	-1833.73	  433.27
     24.5700	  642.00	  597.06	-1778.06	  432.92
     24.6700	  626.00	  618.22	-1815.22	  432.57
     24.7700	  642.00	  636.73	-1817.73	  432.21
     24.8700	  642.00	  641.13	-1822.13	  431.86
     24.9700	  597.00	  624.24	-1850.24	  431.51
     25.0700	  656.00	  596.48	-1763.48	  431.15
     25.1700	  579.00	  572.87	-1816.87	  430.79
     25.2700	  578.00	  558.56	-1803.56	  430.44
     25.3700	  613.00	  551.65	-1761.65	  430.08
     25.4700	  553.00	  548.61	-1818.61	  429.72
     25.5700	  581.00	  547.12	-1789.12	  429.36
     25.6700	  627.00	  546.21	-1742.21	  429.00
     25.7700	  547.00	  545.56	-1821.56	  428.65
     25.8700	  569.00	  545.07	-1799.07	  428.29
     25.9700	  536.00	  544.69	-1831.69	  427.92
     26.0700	  568.00	  544.40	-1799.40	  427.56
     26.1700	  571.00	  544.20	-1796.20	  427.20
     26.2700	  541.00	  544.08	-1826.08	  426.84
     26.3700	  540.00	  544.03	-1827.03	  426.48
     26.4700	  548.00	  544.08	-1819.08	  426.12
     26.5700	  562.00	  544.22	-1805.22	  425.76
     26.6700	  559.00	  544.47	-1808.47	  425.39
     26.7700	  553.00	  544.86	-1814.86	  425.03
     26.8700	  567.00	  545.43	-1801.43	  424.67
     26.9700	  543.00	  546.21	-1826.21	  424.30
     27.0700	  554.00	  547.29	-1816.29	  423.94
     27.1700	  565.00	  548.80	-1806.80	  423.58
     27.2700	  577.00	  550.95	-1796.95	  423.21
     27.3700	  601.00	  554.20	-1776.20	  422.85
     27.4700	  561.00	  559.45	-1821.45	  422.49
     27.5700	  524.00	  568.28	-1867.28	  422.12
     27.6700	  584.00	  583.31	-1822.31	  421.76
     27.7700	  597.00	  608.01	-1834.01	  421.40
     27.8700	  626.00	  645.70	-1842.70	  421.03
     27.9700	  684.00	  697.26	-1836.26	  420.67
     28.0700	  738.00	  757.98	-1842.98	  420.31
     28.1700	  872.00	  814.63	-1765.62	  419.95
     28.2700	  945.00	  845.47	-1723.47	  419.58
     28.3700	  967.00	  833.06	-1689.06	  419.22
     28.4700	  833.00	  791.86	-1781.86	  418.86
     28.5700	  705.00	  758.30	-1876.30	  418.50
     28.6700	  696.00	  753.51	-1880.51	  418.14
     28.7700	  692.00	  776.41	-1907.41	  417.78
     28.8700	  844.00	  809.00	-1788.00	  417.42
     28.9700	  846.00	  822.50	-1799.50	  417.06
     29.0700	  813.00	  792.97	-1802.97	  416.70
     29.1700	  721.00	  729.12	-1831.12	  416.34
     29.2700	  661.00	  662.38	-1824.38	  415.98
     29.3700	  621.00	  611.62	-1813.62	  415.62
     29.4700	  618.00	  579.75	-1784.75	  415.26
     29.5700	  565.00	  562.11	-1820.11	  414.91
     29.6700	  650.00	  552.79	-1725.79	  414.55
     29.7700	  636.00	  547.59	-1734.59	  414.19
     29.8700	  585.00	  544.40	-1782.40	  413.84
     29.9700	  568.00	  542.33	-1797.33	  413.48
     30.0700	  585.00	  541.12	-1779.12	  413.13
     30.1700	  522.00	  540.85	-1841.85	  412.78
     30.2700	  569.00	  541.96	-1795.96	  412.42
     30.3700	  498.00	  545.39	-1870.39	  412.07
     30.4700	  561.00	  552.66	-1814.66	  411.72
     30.5700	  555.00	  565.62	-1833.62	  411.37
     30.6700	  590.00	  585.28	-1818.28	  411.02
     30.7700	  588.00	  610.02	-1845.02	  410.67
     30.8700	  573.00	  633.91	-1883.92	  410.32
     30.9700	  639.00	  646.65	-1830.65	  409.98
     31.0700	  617.00	  638.50	-1844.50	  409.63
     31.1700	  580.00	  612.45	-1855.45	  409.29
     31.2700	  576.00	  582.74	-1829.74	  408.94
     31.3700	  578.00	  559.26	-1804.26	  408.60
     31.4700	  582.00	  544.29	-1785.29	  408.25
     31.5700	  568.00	  536.03	-1791.03	  407.91
     31.6700	  545.00	  531.76	-1809.76	  407.57
     31.7700	  560.00	  529.43	-1792.43	  407.23
     31.8700	  525.00	  527.99	-1825.99	  406.89
     31.9700	  518.00	  526.99	-1831.99	  406.56
     32.0700	  533.00	  526.25	-1816.25	  406.22
     32.1700	  499.00	  525.71	-1849.71	  405.88
     32.2700	  563.00	  525.34	-1785.34	  405.55
     32.3700	  542.00	  525.12	-1806.12	  405.22
     32.4700	  560.00	  525.05	-1788.05	  404.89
     32.5700	  556.00	  525.15	-1792.15	  404.55
     32.6700	  543.00	  525.43	-1805.43	  404.22
     32.7700	  550.00	  525.93	-1798.93	  403.90
     32.8700	  583.00	  526.72	-1766.72	  403.57
     32.9700	  576.00	  527.88	-1774.88	  403.24
     33.0700	  506.00	  529.58	-1846.58	  402.92
     33.1700	  525.00	  532.16	-1830.16	  402.59
     33.2700	  496.00	  536.39	-1863.39	  402.27
     33.3700	  556.00	  544.06	-1811.06	  401.95
     33.4700	  566.00	  558.71	-1815.71	  401.63
     33.5700	  557.00	  586.48	-1852.48	  401.31
     33.6700	  616.00	  635.49	-1842.49	  401.00
     33.7700	  674.00	  711.91	-1860.91	  400.68
     33.8700	  830.00	  811.90	-1804.90	  400.37
     33.9700	  993.00	  914.16	-1744.16	  400.05
     34.0700	 1082.00	  979.38	-1720.38	  399.74
     34.1700	 1058.00	  966.77	-1731.77	  399.43
     34.2700	  952.00	  877.34	-1748.34	  399.12
     34.3700	  859.00	  761.66	-1725.66	  398.81
     34.4700	  683.00	  663.50	-1803.50	  398.51
     34.5700	  589.00	  597.80	-1831.80	  398.20
     34.6700	  581.00	  560.71	-1802.71	  397.90
     34.7700	  532.00	  541.86	-1832.86	  397.60
     34.8700	  556.00	  532.30	-1799.30	  397.30
     34.9700	  501.00	  526.88	-1848.88	  397.00
     35.0700	  527.00	  523.28	-1819.28	  396.70
     35.1700	  496.00	  520.61	-1847.61	  396.41
     35.2700	  541.00	  518.52	-1800.52	  396.11
     35.3700	  531.00	  516.83	-1808.83	  395.82
     35.4700	  525.00	  515.42	-1813.42	  395.53
     35.5700	  539.00	  514.22	-1798.22	  395.24
     35.6700	  526.00	  513.19	-1810.19	  394.96
     35.7700	  507.00	  512.28	-1828.28	  394.67
     35.8700	  561.00	  511.48	-1773.48	  394.39
     35.9700	  543.00	  511.27	-1791.27	  394.10
     36.0700	  516.00	  510.63	-1817.63	  393.82
     36.1700	  485.00	  510.05	-1848.05	  393.54
     36.2700	  529.00	  509.52	-1803.52	  393.27
     36.3700	  517.00	  509.04	-1815.04	  392.99
     36.4700	  509.00	  508.59	-1822.59	  392.72
     36.5700	  495.00	  508.19	-1836.19	  392.44
     36.6700	  454.00	  507.82	-1876.82	  392.17
     36.7700	  516.00	  507.49	-1814.49	  391.90
     36.8700	  501.00	  507.22	-1829.22	  391.64
     36.9700	  503.00	  507.03	-1827.03	  391.37
     37.0700	  527.00	  507.01	-1803.01	  391.11
     37.1700	  517.00	  507.33	-1813.33	  390.84
     37.2700	  456.00	  508.30	-1875.30	  390.58
     37.3700	  507.00	  510.36	-1826.36	  390.33
     37.4700	  532.00	  513.83	-1804.83	  390.07
     37.5700	  513.00	  518.52	-1828.52	  389.81
     37.6700	  505.00	  523.44	-1841.44	  389.56
     37.7700	  494.00	  526.84	-1855.84	  389.31
     37.8700	  535.00	  527.23	-1815.23	  389.06
     37.9700	  495.00	  524.86	-1852.86	  388.81
     38.0700	  514.00	  521.08	-1830.08	  388.57
     38.1700	  503.00	  516.71	-1836.71	  388.32
     38.2700	  526.00	  512.30	-1809.30	  388.08
     38.3700	  477.00	  508.53	-1854.53	  387.84
     38.4700	  567.00	  505.73	-1761.73	  387.60
     38.5700	  479.00	  503.87	-1847.87	  387.37
     38.6700	  484.00	  502.71	-1841.71	  387.13
     38.7700	  466.00	  501.98	-1858.98	  386.90
     38.8700	  514.00	  501.39	-1810.39	  386.67
     38.9700	  493.00	  501.01	-1831.01	  386.44
     39.0700	  481.00	  500.68	-1842.68	  386.21
     39.1700	  461.00	  500.39	-1862.39	  385.99
     39.2700	  475.00	  500.04	-1848.04	  385.76
     39.3700	  495.00	  499.79	-1827.79	  385.54
     39.4700	  501.00	  499.55	-1821.55	  385.32
     39.5700	  501.00	  499.33	-1821.33	  385.11
     39.6700	  488.00	  499.12	-1834.12	  384.89
     39.7700	  547.00	  499.05	-1775.05	  384.68
     39.8700	  477.00	  498.86	-1844.86	  384.47
     39.9700	  501.00	  498.68	-1820.68	  384.26
     40.0700	  493.00	  498.52	-1828.52	  384.05
     40.1700	  477.00	  498.36	-1844.36	  383.85
     40.2700	  532.00	  498.22	-1789.22	  383.64
     40.3700	  504.00	  498.08	-1817.08	  383.44
     40.4700	  509.00	  497.96	-1811.96	  383.24
     40.5700	  514.00	  497.86	-1806.86	  383.04
     40.6700	  482.00	  497.77	-1838.77	  382.85
     40.7700	  478.00	  497.70	-1842.70	  382.65
