MSG Master    CELL:    5.91907   5.91907  23.27379   90.0000   90.0000  120.0000   SPGR: P 63/m m c             TEMP:   1074.85
  1   1280     2.52000     0.00000    -0.12797     0.00000     0.00000    0
    99     0     2
       0.00000      10.00000
     125.00000     130.00000
 2Theta	Yobs	Ycal	Yobs-Ycal	Backg	Posr	(hkl)	K
      0.7700	    0.00	  587.51	-1745.75	  469.95
      0.8700	    0.00	  587.71	-1745.75	  470.15
      0.9700	   40.00	  587.91	-1745.75	  470.34
      1.0700	   44.00	  588.09	-1745.75	  470.53
      1.1700	   42.00	  588.27	-1745.75	  470.70
      1.2700	   44.00	  588.44	-1745.75	  470.88
      1.3700	   49.00	  588.61	-1745.75	  471.04
      1.4700	  115.00	  588.77	-1745.75	  471.20
      1.5700	  285.00	  588.92	-1745.75	  471.36
      1.6700	  473.00	  589.07	-1745.75	  471.50
      1.7700	  587.00	  589.21	-1745.75	  471.64
      1.8700	  625.00	  589.34	-1745.75	  471.78
      1.9700	  750.00	  589.47	-1745.75	  471.91
      2.0700	  803.00	  589.59	-1745.75	  472.03
      2.1700	  821.00	  589.71	-1745.75	  472.14
      2.2700	  751.00	  589.82	-1745.75	  472.25
      2.3700	  754.00	  589.92	-1745.75	  472.35
      2.4700	  748.00	  590.02	-1745.75	  472.45
      2.5700	  670.00	  590.11	-1745.75	  472.54
      2.6700	  660.00	  590.19	-1745.75	  472.63
      2.7700	  668.00	  590.27	-1745.75	  472.71
      2.8700	  633.00	  590.35	-1745.75	  472.78
      2.9700	  583.00	  590.41	-1745.75	  472.85
      3.0700	  624.00	  590.47	-1745.75	  472.91
      3.1700	  565.00	  590.53	-1745.75	  472.96
      3.2700	  599.00	  590.58	-1745.75	  473.01
      3.3700	  663.00	  590.62	-1745.75	  473.06
      3.4700	  731.00	  590.66	-1745.75	  473.10
      3.5700	  795.00	  590.70	-1745.75	  473.13
      3.6700	  827.00	  590.72	-1745.75	  473.16
      3.7700	  964.00	  590.75	-1745.75	  473.18
      3.8700	 1011.00	  590.76	-1745.75	  473.20
      3.9700	  937.00	  590.78	-1745.75	  473.21
      4.0700	 1074.00	  590.78	-1745.75	  473.22
      4.1700	 1062.00	  590.78	-1745.75	  473.22
      4.2700	 1155.00	  590.78	-1745.75	  473.21
      4.3700	 1062.00	  590.77	-1745.75	  473.20
      4.4700	 1045.00	  590.76	-1745.75	  473.19
      4.5700	 1068.00	  590.74	-1745.75	  473.17
      4.6700	 1000.00	  590.71	-1745.75	  473.15
      4.7700	  999.00	  590.68	-1745.75	  473.12
      4.8700	  994.00	  590.65	-1745.75	  473.08
      4.9700	  955.00	  590.61	-1745.75	  473.04
      5.0700	  877.00	  590.57	-1745.75	  473.00
      5.1700	  918.00	  590.52	-1745.75	  472.95
      5.2700	  898.00	  590.47	-1745.75	  472.90
      5.3700	  900.00	  590.41	-1745.75	  472.84
      5.4700	  844.00	  590.35	-1745.75	  472.78
      5.5700	  863.00	  590.28	-1745.75	  472.71
      5.6700	  902.00	  590.21	-1745.75	  472.64
      5.7700	  764.00	  590.13	-1745.75	  472.56
      5.8700	  814.00	  590.05	-1745.75	  472.48
      5.9700	  814.00	  589.96	-1745.75	  472.40
      6.0700	  717.00	  589.88	-1745.75	  472.31
      6.1700	  747.00	  589.78	-1745.75	  472.21
      6.2700	  779.00	  589.68	-1745.75	  472.12
      6.3700	  795.00	  589.58	-1745.75	  472.01
      6.4700	  791.00	  589.47	-1745.75	  471.91
      6.5700	  799.00	  589.36	-1745.75	  471.80
      6.6700	  750.00	  589.25	-1745.75	  471.68
      6.7700	  696.00	  589.13	-1745.75	  471.56
      6.8700	  728.00	  589.01	-1745.75	  471.44
      6.9700	  698.00	  588.88	-1745.75	  471.31
      7.0700	  694.00	  588.75	-1745.75	  471.18
      7.1700	  720.00	  588.61	-1745.75	  471.05
      7.2700	  643.00	  588.48	-1745.75	  470.91
      7.3700	  658.00	  588.33	-1745.75	  470.77
      7.4700	  687.00	  588.19	-1745.75	  470.62
      7.5700	  647.00	  588.04	-1745.75	  470.47
      7.6700	  694.00	  587.88	-1745.75	  470.32
      7.7700	  657.00	  587.73	-1745.75	  470.16
      7.8700	  629.00	  587.57	-1745.75	  470.00
      7.9700	  667.00	  587.40	-1745.75	  469.83
      8.0700	  643.00	  587.23	-1745.75	  469.67
      8.1700	  607.00	  587.06	-1745.75	  469.49
      8.2700	  638.00	  586.89	-1745.75	  469.32
      8.3700	  644.00	  586.71	-1745.75	  469.14
      8.4700	  653.00	  586.53	-1745.75	  468.96
      8.5700	  634.00	  586.34	-1745.75	  468.77
      8.6700	  623.00	  586.15	-1745.75	  468.58
      8.7700	  643.00	  585.96	-1745.75	  468.39
      8.8700	  603.00	  585.76	-1745.75	  468.20
      8.9700	  634.00	  585.57	-1745.75	  468.00
      9.0700	  636.00	  585.36	-1745.75	  467.80
      9.1700	  646.00	  585.16	-1745.75	  467.59
      9.2700	  631.00	  584.95	-1745.75	  467.39
      9.3700	  561.00	  584.74	-1745.75	  467.17
      9.4700	  623.00	  584.53	-1745.75	  466.96
      9.5700	  606.00	  584.31	-1745.75	  466.74
      9.6700	  580.00	  584.09	-1745.75	  466.53
      9.7700	  593.00	  583.87	-1745.75	  466.30
      9.8700	  583.00	  583.64	-1745.75	  466.08
      9.9700	  612.00	  583.42	-1745.75	  465.85
     10.0700	  583.00	  584.01	-1746.76	  465.62
     10.1700	  573.00	  583.86	-1756.61	  465.38
     10.2700	  606.00	  583.73	-1723.48	  465.15
     10.3700	  651.00	  583.64	-1678.39	  464.91
     10.4700	  623.00	  583.60	-1706.35	  464.67
     10.5700	  574.00	  583.68	-1755.43	  464.42
     10.6700	  579.00	  583.97	-1750.72	  464.18
     10.7700	  564.00	  584.58	-1766.33	  463.93
     10.8700	  547.00	  585.58	-1784.33	  463.67
     10.9700	  604.00	  586.96	-1728.71	  463.42
     11.0700	  515.00	  588.68	-1819.43	  463.16
     11.1700	  631.00	  590.76	-1705.51	  462.90
     11.2700	  567.00	  593.21	-1771.96	  462.64
     11.3700	  639.00	  596.12	-1702.87	  462.38
     11.4700	  606.00	  599.62	-1739.37	  462.11
     11.5700	  637.00	  603.92	-1712.67	  461.84
     11.6700	  630.00	  609.37	-1725.12	  461.57
     11.7700	  618.00	  616.59	-1744.34	  461.30
     11.8700	  640.00	  626.47	-1732.22	  461.02
     11.9700	  649.00	  639.59	-1736.34	  460.75
     12.0700	  694.00	  654.25	-1706.00	  460.47
     12.1700	  653.00	  664.27	-1757.02	  460.19
     12.2700	  713.00	  660.20	-1692.95	  459.90
     12.3700	  676.00	  639.58	-1709.33	  459.62
     12.4700	  630.00	  614.86	-1730.61	  459.33
     12.5700	  634.00	  596.81	-1708.56	  459.04
     12.6700	  586.00	  586.88	-1746.63	  458.75
     12.7700	  616.00	  582.23	-1711.98	  458.46
     12.8700	  534.00	  580.01	-1791.76	  458.16
     12.9700	  592.00	  578.71	-1732.46	  457.87
     13.0700	  513.00	  577.77	-1810.52	  457.57
     13.1700	  558.00	  577.02	-1764.77	  457.27
     13.2700	  574.00	  576.38	-1748.13	  456.96
     13.3700	  593.00	  575.81	-1728.56	  456.66
     13.4700	  553.00	  575.30	-1768.05	  456.36
     13.5700	  565.00	  574.83	-1755.58	  456.05
     13.6700	  569.00	  574.39	-1751.14	  455.74
     13.7700	  544.00	  573.97	-1775.72	  455.43
     13.8700	  548.00	  573.57	-1771.32	  455.12
     13.9700	  567.00	  573.18	-1751.93	  454.80
     14.0700	  554.00	  572.80	-1764.55	  454.49
     14.1700	  572.00	  572.42	-1746.17	  454.17
     14.2700	  584.00	  572.06	-1733.81	  453.86
     14.3700	  503.00	  571.70	-1814.45	  453.54
     14.4700	  598.00	  571.34	-1719.09	  453.22
     14.5700	  600.00	  570.99	-1716.74	  452.90
     14.6700	  578.00	  570.64	-1738.39	  452.57
     14.7700	  588.00	  570.29	-1728.04	  452.25
     14.8700	  562.00	  569.94	-1753.69	  451.92
     14.9700	  533.00	  569.59	-1782.34	  451.60
     15.0700	  563.00	  569.25	-1752.00	  451.27
     15.1700	  564.00	  568.90	-1750.65	  450.94
     15.2700	  564.00	  568.55	-1750.30	  450.61
     15.3700	  560.00	  568.21	-1753.96	  450.28
     15.4700	  613.00	  567.87	-1700.62	  449.95
     15.5700	  540.00	  567.52	-1773.27	  449.61
     15.6700	  633.00	  567.18	-1679.93	  449.28
     15.7700	  564.00	  566.83	-1748.58	  448.94
     15.8700	  555.00	  566.49	-1757.24	  448.61
     15.9700	  517.00	  566.14	-1794.89	  448.27
     16.0700	  551.00	  565.82	-1760.57	  447.93
     16.1700	  564.00	  565.48	-1747.23	  447.59
     16.2700	  555.00	  565.13	-1755.88	  447.25
     16.3700	  556.00	  564.79	-1754.54	  446.91
     16.4700	  563.00	  564.44	-1747.19	  446.57
     16.5700	  543.00	  564.09	-1766.84	  446.23
     16.6700	  584.00	  563.75	-1725.50	  445.88
     16.7700	  595.00	  563.40	-1714.15	  445.54
     16.8700	  566.00	  563.05	-1742.80	  445.20
     16.9700	  540.00	  562.70	-1768.45	  444.85
     17.0700	  554.00	  562.35	-1754.10	  444.50
     17.1700	  569.00	  562.00	-1738.75	  444.16
     17.2700	  565.00	  561.65	-1742.40	  443.81
     17.3700	  537.00	  561.30	-1770.05	  443.46
     17.4700	  545.00	  560.95	-1761.70	  443.11
     17.5700	  582.00	  560.60	-1724.35	  442.77
     17.6700	  562.00	  560.25	-1744.00	  442.42
     17.7700	  533.00	  559.90	-1772.65	  442.07
     17.8700	  540.00	  559.55	-1765.30	  441.72
     17.9700	  575.00	  559.30	-1730.05	  441.36
     18.0700	  588.00	  558.95	-1716.70	  441.01
     18.1700	  538.00	  558.60	-1766.35	  440.66
     18.2700	  540.00	  558.25	-1764.00	  440.31
     18.3700	  498.00	  557.90	-1805.65	  439.96
     18.4700	  555.00	  557.55	-1748.30	  439.60
     18.5700	  559.00	  557.20	-1743.95	  439.25
     18.6700	  525.00	  556.85	-1777.60	  438.90
     18.7700	  596.00	  556.50	-1706.25	  438.54
     18.8700	  560.00	  556.24	-1741.99	  438.19
     18.9700	  593.00	  555.90	-1708.65	  437.84
     19.0700	  553.00	  555.55	-1748.30	  437.48
     19.1700	  541.00	  555.20	-1759.95	  437.13
     19.2700	  521.00	  554.85	-1779.60	  436.77
     19.3700	  576.00	  554.50	-1724.25	  436.42
     19.4700	  554.00	  554.16	-1745.91	  436.06
     19.5700	  521.00	  553.81	-1778.56	  435.71
     19.6700	  579.00	  553.46	-1720.21	  435.35
     19.7700	  566.00	  553.11	-1732.86	  435.00
     19.8700	  555.00	  552.77	-1743.52	  434.64
     19.9700	  535.00	  552.42	-1763.17	  434.29
     20.0700	  544.00	  552.08	-1753.83	  433.93
     20.1700	  567.00	  551.73	-1730.48	  433.58
     20.2700	  564.00	  551.39	-1733.14	  433.22
     20.3700	  514.00	  551.05	-1782.80	  432.87
     20.4700	  521.00	  550.70	-1775.45	  432.51
     20.5700	  548.00	  550.36	-1748.11	  432.16
     20.6700	  550.00	  550.02	-1745.77	  431.80
     20.7700	  564.00	  549.65	-1731.40	  431.45
     20.8700	  540.00	  549.35	-1755.10	  431.10
     20.9700	  554.00	  549.01	-1740.76	  430.74
     21.0700	  543.00	  548.68	-1751.43	  430.39
     21.1700	  566.00	  548.34	-1728.09	  430.03
     21.2700	  562.00	  548.01	-1731.76	  429.68
     21.3700	  536.00	  547.68	-1757.43	  429.33
     21.4700	  527.00	  547.35	-1766.10	  428.98
     21.5700	  530.00	  547.03	-1762.78	  428.62
     21.6700	  549.00	  546.70	-1743.45	  428.27
     21.7700	  534.00	  546.38	-1758.13	  427.92
     21.8700	  511.00	  546.06	-1780.81	  427.57
     21.9700	  536.00	  545.74	-1755.49	  427.22
     22.0700	  546.00	  545.43	-1745.18	  426.87
     22.1700	  573.00	  545.12	-1717.87	  426.52
     22.2700	  544.00	  544.81	-1746.56	  426.17
     22.3700	  546.00	  544.51	-1744.26	  425.82
     22.4700	  521.00	  544.21	-1768.96	  425.47
     22.5700	  553.00	  543.92	-1736.67	  425.12
     22.6700	  556.00	  543.64	-1733.39	  424.77
     22.7700	  564.00	  543.37	-1725.12	  424.42
     22.8700	  556.00	  543.10	-1732.85	  424.08
     22.9700	  598.00	  542.85	-1690.60	  423.73
     23.0700	  538.00	  542.61	-1750.36	  423.38
     23.1700	  541.00	  542.39	-1747.14	  423.04
     23.2700	  513.00	  542.20	-1774.95	  422.69
     23.3700	  548.00	  542.03	-1739.78	  422.35
     23.4700	  569.00	  541.90	-1718.65	  422.01
     23.5700	  542.00	  541.82	-1745.57	  421.66
     23.6700	  579.00	  541.95	-1708.70	  421.32
     23.7700	  537.00	  542.08	-1750.83	  420.98
     23.8700	  556.00	  542.44	-1732.19	  420.64
     23.9700	  578.00	  543.28	-1711.03	  420.30
     24.0700	  562.00	  545.04	-1728.79	  419.96
     24.1700	  535.00	  548.43	-1759.18	  419.62
     24.2700	  570.00	  554.33	-1730.08	  419.28
     24.3700	  579.00	  563.73	-1730.48	  418.95
     24.4700	  566.00	  577.66	-1757.41	  418.61
     24.5700	  620.00	  596.25	-1722.00	  418.28
     24.6700	  655.00	  616.42	-1707.17	  417.94
     24.7700	  639.00	  629.94	-1736.69	  417.61
     24.8700	  618.00	  626.14	-1753.89	  417.27
     24.9700	  619.00	  604.19	-1730.94	  416.94
     25.0700	  595.00	  578.08	-1728.83	  416.61
     25.1700	  556.00	  558.62	-1748.37	  416.28
     25.2700	  524.00	  547.59	-1769.34	  415.95
     25.3700	  542.00	  542.35	-1746.10	  415.62
     25.4700	  549.00	  539.95	-1736.70	  415.29
     25.5700	  503.00	  538.67	-1781.42	  414.97
     25.6700	  535.00	  537.84	-1748.59	  414.64
     25.7700	  500.00	  537.24	-1782.99	  414.32
     25.8700	  561.00	  536.79	-1721.54	  413.99
     25.9700	  555.00	  536.46	-1727.21	  413.67
     26.0700	  520.00	  536.21	-1761.96	  413.35
     26.1700	  540.00	  536.06	-1741.81	  413.03
     26.2700	  555.00	  535.98	-1726.73	  412.71
     26.3700	  539.00	  535.98	-1742.73	  412.39
     26.4700	  541.00	  536.07	-1740.82	  412.07
     26.5700	  551.00	  536.27	-1731.02	  411.75
     26.6700	  565.00	  536.58	-1717.33	  411.44
     26.7700	  506.00	  537.04	-1776.79	  411.12
     26.8700	  564.00	  537.68	-1719.43	  410.81
     26.9700	  520.00	  538.55	-1764.30	  410.50
     27.0700	  533.00	  539.74	-1752.49	  410.19
     27.1700	  564.00	  541.38	-1723.13	  409.88
     27.2700	  552.00	  543.73	-1737.48	  409.57
     27.3700	  539.00	  547.32	-1754.07	  409.26
     27.4700	  528.00	  553.14	-1770.89	  408.95
     27.5700	  549.00	  562.99	-1759.74	  408.65
     27.6700	  556.00	  579.68	-1769.43	  408.34
     27.7700	  624.00	  606.80	-1728.55	  408.04
     27.8700	  608.00	  647.40	-1785.15	  407.74
     27.9700	  675.00	  701.49	-1772.24	  407.44
     28.0700	  753.00	  762.81	-1755.56	  407.14
     28.1700	  880.00	  816.07	-1681.82	  406.84
     28.2700	  974.00	  838.56	-1610.31	  406.54
     28.3700	  941.00	  817.50	-1622.25	  406.25
     28.4700	  795.00	  775.17	-1725.92	  405.95
     28.5700	  710.00	  747.15	-1782.90	  405.66
     28.6700	  733.00	  749.34	-1762.09	  405.37
     28.7700	  782.00	  776.35	-1740.10	  405.08
     28.8700	  767.00	  807.08	-1785.83	  404.79
     28.9700	  829.00	  811.90	-1728.65	  404.50
     29.0700	  774.00	  772.41	-1744.16	  404.21
     29.1700	  698.00	  705.65	-1753.41	  403.93
     29.2700	  641.00	  642.11	-1746.86	  403.64
     29.3700	  559.00	  596.20	-1782.95	  403.36
     29.4700	  618.00	  568.37	-1696.12	  403.08
     29.5700	  599.00	  553.26	-1700.01	  402.80
     29.6700	  539.00	  545.28	-1752.03	  402.52
     29.7700	  597.00	  540.77	-1689.52	  402.24
     29.8700	  591.00	  537.97	-1692.72	  401.97
     29.9700	  525.00	  536.22	-1756.97	  401.69
     30.0700	  550.00	  535.33	-1731.08	  401.42
     30.1700	  579.00	  535.48	-1702.23	  401.15
     30.2700	  564.00	  537.21	-1718.96	  400.88
     30.3700	  527.00	  541.63	-1760.38	  400.61
     30.4700	  553.00	  550.36	-1743.11	  400.34
     30.5700	  598.00	  565.10	-1712.85	  400.07
     30.6700	  592.00	  586.24	-1739.99	  399.81
     30.7700	  553.00	  611.10	-1803.85	  399.55
     30.8700	  620.00	  632.56	-1758.31	  399.29
     30.9700	  656.00	  639.95	-1729.70	  399.03
     31.0700	  584.00	  626.03	-1787.78	  398.77
     31.1700	  563.00	  598.15	-1780.90	  398.51
     31.2700	  573.00	  570.24	-1742.99	  398.25
     31.3700	  558.00	  549.59	-1737.34	  398.00
     31.4700	  512.00	  536.98	-1770.73	  397.75
     31.5700	  528.00	  530.20	-1747.95	  397.50
     31.6700	  560.00	  526.70	-1712.45	  397.25
     31.7700	  561.00	  524.76	-1709.51	  397.00
     31.8700	  528.00	  523.55	-1741.30	  396.75
     31.9700	  558.00	  522.71	-1710.46	  396.51
     32.0700	  535.00	  522.12	-1732.87	  396.26
     32.1700	  549.00	  521.72	-1718.47	  396.02
     32.2700	  544.00	  521.49	-1723.24	  395.78
     32.3700	  548.00	  521.40	-1719.15	  395.54
     32.4700	  555.00	  521.48	-1712.23	  395.30
     32.5700	  582.00	  521.72	-1685.47	  395.07
     32.6700	  548.00	  522.17	-1719.92	  394.83
     32.7700	  534.00	  522.85	-1734.60	  394.60
     32.8700	  526.00	  523.84	-1743.59	  394.37
     32.9700	  530.00	  525.26	-1741.01	  394.14
     33.0700	  551.00	  527.31	-1722.06	  393.91
     33.1700	  514.00	  530.45	-1762.20	  393.69
     33.2700	  497.00	  535.72	-1784.47	  393.46
     33.3700	  524.00	  545.33	-1767.08	  393.24
     33.4700	  559.00	  563.52	-1750.27	  393.02
     33.5700	  614.00	  596.91	-1728.66	  392.80
     33.6700	  622.00	  652.96	-1776.71	  392.58
     33.7700	  748.00	  734.73	-1732.48	  392.36
     33.8700	  795.00	  833.12	-1783.87	  392.15
     33.9700	 1000.00	  921.63	-1667.38	  391.94
     34.0700	 1087.00	  959.98	-1618.73	  391.72
     34.1700	 1008.00	  919.02	-1656.77	  391.51
     34.2700	  912.00	  820.00	-1653.75	  391.31
     34.3700	  702.00	  713.71	-1757.46	  391.10
     34.4700	  642.00	  631.25	-1735.00	  390.90
     34.5700	  595.00	  579.11	-1729.86	  390.69
     34.6700	  596.00	  550.66	-1700.41	  390.49
     34.7700	  550.00	  536.25	-1732.00	  390.29
     34.8700	  542.00	  528.71	-1732.46	  390.09
     34.9700	  573.00	  524.21	-1696.96	  389.89
     35.0700	  542.00	  521.12	-1724.87	  389.70
     35.1700	  499.00	  518.81	-1765.56	  389.51
     35.2700	  491.00	  516.98	-1771.73	  389.31
     35.3700	  511.00	  515.49	-1750.24	  389.12
     35.4700	  493.00	  514.27	-1767.02	  388.94
     35.5700	  524.00	  513.24	-1734.99	  388.75
     35.6700	  489.00	  512.36	-1769.11	  388.57
     35.7700	  515.00	  511.60	-1742.35	  388.38
     35.8700	  490.00	  510.94	-1766.69	  388.20
     35.9700	  519.00	  510.84	-1737.59	  388.02
     36.0700	  480.00	  510.33	-1776.08	  387.84
     36.1700	  481.00	  509.88	-1774.63	  387.67
     36.2700	  495.00	  509.47	-1760.22	  387.49
     36.3700	  533.00	  509.11	-1721.86	  387.32
     36.4700	  507.00	  508.79	-1747.54	  387.15
     36.5700	  560.00	  508.51	-1694.26	  386.98
     36.6700	  501.00	  508.27	-1753.02	  386.81
     36.7700	  534.00	  508.09	-1719.84	  386.64
     36.8700	  498.00	  507.98	-1755.73	  386.48
     36.9700	  491.00	  508.02	-1762.77	  386.32
     37.0700	  505.00	  508.35	-1749.10	  386.15
     37.1700	  509.00	  509.24	-1745.99	  386.00
     37.2700	  530.00	  511.09	-1726.84	  385.84
     37.3700	  542.00	  514.29	-1718.04	  385.68
     37.4700	  506.00	  518.83	-1758.58	  385.53
     37.5700	  504.00	  523.95	-1765.70	  385.38
     37.6700	  545.00	  528.06	-1728.81	  385.22
     37.7700	  496.00	  529.40	-1779.15	  385.08
     37.8700	  498.00	  527.55	-1775.30	  384.93
     37.9700	  514.00	  523.93	-1755.68	  384.78
     38.0700	  523.00	  519.78	-1742.53	  384.64
     38.1700	  507.00	  515.60	-1754.35	  384.50
     38.2700	  515.00	  511.86	-1742.61	  384.36
     38.3700	  471.00	  508.95	-1783.70	  384.22
     38.4700	  480.00	  506.92	-1772.67	  384.08
     38.5700	  538.00	  505.63	-1713.38	  383.95
     38.6700	  476.00	  504.85	-1774.60	  383.81
     38.7700	  473.00	  504.26	-1777.01	  383.68
     38.8700	  504.00	  503.93	-1745.68	  383.55
     38.9700	  483.00	  503.68	-1766.43	  383.42
     39.0700	  476.00	  503.47	-1773.22	  383.29
     39.1700	  507.00	  503.29	-1742.04	  383.17
     39.2700	  535.00	  503.04	-1713.79	  383.05
     39.3700	  505.00	  502.89	-1743.64	  382.92
     39.4700	  508.00	  502.88	-1740.63	  382.80
     39.5700	  517.00	  502.77	-1731.52	  382.69
     39.6700	  527.00	  502.66	-1721.41	  382.57
     39.7700	  501.00	  502.57	-1747.32	  382.46
     39.8700	  501.00	  502.48	-1747.23	  382.34
     39.9700	  518.00	  502.41	-1730.16	  382.23
     40.0700	  478.00	  502.34	-1770.09	  382.12
     40.1700	  509.00	  502.29	-1739.04	  382.01
     40.2700	  483.00	  502.25	-1765.00	  381.91
     40.3700	  555.00	  502.22	-1692.97	  381.80
     40.4700	  527.00	  502.20	-1720.95	  381.70
     40.5700	  497.00	  502.20	-1750.95	  381.60
     40.6700	  493.00	  502.22	-1754.97	  381.50
     40.7700	  524.00	  502.26	-1724.01	  381.40
