MSG Master    CELL:    5.89023   5.89023  23.15001   90.0000   90.0000  120.0000   SPGR: P 63/m m c             TEMP:    649.55
  2   1280     2.52000     0.00000    -0.09527     0.00000     0.00000    0
    96    96     0     0     2
       0.00000      10.00000
     125.00000     130.00000
 2Theta	Yobs	Ycal	Yobs-Ycal	Backg	Posr	(hkl)	K
      0.7700	    0.00	  785.63	-1870.34	  661.78
      0.8700	    0.00	  784.23	-1870.34	  660.39
      0.9700	   33.00	  782.84	-1870.34	  659.00
      1.0700	   53.00	  781.46	-1870.34	  657.62
      1.1700	   47.00	  780.08	-1870.34	  656.24
      1.2700	   48.00	  778.70	-1870.34	  654.86
      1.3700	   56.00	  777.33	-1870.34	  653.49
      1.4700	  107.00	  775.97	-1870.34	  652.13
      1.5700	  265.00	  774.61	-1870.34	  650.77
      1.6700	  476.00	  773.25	-1870.34	  649.41
      1.7700	  545.00	  771.90	-1870.34	  648.06
      1.8700	  660.00	  770.56	-1870.34	  646.72
      1.9700	  722.00	  769.22	-1870.34	  645.38
      2.0700	  771.00	  767.88	-1870.34	  644.04
      2.1700	  762.00	  766.55	-1870.34	  642.71
      2.2700	  761.00	  765.23	-1870.34	  641.39
      2.3700	  766.00	  763.91	-1870.34	  640.07
      2.4700	  695.00	  762.59	-1870.34	  638.75
      2.5700	  754.00	  761.28	-1870.34	  637.44
      2.6700	  645.00	  759.97	-1870.34	  636.13
      2.7700	  742.00	  758.67	-1870.34	  634.83
      2.8700	  605.00	  757.38	-1870.34	  633.54
      2.9700	  586.00	  756.09	-1870.34	  632.24
      3.0700	  564.00	  754.80	-1870.34	  630.96
      3.1700	  647.00	  753.52	-1870.34	  629.68
      3.2700	  717.00	  752.24	-1870.34	  628.40
      3.3700	  908.00	  750.97	-1870.34	  627.13
      3.4700	 1031.00	  749.70	-1870.34	  625.86
      3.5700	 1172.00	  748.44	-1870.34	  624.60
      3.6700	 1338.00	  747.18	-1870.34	  623.34
      3.7700	 1424.00	  745.93	-1870.34	  622.09
      3.8700	 1503.00	  744.68	-1870.34	  620.84
      3.9700	 1459.00	  743.44	-1870.34	  619.60
      4.0700	 1557.00	  742.20	-1870.34	  618.36
      4.1700	 1555.00	  740.97	-1870.34	  617.13
      4.2700	 1625.00	  739.74	-1870.34	  615.90
      4.3700	 1562.00	  738.51	-1870.34	  614.67
      4.4700	 1504.00	  737.30	-1870.34	  613.45
      4.5700	 1455.00	  736.08	-1870.34	  612.24
      4.6700	 1428.00	  734.87	-1870.34	  611.03
      4.7700	 1334.00	  733.67	-1870.34	  609.83
      4.8700	 1357.00	  732.47	-1870.34	  608.63
      4.9700	 1307.00	  731.27	-1870.34	  607.43
      5.0700	 1260.00	  730.08	-1870.34	  606.24
      5.1700	 1186.00	  728.89	-1870.34	  605.05
      5.2700	 1212.00	  727.71	-1870.34	  603.87
      5.3700	 1164.00	  726.54	-1870.34	  602.70
      5.4700	 1129.00	  725.37	-1870.34	  601.52
      5.5700	 1070.00	  724.20	-1870.34	  600.36
      5.6700	 1082.00	  723.04	-1870.34	  599.19
      5.7700	 1082.00	  721.88	-1870.34	  598.04
      5.8700	 1051.00	  720.72	-1870.34	  596.88
      5.9700	  990.00	  719.58	-1870.34	  595.74
      6.0700	 1000.00	  718.43	-1870.34	  594.59
      6.1700	  973.00	  717.29	-1870.34	  593.45
      6.2700	  933.00	  716.16	-1870.34	  592.32
      6.3700	  975.00	  715.03	-1870.34	  591.19
      6.4700	  954.00	  713.90	-1870.34	  590.06
      6.5700	  919.00	  712.78	-1870.34	  588.94
      6.6700	  938.00	  711.67	-1870.34	  587.83
      6.7700	  872.00	  710.56	-1870.34	  586.72
      6.8700	  864.00	  709.45	-1870.34	  585.61
      6.9700	  871.00	  708.35	-1870.34	  584.51
      7.0700	  846.00	  707.25	-1870.34	  583.41
      7.1700	  823.00	  706.16	-1870.34	  582.32
      7.2700	  844.00	  705.07	-1870.34	  581.23
      7.3700	  816.00	  703.99	-1870.34	  580.15
      7.4700	  774.00	  702.91	-1870.34	  579.07
      7.5700	  833.00	  701.83	-1870.34	  577.99
      7.6700	  823.00	  700.76	-1870.34	  576.92
      7.7700	  743.00	  699.70	-1870.34	  575.86
      7.8700	  790.00	  698.64	-1870.34	  574.80
      7.9700	  719.00	  697.58	-1870.34	  573.74
      8.0700	  772.00	  696.53	-1870.34	  572.69
      8.1700	  743.00	  695.48	-1870.34	  571.64
      8.2700	  755.00	  694.44	-1870.34	  570.60
      8.3700	  765.00	  693.40	-1870.34	  569.56
      8.4700	  687.00	  692.37	-1870.34	  568.52
      8.5700	  707.00	  691.34	-1870.34	  567.50
      8.6700	  711.00	  690.31	-1870.34	  566.47
      8.7700	  715.00	  689.29	-1870.34	  565.45
      8.8700	  700.00	  688.27	-1870.34	  564.43
      8.9700	  650.00	  687.26	-1870.34	  563.42
      9.0700	  714.00	  686.26	-1870.34	  562.42
      9.1700	  734.00	  685.25	-1870.34	  561.41
      9.2700	  706.00	  684.26	-1870.34	  560.41
      9.3700	  737.00	  683.26	-1870.34	  559.42
      9.4700	  720.00	  682.27	-1870.34	  558.43
      9.5700	  693.00	  681.29	-1870.34	  557.45
      9.6700	  706.00	  680.31	-1870.34	  556.47
      9.7700	  709.00	  679.33	-1870.34	  555.49
      9.8700	  665.00	  678.36	-1870.34	  554.52
      9.9700	  669.00	  677.39	-1870.34	  553.55
     10.0700	  700.00	  678.55	-1848.89	  552.59
     10.1700	  692.00	  677.83	-1856.17	  551.63
     10.2700	  641.00	  677.16	-1906.50	  550.67
     10.3700	  756.00	  676.57	-1790.90	  549.72
     10.4700	  651.00	  676.07	-1895.41	  548.78
     10.5700	  676.00	  675.73	-1870.06	  547.84
     10.6700	  647.00	  675.60	-1898.94	  546.90
     10.7700	  714.00	  675.79	-1832.12	  545.97
     10.8700	  661.00	  676.39	-1885.73	  545.04
     10.9700	  692.00	  677.49	-1855.82	  544.12
     11.0700	  696.00	  679.11	-1853.44	  543.20
     11.1700	  668.00	  681.27	-1883.61	  542.28
     11.2700	  667.00	  684.00	-1887.33	  541.37
     11.3700	  703.00	  687.35	-1854.68	  540.46
     11.4700	  712.00	  691.44	-1849.77	  539.56
     11.5700	  710.00	  696.45	-1856.79	  538.66
     11.6700	  774.00	  702.65	-1798.98	  537.77
     11.7700	  719.00	  710.37	-1861.71	  536.88
     11.8700	  723.00	  719.93	-1867.27	  535.99
     11.9700	  784.00	  731.28	-1817.62	  535.11
     12.0700	  843.00	  743.54	-1770.88	  534.23
     12.1700	  835.00	  754.35	-1789.69	  533.36
     12.2700	  803.00	  759.33	-1826.67	  532.49
     12.3700	  797.00	  753.31	-1826.64	  531.63
     12.4700	  721.00	  735.76	-1885.09	  530.77
     12.5700	  701.00	  713.81	-1883.15	  529.91
     12.6700	  700.00	  694.51	-1864.84	  529.06
     12.7700	  640.00	  680.22	-1910.55	  528.21
     12.8700	  631.00	  670.54	-1909.88	  527.36
     12.9700	  627.00	  664.24	-1907.58	  526.53
     13.0700	  631.00	  660.02	-1899.36	  525.69
     13.1700	  627.00	  657.02	-1900.35	  524.86
     13.2700	  647.00	  654.69	-1878.03	  524.03
     13.3700	  652.00	  652.78	-1871.11	  523.21
     13.4700	  623.00	  651.12	-1898.45	  522.39
     13.5700	  683.00	  649.64	-1836.97	  521.57
     13.6700	  635.00	  648.29	-1883.63	  520.76
     13.7700	  614.00	  647.05	-1903.39	  519.95
     13.8700	  714.00	  645.89	-1802.23	  519.15
     13.9700	  658.00	  644.79	-1857.13	  518.35
     14.0700	  646.00	  643.74	-1868.08	  517.56
     14.1700	  609.00	  642.73	-1904.07	  516.77
     14.2700	  601.00	  641.76	-1911.10	  515.98
     14.3700	  612.00	  640.82	-1899.15	  515.20
     14.4700	  633.00	  639.90	-1877.24	  514.42
     14.5700	  635.00	  639.00	-1874.34	  513.64
     14.6700	  608.00	  638.12	-1900.46	  512.87
     14.7700	  617.00	  637.26	-1890.60	  512.11
     14.8700	  627.00	  636.41	-1879.75	  511.34
     14.9700	  599.00	  635.58	-1906.92	  510.58
     15.0700	  607.00	  634.76	-1898.09	  509.83
     15.1700	  678.00	  633.94	-1826.28	  509.08
     15.2700	  624.00	  633.14	-1879.48	  508.33
     15.3700	  645.00	  632.35	-1857.69	  507.59
     15.4700	  616.00	  631.56	-1885.90	  506.85
     15.5700	  632.00	  630.79	-1869.12	  506.11
     15.6700	  601.00	  630.02	-1899.36	  505.38
     15.7700	  625.00	  629.26	-1874.59	  504.66
     15.8700	  591.00	  628.50	-1907.84	  503.93
     15.9700	  604.00	  627.75	-1894.09	  503.21
     16.0700	  658.00	  627.01	-1839.35	  502.50
     16.1700	  608.00	  626.27	-1888.61	  501.78
     16.2700	  591.00	  625.54	-1904.88	  501.08
     16.3700	  628.00	  624.82	-1867.15	  500.37
     16.4700	  617.00	  624.10	-1877.43	  499.67
     16.5700	  617.00	  623.38	-1876.72	  498.97
     16.6700	  624.00	  622.67	-1869.01	  498.28
     16.7700	  655.00	  621.97	-1837.31	  497.59
     16.8700	  605.00	  621.27	-1886.61	  496.91
     16.9700	  574.00	  620.58	-1916.91	  496.23
     17.0700	  609.00	  619.89	-1881.22	  495.55
     17.1700	  610.00	  619.20	-1879.54	  494.87
     17.2700	  642.00	  618.52	-1846.86	  494.20
     17.3700	  635.00	  617.84	-1853.18	  493.54
     17.4700	  608.00	  617.17	-1879.51	  492.87
     17.5700	  615.00	  616.51	-1871.84	  492.21
     17.6700	  616.00	  615.84	-1870.18	  491.56
     17.7700	  588.00	  615.18	-1897.52	  490.91
     17.8700	  596.00	  614.53	-1888.87	  490.26
     17.9700	  606.00	  613.88	-1878.22	  489.62
     18.0700	  586.00	  613.23	-1897.57	  488.98
     18.1700	  604.00	  612.59	-1878.93	  488.34
     18.2700	  619.00	  611.96	-1863.29	  487.70
     18.3700	  605.00	  611.32	-1876.66	  487.08
     18.4700	  596.00	  611.86	-1886.19	  486.45
     18.5700	  604.00	  611.25	-1877.59	  485.83
     18.6700	  628.00	  611.35	-1853.69	  485.21
     18.7700	  632.00	  610.77	-1849.11	  484.59
     18.8700	  614.00	  610.20	-1866.54	  483.98
     18.9700	  562.00	  609.63	-1917.97	  483.37
     19.0700	  612.00	  609.07	-1867.41	  482.77
     19.1700	  672.00	  608.51	-1806.85	  482.17
     19.2700	  615.00	  607.96	-1863.30	  481.57
     19.3700	  572.00	  607.42	-1905.75	  480.98
     19.4700	  629.00	  606.87	-1848.21	  480.39
     19.5700	  641.00	  606.34	-1835.68	  479.80
     19.6700	  609.00	  605.81	-1867.15	  479.22
     19.7700	  618.00	  605.29	-1857.62	  478.64
     19.8700	  628.00	  604.77	-1847.10	  478.06
     19.9700	  591.00	  604.31	-1883.65	  477.49
     20.0700	  600.00	  603.81	-1874.14	  476.92
     20.1700	  636.00	  603.31	-1837.64	  476.36
     20.2700	  556.00	  602.81	-1917.15	  475.79
     20.3700	  602.00	  602.33	-1870.66	  475.24
     20.4700	  633.00	  601.85	-1839.19	  474.68
     20.5700	  571.00	  601.38	-1900.71	  474.13
     20.6700	  548.00	  600.91	-1923.25	  473.58
     20.7700	  600.00	  600.45	-1870.79	  473.04
     20.8700	  607.00	  600.00	-1863.34	  472.49
     20.9700	  563.00	  599.56	-1906.89	  471.96
     21.0700	  641.00	  599.12	-1828.46	  471.42
     21.1700	  616.00	  598.69	-1853.03	  470.89
     21.2700	  545.00	  598.28	-1923.61	  470.36
     21.3700	  586.00	  597.86	-1882.20	  469.84
     21.4700	  641.00	  597.46	-1826.80	  469.32
     21.5700	  578.00	  597.07	-1889.41	  468.80
     21.6700	  594.00	  596.69	-1873.03	  468.29
     21.7700	  562.00	  596.32	-1904.66	  467.77
     21.8700	  599.00	  595.96	-1867.29	  467.27
     21.9700	  572.00	  595.61	-1893.95	  466.76
     22.0700	  573.00	  595.27	-1892.61	  466.26
     22.1700	  594.00	  594.95	-1871.29	  465.76
     22.2700	  581.00	  594.82	-1884.16	  465.27
     22.3700	  592.00	  594.53	-1872.87	  464.78
     22.4700	  615.00	  594.26	-1849.60	  464.29
     22.5700	  613.00	  594.00	-1851.34	  463.80
     22.6700	  542.00	  593.77	-1922.11	  463.32
     22.7700	  608.00	  593.56	-1855.89	  462.84
     22.8700	  591.00	  593.37	-1872.70	  462.37
     22.9700	  540.00	  593.21	-1923.54	  461.90
     23.0700	  608.00	  593.08	-1855.41	  461.43
     23.1700	  581.00	  592.98	-1882.32	  460.96
     23.2700	  569.00	  592.93	-1894.27	  460.50
     23.3700	  639.00	  592.93	-1824.27	  460.04
     23.4700	  623.00	  592.99	-1840.32	  459.58
     23.5700	  583.00	  593.12	-1880.46	  459.13
     23.6700	  594.00	  593.35	-1869.69	  458.68
     23.7700	  633.00	  593.71	-1831.04	  458.23
     23.8700	  628.00	  594.25	-1836.58	  457.79
     23.9700	  574.00	  595.06	-1891.40	  457.35
     24.0700	  600.00	  596.26	-1866.59	  456.91
     24.1700	  636.00	  598.19	-1832.52	  456.48
     24.2700	  593.00	  601.16	-1878.50	  456.05
     24.3700	  639.00	  605.62	-1836.95	  455.62
     24.4700	  708.00	  611.97	-1774.31	  455.19
     24.5700	  668.00	  620.41	-1822.74	  454.77
     24.6700	  668.00	  630.62	-1832.96	  454.35
     24.7700	  705.00	  641.47	-1806.81	  453.94
     24.8700	  644.00	  650.60	-1876.94	  453.52
     24.9700	  663.00	  654.38	-1861.72	  453.11
     25.0700	  697.00	  649.95	-1823.29	  452.71
     25.1700	  714.00	  639.12	-1795.46	  452.30
     25.2700	  641.00	  627.05	-1856.39	  451.90
     25.3700	  573.00	  617.22	-1914.56	  451.50
     25.4700	  638.00	  610.45	-1842.79	  451.11
     25.5700	  650.00	  606.41	-1826.75	  450.72
     25.6700	  624.00	  604.39	-1850.72	  450.33
     25.7700	  636.00	  603.70	-1838.03	  449.94
     25.8700	  657.00	  603.86	-1817.20	  449.56
     25.9700	  587.00	  604.62	-1887.96	  449.18
     26.0700	  635.00	  605.85	-1841.19	  448.80
     26.1700	  607.00	  607.51	-1870.85	  448.42
     26.2700	  659.00	  609.62	-1820.95	  448.05
     26.3700	  643.00	  612.20	-1839.53	  447.68
     26.4700	  638.00	  615.32	-1847.66	  447.32
     26.5700	  643.00	  619.07	-1846.41	  446.95
     26.6700	  662.00	  623.58	-1831.92	  446.59
     26.7700	  741.00	  629.01	-1758.34	  446.24
     26.8700	  670.00	  635.57	-1835.91	  445.88
     26.9700	  679.00	  643.58	-1834.92	  445.53
     27.0700	  613.00	  653.44	-1910.78	  445.18
     27.1700	  655.00	  665.77	-1881.10	  444.83
     27.2700	  629.00	  681.48	-1922.82	  444.49
     27.3700	  689.00	  702.21	-1883.54	  444.15
     27.4700	  720.00	  731.15	-1881.49	  443.81
     27.5700	  721.00	  774.97	-1924.31	  443.47
     27.6700	  797.00	  846.90	-1920.24	  443.14
     27.7700	  831.00	  970.77	-2010.11	  442.81
     27.8700	  972.00	 1183.90	-2082.24	  442.48
     27.9700	 1147.00	 1533.03	-2256.36	  442.16
     28.0700	 1730.00	 2055.23	-2195.56	  441.84
     28.1700	 2605.00	 2741.89	-2007.23	  441.52
     28.2700	 3757.00	 3490.69	-1604.03	  441.20
     28.3700	 4687.00	 4071.60	-1254.94	  440.89
     28.4700	 4822.00	 4178.74	-1227.07	  440.58
     28.5700	 4046.00	 3721.52	-1545.85	  440.27
     28.6700	 2878.00	 3061.39	-2053.72	  439.96
     28.7700	 2216.00	 2594.20	-2248.53	  439.66
     28.8700	 2182.00	 2447.62	-2135.96	  439.36
     28.9700	 2550.00	 2539.97	-1860.31	  439.06
     29.0700	 2887.00	 2672.89	-1656.23	  438.76
     29.1700	 2766.00	 2620.41	-1724.74	  438.47
     29.2700	 2402.00	 2287.71	-1756.04	  438.18
     29.3700	 1842.00	 1818.73	-1847.06	  437.89
     29.4700	 1305.00	 1396.69	-1962.02	  437.61
     29.5700	 1063.00	 1095.05	-1902.39	  437.32
     29.6700	  896.00	  909.07	-1883.40	  437.04
     29.7700	  788.00	  804.02	-1886.36	  436.77
     29.8700	  776.00	  745.21	-1839.54	  436.49
     29.9700	  749.00	  709.79	-1831.13	  436.22
     30.0700	  697.00	  686.15	-1859.49	  435.95
     30.1700	  682.00	  669.22	-1857.56	  435.68
     30.2700	  719.00	  656.94	-1808.28	  435.41
     30.3700	  679.00	  648.61	-1839.95	  435.15
     30.4700	  678.00	  644.40	-1836.74	  434.89
     30.5700	  646.00	  645.21	-1869.55	  434.63
     30.6700	  651.00	  652.44	-1871.78	  434.38
     30.7700	  727.00	  667.15	-1810.49	  434.12
     30.8700	  681.00	  688.65	-1877.99	  433.87
     30.9700	  728.00	  713.02	-1855.36	  433.62
     31.0700	  746.00	  732.28	-1856.62	  433.38
     31.1700	  729.00	  735.51	-1876.85	  433.13
     31.2700	  706.00	  716.73	-1881.07	  432.89
     31.3700	  700.00	  684.24	-1854.57	  432.65
     31.4700	  627.00	  651.66	-1895.00	  432.42
     31.5700	  650.00	  626.16	-1846.50	  432.18
     31.6700	  668.00	  608.88	-1811.22	  431.95
     31.7700	  631.00	  598.17	-1837.51	  431.72
     31.8700	  633.00	  591.72	-1829.06	  431.49
     31.9700	  614.00	  587.68	-1844.02	  431.27
     32.0700	  582.00	  584.95	-1873.28	  431.04
     32.1700	  587.00	  582.96	-1866.29	  430.82
     32.2700	  623.00	  581.47	-1828.81	  430.60
     32.3700	  531.00	  580.37	-1919.71	  430.39
     32.4700	  573.00	  579.61	-1876.95	  430.17
     32.5700	  584.00	  579.17	-1865.51	  429.96
     32.6700	  614.00	  579.05	-1835.38	  429.75
     32.7700	  583.00	  579.26	-1866.60	  429.55
     32.8700	  578.00	  579.89	-1872.23	  429.34
     32.9700	  556.00	  580.95	-1895.29	  429.14
     33.0700	  588.00	  582.60	-1864.93	  428.94
     33.1700	  597.00	  585.03	-1858.36	  428.74
     33.2700	  597.00	  588.65	-1861.98	  428.54
     33.3700	  558.00	  594.22	-1906.56	  428.35
     33.4700	  536.00	  603.25	-1937.58	  428.16
     33.5700	  653.00	  618.41	-1835.75	  427.97
     33.6700	  656.00	  643.97	-1858.31	  427.78
     33.7700	  649.00	  685.41	-1906.75	  427.59
     33.8700	  798.00	  747.56	-1819.90	  427.41
     33.9700	  838.00	  830.55	-1862.89	  427.23
     34.0700	 1003.00	  924.87	-1792.21	  427.05
     34.1700	 1120.00	 1008.34	-1758.67	  426.87
     34.2700	 1132.00	 1048.02	-1786.35	  426.69
     34.3700	 1149.00	 1018.34	-1739.67	  426.52
     34.4700	  976.00	  931.88	-1826.22	  426.35
     34.5700	  792.00	  829.50	-1907.84	  426.18
     34.6700	  704.00	  740.98	-1907.31	  426.01
     34.7700	  693.00	  676.43	-1853.77	  425.84
     34.8700	  649.00	  634.51	-1855.85	  425.68
     34.9700	  625.00	  609.26	-1854.59	  425.52
     35.0700	  670.00	  594.40	-1794.74	  425.36
     35.1700	  625.00	  585.32	-1830.66	  425.20
     35.2700	  580.00	  579.30	-1869.64	  425.05
     35.3700	  568.00	  574.96	-1877.29	  424.89
     35.4700	  594.00	  571.63	-1847.97	  424.74
     35.5700	  542.00	  568.99	-1897.32	  424.59
     35.6700	  598.00	  566.84	-1839.18	  424.44
     35.7700	  556.00	  565.08	-1879.41	  424.30
     35.8700	  615.00	  563.61	-1818.94	  424.15
     35.9700	  585.00	  562.38	-1847.72	  424.01
     36.0700	  596.00	  561.35	-1835.68	  423.87
     36.1700	  526.00	  560.48	-1904.82	  423.73
     36.2700	  571.00	  559.75	-1859.09	  423.59
     36.3700	  573.00	  559.16	-1856.49	  423.46
     36.4700	  589.00	  558.68	-1840.02	  423.32
     36.5700	  552.00	  558.81	-1877.15	  423.19
     36.6700	  584.00	  558.57	-1844.91	  423.06
     36.7700	  546.00	  558.46	-1882.80	  422.94
     36.8700	  613.00	  558.49	-1815.82	  422.81
     36.9700	  524.00	  558.70	-1905.03	  422.68
     37.0700	  531.00	  559.34	-1898.68	  422.56
     37.1700	  551.00	  560.12	-1879.45	  422.44
     37.2700	  578.00	  561.46	-1853.79	  422.32
     37.3700	  589.00	  563.64	-1844.97	  422.20
     37.4700	  608.00	  567.13	-1829.47	  422.09
     37.5700	  568.00	  572.60	-1874.94	  421.97
     37.6700	  577.00	  580.87	-1874.20	  421.86
     37.7700	  631.00	  592.67	-1832.01	  421.75
     37.8700	  616.00	  608.25	-1862.58	  421.64
     37.9700	  607.00	  626.71	-1890.05	  421.54
     38.0700	  613.00	  645.66	-1902.99	  421.43
     38.1700	  642.00	  661.05	-1889.38	  421.33
     38.2700	  651.00	  667.22	-1886.56	  421.22
     38.3700	  587.00	  659.78	-1943.11	  421.12
     38.4700	  609.00	  640.96	-1902.29	  421.02
     38.5700	  624.00	  617.20	-1863.54	  420.93
     38.6700	  562.00	  596.79	-1905.13	  420.83
     38.7700	  586.00	  581.14	-1865.48	  420.74
     38.8700	  592.00	  570.29	-1848.63	  420.64
     38.9700	  566.00	  563.35	-1867.69	  420.55
     39.0700	  587.00	  559.07	-1842.41	  420.46
     39.1700	  502.00	  556.42	-1924.75	  420.37
     39.2700	  524.00	  554.67	-1901.01	  420.29
     39.3700	  584.00	  553.44	-1839.78	  420.20
     39.4700	  530.00	  552.51	-1892.84	  420.12
     39.5700	  574.00	  551.77	-1848.10	  420.04
     39.6700	  543.00	  551.17	-1878.51	  419.95
     39.7700	  575.00	  550.68	-1846.01	  419.88
     39.8700	  570.00	  549.61	-1849.95	  419.80
     39.9700	  548.00	  549.28	-1871.62	  419.72
     40.0700	  494.00	  549.01	-1925.35	  419.65
     40.1700	  533.00	  548.78	-1886.12	  419.57
     40.2700	  555.00	  548.60	-1863.94	  419.50
     40.3700	  561.00	  548.45	-1857.79	  419.43
     40.4700	  545.00	  548.34	-1873.68	  419.36
     40.5700	  522.00	  548.80	-1897.14	  419.29
     40.6700	  532.00	  548.76	-1887.10	  419.23
     40.7700	  569.00	  548.75	-1850.09	  419.16
