MSG Master    CELL:    5.91924   5.91924  23.26848   90.0000   90.0000  120.0000   SPGR: P 63/m m c             TEMP:   1074.75
  1   1280     2.52000     0.00000    -0.12671     0.00000     0.00000    0
    99     0     2
       0.00000      10.00000
     125.00000     130.00000
 2Theta	Yobs	Ycal	Yobs-Ycal	Backg	Posr	(hkl)	K
      0.7700	    0.00	  562.42	-1769.25	  444.64
      0.8700	    0.00	  563.02	-1769.25	  445.24
      0.9700	   42.00	  563.60	-1769.25	  445.82
      1.0700	   33.00	  564.18	-1769.25	  446.40
      1.1700	   53.00	  564.74	-1769.25	  446.96
      1.2700	   50.00	  565.30	-1769.25	  447.52
      1.3700	   69.00	  565.84	-1769.25	  448.06
      1.4700	   96.00	  566.38	-1769.25	  448.60
      1.5700	  312.00	  566.90	-1769.25	  449.12
      1.6700	  497.00	  567.42	-1769.25	  449.63
      1.7700	  546.00	  567.92	-1769.25	  450.14
      1.8700	  717.00	  568.42	-1769.25	  450.63
      1.9700	  700.00	  568.90	-1769.25	  451.12
      2.0700	  791.00	  569.38	-1769.25	  451.60
      2.1700	  791.00	  569.84	-1769.25	  452.06
      2.2700	  788.00	  570.30	-1769.25	  452.52
      2.3700	  730.00	  570.75	-1769.25	  452.96
      2.4700	  709.00	  571.18	-1769.25	  453.40
      2.5700	  697.00	  571.61	-1769.25	  453.83
      2.6700	  622.00	  572.03	-1769.25	  454.25
      2.7700	  663.00	  572.44	-1769.25	  454.66
      2.8700	  638.00	  572.84	-1769.25	  455.06
      2.9700	  623.00	  573.23	-1769.25	  455.45
      3.0700	  666.00	  573.62	-1769.25	  455.84
      3.1700	  593.00	  573.99	-1769.25	  456.21
      3.2700	  632.00	  574.36	-1769.25	  456.57
      3.3700	  669.00	  574.71	-1769.25	  456.93
      3.4700	  808.00	  575.06	-1769.25	  457.28
      3.5700	  822.00	  575.40	-1769.25	  457.62
      3.6700	  805.00	  575.73	-1769.25	  457.95
      3.7700	  859.00	  576.05	-1769.25	  458.27
      3.8700	  938.00	  576.37	-1769.25	  458.59
      3.9700	  983.00	  576.67	-1769.25	  458.89
      4.0700	 1019.00	  576.97	-1769.25	  459.19
      4.1700	 1047.00	  577.26	-1769.25	  459.48
      4.2700	 1105.00	  577.54	-1769.25	  459.76
      4.3700	 1068.00	  577.81	-1769.25	  460.03
      4.4700	 1080.00	  578.08	-1769.25	  460.30
      4.5700	 1054.00	  578.33	-1769.25	  460.55
      4.6700	  984.00	  578.58	-1769.25	  460.80
      4.7700	 1037.00	  578.82	-1769.25	  461.04
      4.8700	 1007.00	  579.06	-1769.25	  461.28
      4.9700	  953.00	  579.28	-1769.25	  461.50
      5.0700	  957.00	  579.50	-1769.25	  461.72
      5.1700	  877.00	  579.71	-1769.25	  461.93
      5.2700	  950.00	  579.91	-1769.25	  462.13
      5.3700	  847.00	  580.11	-1769.25	  462.33
      5.4700	  904.00	  580.30	-1769.25	  462.52
      5.5700	  896.00	  580.48	-1769.25	  462.70
      5.6700	  832.00	  580.65	-1769.25	  462.87
      5.7700	  809.00	  580.82	-1769.25	  463.04
      5.8700	  810.00	  580.98	-1769.25	  463.20
      5.9700	  786.00	  581.13	-1769.25	  463.35
      6.0700	  821.00	  581.27	-1769.25	  463.49
      6.1700	  784.00	  581.41	-1769.25	  463.63
      6.2700	  763.00	  581.54	-1769.25	  463.76
      6.3700	  712.00	  581.67	-1769.25	  463.89
      6.4700	  799.00	  581.78	-1769.25	  464.00
      6.5700	  760.00	  581.90	-1769.25	  464.11
      6.6700	  688.00	  582.00	-1769.25	  464.22
      6.7700	  763.00	  582.10	-1769.25	  464.32
      6.8700	  714.00	  582.19	-1769.25	  464.41
      6.9700	  692.00	  582.27	-1769.25	  464.49
      7.0700	  669.00	  582.35	-1769.25	  464.57
      7.1700	  741.00	  582.42	-1769.25	  464.64
      7.2700	  715.00	  582.49	-1769.25	  464.71
      7.3700	  688.00	  582.55	-1769.25	  464.77
      7.4700	  668.00	  582.60	-1769.25	  464.82
      7.5700	  668.00	  582.65	-1769.25	  464.87
      7.6700	  622.00	  582.69	-1769.25	  464.91
      7.7700	  659.00	  582.72	-1769.25	  464.94
      7.8700	  695.00	  582.75	-1769.25	  464.97
      7.9700	  649.00	  582.77	-1769.25	  464.99
      8.0700	  619.00	  582.79	-1769.25	  465.01
      8.1700	  600.00	  582.80	-1769.25	  465.02
      8.2700	  670.00	  582.81	-1769.25	  465.03
      8.3700	  659.00	  582.81	-1769.25	  465.03
      8.4700	  665.00	  582.80	-1769.25	  465.02
      8.5700	  642.00	  582.79	-1769.25	  465.01
      8.6700	  638.00	  582.77	-1769.25	  464.99
      8.7700	  586.00	  582.75	-1769.25	  464.97
      8.8700	  660.00	  582.72	-1769.25	  464.94
      8.9700	  633.00	  582.69	-1769.25	  464.91
      9.0700	  630.00	  582.65	-1769.25	  464.87
      9.1700	  642.00	  582.61	-1769.25	  464.82
      9.2700	  583.00	  582.56	-1769.25	  464.78
      9.3700	  582.00	  582.50	-1769.25	  464.72
      9.4700	  615.00	  582.44	-1769.25	  464.66
      9.5700	  607.00	  582.38	-1769.25	  464.60
      9.6700	  594.00	  582.31	-1769.25	  464.53
      9.7700	  607.00	  582.23	-1769.25	  464.45
      9.8700	  587.00	  582.16	-1769.25	  464.37
      9.9700	  611.00	  582.07	-1769.25	  464.29
     10.0700	  608.00	  582.67	-1743.92	  464.20
     10.1700	  564.00	  582.65	-1787.90	  464.11
     10.2700	  634.00	  582.64	-1717.89	  464.01
     10.3700	  609.00	  582.65	-1742.90	  463.91
     10.4700	  535.00	  582.70	-1816.95	  463.80
     10.5700	  584.00	  582.86	-1768.11	  463.69
     10.6700	  562.00	  583.19	-1790.44	  463.57
     10.7700	  573.00	  583.82	-1780.07	  463.45
     10.8700	  603.00	  584.81	-1751.06	  463.32
     10.9700	  613.00	  586.14	-1742.39	  463.19
     11.0700	  590.00	  587.79	-1767.04	  463.06
     11.1700	  594.00	  589.75	-1765.00	  462.92
     11.2700	  561.00	  592.05	-1800.30	  462.78
     11.3700	  577.00	  594.75	-1787.00	  462.63
     11.4700	  636.00	  597.99	-1731.24	  462.48
     11.5700	  600.00	  601.93	-1771.18	  462.32
     11.6700	  619.00	  606.90	-1757.15	  462.16
     11.7700	  615.00	  613.46	-1767.71	  462.00
     11.8700	  584.00	  622.51	-1807.76	  461.83
     11.9700	  650.00	  634.83	-1754.08	  461.66
     12.0700	  678.00	  649.14	-1740.39	  461.49
     12.1700	  701.00	  659.63	-1727.88	  461.31
     12.2700	  679.00	  656.72	-1746.97	  461.13
     12.3700	  661.00	  637.29	-1745.54	  460.94
     12.4700	  612.00	  613.43	-1770.68	  460.75
     12.5700	  583.00	  596.19	-1782.44	  460.56
     12.6700	  559.00	  587.08	-1797.33	  460.36
     12.7700	  551.00	  583.07	-1801.32	  460.16
     12.8700	  563.00	  581.27	-1787.52	  459.96
     12.9700	  602.00	  580.24	-1747.49	  459.75
     13.0700	  609.00	  579.51	-1739.76	  459.54
     13.1700	  591.00	  578.92	-1757.17	  459.33
     13.2700	  540.00	  578.42	-1807.67	  459.11
     13.3700	  540.00	  577.99	-1807.24	  458.89
     13.4700	  622.00	  577.60	-1724.85	  458.67
     13.5700	  578.00	  577.24	-1768.49	  458.44
     13.6700	  592.00	  576.90	-1754.15	  458.21
     13.7700	  561.00	  576.58	-1784.83	  457.98
     13.8700	  587.00	  576.27	-1758.52	  457.74
     13.9700	  566.00	  575.97	-1779.22	  457.50
     14.0700	  583.00	  575.68	-1761.93	  457.26
     14.1700	  589.00	  575.39	-1755.64	  457.02
     14.2700	  577.00	  575.10	-1767.35	  456.77
     14.3700	  574.00	  574.81	-1770.06	  456.52
     14.4700	  571.00	  574.53	-1772.78	  456.27
     14.5700	  576.00	  574.25	-1767.50	  456.01
     14.6700	  550.00	  573.97	-1793.22	  455.75
     14.7700	  589.00	  573.69	-1753.94	  455.49
     14.8700	  556.00	  573.40	-1786.65	  455.23
     14.9700	  622.00	  573.12	-1720.37	  454.96
     15.0700	  595.00	  572.84	-1747.09	  454.69
     15.1700	  529.00	  572.55	-1812.80	  454.42
     15.2700	  564.00	  572.27	-1777.52	  454.14
     15.3700	  546.00	  571.98	-1795.23	  453.87
     15.4700	  570.00	  571.69	-1770.94	  453.59
     15.5700	  579.00	  571.40	-1761.65	  453.31
     15.6700	  562.00	  571.11	-1778.36	  453.02
     15.7700	  558.00	  570.81	-1782.06	  452.74
     15.8700	  577.00	  570.52	-1762.77	  452.45
     15.9700	  537.00	  570.22	-1802.47	  452.16
     16.0700	  563.00	  569.92	-1776.17	  451.87
     16.1700	  530.00	  569.62	-1808.87	  451.57
     16.2700	  581.00	  569.32	-1757.57	  451.28
     16.3700	  565.00	  569.05	-1773.30	  450.98
     16.4700	  521.00	  568.74	-1816.99	  450.68
     16.5700	  592.00	  568.43	-1745.68	  450.38
     16.6700	  527.00	  568.13	-1810.38	  450.07
     16.7700	  581.00	  567.82	-1756.07	  449.76
     16.8700	  557.00	  567.51	-1779.76	  449.46
     16.9700	  562.00	  567.19	-1774.44	  449.15
     17.0700	  568.00	  566.88	-1768.13	  448.83
     17.1700	  583.00	  566.56	-1752.81	  448.52
     17.2700	  577.00	  566.25	-1758.50	  448.21
     17.3700	  563.00	  565.93	-1772.18	  447.89
     17.4700	  546.00	  565.61	-1788.86	  447.57
     17.5700	  551.00	  565.29	-1783.54	  447.25
     17.6700	  599.00	  564.96	-1735.21	  446.93
     17.7700	  528.00	  564.64	-1805.89	  446.60
     17.8700	  553.00	  564.31	-1780.56	  446.28
     17.9700	  544.00	  564.09	-1789.34	  445.95
     18.0700	  591.00	  563.77	-1742.02	  445.62
     18.1700	  564.00	  563.44	-1768.69	  445.30
     18.2700	  570.00	  563.11	-1762.36	  444.96
     18.3700	  560.00	  562.78	-1772.03	  444.63
     18.4700	  551.00	  562.45	-1780.70	  444.30
     18.5700	  561.00	  562.12	-1770.37	  443.96
     18.6700	  560.00	  561.78	-1771.03	  443.63
     18.7700	  547.00	  561.45	-1783.70	  443.29
     18.8700	  547.00	  561.20	-1783.45	  442.95
     18.9700	  555.00	  560.87	-1775.12	  442.61
     19.0700	  572.00	  560.53	-1757.78	  442.27
     19.1700	  592.00	  560.20	-1737.45	  441.93
     19.2700	  616.00	  559.86	-1713.11	  441.59
     19.3700	  537.00	  559.52	-1791.77	  441.25
     19.4700	  546.00	  559.18	-1782.43	  440.90
     19.5700	  573.00	  558.85	-1755.10	  440.56
     19.6700	  526.00	  558.51	-1801.76	  440.21
     19.7700	  574.00	  558.17	-1753.42	  439.86
     19.8700	  540.00	  557.83	-1787.08	  439.51
     19.9700	  567.00	  557.49	-1759.74	  439.16
     20.0700	  574.00	  557.15	-1752.40	  438.81
     20.1700	  517.00	  556.81	-1809.06	  438.46
     20.2700	  549.00	  556.46	-1776.71	  438.11
     20.3700	  600.00	  556.12	-1725.37	  437.76
     20.4700	  556.00	  555.75	-1769.00	  437.41
     20.5700	  523.00	  555.41	-1801.66	  437.05
     20.6700	  566.00	  555.07	-1758.32	  436.70
     20.7700	  531.00	  554.73	-1792.98	  436.34
     20.8700	  542.00	  554.39	-1781.64	  435.99
     20.9700	  550.00	  554.09	-1773.34	  435.63
     21.0700	  540.00	  553.75	-1783.00	  435.28
     21.1700	  590.00	  553.41	-1732.66	  434.92
     21.2700	  550.00	  553.07	-1772.32	  434.56
     21.3700	  539.00	  552.73	-1782.98	  434.20
     21.4700	  571.00	  552.40	-1750.65	  433.84
     21.5700	  570.00	  552.06	-1751.31	  433.49
     21.6700	  536.00	  551.73	-1784.98	  433.13
     21.7700	  532.00	  551.39	-1788.64	  432.77
     21.8700	  552.00	  551.06	-1768.31	  432.41
     21.9700	  553.00	  550.73	-1766.98	  432.05
     22.0700	  571.00	  550.41	-1748.66	  431.69
     22.1700	  569.00	  550.08	-1750.33	  431.33
     22.2700	  544.00	  549.76	-1775.01	  430.97
     22.3700	  561.00	  549.44	-1757.69	  430.61
     22.4700	  519.00	  549.13	-1799.38	  430.24
     22.5700	  550.00	  548.82	-1768.07	  429.88
     22.6700	  553.00	  548.51	-1764.76	  429.52
     22.7700	  577.00	  548.22	-1740.47	  429.16
     22.8700	  529.00	  547.93	-1788.18	  428.80
     22.9700	  544.00	  547.65	-1772.90	  428.44
     23.0700	  523.00	  547.38	-1793.63	  428.08
     23.1700	  531.00	  547.13	-1785.38	  427.72
     23.2700	  576.00	  546.89	-1740.14	  427.35
     23.3700	  512.00	  546.68	-1803.93	  426.99
     23.4700	  583.00	  546.50	-1732.75	  426.63
     23.5700	  551.00	  546.37	-1764.62	  426.27
     23.6700	  525.00	  546.29	-1790.54	  425.91
     23.7700	  550.00	  546.32	-1765.57	  425.55
     23.8700	  528.00	  546.67	-1787.92	  425.19
     23.9700	  590.00	  547.30	-1726.55	  424.83
     24.0700	  545.00	  548.76	-1773.01	  424.47
     24.1700	  579.00	  551.72	-1741.97	  424.11
     24.2700	  615.00	  557.03	-1711.28	  423.75
     24.3700	  592.00	  565.67	-1742.92	  423.39
     24.4700	  586.00	  578.77	-1762.02	  423.03
     24.5700	  622.00	  596.80	-1744.05	  422.67
     24.6700	  600.00	  617.20	-1786.45	  422.31
     24.7700	  640.00	  631.87	-1761.12	  421.95
     24.8700	  623.00	  629.50	-1775.75	  421.60
     24.9700	  571.00	  608.03	-1806.28	  421.24
     25.0700	  603.00	  581.51	-1747.76	  420.88
     25.1700	  588.00	  561.74	-1742.99	  420.53
     25.2700	  519.00	  550.82	-1801.07	  420.17
     25.3700	  564.00	  545.85	-1751.10	  419.82
     25.4700	  533.00	  543.65	-1779.90	  419.46
     25.5700	  548.00	  542.48	-1763.73	  419.11
     25.6700	  534.00	  541.72	-1776.97	  418.75
     25.7700	  574.00	  541.16	-1736.41	  418.40
     25.8700	  603.00	  540.72	-1706.97	  418.05
     25.9700	  578.00	  540.39	-1731.64	  417.70
     26.0700	  528.00	  540.14	-1781.39	  417.35
     26.1700	  554.00	  539.97	-1755.22	  417.00
     26.2700	  518.00	  539.88	-1791.13	  416.65
     26.3700	  497.00	  539.86	-1812.11	  416.30
     26.4700	  559.00	  539.92	-1750.17	  415.95
     26.5700	  518.00	  540.09	-1791.34	  415.60
     26.6700	  564.00	  540.36	-1745.61	  415.25
     26.7700	  542.00	  540.78	-1768.03	  414.91
     26.8700	  579.00	  541.38	-1731.63	  414.56
     26.9700	  515.00	  542.21	-1796.46	  414.22
     27.0700	  523.00	  543.34	-1789.59	  413.87
     27.1700	  529.00	  544.93	-1785.18	  413.53
     27.2700	  522.00	  547.22	-1794.47	  413.19
     27.3700	  580.00	  550.73	-1739.98	  412.85
     27.4700	  580.00	  556.46	-1745.71	  412.51
     27.5700	  561.00	  566.19	-1774.44	  412.17
     27.6700	  539.00	  582.68	-1812.93	  411.83
     27.7700	  586.00	  609.48	-1792.73	  411.49
     27.8700	  578.00	  649.58	-1840.83	  411.16
     27.9700	  704.00	  702.93	-1768.18	  410.82
     28.0700	  755.00	  763.32	-1777.57	  410.49
     28.1700	  865.00	  815.60	-1719.85	  410.15
     28.2700	 1002.00	  837.30	-1604.55	  409.82
     28.3700	  922.00	  815.60	-1662.85	  409.49
     28.4700	  841.00	  772.18	-1700.43	  409.16
     28.5700	  719.00	  742.03	-1792.28	  408.83
     28.6700	  730.00	  740.98	-1780.23	  408.50
     28.7700	  750.00	  764.25	-1783.50	  408.18
     28.8700	  774.00	  791.98	-1787.23	  407.85
     28.9700	  848.00	  796.16	-1717.41	  407.53
     29.0700	  763.00	  759.17	-1765.42	  407.20
     29.1700	  710.00	  696.68	-1755.93	  406.88
     29.2700	  690.00	  637.19	-1716.44	  406.56
     29.3700	  590.00	  594.27	-1773.52	  406.24
     29.4700	  572.00	  568.30	-1765.55	  405.92
     29.5700	  578.00	  554.23	-1745.48	  405.60
     29.6700	  565.00	  546.78	-1751.03	  405.28
     29.7700	  561.00	  542.55	-1750.80	  404.97
     29.8700	  582.00	  539.92	-1727.17	  404.66
     29.9700	  631.00	  538.25	-1676.50	  404.34
     30.0700	  512.00	  537.40	-1794.65	  404.03
     30.1700	  584.00	  537.54	-1722.79	  403.72
     30.2700	  588.00	  539.22	-1720.47	  403.41
     30.3700	  549.00	  543.56	-1763.81	  403.11
     30.4700	  537.00	  552.21	-1784.46	  402.80
     30.5700	  562.00	  566.95	-1774.20	  402.49
     30.6700	  580.00	  588.32	-1777.57	  402.19
     30.7700	  607.00	  613.69	-1775.94	  401.89
     30.8700	  582.00	  635.84	-1823.09	  401.59
     30.9700	  585.00	  643.74	-1827.99	  401.29
     31.0700	  597.00	  629.79	-1802.04	  400.99
     31.1700	  609.00	  601.34	-1761.59	  400.70
     31.2700	  508.00	  572.75	-1834.00	  400.40
     31.3700	  534.00	  551.67	-1786.92	  400.11
     31.4700	  533.00	  538.89	-1775.14	  399.81
     31.5700	  518.00	  532.09	-1783.34	  399.52
     31.6700	  515.00	  528.60	-1782.85	  399.23
     31.7700	  558.00	  526.66	-1737.91	  398.95
     31.8700	  533.00	  525.44	-1761.69	  398.66
     31.9700	  557.00	  524.58	-1736.83	  398.38
     32.0700	  525.00	  523.97	-1768.22	  398.09
     32.1700	  570.00	  523.53	-1722.78	  397.81
     32.2700	  518.00	  523.26	-1774.51	  397.53
     32.3700	  509.00	  523.14	-1783.39	  397.25
     32.4700	  585.00	  523.18	-1707.43	  396.98
     32.5700	  553.00	  523.38	-1739.63	  396.70
     32.6700	  560.00	  523.77	-1733.02	  396.43
     32.7700	  547.00	  524.41	-1746.66	  396.15
     32.8700	  542.00	  525.34	-1752.59	  395.88
     32.9700	  536.00	  526.69	-1759.94	  395.61
     33.0700	  551.00	  528.65	-1746.90	  395.35
     33.1700	  557.00	  531.67	-1743.92	  395.08
     33.2700	  551.00	  536.77	-1755.02	  394.82
     33.3700	  551.00	  546.16	-1764.41	  394.55
     33.4700	  554.00	  564.17	-1779.42	  394.29
     33.5700	  580.00	  597.86	-1787.11	  394.03
     33.6700	  631.00	  655.47	-1793.72	  393.78
     33.7700	  776.00	  741.04	-1734.29	  393.52
     33.8700	  886.00	  845.75	-1729.00	  393.27
     33.9700	 1058.00	  941.77	-1653.02	  393.01
     34.0700	 1105.00	  985.69	-1649.94	  392.76
     34.1700	  994.00	  944.55	-1719.80	  392.51
     34.2700	  879.00	  839.44	-1729.69	  392.27
     34.3700	  776.00	  725.42	-1718.67	  392.02
     34.4700	  673.00	  637.10	-1733.35	  391.78
     34.5700	  586.00	  581.76	-1765.01	  391.53
     34.6700	  551.00	  552.02	-1770.27	  391.29
     34.7700	  514.00	  537.22	-1792.47	  391.05
     34.8700	  538.00	  529.57	-1760.82	  390.82
     34.9700	  525.00	  525.03	-1769.28	  390.58
     35.0700	  550.00	  521.90	-1741.15	  390.35
     35.1700	  499.00	  519.53	-1789.78	  390.12
     35.2700	  521.00	  517.66	-1765.91	  389.89
     35.3700	  516.00	  516.15	-1769.40	  389.66
     35.4700	  528.00	  514.89	-1756.14	  389.43
     35.5700	  507.00	  513.82	-1776.07	  389.21
     35.6700	  540.00	  512.91	-1742.16	  388.98
     35.7700	  515.00	  512.11	-1766.36	  388.76
     35.8700	  496.00	  511.41	-1784.66	  388.54
     35.9700	  488.00	  511.28	-1792.53	  388.33
     36.0700	  532.00	  510.73	-1747.98	  388.11
     36.1700	  490.00	  510.23	-1789.48	  387.90
     36.2700	  486.00	  509.78	-1793.03	  387.68
     36.3700	  508.00	  509.38	-1770.63	  387.47
     36.4700	  503.00	  509.01	-1775.26	  387.27
     36.5700	  518.00	  508.68	-1759.93	  387.06
     36.6700	  504.00	  508.38	-1773.63	  386.86
     36.7700	  530.00	  508.13	-1747.39	  386.65
     36.8700	  487.00	  507.95	-1790.20	  386.45
     36.9700	  517.00	  507.87	-1760.11	  386.25
     37.0700	  490.00	  508.00	-1787.25	  386.05
     37.1700	  526.00	  508.58	-1751.83	  385.86
     37.2700	  491.00	  509.95	-1788.20	  385.67
     37.3700	  529.00	  512.51	-1752.76	  385.47
     37.4700	  544.00	  516.35	-1741.60	  385.28
     37.5700	  518.00	  520.95	-1772.20	  385.10
     37.6700	  493.00	  525.00	-1801.25	  384.91
     37.7700	  519.00	  526.85	-1777.10	  384.73
     37.8700	  511.00	  525.90	-1784.15	  384.54
     37.9700	  540.00	  523.16	-1752.41	  384.36
     38.0700	  487.00	  519.62	-1801.87	  384.18
     38.1700	  491.00	  515.68	-1793.93	  384.01
     38.2700	  527.00	  511.87	-1754.12	  383.83
     38.3700	  515.00	  508.77	-1763.02	  383.66
     38.4700	  499.00	  506.57	-1776.82	  383.49
     38.5700	  486.00	  505.16	-1788.41	  383.32
     38.6700	  550.00	  504.31	-1723.56	  383.15
     38.7700	  547.00	  503.68	-1725.93	  382.99
     38.8700	  556.00	  503.33	-1716.58	  382.83
     38.9700	  499.00	  503.05	-1773.30	  382.66
     39.0700	  483.00	  502.81	-1789.06	  382.50
     39.1700	  450.00	  502.60	-1821.85	  382.35
     39.2700	  476.00	  502.33	-1795.58	  382.19
     39.3700	  496.00	  502.16	-1775.41	  382.04
     39.4700	  515.00	  502.00	-1756.25	  381.89
     39.5700	  505.00	  501.85	-1766.10	  381.74
     39.6700	  471.00	  501.71	-1799.96	  381.59
     39.7700	  494.00	  501.70	-1776.95	  381.44
     39.8700	  509.00	  501.58	-1761.83	  381.30
     39.9700	  490.00	  501.47	-1780.72	  381.16
     40.0700	  487.00	  501.38	-1783.63	  381.02
     40.1700	  453.00	  501.29	-1817.54	  380.88
     40.2700	  503.00	  501.21	-1767.46	  380.74
     40.3700	  539.00	  501.15	-1731.40	  380.61
     40.4700	  516.00	  501.10	-1754.35	  380.47
     40.5700	  489.00	  501.06	-1781.31	  380.34
     40.6700	  521.00	  501.04	-1749.29	  380.21
     40.7700	  474.00	  501.04	-1796.29	  380.09
