MSG Master    CELL:    5.91923   5.91923  23.27511   90.0000   90.0000  120.0000   SPGR: P 63/m m c             TEMP:   1074.85
  1   1280     2.52000     0.00000    -0.12685     0.00000     0.00000    0
    99     0     2
       0.00000      10.00000
     125.00000     130.00000
 2Theta	Yobs	Ycal	Yobs-Ycal	Backg	Posr	(hkl)	K
      0.7700	    0.00	  534.60	-1755.00	  416.66
      0.8700	    0.00	  535.44	-1755.00	  417.50
      0.9700	   33.00	  536.27	-1755.00	  418.33
      1.0700	   40.00	  537.09	-1755.00	  419.15
      1.1700	   52.00	  537.90	-1755.00	  419.95
      1.2700	   57.00	  538.69	-1755.00	  420.75
      1.3700	   45.00	  539.47	-1755.00	  421.53
      1.4700	   90.00	  540.25	-1755.00	  422.30
      1.5700	  308.00	  541.01	-1755.00	  423.07
      1.6700	  456.00	  541.76	-1755.00	  423.82
      1.7700	  594.00	  542.50	-1755.00	  424.56
      1.8700	  704.00	  543.23	-1755.00	  425.28
      1.9700	  713.00	  543.94	-1755.00	  426.00
      2.0700	  810.00	  544.65	-1755.00	  426.71
      2.1700	  810.00	  545.35	-1755.00	  427.40
      2.2700	  735.00	  546.03	-1755.00	  428.09
      2.3700	  737.00	  546.71	-1755.00	  428.77
      2.4700	  707.00	  547.37	-1755.00	  429.43
      2.5700	  692.00	  548.03	-1755.00	  430.09
      2.6700	  628.00	  548.67	-1755.00	  430.73
      2.7700	  647.00	  549.31	-1755.00	  431.36
      2.8700	  634.00	  549.93	-1755.00	  431.99
      2.9700	  599.00	  550.54	-1755.00	  432.60
      3.0700	  601.00	  551.15	-1755.00	  433.20
      3.1700	  595.00	  551.74	-1755.00	  433.80
      3.2700	  625.00	  552.33	-1755.00	  434.38
      3.3700	  704.00	  552.90	-1755.00	  434.96
      3.4700	  730.00	  553.46	-1755.00	  435.52
      3.5700	  782.00	  554.02	-1755.00	  436.07
      3.6700	  863.00	  554.56	-1755.00	  436.62
      3.7700	  928.00	  555.10	-1755.00	  437.16
      3.8700	  987.00	  555.62	-1755.00	  437.68
      3.9700	 1047.00	  556.14	-1755.00	  438.20
      4.0700	 1086.00	  556.65	-1755.00	  438.71
      4.1700	 1106.00	  557.15	-1755.00	  439.20
      4.2700	 1088.00	  557.64	-1755.00	  439.69
      4.3700	 1022.00	  558.11	-1755.00	  440.17
      4.4700	 1047.00	  558.59	-1755.00	  440.64
      4.5700	 1033.00	  559.05	-1755.00	  441.10
      4.6700	 1023.00	  559.50	-1755.00	  441.56
      4.7700	 1009.00	  559.94	-1755.00	  442.00
      4.8700	  929.00	  560.38	-1755.00	  442.43
      4.9700	  974.00	  560.80	-1755.00	  442.86
      5.0700	  950.00	  561.22	-1755.00	  443.28
      5.1700	  939.00	  561.63	-1755.00	  443.69
      5.2700	  941.00	  562.03	-1755.00	  444.09
      5.3700	  871.00	  562.42	-1755.00	  444.48
      5.4700	  879.00	  562.81	-1755.00	  444.86
      5.5700	  894.00	  563.18	-1755.00	  445.24
      5.6700	  856.00	  563.55	-1755.00	  445.61
      5.7700	  837.00	  563.91	-1755.00	  445.96
      5.8700	  834.00	  564.26	-1755.00	  446.31
      5.9700	  792.00	  564.60	-1755.00	  446.66
      6.0700	  841.00	  564.93	-1755.00	  446.99
      6.1700	  768.00	  565.26	-1755.00	  447.32
      6.2700	  774.00	  565.58	-1755.00	  447.64
      6.3700	  740.00	  565.89	-1755.00	  447.95
      6.4700	  757.00	  566.19	-1755.00	  448.25
      6.5700	  705.00	  566.49	-1755.00	  448.54
      6.6700	  747.00	  566.78	-1755.00	  448.83
      6.7700	  707.00	  567.06	-1755.00	  449.11
      6.8700	  748.00	  567.33	-1755.00	  449.38
      6.9700	  696.00	  567.59	-1755.00	  449.65
      7.0700	  755.00	  567.85	-1755.00	  449.91
      7.1700	  696.00	  568.10	-1755.00	  450.16
      7.2700	  708.00	  568.34	-1755.00	  450.40
      7.3700	  629.00	  568.58	-1755.00	  450.64
      7.4700	  607.00	  568.81	-1755.00	  450.86
      7.5700	  652.00	  569.03	-1755.00	  451.08
      7.6700	  697.00	  569.24	-1755.00	  451.30
      7.7700	  658.00	  569.45	-1755.00	  451.51
      7.8700	  637.00	  569.65	-1755.00	  451.71
      7.9700	  639.00	  569.84	-1755.00	  451.90
      8.0700	  631.00	  570.03	-1755.00	  452.09
      8.1700	  647.00	  570.21	-1755.00	  452.27
      8.2700	  670.00	  570.38	-1755.00	  452.44
      8.3700	  621.00	  570.55	-1755.00	  452.61
      8.4700	  641.00	  570.71	-1755.00	  452.76
      8.5700	  635.00	  570.86	-1755.00	  452.92
      8.6700	  641.00	  571.01	-1755.00	  453.06
      8.7700	  623.00	  571.15	-1755.00	  453.20
      8.8700	  629.00	  571.28	-1755.00	  453.34
      8.9700	  629.00	  571.41	-1755.00	  453.47
      9.0700	  622.00	  571.53	-1755.00	  453.59
      9.1700	  596.00	  571.65	-1755.00	  453.70
      9.2700	  595.00	  571.76	-1755.00	  453.81
      9.3700	  619.00	  571.86	-1755.00	  453.91
      9.4700	  672.00	  571.95	-1755.00	  454.01
      9.5700	  586.00	  572.05	-1755.00	  454.10
      9.6700	  641.00	  572.13	-1755.00	  454.19
      9.7700	  550.00	  572.21	-1755.00	  454.27
      9.8700	  558.00	  572.28	-1755.00	  454.34
      9.9700	  606.00	  572.35	-1755.00	  454.41
     10.0700	  616.00	  573.38	-1712.38	  454.47
     10.1700	  579.00	  573.55	-1749.55	  454.52
     10.2700	  616.00	  573.73	-1712.73	  454.57
     10.3700	  580.00	  573.95	-1748.95	  454.62
     10.4700	  535.00	  574.23	-1794.23	  454.66
     10.5700	  601.00	  574.65	-1728.65	  454.69
     10.6700	  616.00	  575.30	-1714.30	  454.72
     10.7700	  560.00	  576.30	-1771.30	  454.74
     10.8700	  539.00	  577.71	-1793.71	  454.76
     10.9700	  579.00	  579.54	-1755.54	  454.77
     11.0700	  605.00	  581.76	-1731.76	  454.78
     11.1700	  563.00	  584.35	-1776.35	  454.78
     11.2700	  593.00	  587.37	-1749.37	  454.78
     11.3700	  600.00	  590.90	-1745.90	  454.77
     11.4700	  555.00	  595.09	-1795.09	  454.76
     11.5700	  604.00	  600.16	-1751.16	  454.74
     11.6700	  634.00	  606.50	-1727.50	  454.72
     11.7700	  634.00	  614.77	-1735.77	  454.69
     11.8700	  655.00	  625.87	-1725.87	  454.66
     11.9700	  677.00	  640.20	-1718.20	  454.62
     12.0700	  659.00	  655.79	-1751.79	  454.58
     12.1700	  699.00	  666.26	-1722.26	  454.53
     12.2700	  686.00	  662.05	-1731.05	  454.48
     12.3700	  667.00	  640.73	-1728.73	  454.42
     12.4700	  644.00	  614.94	-1725.94	  454.36
     12.5700	  591.00	  595.73	-1759.73	  454.30
     12.6700	  531.00	  584.86	-1808.86	  454.23
     12.7700	  623.00	  579.67	-1711.67	  454.15
     12.8700	  552.00	  577.24	-1780.24	  454.08
     12.9700	  561.00	  575.92	-1769.92	  453.99
     13.0700	  596.00	  575.04	-1734.04	  453.91
     13.1700	  547.00	  574.40	-1782.40	  453.82
     13.2700	  577.00	  573.89	-1751.89	  453.72
     13.3700	  527.00	  573.47	-1801.47	  453.62
     13.4700	  593.00	  573.12	-1735.12	  453.52
     13.5700	  570.00	  572.81	-1757.81	  453.41
     13.6700	  566.00	  572.54	-1761.54	  453.30
     13.7700	  586.00	  572.29	-1741.29	  453.19
     13.8700	  585.00	  572.06	-1742.06	  453.07
     13.9700	  602.00	  571.84	-1724.84	  452.95
     14.0700	  579.00	  571.63	-1747.63	  452.82
     14.1700	  561.00	  571.43	-1765.43	  452.69
     14.2700	  524.00	  571.24	-1802.24	  452.55
     14.3700	  568.00	  571.05	-1758.05	  452.42
     14.4700	  552.00	  570.87	-1773.87	  452.28
     14.5700	  564.00	  570.68	-1761.68	  452.13
     14.6700	  537.00	  570.50	-1788.50	  451.98
     14.7700	  580.00	  570.32	-1745.32	  451.83
     14.8700	  517.00	  570.13	-1808.13	  451.68
     14.9700	  544.00	  569.95	-1780.95	  451.52
     15.0700	  531.00	  569.77	-1793.77	  451.36
     15.1700	  533.00	  569.58	-1791.58	  451.19
     15.2700	  609.00	  569.39	-1715.39	  451.02
     15.3700	  550.00	  569.20	-1774.20	  450.85
     15.4700	  553.00	  569.01	-1771.01	  450.67
     15.5700	  589.00	  568.82	-1734.82	  450.50
     15.6700	  590.00	  568.63	-1733.63	  450.32
     15.7700	  528.00	  568.43	-1795.43	  450.13
     15.8700	  591.00	  568.26	-1732.26	  449.94
     15.9700	  598.00	  568.06	-1725.06	  449.75
     16.0700	  574.00	  567.86	-1748.86	  449.56
     16.1700	  575.00	  567.66	-1747.66	  449.36
     16.2700	  556.00	  567.45	-1766.45	  449.17
     16.3700	  606.00	  567.24	-1716.24	  448.96
     16.4700	  542.00	  567.03	-1780.03	  448.76
     16.5700	  528.00	  566.82	-1793.82	  448.55
     16.6700	  532.00	  566.61	-1789.61	  448.34
     16.7700	  579.00	  566.39	-1742.39	  448.13
     16.8700	  563.00	  566.17	-1758.17	  447.91
     16.9700	  539.00	  565.95	-1781.95	  447.70
     17.0700	  603.00	  565.72	-1717.72	  447.47
     17.1700	  662.00	  565.50	-1658.50	  447.25
     17.2700	  597.00	  565.27	-1723.27	  447.03
     17.3700	  591.00	  565.04	-1729.04	  446.80
     17.4700	  534.00	  564.80	-1785.80	  446.57
     17.5700	  543.00	  564.57	-1776.57	  446.33
     17.6700	  555.00	  564.33	-1764.33	  446.10
     17.7700	  582.00	  564.09	-1737.09	  445.86
     17.8700	  535.00	  563.85	-1783.85	  445.62
     17.9700	  559.00	  563.61	-1759.61	  445.38
     18.0700	  563.00	  563.47	-1755.47	  445.14
     18.1700	  554.00	  563.23	-1764.23	  444.89
     18.2700	  539.00	  562.98	-1778.98	  444.64
     18.3700	  546.00	  562.73	-1771.73	  444.39
     18.4700	  573.00	  562.48	-1744.48	  444.14
     18.5700	  595.00	  562.23	-1722.23	  443.88
     18.6700	  575.00	  561.98	-1741.98	  443.63
     18.7700	  542.00	  561.72	-1774.72	  443.37
     18.8700	  602.00	  561.55	-1714.55	  443.11
     18.9700	  502.00	  561.29	-1814.29	  442.85
     19.0700	  557.00	  561.03	-1759.03	  442.58
     19.1700	  561.00	  560.77	-1754.77	  442.32
     19.2700	  536.00	  560.51	-1779.51	  442.05
     19.3700	  559.00	  560.25	-1756.25	  441.78
     19.4700	  590.00	  559.98	-1724.98	  441.51
     19.5700	  527.00	  559.72	-1787.72	  441.24
     19.6700	  558.00	  559.45	-1756.45	  440.96
     19.7700	  596.00	  559.19	-1718.19	  440.69
     19.8700	  541.00	  558.92	-1772.92	  440.41
     19.9700	  570.00	  558.65	-1743.65	  440.13
     20.0700	  544.00	  558.38	-1769.38	  439.85
     20.1700	  534.00	  558.10	-1779.10	  439.57
     20.2700	  541.00	  557.83	-1771.83	  439.28
     20.3700	  568.00	  557.56	-1744.56	  439.00
     20.4700	  550.00	  557.28	-1762.28	  438.71
     20.5700	  570.00	  557.01	-1742.01	  438.43
     20.6700	  560.00	  556.73	-1751.73	  438.14
     20.7700	  478.00	  556.49	-1833.49	  437.85
     20.8700	  542.00	  556.18	-1769.18	  437.55
     20.9700	  553.00	  555.91	-1757.91	  437.26
     21.0700	  570.00	  555.63	-1740.63	  436.97
     21.1700	  556.00	  555.36	-1754.36	  436.67
     21.2700	  535.00	  555.08	-1775.08	  436.38
     21.3700	  524.00	  554.81	-1785.81	  436.08
     21.4700	  561.00	  554.53	-1748.53	  435.78
     21.5700	  564.00	  554.26	-1745.26	  435.48
     21.6700	  573.00	  553.99	-1735.99	  435.18
     21.7700	  527.00	  553.72	-1781.72	  434.88
     21.8700	  575.00	  553.45	-1733.45	  434.58
     21.9700	  559.00	  553.18	-1749.18	  434.27
     22.0700	  519.00	  552.91	-1788.91	  433.97
     22.1700	  557.00	  552.65	-1750.65	  433.66
     22.2700	  548.00	  552.39	-1759.39	  433.36
     22.3700	  555.00	  552.13	-1752.13	  433.05
     22.4700	  564.00	  551.88	-1742.88	  432.74
     22.5700	  537.00	  551.63	-1769.63	  432.44
     22.6700	  556.00	  551.39	-1750.39	  432.13
     22.7700	  581.00	  551.16	-1725.16	  431.82
     22.8700	  561.00	  550.93	-1744.93	  431.51
     22.9700	  571.00	  550.72	-1734.72	  431.20
     23.0700	  541.00	  550.52	-1764.52	  430.88
     23.1700	  560.00	  550.34	-1745.34	  430.57
     23.2700	  555.00	  550.19	-1750.19	  430.26
     23.3700	  507.00	  550.06	-1798.06	  429.94
     23.4700	  563.00	  549.98	-1741.98	  429.63
     23.5700	  561.00	  550.08	-1744.08	  429.32
     23.6700	  539.00	  550.13	-1766.13	  429.00
     23.7700	  536.00	  550.31	-1769.31	  428.69
     23.8700	  558.00	  550.75	-1747.75	  428.37
     23.9700	  584.00	  551.66	-1722.66	  428.05
     24.0700	  551.00	  553.51	-1757.51	  427.74
     24.1700	  546.00	  556.93	-1765.93	  427.42
     24.2700	  537.00	  562.79	-1780.79	  427.10
     24.3700	  580.00	  572.00	-1747.00	  426.78
     24.4700	  561.00	  585.42	-1779.42	  426.47
     24.5700	  609.00	  602.94	-1748.94	  426.15
     24.6700	  641.00	  621.52	-1735.52	  425.83
     24.7700	  611.00	  633.68	-1777.68	  425.51
     24.8700	  632.00	  629.93	-1752.93	  425.19
     24.9700	  642.00	  609.70	-1722.70	  424.87
     25.0700	  583.00	  585.56	-1757.56	  424.55
     25.1700	  563.00	  567.22	-1759.22	  424.24
     25.2700	  587.00	  556.47	-1724.47	  423.92
     25.3700	  601.00	  551.14	-1705.14	  423.60
     25.4700	  498.00	  548.59	-1805.59	  423.28
     25.5700	  539.00	  547.23	-1763.23	  422.96
     25.6700	  555.00	  546.36	-1746.36	  422.64
     25.7700	  586.00	  545.73	-1714.73	  422.32
     25.8700	  531.00	  545.25	-1769.25	  422.00
     25.9700	  524.00	  544.90	-1775.90	  421.68
     26.0700	  577.00	  544.64	-1722.64	  421.36
     26.1700	  544.00	  544.46	-1755.46	  421.04
     26.2700	  556.00	  544.37	-1743.37	  420.72
     26.3700	  569.00	  544.36	-1730.36	  420.40
     26.4700	  551.00	  544.45	-1748.45	  420.09
     26.5700	  592.00	  544.63	-1707.63	  419.77
     26.6700	  580.00	  544.93	-1719.93	  419.45
     26.7700	  524.00	  545.37	-1776.37	  419.13
     26.8700	  534.00	  546.00	-1767.00	  418.81
     26.9700	  541.00	  546.87	-1760.87	  418.50
     27.0700	  581.00	  548.04	-1722.04	  418.18
     27.1700	  565.00	  549.67	-1739.67	  417.86
     27.2700	  535.00	  552.02	-1772.02	  417.55
     27.3700	  547.00	  555.61	-1763.61	  417.23
     27.4700	  569.00	  561.50	-1747.50	  416.91
     27.5700	  558.00	  571.53	-1768.53	  416.60
     27.6700	  574.00	  588.65	-1769.65	  416.28
     27.7700	  609.00	  616.65	-1762.65	  415.97
     27.8700	  616.00	  658.82	-1797.82	  415.66
     27.9700	  645.00	  715.27	-1825.27	  415.34
     28.0700	  832.00	  779.45	-1702.45	  415.03
     28.1700	  899.00	  835.07	-1691.07	  414.72
     28.2700	  971.00	  857.76	-1641.76	  414.40
     28.3700	  881.00	  833.40	-1707.40	  414.09
     28.4700	  843.00	  785.11	-1697.11	  413.78
     28.5700	  704.00	  750.22	-1801.22	  413.47
     28.6700	  684.00	  745.52	-1816.52	  413.16
     28.7700	  744.00	  766.16	-1777.16	  412.85
     28.8700	  759.00	  792.09	-1788.09	  412.54
     28.9700	  834.00	  795.52	-1716.52	  412.24
     29.0700	  763.00	  759.14	-1751.14	  411.93
     29.1700	  707.00	  698.18	-1746.18	  411.62
     29.2700	  644.00	  640.22	-1751.22	  411.32
     29.3700	  574.00	  598.33	-1779.33	  411.01
     29.4700	  594.00	  572.90	-1733.90	  410.71
     29.5700	  615.00	  559.06	-1699.06	  410.40
     29.6700	  629.00	  551.70	-1677.70	  410.10
     29.7700	  636.00	  547.52	-1666.52	  409.80
     29.8700	  618.00	  544.91	-1681.91	  409.50
     29.9700	  584.00	  543.25	-1714.25	  409.20
     30.0700	  572.00	  542.41	-1725.41	  408.90
     30.1700	  550.00	  542.53	-1747.53	  408.60
     30.2700	  573.00	  544.15	-1726.15	  408.30
     30.3700	  525.00	  548.26	-1778.26	  408.00
     30.4700	  567.00	  556.39	-1744.39	  407.71
     30.5700	  581.00	  570.06	-1744.06	  407.41
     30.6700	  573.00	  589.60	-1771.60	  407.12
     30.7700	  583.00	  612.50	-1784.50	  406.82
     30.8700	  591.00	  632.26	-1796.26	  406.53
     30.9700	  608.00	  638.96	-1785.96	  406.24
     31.0700	  620.00	  626.09	-1761.09	  405.95
     31.1700	  574.00	  600.35	-1781.35	  405.66
     31.2700	  588.00	  574.53	-1741.53	  405.37
     31.3700	  525.00	  555.35	-1785.35	  405.08
     31.4700	  552.00	  543.55	-1746.55	  404.79
     31.5700	  526.00	  537.14	-1766.14	  404.51
     31.6700	  528.00	  533.80	-1760.80	  404.22
     31.7700	  556.00	  531.94	-1730.94	  403.94
     31.8700	  484.00	  530.77	-1801.77	  403.66
     31.9700	  511.00	  529.96	-1773.96	  403.38
     32.0700	  582.00	  529.40	-1702.40	  403.10
     32.1700	  534.00	  529.02	-1750.02	  402.82
     32.2700	  504.00	  528.80	-1779.80	  402.54
     32.3700	  536.00	  528.74	-1747.74	  402.26
     32.4700	  574.00	  528.84	-1709.84	  401.99
     32.5700	  575.00	  529.12	-1709.12	  401.71
     32.6700	  554.00	  529.60	-1730.60	  401.44
     32.7700	  570.00	  530.35	-1715.35	  401.17
     32.8700	  539.00	  531.42	-1747.42	  400.90
     32.9700	  554.00	  532.94	-1733.94	  400.63
     33.0700	  536.00	  535.16	-1754.16	  400.36
     33.1700	  547.00	  538.55	-1746.55	  400.09
     33.2700	  534.00	  544.23	-1765.23	  399.82
     33.3700	  568.00	  554.54	-1741.54	  399.56
     33.4700	  595.00	  573.86	-1733.86	  399.29
     33.5700	  596.00	  608.94	-1767.94	  399.03
     33.6700	  646.00	  667.26	-1776.26	  398.77
     33.7700	  768.00	  751.57	-1738.57	  398.51
     33.8700	  927.00	  852.30	-1680.30	  398.25
     33.9700	 1003.00	  942.43	-1694.43	  398.00
     34.0700	 1051.00	  981.19	-1685.19	  397.74
     34.1700	 1014.00	  939.20	-1680.20	  397.48
     34.2700	  911.00	  838.11	-1682.11	  397.23
     34.3700	  757.00	  729.31	-1727.31	  396.98
     34.4700	  637.00	  644.33	-1762.33	  396.73
     34.5700	  572.00	  590.02	-1773.02	  396.48
     34.6700	  567.00	  559.96	-1747.96	  396.23
     34.7700	  538.00	  544.50	-1761.50	  395.99
     34.8700	  564.00	  536.32	-1727.32	  395.74
     34.9700	  506.00	  531.44	-1780.44	  395.50
     35.0700	  550.00	  528.07	-1733.07	  395.26
     35.1700	  518.00	  525.53	-1762.53	  395.01
     35.2700	  504.00	  523.52	-1774.52	  394.78
     35.3700	  567.00	  521.89	-1709.89	  394.54
     35.4700	  544.00	  520.54	-1731.54	  394.30
     35.5700	  527.00	  519.40	-1747.40	  394.07
     35.6700	  532.00	  518.42	-1741.42	  393.83
     35.7700	  474.00	  517.57	-1798.57	  393.60
     35.8700	  522.00	  516.82	-1749.82	  393.37
     35.9700	  519.00	  516.16	-1752.16	  393.14
     36.0700	  504.00	  516.04	-1767.04	  392.91
     36.1700	  499.00	  515.52	-1771.52	  392.69
     36.2700	  543.00	  515.05	-1727.05	  392.46
     36.3700	  531.00	  514.62	-1738.62	  392.24
     36.4700	  530.00	  514.25	-1739.25	  392.02
     36.5700	  513.00	  513.91	-1755.91	  391.80
     36.6700	  551.00	  513.63	-1717.63	  391.58
     36.7700	  560.00	  513.40	-1708.40	  391.36
     36.8700	  518.00	  513.28	-1750.28	  391.15
     36.9700	  533.00	  513.32	-1735.32	  390.93
     37.0700	  483.00	  513.72	-1785.72	  390.72
     37.1700	  498.00	  514.77	-1771.77	  390.51
     37.2700	  520.00	  516.91	-1751.91	  390.30
     37.3700	  522.00	  520.48	-1753.48	  390.09
     37.4700	  521.00	  525.39	-1759.39	  389.89
     37.5700	  532.00	  530.69	-1753.69	  389.68
     37.6700	  526.00	  534.53	-1763.53	  389.48
     37.7700	  502.00	  534.94	-1787.94	  389.28
     37.8700	  504.00	  531.63	-1782.63	  389.08
     37.9700	  529.00	  526.54	-1752.54	  388.88
     38.0700	  526.00	  521.48	-1750.48	  388.68
     38.1700	  516.00	  517.24	-1756.24	  388.49
     38.2700	  493.00	  514.03	-1776.03	  388.29
     38.3700	  538.00	  511.81	-1728.81	  388.10
     38.4700	  502.00	  510.35	-1763.35	  387.91
     38.5700	  495.00	  509.41	-1769.41	  387.72
     38.6700	  503.00	  508.78	-1760.78	  387.54
     38.7700	  513.00	  508.24	-1750.24	  387.35
     38.8700	  473.00	  507.90	-1789.90	  387.17
     38.9700	  527.00	  507.61	-1735.61	  386.99
     39.0700	  481.00	  507.36	-1781.35	  386.81
     39.1700	  534.00	  507.12	-1728.12	  386.63
     39.2700	  483.00	  506.97	-1778.97	  386.45
     39.3700	  517.00	  506.78	-1744.78	  386.28
     39.4700	  524.00	  506.59	-1737.59	  386.10
     39.5700	  534.00	  506.42	-1727.42	  385.93
     39.6700	  532.00	  506.27	-1729.27	  385.76
     39.7700	  511.00	  506.12	-1750.12	  385.59
     39.8700	  514.00	  505.98	-1746.98	  385.43
     39.9700	  488.00	  505.85	-1772.85	  385.26
     40.0700	  509.00	  505.73	-1751.73	  385.10
     40.1700	  541.00	  505.63	-1719.63	  384.93
     40.2700	  505.00	  505.53	-1755.53	  384.77
     40.3700	  516.00	  505.45	-1744.45	  384.62
     40.4700	  502.00	  505.38	-1758.38	  384.46
     40.5700	  474.00	  505.33	-1786.33	  384.30
     40.6700	  506.00	  505.30	-1754.30	  384.15
     40.7700	  505.00	  505.28	-1755.28	  384.00
