MSG Master    CELL:    5.91527   5.91527  23.25837   90.0000   90.0000  120.0000   SPGR: P 63/m m c             TEMP:   1007.85
  1   1280     2.52000     0.00000    -0.13418     0.00000     0.00000    0
    99     0     2
       0.00000      10.00000
     125.00000     130.00000
 2Theta	Yobs	Ycal	Yobs-Ycal	Backg	Posr	(hkl)	K
      0.7700	    0.00	  504.83	-1738.00	  389.41
      0.8700	    0.00	  505.98	-1738.00	  390.55
      0.9700	   43.00	  507.12	-1738.00	  391.69
      1.0700	   37.00	  508.24	-1738.00	  392.81
      1.1700	   59.00	  509.34	-1738.00	  393.91
      1.2700	   53.00	  510.43	-1738.00	  395.01
      1.3700	   43.00	  511.51	-1738.00	  396.09
      1.4700	  104.00	  512.58	-1738.00	  397.15
      1.5700	  317.00	  513.63	-1738.00	  398.20
      1.6700	  444.00	  514.67	-1738.00	  399.24
      1.7700	  551.00	  515.69	-1738.00	  400.26
      1.8700	  681.00	  516.70	-1738.00	  401.28
      1.9700	  710.00	  517.70	-1738.00	  402.28
      2.0700	  762.00	  518.69	-1738.00	  403.26
      2.1700	  763.00	  519.66	-1738.00	  404.23
      2.2700	  777.00	  520.62	-1738.00	  405.19
      2.3700	  735.00	  521.57	-1738.00	  406.14
      2.4700	  759.00	  522.50	-1738.00	  407.07
      2.5700	  704.00	  523.42	-1738.00	  408.00
      2.6700	  690.00	  524.33	-1738.00	  408.90
      2.7700	  630.00	  525.23	-1738.00	  409.80
      2.8700	  688.00	  526.11	-1738.00	  410.68
      2.9700	  622.00	  526.98	-1738.00	  411.56
      3.0700	  614.00	  527.84	-1738.00	  412.42
      3.1700	  630.00	  528.69	-1738.00	  413.26
      3.2700	  617.00	  529.53	-1738.00	  414.10
      3.3700	  727.00	  530.35	-1738.00	  414.92
      3.4700	  808.00	  531.16	-1738.00	  415.73
      3.5700	  822.00	  531.96	-1738.00	  416.53
      3.6700	  927.00	  532.75	-1738.00	  417.32
      3.7700	 1028.00	  533.53	-1738.00	  418.10
      3.8700	 1076.00	  534.29	-1738.00	  418.86
      3.9700	 1052.00	  535.04	-1738.00	  419.62
      4.0700	 1143.00	  535.78	-1738.00	  420.36
      4.1700	 1143.00	  536.52	-1738.00	  421.09
      4.2700	 1193.00	  537.23	-1738.00	  421.81
      4.3700	 1146.00	  537.94	-1738.00	  422.52
      4.4700	 1086.00	  538.64	-1738.00	  423.21
      4.5700	 1048.00	  539.33	-1738.00	  423.90
      4.6700	 1100.00	  540.00	-1738.00	  424.57
      4.7700	 1035.00	  540.66	-1738.00	  425.24
      4.8700	  996.00	  541.32	-1738.00	  425.89
      4.9700	 1006.00	  541.96	-1738.00	  426.53
      5.0700	  988.00	  542.59	-1738.00	  427.17
      5.1700	 1010.00	  543.21	-1738.00	  427.79
      5.2700	  953.00	  543.82	-1738.00	  428.40
      5.3700	  949.00	  544.43	-1738.00	  429.00
      5.4700	  820.00	  545.02	-1738.00	  429.59
      5.5700	  903.00	  545.60	-1738.00	  430.17
      5.6700	  860.00	  546.16	-1738.00	  430.74
      5.7700	  870.00	  546.72	-1738.00	  431.30
      5.8700	  852.00	  547.27	-1738.00	  431.85
      5.9700	  837.00	  547.81	-1738.00	  432.39
      6.0700	  810.00	  548.34	-1738.00	  432.92
      6.1700	  823.00	  548.86	-1738.00	  433.44
      6.2700	  793.00	  549.37	-1738.00	  433.95
      6.3700	  796.00	  549.87	-1738.00	  434.45
      6.4700	  745.00	  550.36	-1738.00	  434.94
      6.5700	  747.00	  550.84	-1738.00	  435.42
      6.6700	  685.00	  551.32	-1738.00	  435.89
      6.7700	  743.00	  551.78	-1738.00	  436.35
      6.8700	  733.00	  552.23	-1738.00	  436.80
      6.9700	  746.00	  552.68	-1738.00	  437.25
      7.0700	  700.00	  553.11	-1738.00	  437.68
      7.1700	  708.00	  553.54	-1738.00	  438.11
      7.2700	  666.00	  553.95	-1738.00	  438.52
      7.3700	  650.00	  554.36	-1738.00	  438.93
      7.4700	  740.00	  554.76	-1738.00	  439.33
      7.5700	  669.00	  555.15	-1738.00	  439.72
      7.6700	  663.00	  555.53	-1738.00	  440.10
      7.7700	  624.00	  555.90	-1738.00	  440.47
      7.8700	  609.00	  556.26	-1738.00	  440.84
      7.9700	  649.00	  556.62	-1738.00	  441.19
      8.0700	  646.00	  556.97	-1738.00	  441.54
      8.1700	  704.00	  557.30	-1738.00	  441.88
      8.2700	  632.00	  557.63	-1738.00	  442.21
      8.3700	  665.00	  557.95	-1738.00	  442.53
      8.4700	  634.00	  558.27	-1738.00	  442.84
      8.5700	  639.00	  558.57	-1738.00	  443.14
      8.6700	  624.00	  558.87	-1738.00	  443.44
      8.7700	  606.00	  559.16	-1738.00	  443.73
      8.8700	  579.00	  559.44	-1738.00	  444.01
      8.9700	  610.00	  559.71	-1738.00	  444.28
      9.0700	  559.00	  559.98	-1738.00	  444.55
      9.1700	  606.00	  560.23	-1738.00	  444.81
      9.2700	  603.00	  560.48	-1738.00	  445.06
      9.3700	  557.00	  560.73	-1738.00	  445.30
      9.4700	  613.00	  560.96	-1738.00	  445.53
      9.5700	  612.00	  561.19	-1738.00	  445.76
      9.6700	  621.00	  561.41	-1738.00	  445.98
      9.7700	  552.00	  561.62	-1738.00	  446.19
      9.8700	  646.00	  561.82	-1738.00	  446.40
      9.9700	  589.00	  562.02	-1738.00	  446.59
     10.0700	  616.00	  563.57	-1685.57	  446.78
     10.1700	  587.00	  563.90	-1714.90	  446.97
     10.2700	  561.00	  564.26	-1741.26	  447.14
     10.3700	  572.00	  564.68	-1730.68	  447.31
     10.4700	  583.00	  565.17	-1720.17	  447.47
     10.5700	  593.00	  565.82	-1710.82	  447.63
     10.6700	  557.00	  566.70	-1747.70	  447.78
     10.7700	  543.00	  567.93	-1762.93	  447.92
     10.8700	  606.00	  569.57	-1701.57	  448.05
     10.9700	  574.00	  571.63	-1735.63	  448.18
     11.0700	  596.00	  574.09	-1716.09	  448.30
     11.1700	  602.00	  576.96	-1712.96	  448.42
     11.2700	  572.00	  580.29	-1746.29	  448.53
     11.3700	  587.00	  584.16	-1735.16	  448.63
     11.4700	  592.00	  588.72	-1734.72	  448.72
     11.5700	  580.00	  594.22	-1752.22	  448.81
     11.6700	  607.00	  601.02	-1732.02	  448.90
     11.7700	  669.00	  609.69	-1678.69	  448.97
     11.8700	  640.00	  620.77	-1718.77	  449.05
     11.9700	  662.00	  634.08	-1710.08	  449.11
     12.0700	  664.00	  647.49	-1721.49	  449.17
     12.1700	  673.00	  655.82	-1720.82	  449.22
     12.2700	  680.00	  651.83	-1709.83	  449.27
     12.3700	  595.00	  633.77	-1776.77	  449.31
     12.4700	  598.00	  611.25	-1751.25	  449.34
     12.5700	  579.00	  593.22	-1752.22	  449.37
     12.6700	  597.00	  581.80	-1722.80	  449.40
     12.7700	  616.00	  575.53	-1697.53	  449.42
     12.8700	  577.00	  572.27	-1733.27	  449.43
     12.9700	  562.00	  570.47	-1746.47	  449.44
     13.0700	  601.00	  569.35	-1706.35	  449.44
     13.1700	  553.00	  568.57	-1753.57	  449.43
     13.2700	  571.00	  567.98	-1734.98	  449.43
     13.3700	  533.00	  567.51	-1772.51	  449.41
     13.4700	  543.00	  567.14	-1762.14	  449.39
     13.5700	  589.00	  566.83	-1715.83	  449.37
     13.6700	  546.00	  566.58	-1758.58	  449.34
     13.7700	  572.00	  566.35	-1732.35	  449.30
     13.8700	  570.00	  566.15	-1734.15	  449.26
     13.9700	  570.00	  565.98	-1733.98	  449.22
     14.0700	  510.00	  565.81	-1793.81	  449.17
     14.1700	  622.00	  565.66	-1681.66	  449.11
     14.2700	  549.00	  565.52	-1754.52	  449.05
     14.3700	  612.00	  565.38	-1691.38	  448.99
     14.4700	  559.00	  565.25	-1744.25	  448.92
     14.5700	  599.00	  565.12	-1704.12	  448.85
     14.6700	  531.00	  564.99	-1771.99	  448.77
     14.7700	  507.00	  564.86	-1795.86	  448.68
     14.8700	  533.00	  564.77	-1769.77	  448.60
     14.9700	  510.00	  564.64	-1792.64	  448.50
     15.0700	  546.00	  564.51	-1756.51	  448.41
     15.1700	  544.00	  564.38	-1758.38	  448.31
     15.2700	  558.00	  564.25	-1744.25	  448.20
     15.3700	  556.00	  564.12	-1746.12	  448.09
     15.4700	  529.00	  563.99	-1772.99	  447.98
     15.5700	  511.00	  563.85	-1790.85	  447.86
     15.6700	  540.00	  563.71	-1761.71	  447.74
     15.7700	  536.00	  563.57	-1765.57	  447.61
     15.8700	  588.00	  563.43	-1713.43	  447.48
     15.9700	  534.00	  563.28	-1767.28	  447.35
     16.0700	  540.00	  563.13	-1761.13	  447.21
     16.1700	  551.00	  562.98	-1749.98	  447.07
     16.2700	  558.00	  562.82	-1742.82	  446.92
     16.3700	  555.00	  562.66	-1745.66	  446.77
     16.4700	  512.00	  562.50	-1788.50	  446.62
     16.5700	  517.00	  562.33	-1783.33	  446.46
     16.6700	  541.00	  562.17	-1759.17	  446.30
     16.7700	  554.00	  562.00	-1746.00	  446.14
     16.8700	  571.00	  561.82	-1728.82	  445.97
     16.9700	  577.00	  561.64	-1722.64	  445.80
     17.0700	  528.00	  561.46	-1771.46	  445.63
     17.1700	  572.00	  561.28	-1727.28	  445.45
     17.2700	  506.00	  561.10	-1793.10	  445.27
     17.3700	  572.00	  560.91	-1726.91	  445.08
     17.4700	  540.00	  560.72	-1758.72	  444.89
     17.5700	  544.00	  560.52	-1754.52	  444.70
     17.6700	  571.00	  560.32	-1727.32	  444.51
     17.7700	  544.00	  560.12	-1754.12	  444.31
     17.8700	  558.00	  559.92	-1739.92	  444.11
     17.9700	  561.00	  559.81	-1736.81	  443.90
     18.0700	  583.00	  559.61	-1714.61	  443.70
     18.1700	  546.00	  559.40	-1751.40	  443.49
     18.2700	  585.00	  559.19	-1712.19	  443.27
     18.3700	  552.00	  558.97	-1744.97	  443.06
     18.4700	  554.00	  558.76	-1742.76	  442.84
     18.5700	  570.00	  558.63	-1726.63	  442.62
     18.6700	  580.00	  558.41	-1716.41	  442.39
     18.7700	  581.00	  558.19	-1715.19	  442.17
     18.8700	  598.00	  557.96	-1697.96	  441.94
     18.9700	  531.00	  557.73	-1764.73	  441.70
     19.0700	  552.00	  557.51	-1743.51	  441.47
     19.1700	  574.00	  557.27	-1721.27	  441.23
     19.2700	  553.00	  557.04	-1742.04	  440.99
     19.3700	  565.00	  556.80	-1729.80	  440.75
     19.4700	  538.00	  556.57	-1756.57	  440.50
     19.5700	  556.00	  556.33	-1738.33	  440.25
     19.6700	  556.00	  556.09	-1738.09	  440.00
     19.7700	  544.00	  555.84	-1749.84	  439.75
     19.8700	  530.00	  555.60	-1763.60	  439.50
     19.9700	  532.00	  555.35	-1761.35	  439.24
     20.0700	  545.00	  555.10	-1748.10	  438.98
     20.1700	  541.00	  554.85	-1751.85	  438.72
     20.2700	  532.00	  554.60	-1760.60	  438.46
     20.3700	  501.00	  554.39	-1791.39	  438.19
     20.4700	  580.00	  554.13	-1712.13	  437.92
     20.5700	  535.00	  553.88	-1756.88	  437.65
     20.6700	  492.00	  553.62	-1799.62	  437.38
     20.7700	  544.00	  553.37	-1747.37	  437.11
     20.8700	  552.00	  553.11	-1739.11	  436.83
     20.9700	  534.00	  552.85	-1756.85	  436.55
     21.0700	  521.00	  552.60	-1769.60	  436.27
     21.1700	  540.00	  552.34	-1750.34	  435.99
     21.2700	  601.00	  552.08	-1689.08	  435.71
     21.3700	  572.00	  551.82	-1717.82	  435.42
     21.4700	  560.00	  551.56	-1729.56	  435.14
     21.5700	  533.00	  551.30	-1756.30	  434.85
     21.6700	  552.00	  551.05	-1737.05	  434.56
     21.7700	  530.00	  550.79	-1758.79	  434.27
     21.8700	  584.00	  550.49	-1704.49	  433.98
     21.9700	  602.00	  550.24	-1686.24	  433.68
     22.0700	  541.00	  549.99	-1746.99	  433.38
     22.1700	  551.00	  549.74	-1736.74	  433.09
     22.2700	  572.00	  549.50	-1715.50	  432.79
     22.3700	  588.00	  549.26	-1699.26	  432.49
     22.4700	  592.00	  549.03	-1695.03	  432.18
     22.5700	  540.00	  548.80	-1746.80	  431.88
     22.6700	  548.00	  548.58	-1738.58	  431.58
     22.7700	  570.00	  548.37	-1716.37	  431.27
     22.8700	  514.00	  548.17	-1772.17	  430.96
     22.9700	  576.00	  548.13	-1710.13	  430.66
     23.0700	  555.00	  547.97	-1730.97	  430.35
     23.1700	  561.00	  547.83	-1724.83	  430.04
     23.2700	  526.00	  547.72	-1759.72	  429.72
     23.3700	  569.00	  547.64	-1716.64	  429.41
     23.4700	  567.00	  547.62	-1718.62	  429.10
     23.5700	  538.00	  547.67	-1747.67	  428.78
     23.6700	  600.00	  547.82	-1685.82	  428.47
     23.7700	  580.00	  548.14	-1706.14	  428.15
     23.8700	  539.00	  548.74	-1747.74	  427.83
     23.9700	  554.00	  549.86	-1733.86	  427.51
     24.0700	  558.00	  551.89	-1731.89	  427.19
     24.1700	  553.00	  555.42	-1740.42	  426.87
     24.2700	  566.00	  561.17	-1733.17	  426.55
     24.3700	  614.00	  569.89	-1693.89	  426.23
     24.4700	  605.00	  582.04	-1715.04	  425.91
     24.5700	  628.00	  597.14	-1707.14	  425.58
     24.6700	  613.00	  612.67	-1737.67	  425.26
     24.7700	  646.00	  623.16	-1715.16	  424.93
     24.8700	  655.00	  621.46	-1704.46	  424.61
     24.9700	  655.00	  606.13	-1689.13	  424.28
     25.0700	  566.00	  585.86	-1757.86	  423.96
     25.1700	  578.00	  568.86	-1728.86	  423.63
     25.2700	  576.00	  557.55	-1719.55	  423.30
     25.3700	  543.00	  551.04	-1746.04	  422.97
     25.4700	  545.00	  547.54	-1740.54	  422.64
     25.5700	  611.00	  545.59	-1672.59	  422.32
     25.6700	  571.00	  544.38	-1711.38	  421.99
     25.7700	  563.00	  543.54	-1718.54	  421.66
     25.8700	  567.00	  542.91	-1713.91	  421.33
     25.9700	  526.00	  542.43	-1754.43	  420.99
     26.0700	  495.00	  542.08	-1785.08	  420.66
     26.1700	  579.00	  541.82	-1700.82	  420.33
     26.2700	  559.00	  541.66	-1720.66	  420.00
     26.3700	  546.00	  541.59	-1733.59	  419.67
     26.4700	  548.00	  541.61	-1731.61	  419.34
     26.5700	  553.00	  541.74	-1726.74	  419.00
     26.6700	  507.00	  541.98	-1772.98	  418.67
     26.7700	  539.00	  542.37	-1741.37	  418.34
     26.8700	  603.00	  542.93	-1677.93	  418.01
     26.9700	  564.00	  543.71	-1717.71	  417.67
     27.0700	  515.00	  544.80	-1767.80	  417.34
     27.1700	  580.00	  546.30	-1704.30	  417.01
     27.2700	  538.00	  548.45	-1748.45	  416.68
     27.3700	  559.00	  551.72	-1730.72	  416.34
     27.4700	  551.00	  556.99	-1743.99	  416.01
     27.5700	  584.00	  565.89	-1719.89	  415.68
     27.6700	  578.00	  580.97	-1740.97	  415.35
     27.7700	  591.00	  605.64	-1752.64	  415.01
     27.8700	  629.00	  642.99	-1751.99	  414.68
     27.9700	  680.00	  693.55	-1751.55	  414.35
     28.0700	  747.00	  752.25	-1743.25	  414.02
     28.1700	  839.00	  805.66	-1704.66	  413.68
     28.2700	  936.00	  832.55	-1634.55	  413.35
     28.3700	  904.00	  817.96	-1651.96	  413.02
     28.4700	  799.00	  778.93	-1717.93	  412.69
     28.5700	  741.00	  749.94	-1746.94	  412.36
     28.6700	  711.00	  748.64	-1775.64	  412.03
     28.7700	  753.00	  771.89	-1756.89	  411.70
     28.8700	  815.00	  801.40	-1724.40	  411.37
     28.9700	  802.00	  810.05	-1746.05	  411.04
     29.0700	  819.00	  777.98	-1696.98	  410.71
     29.1700	  680.00	  716.62	-1774.62	  410.38
     29.2700	  687.00	  654.57	-1705.57	  410.05
     29.3700	  642.00	  607.59	-1703.59	  409.73
     29.4700	  587.00	  577.74	-1728.74	  409.40
     29.5700	  608.00	  560.82	-1690.82	  409.07
     29.6700	  581.00	  551.64	-1708.64	  408.75
     29.7700	  576.00	  546.45	-1708.45	  408.42
     29.8700	  568.00	  543.26	-1713.26	  408.09
     29.9700	  603.00	  541.24	-1676.24	  407.77
     30.0700	  578.00	  540.17	-1700.17	  407.45
     30.1700	  573.00	  540.06	-1705.06	  407.12
     30.2700	  533.00	  541.39	-1746.39	  406.80
     30.3700	  562.00	  544.99	-1720.99	  406.48
     30.4700	  537.00	  552.10	-1753.10	  406.16
     30.5700	  607.00	  564.00	-1695.00	  405.83
     30.6700	  597.00	  580.94	-1721.94	  405.51
     30.7700	  576.00	  600.95	-1762.95	  405.19
     30.8700	  598.00	  618.87	-1758.87	  404.88
     30.9700	  613.00	  626.61	-1751.61	  404.56
     31.0700	  610.00	  617.71	-1745.71	  404.24
     31.1700	  588.00	  596.13	-1746.13	  403.92
     31.2700	  507.00	  572.73	-1803.73	  403.61
     31.3700	  573.00	  554.23	-1719.23	  403.29
     31.4700	  533.00	  542.07	-1747.07	  402.98
     31.5700	  529.00	  535.00	-1744.00	  402.67
     31.6700	  525.00	  531.14	-1744.14	  402.35
     31.7700	  554.00	  528.97	-1712.97	  402.04
     31.8700	  569.00	  527.63	-1696.63	  401.73
     31.9700	  587.00	  526.74	-1677.74	  401.42
     32.0700	  504.00	  526.13	-1760.13	  401.11
     32.1700	  511.00	  525.74	-1752.74	  400.81
     32.2700	  556.00	  525.53	-1707.53	  400.50
     32.3700	  582.00	  525.50	-1681.50	  400.19
     32.4700	  563.00	  525.65	-1700.65	  399.89
     32.5700	  532.00	  526.01	-1732.01	  399.59
     32.6700	  545.00	  526.60	-1719.60	  399.28
     32.7700	  543.00	  527.49	-1722.49	  398.98
     32.8700	  526.00	  528.75	-1740.75	  398.68
     32.9700	  521.00	  530.53	-1747.53	  398.38
     33.0700	  571.00	  533.08	-1700.08	  398.08
     33.1700	  523.00	  536.92	-1751.92	  397.79
     33.2700	  542.00	  543.17	-1739.17	  397.49
     33.3700	  548.00	  554.03	-1744.03	  397.19
     33.4700	  565.00	  573.43	-1746.43	  396.90
     33.5700	  587.00	  607.17	-1758.17	  396.61
     33.6700	  621.00	  661.49	-1778.49	  396.32
     33.7700	  742.00	  738.75	-1734.75	  396.02
     33.8700	  850.00	  831.37	-1719.37	  395.74
     33.9700	  998.00	  917.52	-1657.52	  395.45
     34.0700	 1039.00	  962.61	-1661.61	  395.16
     34.1700	 1039.00	  936.91	-1635.91	  394.87
     34.2700	  890.00	  850.96	-1698.96	  394.59
     34.3700	  789.00	  748.85	-1697.85	  394.31
     34.4700	  668.00	  663.03	-1733.03	  394.03
     34.5700	  622.00	  603.67	-1719.67	  393.74
     34.6700	  550.00	  567.85	-1755.85	  393.47
     34.7700	  601.00	  547.99	-1684.99	  393.19
     34.8700	  555.00	  537.03	-1720.03	  392.91
     34.9700	  558.00	  530.56	-1710.56	  392.64
     35.0700	  506.00	  526.23	-1758.23	  392.36
     35.1700	  518.00	  523.05	-1743.05	  392.09
     35.2700	  524.00	  520.56	-1734.56	  391.82
     35.3700	  495.00	  518.55	-1761.55	  391.55
     35.4700	  558.00	  516.89	-1696.89	  391.28
     35.5700	  550.00	  515.49	-1703.49	  391.01
     35.6700	  513.00	  514.30	-1739.30	  390.75
     35.7700	  497.00	  513.27	-1754.27	  390.48
     35.8700	  511.00	  512.36	-1739.36	  390.22
     35.9700	  516.00	  512.02	-1734.02	  389.96
     36.0700	  512.00	  511.32	-1737.32	  389.70
     36.1700	  496.00	  510.69	-1752.69	  389.44
     36.2700	  516.00	  510.12	-1732.12	  389.18
     36.3700	  525.00	  509.62	-1722.62	  388.92
     36.4700	  512.00	  509.16	-1735.16	  388.67
     36.5700	  457.00	  508.76	-1789.76	  388.42
     36.6700	  539.00	  508.44	-1707.44	  388.17
     36.7700	  513.00	  508.17	-1733.17	  387.92
     36.8700	  497.00	  508.01	-1749.01	  387.67
     36.9700	  499.00	  508.03	-1747.03	  387.42
     37.0700	  511.00	  508.39	-1735.39	  387.18
     37.1700	  452.00	  509.30	-1795.30	  386.93
     37.2700	  497.00	  511.08	-1752.08	  386.69
     37.3700	  523.00	  513.93	-1728.93	  386.45
     37.4700	  515.00	  517.76	-1740.76	  386.21
     37.5700	  508.00	  521.90	-1751.90	  385.97
     37.6700	  476.00	  525.03	-1787.03	  385.74
     37.7700	  515.00	  525.58	-1748.58	  385.50
     37.8700	  555.00	  523.00	-1706.00	  385.27
     37.9700	  519.00	  518.59	-1737.59	  385.04
     38.0700	  508.00	  514.02	-1744.02	  384.81
     38.1700	  540.00	  510.17	-1708.17	  384.58
     38.2700	  502.00	  507.29	-1743.29	  384.36
     38.3700	  489.00	  505.32	-1754.32	  384.13
     38.4700	  468.00	  504.19	-1774.19	  383.91
     38.5700	  468.00	  503.33	-1773.33	  383.69
     38.6700	  486.00	  502.72	-1754.72	  383.47
     38.7700	  513.00	  502.26	-1727.26	  383.25
     38.8700	  497.00	  501.78	-1742.78	  383.03
     38.9700	  458.00	  501.45	-1781.45	  382.82
     39.0700	  506.00	  501.16	-1733.16	  382.60
     39.1700	  474.00	  500.89	-1764.89	  382.39
     39.2700	  504.00	  500.64	-1734.64	  382.18
     39.3700	  512.00	  500.40	-1726.40	  381.97
     39.4700	  447.00	  500.18	-1791.18	  381.77
     39.5700	  516.00	  499.89	-1721.89	  381.56
     39.6700	  551.00	  499.69	-1686.69	  381.36
     39.7700	  493.00	  499.51	-1744.51	  381.16
     39.8700	  496.00	  499.34	-1741.34	  380.96
     39.9700	  470.00	  499.18	-1767.18	  380.76
     40.0700	  514.00	  499.04	-1723.04	  380.57
     40.1700	  441.00	  498.90	-1795.90	  380.37
     40.2700	  498.00	  498.78	-1738.78	  380.18
     40.3700	  472.00	  498.67	-1764.67	  379.99
     40.4700	  510.00	  498.58	-1726.58	  379.80
     40.5700	  461.00	  498.51	-1775.51	  379.61
     40.6700	  503.00	  498.45	-1733.45	  379.43
     40.7700	  427.00	  498.42	-1809.42	  379.24
