MSG Master    CELL:    5.91911   5.91911  23.27912   90.0000   90.0000  120.0000   SPGR: P 63/m m c             TEMP:   1074.85
  1   1280     2.52000     0.00000    -0.12819     0.00000     0.00000    0
    99     0     2
       0.00000      10.00000
     125.00000     130.00000
 2Theta	Yobs	Ycal	Yobs-Ycal	Backg	Posr	(hkl)	K
      0.7700	    0.00	  562.81	-1742.75	  443.85
      0.8700	    0.00	  563.38	-1742.75	  444.42
      0.9700	   44.00	  563.94	-1742.75	  444.98
      1.0700	   39.00	  564.49	-1742.75	  445.53
      1.1700	   36.00	  565.03	-1742.75	  446.07
      1.2700	   45.00	  565.56	-1742.75	  446.60
      1.3700	   43.00	  566.08	-1742.75	  447.12
      1.4700	   85.00	  566.59	-1742.75	  447.64
      1.5700	  307.00	  567.10	-1742.75	  448.14
      1.6700	  445.00	  567.59	-1742.75	  448.63
      1.7700	  572.00	  568.07	-1742.75	  449.12
      1.8700	  628.00	  568.55	-1742.75	  449.59
      1.9700	  688.00	  569.01	-1742.75	  450.05
      2.0700	  806.00	  569.47	-1742.75	  450.51
      2.1700	  793.00	  569.92	-1742.75	  450.96
      2.2700	  760.00	  570.35	-1742.75	  451.39
      2.3700	  713.00	  570.78	-1742.75	  451.82
      2.4700	  712.00	  571.20	-1742.75	  452.24
      2.5700	  691.00	  571.61	-1742.75	  452.65
      2.6700	  665.00	  572.02	-1742.75	  453.06
      2.7700	  693.00	  572.41	-1742.75	  453.45
      2.8700	  613.00	  572.79	-1742.75	  453.84
      2.9700	  603.00	  573.17	-1742.75	  454.21
      3.0700	  621.00	  573.54	-1742.75	  454.58
      3.1700	  572.00	  573.90	-1742.75	  454.94
      3.2700	  623.00	  574.25	-1742.75	  455.29
      3.3700	  729.00	  574.59	-1742.75	  455.63
      3.4700	  750.00	  574.92	-1742.75	  455.97
      3.5700	  797.00	  575.25	-1742.75	  456.29
      3.6700	  877.00	  575.57	-1742.75	  456.61
      3.7700	  926.00	  575.88	-1742.75	  456.92
      3.8700	  984.00	  576.18	-1742.75	  457.22
      3.9700	 1059.00	  576.47	-1742.75	  457.52
      4.0700	 1009.00	  576.76	-1742.75	  457.80
      4.1700	 1096.00	  577.04	-1742.75	  458.08
      4.2700	 1061.00	  577.31	-1742.75	  458.35
      4.3700	 1125.00	  577.57	-1742.75	  458.61
      4.4700	 1073.00	  577.83	-1742.75	  458.87
      4.5700	  998.00	  578.07	-1742.75	  459.12
      4.6700	 1031.00	  578.31	-1742.75	  459.36
      4.7700	  990.00	  578.55	-1742.75	  459.59
      4.8700	  932.00	  578.77	-1742.75	  459.81
      4.9700	  987.00	  578.99	-1742.75	  460.03
      5.0700	  951.00	  579.20	-1742.75	  460.24
      5.1700	  911.00	  579.40	-1742.75	  460.45
      5.2700	  904.00	  579.60	-1742.75	  460.64
      5.3700	  908.00	  579.79	-1742.75	  460.83
      5.4700	  893.00	  579.97	-1742.75	  461.01
      5.5700	  887.00	  580.15	-1742.75	  461.19
      5.6700	  828.00	  580.31	-1742.75	  461.36
      5.7700	  791.00	  580.48	-1742.75	  461.52
      5.8700	  825.00	  580.63	-1742.75	  461.67
      5.9700	  784.00	  580.78	-1742.75	  461.82
      6.0700	  881.00	  580.92	-1742.75	  461.96
      6.1700	  806.00	  581.05	-1742.75	  462.09
      6.2700	  771.00	  581.18	-1742.75	  462.22
      6.3700	  724.00	  581.30	-1742.75	  462.34
      6.4700	  767.00	  581.42	-1742.75	  462.46
      6.5700	  692.00	  581.52	-1742.75	  462.57
      6.6700	  731.00	  581.63	-1742.75	  462.67
      6.7700	  729.00	  581.72	-1742.75	  462.76
      6.8700	  670.00	  581.81	-1742.75	  462.85
      6.9700	  705.00	  581.89	-1742.75	  462.94
      7.0700	  659.00	  581.97	-1742.75	  463.01
      7.1700	  646.00	  582.04	-1742.75	  463.08
      7.2700	  701.00	  582.11	-1742.75	  463.15
      7.3700	  700.00	  582.17	-1742.75	  463.21
      7.4700	  676.00	  582.22	-1742.75	  463.26
      7.5700	  665.00	  582.27	-1742.75	  463.31
      7.6700	  701.00	  582.31	-1742.75	  463.35
      7.7700	  645.00	  582.34	-1742.75	  463.38
      7.8700	  670.00	  582.37	-1742.75	  463.41
      7.9700	  695.00	  582.40	-1742.75	  463.44
      8.0700	  642.00	  582.41	-1742.75	  463.46
      8.1700	  610.00	  582.43	-1742.75	  463.47
      8.2700	  635.00	  582.43	-1742.75	  463.48
      8.3700	  623.00	  582.44	-1742.75	  463.48
      8.4700	  621.00	  582.43	-1742.75	  463.47
      8.5700	  639.00	  582.42	-1742.75	  463.47
      8.6700	  607.00	  582.41	-1742.75	  463.45
      8.7700	  652.00	  582.39	-1742.75	  463.43
      8.8700	  612.00	  582.37	-1742.75	  463.41
      8.9700	  683.00	  582.34	-1742.75	  463.38
      9.0700	  611.00	  582.30	-1742.75	  463.34
      9.1700	  624.00	  582.26	-1742.75	  463.30
      9.2700	  620.00	  582.22	-1742.75	  463.26
      9.3700	  588.00	  582.17	-1742.75	  463.21
      9.4700	  668.00	  582.11	-1742.75	  463.15
      9.5700	  683.00	  582.05	-1742.75	  463.10
      9.6700	  613.00	  581.99	-1742.75	  463.03
      9.7700	  612.00	  581.92	-1742.75	  462.96
      9.8700	  654.00	  581.85	-1742.75	  462.89
      9.9700	  617.00	  581.77	-1742.75	  462.81
     10.0700	  634.00	  582.45	-1691.20	  462.73
     10.1700	  557.00	  582.44	-1768.19	  462.64
     10.2700	  600.00	  582.45	-1725.20	  462.55
     10.3700	  610.00	  582.48	-1715.23	  462.45
     10.4700	  606.00	  582.57	-1719.32	  462.35
     10.5700	  597.00	  582.77	-1728.52	  462.25
     10.6700	  614.00	  583.17	-1711.92	  462.14
     10.7700	  584.00	  583.87	-1742.62	  462.02
     10.8700	  549.00	  584.93	-1778.68	  461.90
     10.9700	  572.00	  586.35	-1757.10	  461.78
     11.0700	  609.00	  588.09	-1721.84	  461.66
     11.1700	  594.00	  590.15	-1738.90	  461.52
     11.2700	  548.00	  592.57	-1787.32	  461.39
     11.3700	  594.00	  595.42	-1744.17	  461.25
     11.4700	  616.00	  598.82	-1725.57	  461.11
     11.5700	  593.00	  602.98	-1752.73	  460.96
     11.6700	  646.00	  608.22	-1704.97	  460.81
     11.7700	  625.00	  615.15	-1732.90	  460.66
     11.8700	  637.00	  624.62	-1730.37	  460.50
     11.9700	  691.00	  637.18	-1688.93	  460.34
     12.0700	  676.00	  651.16	-1717.91	  460.17
     12.1700	  699.00	  660.56	-1704.31	  460.01
     12.2700	  662.00	  656.33	-1737.08	  459.83
     12.3700	  655.00	  636.52	-1724.27	  459.66
     12.4700	  596.00	  613.28	-1760.03	  459.48
     12.5700	  614.00	  596.59	-1725.34	  459.29
     12.6700	  622.00	  587.60	-1708.35	  459.11
     12.7700	  585.00	  583.49	-1741.24	  458.92
     12.8700	  590.00	  581.58	-1734.33	  458.73
     12.9700	  562.00	  580.48	-1761.23	  458.53
     13.0700	  589.00	  579.70	-1733.45	  458.33
     13.1700	  551.00	  579.08	-1770.83	  458.13
     13.2700	  581.00	  578.57	-1740.32	  457.92
     13.3700	  592.00	  578.12	-1728.87	  457.71
     13.4700	  567.00	  577.72	-1753.47	  457.50
     13.5700	  529.00	  577.36	-1791.11	  457.28
     13.6700	  542.00	  577.02	-1777.77	  457.07
     13.7700	  535.00	  576.70	-1784.45	  456.84
     13.8700	  575.00	  576.39	-1744.14	  456.62
     13.9700	  586.00	  576.09	-1732.84	  456.39
     14.0700	  571.00	  575.80	-1747.55	  456.16
     14.1700	  576.00	  575.52	-1742.27	  455.93
     14.2700	  553.00	  575.24	-1764.99	  455.69
     14.3700	  551.00	  574.96	-1766.71	  455.46
     14.4700	  595.00	  574.69	-1722.44	  455.21
     14.5700	  550.00	  574.42	-1767.17	  454.97
     14.6700	  569.00	  574.14	-1747.89	  454.73
     14.7700	  596.00	  573.87	-1720.62	  454.48
     14.8700	  580.00	  573.60	-1736.35	  454.22
     14.9700	  576.00	  573.33	-1740.08	  453.97
     15.0700	  561.00	  573.05	-1754.80	  453.71
     15.1700	  554.00	  572.78	-1761.53	  453.46
     15.2700	  525.00	  572.51	-1790.26	  453.19
     15.3700	  545.00	  572.23	-1769.98	  452.93
     15.4700	  547.00	  571.95	-1767.70	  452.67
     15.5700	  565.00	  571.67	-1749.42	  452.40
     15.6700	  559.00	  571.39	-1755.14	  452.13
     15.7700	  549.00	  571.11	-1764.86	  451.85
     15.8700	  525.00	  570.83	-1788.58	  451.58
     15.9700	  541.00	  570.55	-1772.30	  451.30
     16.0700	  561.00	  570.26	-1752.01	  451.02
     16.1700	  522.00	  570.00	-1790.75	  450.74
     16.2700	  593.00	  569.71	-1719.46	  450.46
     16.3700	  565.00	  569.42	-1747.17	  450.17
     16.4700	  583.00	  569.13	-1728.88	  449.89
     16.5700	  532.00	  568.84	-1779.59	  449.60
     16.6700	  583.00	  568.54	-1728.29	  449.31
     16.7700	  540.00	  568.25	-1771.00	  449.01
     16.8700	  565.00	  567.95	-1745.70	  448.72
     16.9700	  559.00	  567.65	-1751.40	  448.42
     17.0700	  539.00	  567.35	-1771.10	  448.13
     17.1700	  574.00	  567.05	-1735.80	  447.83
     17.2700	  578.00	  566.75	-1731.50	  447.52
     17.3700	  588.00	  566.44	-1721.19	  447.22
     17.4700	  568.00	  566.13	-1740.88	  446.92
     17.5700	  552.00	  565.83	-1756.58	  446.61
     17.6700	  564.00	  565.52	-1744.27	  446.30
     17.7700	  550.00	  565.21	-1757.96	  445.99
     17.8700	  577.00	  564.90	-1730.65	  445.68
     17.9700	  557.00	  564.58	-1750.33	  445.37
     18.0700	  590.00	  564.36	-1717.11	  445.06
     18.1700	  568.00	  564.05	-1738.80	  444.74
     18.2700	  548.00	  563.74	-1758.49	  444.42
     18.3700	  539.00	  563.42	-1767.17	  444.11
     18.4700	  559.00	  563.10	-1746.85	  443.79
     18.5700	  578.00	  562.79	-1727.54	  443.47
     18.6700	  578.00	  562.47	-1727.22	  443.15
     18.7700	  568.00	  562.15	-1736.90	  442.82
     18.8700	  544.00	  561.83	-1760.58	  442.50
     18.9700	  574.00	  561.60	-1730.35	  442.17
     19.0700	  540.00	  561.28	-1764.03	  441.85
     19.1700	  553.00	  560.96	-1750.71	  441.52
     19.2700	  574.00	  560.64	-1729.39	  441.19
     19.3700	  565.00	  560.31	-1738.06	  440.86
     19.4700	  557.00	  559.99	-1745.74	  440.53
     19.5700	  551.00	  559.67	-1751.42	  440.20
     19.6700	  550.00	  559.34	-1752.09	  439.87
     19.7700	  550.00	  559.02	-1751.77	  439.54
     19.8700	  553.00	  558.69	-1748.44	  439.20
     19.9700	  555.00	  558.36	-1746.11	  438.87
     20.0700	  580.00	  558.04	-1720.79	  438.53
     20.1700	  577.00	  557.71	-1723.46	  438.19
     20.2700	  573.00	  557.38	-1727.13	  437.86
     20.3700	  527.00	  557.06	-1772.81	  437.52
     20.4700	  564.00	  556.73	-1735.48	  437.18
     20.5700	  541.00	  556.40	-1758.15	  436.84
     20.6700	  530.00	  556.05	-1768.80	  436.50
     20.7700	  603.00	  555.72	-1695.47	  436.16
     20.8700	  583.00	  555.43	-1715.18	  435.82
     20.9700	  534.00	  555.10	-1763.85	  435.48
     21.0700	  534.00	  554.78	-1763.53	  435.13
     21.1700	  541.00	  554.46	-1756.21	  434.79
     21.2700	  543.00	  554.13	-1753.88	  434.45
     21.3700	  523.00	  553.81	-1773.56	  434.10
     21.4700	  563.00	  553.49	-1733.24	  433.76
     21.5700	  576.00	  553.17	-1719.92	  433.41
     21.6700	  584.00	  552.85	-1711.60	  433.07
     21.7700	  591.00	  552.53	-1704.28	  432.72
     21.8700	  549.00	  552.21	-1745.96	  432.38
     21.9700	  588.00	  551.90	-1706.65	  432.03
     22.0700	  526.00	  551.59	-1768.34	  431.68
     22.1700	  551.00	  551.28	-1743.03	  431.34
     22.2700	  512.00	  550.97	-1781.72	  430.99
     22.3700	  574.00	  550.67	-1719.42	  430.64
     22.4700	  588.00	  550.38	-1705.13	  430.30
     22.5700	  581.00	  550.08	-1711.83	  429.95
     22.6700	  570.00	  549.80	-1722.55	  429.60
     22.7700	  573.00	  549.52	-1719.27	  429.25
     22.8700	  556.00	  549.25	-1736.00	  428.90
     22.9700	  595.00	  548.99	-1696.74	  428.56
     23.0700	  564.00	  548.75	-1727.50	  428.21
     23.1700	  605.00	  548.52	-1686.27	  427.86
     23.2700	  543.00	  548.31	-1748.06	  427.51
     23.3700	  537.00	  548.13	-1753.88	  427.16
     23.4700	  528.00	  547.99	-1762.74	  426.82
     23.5700	  541.00	  547.90	-1749.65	  426.47
     23.6700	  539.00	  547.88	-1751.63	  426.12
     23.7700	  521.00	  548.11	-1769.86	  425.77
     23.8700	  554.00	  548.45	-1737.20	  425.42
     23.9700	  594.00	  549.27	-1698.02	  425.08
     24.0700	  602.00	  551.02	-1691.77	  424.73
     24.1700	  570.00	  554.40	-1727.15	  424.38
     24.2700	  579.00	  560.27	-1724.02	  424.03
     24.3700	  562.00	  569.62	-1750.37	  423.69
     24.4700	  545.00	  583.46	-1781.21	  423.34
     24.5700	  577.00	  601.84	-1767.59	  422.99
     24.6700	  615.00	  621.47	-1749.22	  422.65
     24.7700	  649.00	  633.98	-1727.73	  422.30
     24.8700	  670.00	  628.96	-1701.71	  421.96
     24.9700	  582.00	  606.66	-1767.41	  421.61
     25.0700	  597.00	  581.24	-1726.99	  421.27
     25.1700	  611.00	  562.75	-1694.50	  420.92
     25.2700	  559.00	  552.50	-1736.25	  420.58
     25.3700	  589.00	  547.69	-1701.44	  420.24
     25.4700	  523.00	  545.48	-1765.23	  419.89
     25.5700	  562.00	  544.27	-1725.02	  419.55
     25.6700	  522.00	  543.47	-1764.22	  419.21
     25.7700	  569.00	  542.87	-1716.62	  418.87
     25.8700	  553.00	  542.42	-1732.17	  418.53
     25.9700	  524.00	  542.07	-1760.82	  418.19
     26.0700	  562.00	  541.80	-1722.55	  417.85
     26.1700	  528.00	  541.61	-1756.36	  417.51
     26.2700	  514.00	  541.50	-1770.25	  417.17
     26.3700	  542.00	  541.46	-1742.21	  416.83
     26.4700	  534.00	  541.51	-1750.26	  416.49
     26.5700	  545.00	  541.65	-1739.40	  416.16
     26.6700	  535.00	  541.90	-1749.65	  415.82
     26.7700	  598.00	  542.28	-1687.03	  415.49
     26.8700	  573.00	  542.83	-1712.58	  415.15
     26.9700	  570.00	  543.59	-1716.34	  414.82
     27.0700	  572.00	  544.64	-1715.39	  414.48
     27.1700	  530.00	  546.11	-1758.86	  414.15
     27.2700	  535.00	  548.23	-1755.98	  413.82
     27.3700	  501.00	  551.48	-1793.23	  413.49
     27.4700	  564.00	  556.79	-1735.54	  413.16
     27.5700	  603.00	  565.82	-1705.57	  412.83
     27.6700	  544.00	  581.19	-1779.94	  412.50
     27.7700	  543.00	  606.30	-1806.05	  412.17
     27.8700	  557.00	  644.07	-1829.82	  411.85
     27.9700	  682.00	  694.62	-1755.37	  411.52
     28.0700	  790.00	  752.19	-1704.94	  411.20
     28.1700	  843.00	  802.46	-1702.21	  410.87
     28.2700	  960.00	  824.17	-1606.92	  410.55
     28.3700	  911.00	  805.60	-1637.35	  410.23
     28.4700	  795.00	  768.39	-1716.14	  409.91
     28.5700	  699.00	  746.49	-1790.24	  409.59
     28.6700	  713.00	  754.80	-1784.55	  409.27
     28.7700	  778.00	  787.35	-1752.10	  408.95
     28.8700	  837.00	  822.12	-1727.87	  408.63
     28.9700	  861.00	  828.22	-1709.97	  408.32
     29.0700	  769.00	  786.73	-1760.48	  408.00
     29.1700	  745.00	  716.42	-1714.17	  407.69
     29.2700	  618.00	  649.78	-1774.53	  407.37
     29.3700	  610.00	  601.99	-1734.74	  407.06
     29.4700	  588.00	  573.31	-1728.06	  406.75
     29.5700	  578.00	  557.91	-1722.66	  406.44
     29.6700	  640.00	  549.83	-1652.58	  406.13
     29.7700	  596.00	  545.26	-1692.01	  405.83
     29.8700	  571.00	  542.41	-1714.16	  405.52
     29.9700	  575.00	  540.57	-1708.32	  405.22
     30.0700	  579.00	  539.57	-1703.32	  404.91
     30.1700	  596.00	  539.55	-1686.30	  404.61
     30.2700	  597.00	  541.03	-1686.78	  404.31
     30.3700	  584.00	  545.03	-1703.78	  404.01
     30.4700	  568.00	  553.09	-1727.84	  403.71
     30.5700	  560.00	  566.80	-1749.55	  403.41
     30.6700	  614.00	  586.58	-1715.33	  403.11
     30.7700	  535.00	  609.85	-1817.60	  402.82
     30.8700	  628.00	  629.87	-1744.62	  402.53
     30.9700	  639.00	  636.46	-1740.21	  402.23
     31.0700	  639.00	  623.03	-1726.78	  401.94
     31.1700	  575.00	  596.65	-1764.40	  401.65
     31.2700	  572.00	  570.50	-1741.25	  401.36
     31.3700	  574.00	  551.31	-1720.06	  401.08
     31.4700	  558.00	  539.70	-1724.45	  400.79
     31.5700	  524.00	  533.50	-1752.25	  400.51
     31.6700	  534.00	  530.30	-1739.05	  400.22
     31.7700	  553.00	  528.52	-1718.27	  399.94
     31.8700	  506.00	  527.39	-1764.14	  399.66
     31.9700	  507.00	  526.59	-1762.34	  399.38
     32.0700	  543.00	  526.03	-1725.78	  399.10
     32.1700	  536.00	  525.64	-1732.39	  398.83
     32.2700	  472.00	  525.41	-1796.16	  398.55
     32.3700	  554.00	  525.33	-1714.08	  398.28
     32.4700	  555.00	  525.40	-1713.15	  398.01
     32.5700	  564.00	  525.63	-1704.38	  397.74
     32.6700	  561.00	  526.07	-1707.82	  397.47
     32.7700	  506.00	  526.74	-1763.49	  397.20
     32.8700	  522.00	  527.73	-1748.48	  396.93
     32.9700	  527.00	  529.14	-1744.89	  396.67
     33.0700	  547.00	  531.19	-1726.94	  396.40
     33.1700	  579.00	  534.37	-1698.12	  396.14
     33.2700	  564.00	  539.72	-1718.47	  395.88
     33.3700	  545.00	  549.58	-1747.33	  395.62
     33.4700	  546.00	  568.38	-1765.13	  395.37
     33.5700	  544.00	  603.06	-1801.81	  395.11
     33.6700	  633.00	  661.48	-1771.23	  394.86
     33.7700	  723.00	  746.79	-1766.54	  394.60
     33.8700	  851.00	  849.18	-1740.93	  394.35
     33.9700	 1033.00	  940.53	-1650.28	  394.10
     34.0700	 1075.00	  978.49	-1646.24	  393.86
     34.1700	 1020.00	  933.50	-1656.25	  393.61
     34.2700	  928.00	  829.40	-1644.15	  393.37
     34.3700	  764.00	  719.31	-1698.06	  393.12
     34.4700	  637.00	  634.83	-1740.58	  392.88
     34.5700	  547.00	  582.04	-1777.79	  392.64
     34.6700	  569.00	  553.57	-1727.32	  392.40
     34.7700	  498.00	  539.28	-1784.03	  392.17
     34.8700	  527.00	  531.79	-1747.54	  391.93
     34.9700	  515.00	  527.30	-1755.05	  391.70
     35.0700	  543.00	  524.19	-1723.94	  391.47
     35.1700	  551.00	  521.85	-1713.60	  391.24
     35.2700	  524.00	  519.98	-1738.73	  391.01
     35.3700	  546.00	  518.46	-1715.21	  390.78
     35.4700	  579.00	  517.20	-1680.95	  390.56
     35.5700	  499.00	  516.14	-1759.89	  390.33
     35.6700	  476.00	  515.22	-1781.97	  390.11
     35.7700	  517.00	  514.42	-1740.17	  389.89
     35.8700	  500.00	  513.72	-1756.47	  389.67
     35.9700	  500.00	  513.10	-1755.85	  389.46
     36.0700	  491.00	  513.01	-1764.76	  389.24
     36.1700	  499.00	  512.51	-1756.26	  389.03
     36.2700	  492.00	  512.07	-1762.82	  388.82
     36.3700	  515.00	  511.66	-1739.41	  388.61
     36.4700	  520.00	  511.29	-1734.04	  388.40
     36.5700	  468.00	  510.97	-1785.72	  388.19
     36.6700	  511.00	  510.68	-1742.43	  387.99
     36.7700	  481.00	  510.44	-1772.19	  387.78
     36.8700	  518.00	  510.28	-1735.03	  387.58
     36.9700	  505.00	  510.26	-1748.01	  387.38
     37.0700	  521.00	  510.52	-1732.27	  387.19
     37.1700	  515.00	  511.34	-1739.09	  386.99
     37.2700	  519.00	  513.10	-1736.85	  386.80
     37.3700	  542.00	  516.11	-1716.86	  386.60
     37.4700	  527.00	  520.29	-1736.04	  386.41
     37.5700	  532.00	  524.76	-1735.51	  386.22
     37.6700	  498.00	  527.86	-1772.61	  386.04
     37.7700	  505.00	  527.91	-1765.66	  385.85
     37.8700	  491.00	  524.86	-1776.61	  385.67
     37.9700	  533.00	  520.48	-1730.23	  385.48
     38.0700	  489.00	  516.28	-1770.03	  385.30
     38.1700	  492.00	  512.84	-1763.59	  385.13
     38.2700	  529.00	  510.28	-1724.03	  384.95
     38.3700	  462.00	  508.52	-1789.27	  384.77
     38.4700	  512.00	  507.37	-1738.12	  384.60
     38.5700	  539.00	  506.61	-1710.36	  384.43
     38.6700	  511.00	  506.02	-1737.77	  384.26
     38.7700	  490.00	  505.67	-1758.42	  384.09
     38.8700	  517.00	  505.39	-1731.14	  383.93
     38.9700	  540.00	  505.15	-1707.90	  383.76
     39.0700	  473.00	  504.93	-1774.68	  383.60
     39.1700	  458.00	  504.74	-1789.49	  383.44
     39.2700	  457.00	  504.47	-1790.22	  383.28
     39.3700	  506.00	  504.30	-1741.05	  383.13
     39.4700	  501.00	  504.14	-1745.89	  382.97
     39.5700	  529.00	  504.12	-1717.87	  382.82
     39.6700	  475.00	  503.99	-1771.74	  382.67
     39.7700	  524.00	  503.86	-1722.61	  382.52
     39.8700	  516.00	  503.74	-1730.49	  382.37
     39.9700	  509.00	  503.63	-1737.38	  382.22
     40.0700	  445.00	  503.53	-1801.28	  382.08
     40.1700	  538.00	  503.44	-1708.19	  381.94
     40.2700	  510.00	  503.36	-1736.11	  381.79
     40.3700	  546.00	  503.30	-1700.05	  381.66
     40.4700	  521.00	  503.24	-1724.99	  381.52
     40.5700	  501.00	  503.20	-1744.95	  381.38
     40.6700	  537.00	  503.18	-1708.93	  381.25
     40.7700	  489.00	  503.17	-1756.92	  381.12
