MSG Master    CELL:    5.91343   5.91343  23.25288   90.0000   90.0000  120.0000   SPGR: P 63/m m c             TEMP:    973.25
  1   1280     2.52000     0.00000    -0.12767     0.00000     0.00000    0
    99     0     2
       0.00000      10.00000
     125.00000     130.00000
 2Theta	Yobs	Ycal	Yobs-Ycal	Backg	Posr	(hkl)	K
      0.7700	    0.00	  502.97	-1715.76	  389.64
      0.8700	    0.00	  504.19	-1715.76	  390.86
      0.9700	   37.00	  505.39	-1715.76	  392.06
      1.0700	   43.00	  506.58	-1715.76	  393.25
      1.1700	   43.00	  507.76	-1715.76	  394.43
      1.2700	   49.00	  508.92	-1715.76	  395.59
      1.3700	   46.00	  510.06	-1715.76	  396.73
      1.4700	  101.00	  511.19	-1715.76	  397.86
      1.5700	  293.00	  512.31	-1715.76	  398.98
      1.6700	  461.00	  513.41	-1715.76	  400.08
      1.7700	  557.00	  514.50	-1715.76	  401.17
      1.8700	  641.00	  515.57	-1715.76	  402.24
      1.9700	  740.00	  516.63	-1715.76	  403.30
      2.0700	  767.00	  517.68	-1715.76	  404.34
      2.1700	  743.00	  518.71	-1715.76	  405.37
      2.2700	  794.00	  519.72	-1715.76	  406.39
      2.3700	  738.00	  520.73	-1715.76	  407.39
      2.4700	  698.00	  521.72	-1715.76	  408.38
      2.5700	  689.00	  522.69	-1715.76	  409.36
      2.6700	  698.00	  523.65	-1715.76	  410.32
      2.7700	  656.00	  524.60	-1715.76	  411.27
      2.8700	  666.00	  525.54	-1715.76	  412.21
      2.9700	  593.00	  526.46	-1715.76	  413.13
      3.0700	  619.00	  527.37	-1715.76	  414.04
      3.1700	  640.00	  528.26	-1715.76	  414.93
      3.2700	  636.00	  529.15	-1715.76	  415.81
      3.3700	  780.00	  530.02	-1715.76	  416.68
      3.4700	  811.00	  530.87	-1715.76	  417.54
      3.5700	  883.00	  531.72	-1715.76	  418.39
      3.6700	  983.00	  532.55	-1715.76	  419.22
      3.7700	 1057.00	  533.37	-1715.76	  420.04
      3.8700	 1102.00	  534.18	-1715.76	  420.84
      3.9700	 1124.00	  534.97	-1715.76	  421.64
      4.0700	 1146.00	  535.75	-1715.76	  422.42
      4.1700	 1174.00	  536.52	-1715.76	  423.19
      4.2700	 1170.00	  537.28	-1715.76	  423.95
      4.3700	 1156.00	  538.02	-1715.76	  424.69
      4.4700	 1188.00	  538.76	-1715.76	  425.43
      4.5700	 1072.00	  539.48	-1715.76	  426.15
      4.6700	 1083.00	  540.19	-1715.76	  426.86
      4.7700	 1087.00	  540.89	-1715.76	  427.56
      4.8700	 1020.00	  541.57	-1715.76	  428.24
      4.9700	 1009.00	  542.25	-1715.76	  428.92
      5.0700	  933.00	  542.91	-1715.76	  429.58
      5.1700	  953.00	  543.57	-1715.76	  430.23
      5.2700	  895.00	  544.21	-1715.76	  430.87
      5.3700	  916.00	  544.84	-1715.76	  431.50
      5.4700	  888.00	  545.45	-1715.76	  432.12
      5.5700	  840.00	  546.06	-1715.76	  432.73
      5.6700	  869.00	  546.66	-1715.76	  433.33
      5.7700	  809.00	  547.24	-1715.76	  433.91
      5.8700	  818.00	  547.82	-1715.76	  434.49
      5.9700	  815.00	  548.38	-1715.76	  435.05
      6.0700	  794.00	  548.94	-1715.76	  435.61
      6.1700	  825.00	  549.48	-1715.76	  436.15
      6.2700	  733.00	  550.01	-1715.76	  436.68
      6.3700	  782.00	  550.54	-1715.76	  437.20
      6.4700	  773.00	  551.05	-1715.76	  437.72
      6.5700	  749.00	  551.55	-1715.76	  438.22
      6.6700	  741.00	  552.04	-1715.76	  438.71
      6.7700	  755.00	  552.52	-1715.76	  439.19
      6.8700	  708.00	  552.99	-1715.76	  439.66
      6.9700	  785.00	  553.46	-1715.76	  440.12
      7.0700	  704.00	  553.91	-1715.76	  440.57
      7.1700	  687.00	  554.35	-1715.76	  441.02
      7.2700	  673.00	  554.78	-1715.76	  441.45
      7.3700	  678.00	  555.20	-1715.76	  441.87
      7.4700	  624.00	  555.62	-1715.76	  442.28
      7.5700	  627.00	  556.02	-1715.76	  442.69
      7.6700	  663.00	  556.41	-1715.76	  443.08
      7.7700	  682.00	  556.80	-1715.76	  443.47
      7.8700	  670.00	  557.18	-1715.76	  443.84
      7.9700	  645.00	  557.54	-1715.76	  444.21
      8.0700	  647.00	  557.90	-1715.76	  444.57
      8.1700	  697.00	  558.25	-1715.76	  444.92
      8.2700	  666.00	  558.59	-1715.76	  445.25
      8.3700	  611.00	  558.92	-1715.76	  445.59
      8.4700	  600.00	  559.24	-1715.76	  445.91
      8.5700	  679.00	  559.55	-1715.76	  446.22
      8.6700	  605.00	  559.86	-1715.76	  446.52
      8.7700	  613.00	  560.15	-1715.76	  446.82
      8.8700	  609.00	  560.44	-1715.76	  447.11
      8.9700	  598.00	  560.72	-1715.76	  447.39
      9.0700	  605.00	  560.99	-1715.76	  447.66
      9.1700	  648.00	  561.25	-1715.76	  447.92
      9.2700	  604.00	  561.50	-1715.76	  448.17
      9.3700	  595.00	  561.75	-1715.76	  448.42
      9.4700	  610.00	  561.99	-1715.76	  448.66
      9.5700	  556.00	  562.22	-1715.76	  448.89
      9.6700	  628.00	  562.44	-1715.76	  449.11
      9.7700	  576.00	  562.65	-1715.76	  449.32
      9.8700	  585.00	  562.86	-1715.76	  449.53
      9.9700	  575.00	  563.06	-1715.76	  449.73
     10.0700	  581.00	  564.58	-1699.34	  449.92
     10.1700	  592.00	  564.91	-1688.67	  450.10
     10.2700	  555.00	  565.26	-1726.02	  450.27
     10.3700	  590.00	  565.66	-1691.42	  450.44
     10.4700	  596.00	  566.14	-1685.89	  450.60
     10.5700	  595.00	  566.74	-1687.50	  450.76
     10.6700	  554.00	  567.57	-1729.33	  450.90
     10.7700	  577.00	  568.71	-1707.46	  451.04
     10.8700	  588.00	  570.23	-1697.98	  451.17
     10.9700	  597.00	  572.14	-1690.90	  451.30
     11.0700	  593.00	  574.44	-1697.20	  451.41
     11.1700	  587.00	  577.13	-1705.88	  451.52
     11.2700	  584.00	  580.24	-1712.00	  451.63
     11.3700	  579.00	  583.86	-1720.62	  451.72
     11.4700	  579.00	  588.12	-1724.87	  451.81
     11.5700	  569.00	  593.23	-1739.99	  451.90
     11.6700	  585.00	  599.54	-1730.30	  451.97
     11.7700	  647.00	  607.54	-1676.30	  452.04
     11.8700	  590.00	  617.73	-1743.49	  452.11
     11.9700	  673.00	  630.00	-1672.76	  452.17
     12.0700	  647.00	  642.55	-1711.31	  452.22
     12.1700	  674.00	  650.89	-1692.64	  452.26
     12.2700	  661.00	  648.41	-1703.17	  452.30
     12.3700	  668.00	  632.66	-1680.41	  452.33
     12.4700	  619.00	  611.70	-1708.46	  452.36
     12.5700	  621.00	  594.31	-1689.07	  452.38
     12.6700	  608.00	  582.97	-1690.73	  452.39
     12.7700	  610.00	  576.58	-1682.34	  452.40
     12.8700	  571.00	  573.21	-1717.97	  452.40
     12.9700	  554.00	  571.36	-1733.12	  452.40
     13.0700	  583.00	  570.21	-1702.96	  452.39
     13.1700	  524.00	  569.41	-1761.16	  452.37
     13.2700	  559.00	  568.80	-1725.56	  452.35
     13.3700	  564.00	  568.33	-1720.08	  452.32
     13.4700	  563.00	  567.95	-1720.70	  452.29
     13.5700	  534.00	  567.63	-1749.38	  452.25
     13.6700	  550.00	  567.36	-1733.11	  452.21
     13.7700	  583.00	  567.12	-1699.88	  452.16
     13.8700	  563.00	  566.91	-1719.67	  452.11
     13.9700	  554.00	  566.72	-1728.48	  452.05
     14.0700	  551.00	  566.54	-1731.30	  451.99
     14.1700	  579.00	  566.38	-1703.13	  451.92
     14.2700	  557.00	  566.22	-1724.98	  451.84
     14.3700	  567.00	  566.07	-1714.83	  451.76
     14.4700	  566.00	  565.92	-1715.68	  451.68
     14.5700	  589.00	  565.78	-1692.53	  451.59
     14.6700	  557.00	  565.63	-1724.39	  451.50
     14.7700	  539.00	  565.52	-1742.28	  451.40
     14.8700	  555.00	  565.38	-1726.14	  451.29
     14.9700	  558.00	  565.24	-1722.99	  451.18
     15.0700	  518.00	  565.09	-1762.85	  451.07
     15.1700	  568.00	  564.95	-1712.70	  450.95
     15.2700	  598.00	  564.80	-1682.56	  450.83
     15.3700	  545.00	  564.65	-1735.41	  450.71
     15.4700	  564.00	  564.50	-1716.26	  450.57
     15.5700	  554.00	  564.35	-1726.10	  450.44
     15.6700	  567.00	  564.19	-1712.95	  450.30
     15.7700	  558.00	  564.03	-1721.79	  450.15
     15.8700	  534.00	  563.87	-1745.62	  450.01
     15.9700	  534.00	  563.70	-1745.46	  449.85
     16.0700	  528.00	  563.53	-1751.29	  449.70
     16.1700	  589.00	  563.36	-1690.12	  449.54
     16.2700	  550.00	  563.19	-1728.94	  449.37
     16.3700	  563.00	  563.01	-1715.77	  449.20
     16.4700	  550.00	  562.83	-1728.59	  449.03
     16.5700	  573.00	  562.64	-1705.40	  448.85
     16.6700	  527.00	  562.46	-1751.21	  448.67
     16.7700	  550.00	  562.27	-1728.02	  448.49
     16.8700	  526.00	  562.07	-1751.83	  448.30
     16.9700	  598.00	  561.88	-1679.63	  448.11
     17.0700	  542.00	  561.68	-1735.43	  447.92
     17.1700	  552.00	  561.47	-1725.23	  447.72
     17.2700	  567.00	  561.27	-1710.02	  447.52
     17.3700	  574.00	  561.06	-1702.81	  447.31
     17.4700	  533.00	  560.84	-1743.60	  447.10
     17.5700	  549.00	  560.63	-1727.39	  446.89
     17.6700	  576.00	  560.41	-1700.17	  446.67
     17.7700	  531.00	  560.19	-1744.95	  446.45
     17.8700	  538.00	  560.07	-1737.82	  446.23
     17.9700	  573.00	  559.84	-1702.60	  446.01
     18.0700	  525.00	  559.61	-1750.37	  445.78
     18.1700	  547.00	  559.38	-1728.14	  445.55
     18.2700	  536.00	  559.15	-1738.91	  445.31
     18.3700	  569.00	  558.91	-1705.67	  445.07
     18.4700	  554.00	  558.76	-1720.52	  444.83
     18.5700	  568.00	  558.52	-1706.28	  444.59
     18.6700	  579.00	  558.28	-1695.03	  444.34
     18.7700	  590.00	  558.03	-1683.79	  444.09
     18.8700	  561.00	  557.79	-1712.54	  443.84
     18.9700	  552.00	  557.54	-1721.29	  443.59
     19.0700	  524.00	  557.28	-1749.04	  443.33
     19.1700	  518.00	  557.03	-1754.79	  443.07
     19.2700	  505.00	  556.77	-1767.53	  442.81
     19.3700	  560.00	  556.52	-1712.27	  442.54
     19.4700	  563.00	  556.25	-1709.01	  442.27
     19.5700	  521.00	  555.99	-1750.75	  442.00
     19.6700	  557.00	  555.73	-1714.48	  441.73
     19.7700	  547.00	  555.46	-1724.22	  441.46
     19.8700	  555.00	  555.19	-1715.95	  441.18
     19.9700	  571.00	  554.92	-1699.68	  440.90
     20.0700	  545.00	  554.65	-1725.41	  440.62
     20.1700	  578.00	  554.38	-1692.14	  440.33
     20.2700	  544.00	  554.14	-1725.89	  440.05
     20.3700	  550.00	  553.86	-1719.62	  439.76
     20.4700	  519.00	  553.59	-1750.34	  439.47
     20.5700	  517.00	  553.31	-1752.06	  439.17
     20.6700	  522.00	  553.03	-1746.79	  438.88
     20.7700	  511.00	  552.75	-1757.51	  438.58
     20.8700	  574.00	  552.47	-1694.22	  438.28
     20.9700	  535.00	  552.19	-1732.94	  437.98
     21.0700	  581.00	  551.90	-1686.66	  437.68
     21.1700	  534.00	  551.62	-1733.38	  437.37
     21.2700	  562.00	  551.34	-1705.10	  437.07
     21.3700	  524.00	  551.06	-1742.81	  436.76
     21.4700	  540.00	  550.77	-1726.53	  436.45
     21.5700	  542.00	  550.49	-1724.25	  436.14
     21.6700	  522.00	  550.21	-1743.97	  435.83
     21.7700	  521.00	  549.93	-1744.68	  435.51
     21.8700	  529.00	  549.65	-1736.41	  435.19
     21.9700	  577.00	  549.37	-1688.13	  434.88
     22.0700	  516.00	  549.05	-1748.81	  434.56
     22.1700	  556.00	  548.78	-1708.54	  434.24
     22.2700	  587.00	  548.51	-1677.27	  433.91
     22.3700	  533.00	  548.25	-1731.00	  433.59
     22.4700	  557.00	  547.99	-1706.74	  433.27
     22.5700	  586.00	  547.73	-1677.49	  432.94
     22.6700	  551.00	  547.48	-1712.24	  432.61
     22.7700	  588.00	  547.24	-1675.00	  432.28
     22.8700	  540.00	  547.17	-1722.92	  431.95
     22.9700	  501.00	  546.95	-1761.71	  431.62
     23.0700	  584.00	  546.76	-1678.52	  431.29
     23.1700	  576.00	  546.59	-1686.34	  430.96
     23.2700	  537.00	  546.44	-1725.20	  430.62
     23.3700	  567.00	  546.33	-1695.08	  430.28
     23.4700	  590.00	  546.26	-1672.02	  429.95
     23.5700	  560.00	  546.26	-1702.02	  429.61
     23.6700	  562.00	  546.35	-1700.11	  429.27
     23.7700	  566.00	  546.59	-1696.35	  428.93
     23.8700	  564.00	  547.09	-1698.84	  428.59
     23.9700	  540.00	  548.03	-1723.79	  428.25
     24.0700	  550.00	  549.76	-1715.52	  427.91
     24.1700	  513.00	  552.80	-1755.56	  427.57
     24.2700	  553.00	  557.80	-1720.55	  427.22
     24.3700	  577.00	  565.42	-1704.18	  426.88
     24.4700	  544.00	  576.11	-1747.86	  426.53
     24.5700	  586.00	  589.53	-1719.29	  426.19
     24.6700	  643.00	  603.64	-1676.40	  425.84
     24.7700	  607.00	  613.87	-1722.62	  425.49
     24.8700	  614.00	  613.83	-1715.59	  425.15
     24.9700	  592.00	  601.19	-1724.95	  424.80
     25.0700	  587.00	  582.93	-1711.69	  424.45
     25.1700	  568.00	  566.92	-1714.68	  424.10
     25.2700	  545.00	  555.91	-1726.66	  423.75
     25.3700	  538.00	  549.38	-1727.14	  423.40
     25.4700	  546.00	  545.80	-1715.55	  423.05
     25.5700	  581.00	  543.79	-1678.55	  422.70
     25.6700	  547.00	  542.55	-1711.31	  422.35
     25.7700	  572.00	  541.68	-1685.44	  422.00
     25.8700	  550.00	  541.04	-1706.80	  421.65
     25.9700	  555.00	  540.55	-1701.31	  421.30
     26.0700	  546.00	  540.18	-1709.94	  420.94
     26.1700	  565.00	  539.90	-1690.66	  420.59
     26.2700	  565.00	  539.72	-1690.48	  420.24
     26.3700	  556.00	  539.63	-1699.38	  419.89
     26.4700	  562.00	  539.63	-1693.38	  419.53
     26.5700	  539.00	  539.73	-1716.49	  419.18
     26.6700	  512.00	  539.95	-1743.70	  418.83
     26.7700	  529.00	  540.31	-1727.06	  418.48
     26.8700	  518.00	  540.84	-1738.59	  418.12
     26.9700	  523.00	  541.58	-1734.34	  417.77
     27.0700	  536.00	  542.62	-1722.38	  417.42
     27.1700	  583.00	  544.07	-1676.82	  417.07
     27.2700	  591.00	  546.14	-1670.90	  416.71
     27.3700	  599.00	  549.26	-1666.02	  416.36
     27.4700	  570.00	  554.26	-1700.02	  416.01
     27.5700	  600.00	  562.65	-1678.40	  415.66
     27.6700	  566.00	  576.84	-1726.59	  415.30
     27.7700	  584.00	  600.13	-1731.88	  414.95
     27.8700	  582.00	  635.69	-1769.45	  414.60
     27.9700	  671.00	  684.49	-1729.25	  414.25
     28.0700	  739.00	  742.36	-1719.11	  413.90
     28.1700	  881.00	  797.20	-1631.96	  413.55
     28.2700	  911.00	  828.69	-1633.45	  413.20
     28.3700	  896.00	  819.12	-1638.88	  412.85
     28.4700	  812.00	  779.41	-1683.16	  412.50
     28.5700	  716.00	  743.21	-1742.97	  412.15
     28.6700	  692.00	  731.34	-1755.09	  411.80
     28.7700	  758.00	  744.11	-1701.86	  411.45
     28.8700	  764.00	  767.14	-1718.90	  411.11
     28.9700	  813.00	  777.14	-1679.90	  410.76
     29.0700	  791.00	  754.05	-1678.81	  410.41
     29.1700	  708.00	  702.69	-1710.45	  410.07
     29.2700	  646.00	  647.21	-1716.97	  409.72
     29.3700	  599.00	  603.45	-1720.20	  409.38
     29.4700	  588.00	  574.65	-1702.41	  409.03
     29.5700	  562.00	  557.85	-1711.61	  408.69
     29.6700	  598.00	  548.56	-1666.32	  408.34
     29.7700	  603.00	  543.29	-1656.04	  408.00
     29.8700	  612.00	  540.06	-1643.81	  407.66
     29.9700	  576.00	  538.02	-1677.78	  407.32
     30.0700	  581.00	  536.80	-1671.56	  406.98
     30.1700	  591.00	  536.48	-1661.23	  406.64
     30.2700	  566.00	  537.37	-1687.12	  406.30
     30.3700	  563.00	  540.16	-1692.92	  405.96
     30.4700	  565.00	  545.89	-1696.65	  405.62
     30.5700	  574.00	  555.69	-1697.44	  405.29
     30.6700	  554.00	  569.94	-1731.69	  404.95
     30.7700	  562.00	  587.26	-1741.02	  404.62
     30.8700	  559.00	  603.60	-1760.36	  404.28
     30.9700	  603.00	  612.21	-1724.97	  403.95
     31.0700	  585.00	  606.77	-1737.53	  403.62
     31.1700	  605.00	  589.01	-1699.77	  403.29
     31.2700	  556.00	  568.14	-1727.90	  402.96
     31.3700	  507.00	  550.90	-1759.65	  402.63
     31.4700	  557.00	  539.15	-1697.91	  402.30
     31.5700	  529.00	  532.13	-1718.88	  401.97
     31.6700	  543.00	  528.22	-1700.97	  401.65
     31.7700	  553.00	  526.02	-1688.78	  401.32
     31.8700	  541.00	  524.69	-1699.45	  401.00
     31.9700	  554.00	  523.82	-1685.58	  400.67
     32.0700	  494.00	  523.23	-1744.99	  400.35
     32.1700	  522.00	  522.85	-1716.61	  400.03
     32.2700	  572.00	  522.66	-1666.42	  399.71
     32.3700	  530.00	  522.64	-1708.40	  399.39
     32.4700	  513.00	  522.81	-1725.57	  399.08
     32.5700	  525.00	  523.18	-1713.93	  398.76
     32.6700	  573.00	  523.78	-1666.54	  398.44
     32.7700	  503.00	  524.67	-1737.43	  398.13
     32.8700	  571.00	  525.94	-1670.70	  397.82
     32.9700	  530.00	  527.71	-1713.47	  397.51
     33.0700	  580.00	  530.23	-1665.99	  397.20
     33.1700	  535.00	  533.99	-1714.74	  396.89
     33.2700	  549.00	  539.98	-1706.74	  396.58
     33.3700	  517.00	  550.25	-1749.01	  396.27
     33.4700	  569.00	  568.43	-1715.19	  395.97
     33.5700	  609.00	  600.00	-1706.75	  395.66
     33.6700	  640.00	  651.16	-1726.92	  395.36
     33.7700	  671.00	  725.08	-1769.84	  395.06
     33.8700	  838.00	  816.05	-1693.81	  394.76
     33.9700	 1005.00	  904.85	-1615.61	  394.46
     34.0700	 1049.00	  958.89	-1625.65	  394.16
     34.1700	 1051.00	  945.76	-1610.52	  393.87
     34.2700	  931.00	  867.75	-1652.51	  393.57
     34.3700	  764.00	  765.98	-1717.74	  393.28
     34.4700	  692.00	  676.23	-1699.99	  392.99
     34.5700	  615.00	  611.90	-1712.65	  392.70
     34.6700	  559.00	  571.86	-1728.61	  392.41
     34.7700	  503.00	  549.16	-1761.92	  392.12
     34.8700	  501.00	  536.62	-1751.37	  391.84
     34.9700	  568.00	  529.27	-1677.02	  391.55
     35.0700	  507.00	  524.46	-1733.22	  391.27
     35.1700	  513.00	  520.95	-1723.71	  390.99
     35.2700	  507.00	  518.25	-1727.01	  390.71
     35.3700	  510.00	  516.09	-1721.84	  390.43
     35.4700	  525.00	  514.30	-1705.06	  390.16
     35.5700	  586.00	  512.81	-1642.56	  389.88
     35.6700	  535.00	  511.53	-1692.29	  389.61
     35.7700	  477.00	  510.43	-1749.19	  389.34
     35.8700	  522.00	  509.93	-1703.69	  389.07
     35.9700	  509.00	  509.09	-1715.85	  388.80
     36.0700	  501.00	  508.34	-1723.10	  388.53
     36.1700	  519.00	  507.68	-1704.43	  388.26
     36.2700	  481.00	  507.08	-1741.83	  388.00
     36.3700	  498.00	  506.54	-1724.29	  387.74
     36.4700	  500.00	  506.05	-1721.81	  387.48
     36.5700	  466.00	  505.64	-1755.40	  387.22
     36.6700	  513.00	  505.27	-1708.03	  386.96
     36.7700	  549.00	  504.97	-1671.73	  386.70
     36.8700	  530.00	  504.77	-1690.52	  386.45
     36.9700	  488.00	  504.73	-1732.49	  386.20
     37.0700	  498.00	  504.99	-1722.74	  385.95
     37.1700	  511.00	  505.74	-1710.49	  385.70
     37.2700	  505.00	  507.25	-1718.00	  385.45
     37.3700	  525.00	  509.73	-1700.49	  385.21
     37.4700	  508.00	  513.14	-1720.90	  384.96
     37.5700	  538.00	  516.93	-1694.68	  384.72
     37.6700	  522.00	  519.91	-1713.67	  384.48
     37.7700	  485.00	  520.61	-1751.37	  384.24
     37.8700	  503.00	  518.30	-1731.06	  384.00
     37.9700	  549.00	  514.02	-1680.78	  383.77
     38.0700	  489.00	  509.51	-1736.26	  383.53
     38.1700	  521.00	  505.78	-1700.54	  383.30
     38.2700	  549.00	  503.12	-1669.88	  383.07
     38.3700	  534.00	  501.56	-1683.32	  382.84
     38.4700	  536.00	  500.48	-1680.24	  382.62
     38.5700	  457.00	  499.77	-1758.53	  382.39
     38.6700	  493.00	  499.26	-1722.02	  382.17
     38.7700	  477.00	  498.86	-1737.61	  381.95
     38.8700	  508.00	  498.50	-1706.26	  381.73
     38.9700	  462.00	  498.09	-1751.85	  381.51
     39.0700	  485.00	  497.81	-1728.57	  381.30
     39.1700	  518.00	  497.55	-1695.30	  381.08
     39.2700	  462.00	  497.30	-1751.06	  380.87
     39.3700	  524.00	  497.07	-1688.83	  380.66
     39.4700	  518.00	  496.85	-1694.61	  380.45
     39.5700	  510.00	  496.65	-1702.41	  380.25
     39.6700	  439.00	  496.46	-1773.22	  380.04
     39.7700	  502.00	  496.20	-1709.96	  379.84
     39.8700	  531.00	  496.03	-1680.79	  379.64
     39.9700	  499.00	  495.88	-1712.63	  379.44
     40.0700	  459.00	  495.73	-1752.49	  379.24
     40.1700	  521.00	  495.60	-1690.36	  379.05
     40.2700	  532.00	  495.48	-1679.24	  378.85
     40.3700	  488.00	  495.38	-1723.14	  378.66
     40.4700	  467.00	  495.29	-1744.05	  378.47
     40.5700	  490.00	  495.23	-1720.98	  378.29
     40.6700	  448.00	  495.18	-1762.93	  378.10
     40.7700	  512.00	  495.15	-1698.91	  377.92
