MSG Master    CELL:    5.89703   5.89703  23.16695   90.0000   90.0000  120.0000   SPGR: P 63/m m c             TEMP:    747.15
  1   1280     2.52000     0.00000    -0.13343     0.00000     0.00000    0
    96     0     2
       0.00000      10.00000
     125.00000     130.00000
 2Theta	Yobs	Ycal	Yobs-Ycal	Backg	Posr	(hkl)	K
      0.7700	    0.00	  468.22	-1796.75	  353.69
      0.8700	    0.00	  470.75	-1796.75	  356.22
      0.9700	   37.00	  473.24	-1796.75	  358.71
      1.0700	   44.00	  475.71	-1796.75	  361.18
      1.1700	   26.00	  478.16	-1796.75	  363.63
      1.2700	   38.00	  480.58	-1796.75	  366.05
      1.3700	   51.00	  482.98	-1796.75	  368.45
      1.4700	  102.00	  485.35	-1796.75	  370.82
      1.5700	  318.00	  487.69	-1796.75	  373.16
      1.6700	  476.00	  490.02	-1796.75	  375.49
      1.7700	  535.00	  492.31	-1796.75	  377.78
      1.8700	  665.00	  494.59	-1796.75	  380.06
      1.9700	  724.00	  496.84	-1796.75	  382.31
      2.0700	  797.00	  499.06	-1796.75	  384.53
      2.1700	  791.00	  501.27	-1796.75	  386.74
      2.2700	  748.00	  503.45	-1796.75	  388.91
      2.3700	  689.00	  505.60	-1796.75	  391.07
      2.4700	  688.00	  507.73	-1796.75	  393.20
      2.5700	  716.00	  509.84	-1796.75	  395.31
      2.6700	  659.00	  511.93	-1796.75	  397.40
      2.7700	  665.00	  513.99	-1796.75	  399.46
      2.8700	  637.00	  516.03	-1796.75	  401.50
      2.9700	  636.00	  518.05	-1796.75	  403.52
      3.0700	  586.00	  520.04	-1796.75	  405.51
      3.1700	  610.00	  522.01	-1796.75	  407.48
      3.2700	  716.00	  523.96	-1796.75	  409.43
      3.3700	  838.00	  525.89	-1796.75	  411.36
      3.4700	  945.00	  527.80	-1796.75	  413.27
      3.5700	 1117.00	  529.68	-1796.75	  415.15
      3.6700	 1269.00	  531.55	-1796.75	  417.02
      3.7700	 1272.00	  533.39	-1796.75	  418.86
      3.8700	 1440.00	  535.21	-1796.75	  420.68
      3.9700	 1466.00	  537.00	-1796.75	  422.47
      4.0700	 1517.00	  538.78	-1796.75	  424.25
      4.1700	 1582.00	  540.54	-1796.75	  426.01
      4.2700	 1554.00	  542.27	-1796.75	  427.74
      4.3700	 1612.00	  543.99	-1796.75	  429.46
      4.4700	 1525.00	  545.68	-1796.75	  431.15
      4.5700	 1460.00	  547.36	-1796.75	  432.83
      4.6700	 1406.00	  549.01	-1796.75	  434.48
      4.7700	 1378.00	  550.64	-1796.75	  436.11
      4.8700	 1358.00	  552.26	-1796.75	  437.73
      4.9700	 1257.00	  553.85	-1796.75	  439.32
      5.0700	 1204.00	  555.42	-1796.75	  440.89
      5.1700	 1203.00	  556.97	-1796.75	  442.44
      5.2700	 1215.00	  558.51	-1796.75	  443.98
      5.3700	 1143.00	  560.02	-1796.75	  445.49
      5.4700	 1055.00	  561.52	-1796.75	  446.99
      5.5700	 1148.00	  562.99	-1796.75	  448.46
      5.6700	 1106.00	  564.45	-1796.75	  449.92
      5.7700	 1070.00	  565.89	-1796.75	  451.36
      5.8700	 1005.00	  567.31	-1796.75	  452.78
      5.9700	 1048.00	  568.71	-1796.75	  454.18
      6.0700	  980.00	  570.09	-1796.75	  455.56
      6.1700	  999.00	  571.45	-1796.75	  456.92
      6.2700	  924.00	  572.80	-1796.75	  458.27
      6.3700	  908.00	  574.12	-1796.75	  459.59
      6.4700	  901.00	  575.43	-1796.75	  460.90
      6.5700	  953.00	  576.72	-1796.75	  462.19
      6.6700	  887.00	  578.00	-1796.75	  463.47
      6.7700	  867.00	  579.25	-1796.75	  464.72
      6.8700	  845.00	  580.49	-1796.75	  465.96
      6.9700	  851.00	  581.71	-1796.75	  467.18
      7.0700	  801.00	  582.91	-1796.75	  468.38
      7.1700	  814.00	  584.10	-1796.75	  469.57
      7.2700	  834.00	  585.26	-1796.75	  470.73
      7.3700	  828.00	  586.41	-1796.75	  471.88
      7.4700	  804.00	  587.55	-1796.75	  473.02
      7.5700	  727.00	  588.67	-1796.75	  474.14
      7.6700	  794.00	  589.77	-1796.75	  475.24
      7.7700	  737.00	  590.85	-1796.75	  476.32
      7.8700	  687.00	  591.92	-1796.75	  477.39
      7.9700	  758.00	  592.97	-1796.75	  478.44
      8.0700	  712.00	  594.00	-1796.75	  479.47
      8.1700	  684.00	  595.02	-1796.75	  480.49
      8.2700	  707.00	  596.03	-1796.75	  481.50
      8.3700	  700.00	  597.01	-1796.75	  482.48
      8.4700	  729.00	  597.98	-1796.75	  483.45
      8.5700	  741.00	  598.94	-1796.75	  484.41
      8.6700	  712.00	  599.88	-1796.75	  485.35
      8.7700	  726.00	  600.81	-1796.75	  486.28
      8.8700	  703.00	  601.72	-1796.75	  487.18
      8.9700	  675.00	  602.61	-1796.75	  488.08
      9.0700	  708.00	  603.49	-1796.75	  488.96
      9.1700	  619.00	  604.35	-1796.75	  489.82
      9.2700	  686.00	  605.20	-1796.75	  490.67
      9.3700	  676.00	  606.04	-1796.75	  491.51
      9.4700	  679.00	  606.86	-1796.75	  492.33
      9.5700	  710.00	  607.66	-1796.75	  493.13
      9.6700	  672.00	  608.45	-1796.75	  493.92
      9.7700	  656.00	  609.23	-1796.75	  494.70
      9.8700	  680.00	  609.99	-1796.75	  495.46
      9.9700	  665.00	  610.74	-1796.75	  496.21
     10.0700	  670.00	  613.35	-1740.10	  496.94
     10.1700	  709.00	  614.29	-1702.04	  497.66
     10.2700	  678.00	  615.26	-1734.01	  498.37
     10.3700	  678.00	  616.29	-1735.04	  499.06
     10.4700	  688.00	  617.41	-1726.16	  499.74
     10.5700	  621.00	  618.67	-1794.42	  500.41
     10.6700	  681.00	  620.16	-1735.91	  501.06
     10.7700	  638.00	  621.98	-1780.73	  501.70
     10.8700	  696.00	  624.21	-1724.96	  502.32
     10.9700	  678.00	  626.91	-1745.66	  502.94
     11.0700	  668.00	  630.09	-1758.84	  503.54
     11.1700	  669.00	  633.75	-1761.50	  504.12
     11.2700	  635.00	  637.94	-1799.69	  504.70
     11.3700	  672.00	  642.72	-1767.47	  505.26
     11.4700	  664.00	  648.24	-1780.99	  505.81
     11.5700	  630.00	  654.71	-1821.46	  506.34
     11.6700	  686.00	  662.44	-1773.19	  506.87
     11.7700	  698.00	  671.83	-1770.58	  507.38
     11.8700	  719.00	  683.19	-1760.94	  507.88
     11.9700	  768.00	  696.33	-1725.08	  508.37
     12.0700	  723.00	  709.84	-1783.59	  508.84
     12.1700	  717.00	  720.37	-1800.12	  509.31
     12.2700	  725.00	  722.45	-1794.20	  509.76
     12.3700	  750.00	  711.73	-1758.48	  510.20
     12.4700	  753.00	  691.90	-1735.65	  510.63
     12.5700	  699.00	  671.87	-1769.62	  511.04
     12.6700	  638.00	  656.58	-1815.33	  511.45
     12.7700	  602.00	  646.56	-1841.31	  511.84
     12.8700	  633.00	  640.60	-1804.35	  512.23
     12.9700	  600.00	  637.23	-1833.98	  512.60
     13.0700	  629.00	  635.31	-1803.06	  512.96
     13.1700	  654.00	  634.15	-1776.90	  513.31
     13.2700	  611.00	  633.41	-1819.16	  513.65
     13.3700	  675.00	  632.93	-1754.68	  513.98
     13.4700	  679.00	  632.62	-1750.37	  514.29
     13.5700	  657.00	  632.46	-1772.21	  514.60
     13.6700	  607.00	  632.35	-1822.10	  514.90
     13.7700	  627.00	  632.30	-1802.05	  515.18
     13.8700	  587.00	  632.30	-1842.05	  515.46
     13.9700	  664.00	  632.34	-1765.09	  515.72
     14.0700	  637.00	  632.39	-1792.15	  515.98
     14.1700	  618.00	  632.47	-1811.22	  516.23
     14.2700	  616.00	  632.56	-1813.31	  516.46
     14.3700	  638.00	  632.66	-1791.41	  516.69
     14.4700	  622.00	  632.77	-1807.52	  516.90
     14.5700	  612.00	  632.88	-1817.63	  517.11
     14.6700	  570.00	  632.99	-1859.74	  517.31
     14.7700	  644.00	  633.10	-1785.85	  517.49
     14.8700	  591.00	  633.21	-1838.96	  517.67
     14.9700	  575.00	  633.32	-1855.07	  517.84
     15.0700	  603.00	  633.43	-1827.18	  518.00
     15.1700	  624.00	  633.53	-1806.28	  518.15
     15.2700	  589.00	  633.63	-1841.38	  518.29
     15.3700	  661.00	  633.72	-1769.47	  518.42
     15.4700	  633.00	  633.81	-1797.56	  518.54
     15.5700	  602.00	  633.89	-1828.64	  518.66
     15.6700	  586.00	  633.96	-1844.71	  518.76
     15.7700	  591.00	  634.03	-1839.78	  518.86
     15.8700	  593.00	  634.10	-1837.85	  518.95
     15.9700	  594.00	  634.15	-1836.90	  519.03
     16.0700	  603.00	  634.20	-1827.95	  519.10
     16.1700	  629.00	  634.25	-1802.00	  519.16
     16.2700	  593.00	  634.28	-1838.03	  519.22
     16.3700	  633.00	  634.31	-1798.06	  519.26
     16.4700	  616.00	  634.34	-1815.09	  519.30
     16.5700	  608.00	  634.35	-1823.10	  519.33
     16.6700	  581.00	  634.36	-1850.11	  519.35
     16.7700	  584.00	  634.37	-1847.12	  519.37
     16.8700	  618.00	  634.36	-1813.11	  519.38
     16.9700	  633.00	  634.35	-1798.10	  519.38
     17.0700	  606.00	  634.33	-1825.08	  519.37
     17.1700	  589.00	  634.31	-1842.06	  519.35
     17.2700	  602.00	  634.28	-1829.03	  519.33
     17.3700	  549.00	  634.37	-1882.12	  519.30
     17.4700	  601.00	  634.33	-1830.08	  519.26
     17.5700	  618.00	  634.28	-1813.03	  519.21
     17.6700	  590.00	  634.23	-1840.98	  519.16
     17.7700	  631.00	  634.16	-1799.91	  519.10
     17.8700	  578.00	  634.25	-1853.00	  519.04
     17.9700	  641.00	  634.18	-1789.93	  518.96
     18.0700	  614.00	  634.10	-1816.85	  518.88
     18.1700	  624.00	  634.02	-1806.77	  518.79
     18.2700	  607.00	  633.93	-1823.68	  518.70
     18.3700	  627.00	  633.83	-1803.58	  518.60
     18.4700	  575.00	  633.73	-1855.48	  518.49
     18.5700	  619.00	  633.62	-1811.37	  518.38
     18.6700	  594.00	  633.51	-1836.26	  518.26
     18.7700	  627.00	  633.39	-1803.14	  518.13
     18.8700	  630.00	  633.26	-1800.01	  518.00
     18.9700	  621.00	  633.13	-1808.88	  517.86
     19.0700	  593.00	  633.00	-1836.75	  517.72
     19.1700	  631.00	  632.85	-1798.60	  517.57
     19.2700	  599.00	  632.71	-1830.46	  517.41
     19.3700	  592.00	  632.55	-1837.30	  517.25
     19.4700	  575.00	  632.45	-1854.20	  517.08
     19.5700	  610.00	  632.28	-1819.03	  516.90
     19.6700	  613.00	  632.12	-1815.87	  516.72
     19.7700	  627.00	  631.95	-1801.70	  516.54
     19.8700	  610.00	  631.77	-1818.52	  516.35
     19.9700	  560.00	  631.59	-1868.34	  516.15
     20.0700	  550.00	  631.40	-1878.15	  515.95
     20.1700	  600.00	  631.21	-1827.96	  515.74
     20.2700	  590.00	  631.02	-1837.77	  515.53
     20.3700	  620.00	  630.82	-1807.57	  515.31
     20.4700	  609.00	  630.62	-1818.37	  515.08
     20.5700	  625.00	  630.41	-1802.17	  514.86
     20.6700	  603.00	  630.21	-1823.96	  514.62
     20.7700	  581.00	  629.99	-1845.74	  514.38
     20.8700	  614.00	  629.78	-1812.53	  514.14
     20.9700	  549.00	  629.56	-1877.31	  513.89
     21.0700	  572.00	  629.33	-1854.08	  513.64
     21.1700	  615.00	  629.11	-1810.86	  513.38
     21.2700	  625.00	  628.88	-1800.63	  513.12
     21.3700	  597.00	  628.65	-1828.40	  512.85
     21.4700	  577.00	  628.42	-1848.17	  512.58
     21.5700	  608.00	  628.19	-1816.94	  512.30
     21.6700	  595.00	  627.95	-1829.70	  512.02
     21.7700	  620.00	  627.72	-1804.47	  511.74
     21.8700	  586.00	  627.48	-1838.23	  511.45
     21.9700	  594.00	  627.24	-1829.99	  511.16
     22.0700	  617.00	  627.16	-1806.91	  510.86
     22.1700	  574.00	  626.93	-1849.68	  510.56
     22.2700	  611.00	  626.70	-1812.45	  510.25
     22.3700	  582.00	  626.47	-1841.22	  509.94
     22.4700	  616.00	  626.25	-1807.00	  509.63
     22.5700	  648.00	  626.04	-1774.79	  509.31
     22.6700	  648.00	  625.83	-1774.58	  508.99
     22.7700	  622.00	  625.63	-1800.38	  508.66
     22.8700	  614.00	  625.44	-1808.19	  508.34
     22.9700	  609.00	  625.27	-1813.02	  508.00
     23.0700	  623.00	  625.11	-1798.86	  507.67
     23.1700	  591.00	  624.98	-1830.73	  507.33
     23.2700	  629.00	  624.88	-1792.63	  506.98
     23.3700	  655.00	  624.77	-1766.52	  506.64
     23.4700	  620.00	  624.76	-1801.51	  506.29
     23.5700	  633.00	  624.82	-1788.57	  505.94
     23.6700	  676.00	  624.97	-1745.72	  505.58
     23.7700	  622.00	  625.26	-1800.01	  505.22
     23.8700	  621.00	  625.78	-1801.53	  504.86
     23.9700	  602.00	  626.65	-1821.40	  504.49
     24.0700	  642.00	  628.13	-1782.88	  504.12
     24.1700	  623.00	  630.57	-1804.32	  503.75
     24.2700	  684.00	  634.50	-1747.25	  503.38
     24.3700	  604.00	  640.52	-1833.27	  503.00
     24.4700	  670.00	  649.08	-1775.83	  502.62
     24.5700	  660.00	  660.22	-1796.97	  502.24
     24.6700	  629.00	  673.13	-1840.88	  501.85
     24.7700	  756.00	  685.58	-1726.33	  501.46
     24.8700	  742.00	  693.43	-1748.18	  501.07
     24.9700	  673.00	  691.78	-1815.53	  500.68
     25.0700	  706.00	  679.80	-1770.55	  500.28
     25.1700	  701.00	  663.43	-1759.18	  499.88
     25.2700	  650.00	  648.72	-1795.47	  499.48
     25.3700	  638.00	  637.88	-1796.63	  499.08
     25.4700	  658.00	  630.79	-1769.54	  498.67
     25.5700	  661.00	  626.46	-1762.21	  498.26
     25.6700	  695.00	  623.84	-1725.59	  497.85
     25.7700	  646.00	  622.20	-1772.95	  497.44
     25.8700	  668.00	  621.10	-1749.85	  497.03
     25.9700	  673.00	  620.33	-1744.08	  496.61
     26.0700	  672.00	  619.77	-1744.52	  496.19
     26.1700	  662.00	  619.38	-1754.13	  495.77
     26.2700	  626.00	  619.15	-1789.90	  495.35
     26.3700	  696.00	  619.04	-1719.79	  494.92
     26.4700	  654.00	  619.08	-1761.83	  494.50
     26.5700	  715.00	  619.25	-1701.00	  494.07
     26.6700	  676.00	  619.59	-1740.34	  493.64
     26.7700	  686.00	  620.11	-1730.86	  493.21
     26.8700	  681.00	  620.85	-1736.60	  492.78
     26.9700	  668.00	  621.86	-1750.61	  492.34
     27.0700	  683.00	  623.22	-1736.97	  491.91
     27.1700	  693.00	  625.05	-1728.80	  491.47
     27.2700	  753.00	  627.55	-1671.30	  491.03
     27.3700	  724.00	  631.07	-1703.82	  490.59
     27.4700	  778.00	  636.31	-1655.06	  490.15
     27.5700	  771.00	  644.52	-1670.27	  489.70
     27.6700	  758.00	  657.81	-1696.56	  489.26
     27.7700	  789.00	  679.35	-1687.10	  488.81
     27.8700	  746.00	  712.97	-1763.72	  488.37
     27.9700	  839.00	  761.53	-1719.28	  487.92
     28.0700	  842.00	  824.40	-1779.15	  487.47
     28.1700	  929.00	  894.59	-1762.34	  487.02
     28.2700	 1051.00	  956.46	-1702.21	  486.57
     28.3700	 1104.00	  987.37	-1680.12	  486.11
     28.4700	 1110.00	  974.80	-1661.55	  485.66
     28.5700	 1017.00	  941.13	-1720.88	  485.21
     28.6700	  948.00	  923.03	-1771.78	  484.75
     28.7700	  944.00	  936.98	-1789.73	  484.30
     28.8700	 1022.00	  976.35	-1751.10	  483.84
     28.9700	  995.00	 1017.15	-1818.90	  483.38
     29.0700	  986.00	 1025.09	-1835.84	  482.92
     29.1700	  989.00	  977.18	-1784.93	  482.46
     29.2700	  954.00	  890.78	-1733.53	  482.00
     29.3700	  838.00	  802.85	-1761.60	  481.54
     29.4700	  836.00	  733.96	-1694.71	  481.08
     29.5700	  808.00	  687.60	-1676.35	  480.62
     29.6700	  703.00	  659.38	-1753.13	  480.16
     29.7700	  742.00	  643.03	-1697.78	  479.70
     29.8700	  742.00	  633.44	-1688.19	  479.23
     29.9700	  726.00	  627.54	-1698.29	  478.77
     30.0700	  690.00	  623.82	-1730.57	  478.31
     30.1700	  766.00	  621.73	-1652.48	  477.84
     30.2700	  708.00	  621.30	-1710.05	  477.38
     30.3700	  675.00	  623.05	-1744.80	  476.92
     30.4700	  691.00	  627.92	-1733.67	  476.45
     30.5700	  671.00	  637.26	-1763.01	  475.99
     30.6700	  639.00	  652.16	-1809.91	  475.52
     30.7700	  687.00	  672.52	-1782.27	  475.06
     30.8700	  740.00	  695.79	-1752.54	  474.59
     30.9700	  712.00	  716.22	-1800.97	  474.13
     31.0700	  773.00	  725.07	-1748.82	  473.66
     31.1700	  713.00	  715.40	-1799.15	  473.20
     31.2700	  637.00	  690.92	-1850.67	  472.73
     31.3700	  674.00	  663.08	-1785.83	  472.27
     31.4700	  675.00	  639.73	-1761.48	  471.80
     31.5700	  661.00	  623.12	-1758.87	  471.34
     31.6700	  600.00	  612.49	-1809.24	  470.87
     31.7700	  597.00	  606.09	-1805.84	  470.41
     31.8700	  623.00	  602.23	-1775.98	  469.94
     31.9700	  633.00	  599.78	-1763.53	  469.48
     32.0700	  602.00	  598.11	-1792.86	  469.02
     32.1700	  637.00	  596.91	-1756.66	  468.55
     32.2700	  602.00	  596.04	-1790.79	  468.09
     32.3700	  635.00	  595.45	-1757.20	  467.63
     32.4700	  662.00	  595.10	-1729.85	  467.16
     32.5700	  607.00	  595.01	-1784.76	  466.70
     32.6700	  595.00	  595.16	-1796.91	  466.24
     32.7700	  585.00	  595.62	-1807.37	  465.78
     32.8700	  591.00	  596.42	-1802.17	  465.32
     32.9700	  645.00	  597.66	-1749.41	  464.86
     33.0700	  620.00	  599.52	-1776.27	  464.40
     33.1700	  606.00	  602.24	-1792.99	  463.95
     33.2700	  608.00	  606.40	-1795.15	  463.49
     33.3700	  629.00	  613.04	-1780.79	  463.03
     33.4700	  663.00	  624.11	-1757.86	  462.57
     33.5700	  645.00	  642.69	-1794.44	  462.12
     33.6700	  649.00	  672.95	-1820.70	  461.66
     33.7700	  661.00	  718.98	-1854.73	  461.21
     33.8700	  744.00	  781.99	-1834.74	  460.76
     33.9700	  884.00	  856.52	-1769.27	  460.31
     34.0700	 1014.00	  927.50	-1710.25	  459.85
     34.1700	 1049.00	  970.35	-1718.10	  459.40
     34.2700	 1063.00	  961.03	-1694.78	  458.95
     34.3700	  951.00	  900.58	-1746.33	  458.51
     34.4700	  846.00	  818.70	-1769.45	  458.06
     34.5700	  735.00	  743.08	-1804.83	  457.61
     34.6700	  687.00	  685.39	-1795.14	  457.17
     34.7700	  609.00	  646.44	-1834.19	  456.72
     34.8700	  649.00	  622.23	-1769.98	  456.28
     34.9700	  606.00	  607.71	-1798.46	  455.84
     35.0700	  606.00	  598.80	-1789.55	  455.39
     35.1700	  588.00	  592.92	-1801.67	  454.95
     35.2700	  565.00	  588.69	-1820.44	  454.51
     35.3700	  603.00	  585.42	-1779.17	  454.08
     35.4700	  594.00	  583.28	-1786.03	  453.64
     35.5700	  547.00	  581.09	-1830.84	  453.20
     35.6700	  508.00	  579.23	-1867.98	  452.77
     35.7700	  577.00	  577.63	-1797.38	  452.34
     35.8700	  579.00	  576.23	-1793.98	  451.91
     35.9700	  585.00	  575.00	-1786.75	  451.48
     36.0700	  529.00	  573.89	-1841.64	  451.05
     36.1700	  574.00	  572.90	-1795.65	  450.62
     36.2700	  515.00	  571.99	-1853.74	  450.19
     36.3700	  567.00	  571.17	-1800.92	  449.77
     36.4700	  549.00	  570.42	-1818.17	  449.34
     36.5700	  539.00	  569.70	-1827.45	  448.92
     36.6700	  552.00	  569.08	-1813.83	  448.50
     36.7700	  526.00	  568.53	-1839.28	  448.08
     36.8700	  570.00	  568.05	-1794.80	  447.66
     36.9700	  560.00	  567.68	-1804.43	  447.25
     37.0700	  570.00	  567.47	-1794.22	  446.83
     37.1700	  569.00	  567.52	-1795.27	  446.42
     37.2700	  551.00	  567.95	-1813.70	  446.01
     37.3700	  539.00	  569.14	-1826.89	  445.60
     37.4700	  552.00	  570.86	-1815.61	  445.19
     37.5700	  536.00	  573.33	-1834.08	  444.78
     37.6700	  547.00	  576.30	-1826.05	  444.38
     37.7700	  543.00	  579.15	-1832.90	  443.98
     37.8700	  568.00	  580.88	-1809.63	  443.57
     37.9700	  588.00	  580.63	-1789.38	  443.17
     38.0700	  574.00	  578.46	-1801.21	  442.78
     38.1700	  548.00	  575.25	-1824.00	  442.38
     38.2700	  526.00	  571.70	-1842.45	  441.98
     38.3700	  557.00	  568.27	-1808.02	  441.59
     38.4700	  607.00	  565.30	-1755.05	  441.20
     38.5700	  518.00	  562.95	-1841.70	  440.81
     38.6700	  582.00	  561.19	-1775.94	  440.42
     38.7700	  560.00	  559.90	-1796.65	  440.03
     38.8700	  523.00	  558.93	-1832.68	  439.65
     38.9700	  562.00	  558.16	-1792.91	  439.27
     39.0700	  518.00	  557.58	-1836.33	  438.89
     39.1700	  471.00	  557.03	-1882.78	  438.51
     39.2700	  560.00	  556.52	-1793.27	  438.13
     39.3700	  528.00	  556.05	-1824.80	  437.76
     39.4700	  554.00	  555.48	-1798.23	  437.38
     39.5700	  506.00	  555.05	-1845.80	  437.01
     39.6700	  506.00	  554.65	-1845.40	  436.64
     39.7700	  561.00	  554.26	-1790.01	  436.28
     39.8700	  565.00	  553.89	-1785.64	  435.91
     39.9700	  536.00	  553.53	-1814.28	  435.55
     40.0700	  539.00	  553.18	-1810.93	  435.19
     40.1700	  502.00	  553.40	-1848.15	  434.83
     40.2700	  553.00	  553.09	-1796.84	  434.47
     40.3700	  523.00	  552.79	-1826.54	  434.11
     40.4700	  597.00	  552.35	-1752.10	  433.76
     40.5700	  550.00	  552.08	-1798.83	  433.41
     40.6700	  523.00	  551.83	-1825.58	  433.06
     40.7700	  515.00	  551.59	-1833.34	  432.71
