MSG Master    CELL:    5.90088   5.90088  23.18003   90.0000   90.0000  120.0000   SPGR: P 63/m m c             TEMP:    786.25
  1   1280     2.52000     0.00000    -0.11764     0.00000     0.00000    0
    98     0     2
       0.00000      10.00000
     125.00000     130.00000
 2Theta	Yobs	Ycal	Yobs-Ycal	Backg	Posr	(hkl)	K
      0.7700	    0.00	  468.10	-1771.50	  367.47
      0.8700	    0.00	  470.20	-1771.50	  369.58
      0.9700	   57.00	  472.29	-1771.50	  371.66
      1.0700	   42.00	  474.35	-1771.50	  373.72
      1.1700	   33.00	  476.39	-1771.50	  375.77
      1.2700	   38.00	  478.41	-1771.50	  377.78
      1.3700	   43.00	  480.41	-1771.50	  379.78
      1.4700	   98.00	  482.38	-1771.50	  381.76
      1.5700	  279.00	  484.34	-1771.50	  383.71
      1.6700	  426.00	  486.27	-1771.50	  385.65
      1.7700	  554.00	  488.19	-1771.50	  387.56
      1.8700	  630.00	  490.08	-1771.50	  389.45
      1.9700	  717.00	  491.95	-1771.50	  391.32
      2.0700	  812.00	  493.80	-1771.50	  393.17
      2.1700	  803.00	  495.63	-1771.50	  395.00
      2.2700	  778.00	  497.43	-1771.50	  396.81
      2.3700	  766.00	  499.22	-1771.50	  398.60
      2.4700	  699.00	  500.99	-1771.50	  400.36
      2.5700	  685.00	  502.74	-1771.50	  402.11
      2.6700	  668.00	  504.47	-1771.50	  403.84
      2.7700	  674.00	  506.17	-1771.50	  405.55
      2.8700	  619.00	  507.86	-1771.50	  407.24
      2.9700	  643.00	  509.53	-1771.50	  408.91
      3.0700	  632.00	  511.18	-1771.50	  410.55
      3.1700	  614.00	  512.81	-1771.50	  412.18
      3.2700	  669.00	  514.42	-1771.50	  413.80
      3.3700	  886.00	  516.01	-1771.50	  415.39
      3.4700	  989.00	  517.59	-1771.50	  416.96
      3.5700	 1065.00	  519.14	-1771.50	  418.51
      3.6700	 1187.00	  520.67	-1771.50	  420.05
      3.7700	 1318.00	  522.19	-1771.50	  421.56
      3.8700	 1312.00	  523.69	-1771.50	  423.06
      3.9700	 1398.00	  525.17	-1771.50	  424.54
      4.0700	 1445.00	  526.63	-1771.50	  426.00
      4.1700	 1457.00	  528.07	-1771.50	  427.45
      4.2700	 1535.00	  529.50	-1771.50	  428.87
      4.3700	 1471.00	  530.90	-1771.50	  430.28
      4.4700	 1405.00	  532.29	-1771.50	  431.67
      4.5700	 1355.00	  533.66	-1771.50	  433.04
      4.6700	 1329.00	  535.02	-1771.50	  434.39
      4.7700	 1252.00	  536.35	-1771.50	  435.73
      4.8700	 1249.00	  537.67	-1771.50	  437.05
      4.9700	 1170.00	  538.98	-1771.50	  438.35
      5.0700	 1206.00	  540.26	-1771.50	  439.63
      5.1700	 1185.00	  541.53	-1771.50	  440.90
      5.2700	 1159.00	  542.78	-1771.50	  442.15
      5.3700	 1055.00	  544.01	-1771.50	  443.38
      5.4700	 1061.00	  545.23	-1771.50	  444.60
      5.5700	 1003.00	  546.43	-1771.50	  445.80
      5.6700	  963.00	  547.61	-1771.50	  446.99
      5.7700	  973.00	  548.78	-1771.50	  448.15
      5.8700	  990.00	  549.93	-1771.50	  449.31
      5.9700	 1003.00	  551.07	-1771.50	  450.44
      6.0700	  921.00	  552.19	-1771.50	  451.56
      6.1700	  893.00	  553.29	-1771.50	  452.66
      6.2700	  953.00	  554.38	-1771.50	  453.75
      6.3700	  834.00	  555.45	-1771.50	  454.82
      6.4700	  895.00	  556.51	-1771.50	  455.88
      6.5700	  877.00	  557.55	-1771.50	  456.92
      6.6700	  835.00	  558.57	-1771.50	  457.95
      6.7700	  819.00	  559.58	-1771.50	  458.96
      6.8700	  840.00	  560.58	-1771.50	  459.95
      6.9700	  819.00	  561.56	-1771.50	  460.93
      7.0700	  801.00	  562.52	-1771.50	  461.90
      7.1700	  815.00	  563.47	-1771.50	  462.85
      7.2700	  755.00	  564.41	-1771.50	  463.78
      7.3700	  749.00	  565.33	-1771.50	  464.70
      7.4700	  740.00	  566.23	-1771.50	  465.61
      7.5700	  718.00	  567.13	-1771.50	  466.50
      7.6700	  704.00	  568.00	-1771.50	  467.38
      7.7700	  706.00	  568.87	-1771.50	  468.24
      7.8700	  743.00	  569.72	-1771.50	  469.09
      7.9700	  690.00	  570.55	-1771.50	  469.92
      8.0700	  690.00	  571.37	-1771.50	  470.74
      8.1700	  716.00	  572.18	-1771.50	  471.55
      8.2700	  680.00	  572.97	-1771.50	  472.35
      8.3700	  664.00	  573.75	-1771.50	  473.12
      8.4700	  719.00	  574.52	-1771.50	  473.89
      8.5700	  687.00	  575.27	-1771.50	  474.64
      8.6700	  684.00	  576.01	-1771.50	  475.38
      8.7700	  649.00	  576.74	-1771.50	  476.11
      8.8700	  683.00	  577.45	-1771.50	  476.82
      8.9700	  651.00	  578.15	-1771.50	  477.52
      9.0700	  620.00	  578.84	-1771.50	  478.21
      9.1700	  686.00	  579.51	-1771.50	  478.88
      9.2700	  670.00	  580.17	-1771.50	  479.55
      9.3700	  649.00	  580.82	-1771.50	  480.20
      9.4700	  635.00	  581.46	-1771.50	  480.83
      9.5700	  637.00	  582.08	-1771.50	  481.46
      9.6700	  665.00	  582.69	-1771.50	  482.07
      9.7700	  644.00	  583.29	-1771.50	  482.67
      9.8700	  607.00	  583.88	-1771.50	  483.25
      9.9700	  619.00	  584.46	-1771.50	  483.83
     10.0700	  658.00	  588.63	-1702.13	  484.39
     10.1700	  626.00	  589.38	-1734.88	  484.94
     10.2700	  614.00	  590.16	-1747.66	  485.48
     10.3700	  603.00	  591.00	-1759.50	  486.01
     10.4700	  642.00	  591.91	-1721.41	  486.53
     10.5700	  600.00	  592.96	-1764.46	  487.03
     10.6700	  651.00	  594.20	-1714.70	  487.52
     10.7700	  594.00	  595.74	-1773.24	  488.01
     10.8700	  625.00	  597.65	-1744.15	  488.48
     10.9700	  644.00	  599.99	-1727.49	  488.94
     11.0700	  603.00	  602.77	-1771.27	  489.38
     11.1700	  640.00	  606.00	-1737.50	  489.82
     11.2700	  639.00	  609.70	-1742.20	  490.25
     11.3700	  643.00	  613.95	-1742.45	  490.66
     11.4700	  594.00	  618.86	-1796.36	  491.07
     11.5700	  671.00	  624.62	-1725.12	  491.46
     11.6700	  618.00	  631.51	-1785.01	  491.85
     11.7700	  625.00	  639.88	-1786.38	  492.22
     11.8700	  679.00	  650.03	-1742.53	  492.58
     11.9700	  721.00	  661.83	-1712.33	  492.93
     12.0700	  727.00	  674.11	-1718.61	  493.28
     12.1700	  768.00	  683.98	-1687.48	  493.61
     12.2700	  739.00	  686.62	-1719.12	  493.93
     12.3700	  725.00	  677.77	-1724.27	  494.24
     12.4700	  672.00	  660.03	-1759.53	  494.55
     12.5700	  647.00	  641.46	-1765.96	  494.84
     12.6700	  636.00	  626.97	-1762.47	  495.12
     12.7700	  624.00	  617.31	-1764.81	  495.39
     12.8700	  572.00	  611.47	-1810.97	  495.66
     12.9700	  626.00	  608.11	-1753.61	  495.91
     13.0700	  595.00	  606.15	-1782.65	  496.16
     13.1700	  593.00	  604.94	-1783.44	  496.39
     13.2700	  588.00	  604.15	-1787.65	  496.62
     13.3700	  553.00	  603.60	-1822.10	  496.84
     13.4700	  583.00	  603.25	-1791.75	  497.05
     13.5700	  593.00	  602.98	-1781.48	  497.24
     13.6700	  614.00	  602.79	-1760.29	  497.44
     13.7700	  595.00	  602.66	-1779.16	  497.62
     13.8700	  604.00	  602.58	-1770.08	  497.79
     13.9700	  583.00	  602.53	-1791.03	  497.95
     14.0700	  588.00	  602.50	-1786.00	  498.11
     14.1700	  547.00	  602.49	-1826.99	  498.26
     14.2700	  587.00	  602.50	-1787.00	  498.40
     14.3700	  556.00	  602.52	-1818.02	  498.53
     14.4700	  585.00	  602.54	-1789.04	  498.65
     14.5700	  617.00	  602.57	-1757.07	  498.76
     14.6700	  547.00	  602.60	-1827.10	  498.87
     14.7700	  577.00	  602.63	-1797.13	  498.97
     14.8700	  583.00	  602.66	-1791.16	  499.06
     14.9700	  586.00	  602.69	-1788.19	  499.14
     15.0700	  578.00	  602.71	-1796.21	  499.22
     15.1700	  605.00	  602.74	-1769.24	  499.28
     15.2700	  591.00	  602.76	-1783.26	  499.34
     15.3700	  588.00	  602.78	-1786.28	  499.39
     15.4700	  587.00	  602.79	-1787.29	  499.44
     15.5700	  597.00	  602.80	-1777.30	  499.47
     15.6700	  607.00	  602.81	-1767.31	  499.50
     15.7700	  555.00	  602.81	-1819.31	  499.53
     15.8700	  575.00	  602.80	-1799.30	  499.54
     15.9700	  573.00	  602.79	-1801.29	  499.55
     16.0700	  546.00	  602.78	-1828.28	  499.55
     16.1700	  550.00	  602.76	-1824.26	  499.54
     16.2700	  598.00	  602.73	-1776.23	  499.53
     16.3700	  593.00	  602.70	-1781.20	  499.51
     16.4700	  605.00	  602.66	-1769.16	  499.48
     16.5700	  523.00	  602.62	-1851.12	  499.45
     16.6700	  543.00	  602.57	-1831.07	  499.41
     16.7700	  635.00	  602.51	-1739.01	  499.36
     16.8700	  587.00	  602.45	-1786.95	  499.31
     16.9700	  596.00	  602.39	-1777.89	  499.25
     17.0700	  628.00	  602.32	-1745.82	  499.18
     17.1700	  548.00	  602.24	-1825.74	  499.11
     17.2700	  607.00	  602.16	-1766.66	  499.03
     17.3700	  619.00	  602.19	-1754.69	  498.95
     17.4700	  611.00	  602.10	-1762.60	  498.86
     17.5700	  560.00	  602.00	-1813.50	  498.76
     17.6700	  570.00	  601.90	-1803.40	  498.66
     17.7700	  577.00	  601.79	-1796.29	  498.55
     17.8700	  611.00	  601.79	-1762.29	  498.44
     17.9700	  592.00	  601.68	-1781.18	  498.32
     18.0700	  574.00	  601.56	-1799.06	  498.19
     18.1700	  590.00	  601.43	-1782.93	  498.06
     18.2700	  570.00	  601.30	-1802.80	  497.92
     18.3700	  627.00	  601.16	-1745.66	  497.78
     18.4700	  578.00	  601.02	-1794.52	  497.63
     18.5700	  593.00	  600.88	-1779.38	  497.48
     18.6700	  562.00	  600.73	-1810.23	  497.32
     18.7700	  596.00	  600.57	-1776.07	  497.15
     18.8700	  570.00	  600.41	-1801.91	  496.99
     18.9700	  601.00	  600.25	-1770.75	  496.81
     19.0700	  604.00	  600.08	-1767.58	  496.63
     19.1700	  593.00	  599.91	-1778.41	  496.45
     19.2700	  590.00	  599.73	-1781.23	  496.26
     19.3700	  567.00	  599.55	-1804.05	  496.06
     19.4700	  565.00	  599.41	-1805.91	  495.87
     19.5700	  602.00	  599.22	-1768.72	  495.66
     19.6700	  566.00	  599.03	-1804.53	  495.45
     19.7700	  592.00	  598.83	-1778.33	  495.24
     19.8700	  592.00	  598.63	-1778.13	  495.02
     19.9700	  595.00	  598.43	-1774.93	  494.80
     20.0700	  600.00	  598.22	-1769.72	  494.58
     20.1700	  594.00	  598.01	-1775.51	  494.34
     20.2700	  531.00	  597.79	-1838.29	  494.11
     20.3700	  551.00	  597.57	-1818.07	  493.87
     20.4700	  574.00	  597.35	-1794.85	  493.63
     20.5700	  532.00	  597.13	-1836.63	  493.38
     20.6700	  555.00	  596.90	-1813.40	  493.13
     20.7700	  593.00	  596.67	-1775.17	  492.87
     20.8700	  565.00	  596.44	-1802.94	  492.61
     20.9700	  555.00	  596.20	-1812.70	  492.35
     21.0700	  583.00	  595.97	-1784.47	  492.08
     21.1700	  589.00	  595.73	-1778.23	  491.81
     21.2700	  592.00	  595.49	-1774.99	  491.53
     21.3700	  609.00	  595.25	-1757.75	  491.25
     21.4700	  598.00	  595.00	-1768.50	  490.97
     21.5700	  524.00	  594.76	-1842.26	  490.68
     21.6700	  614.00	  594.51	-1752.01	  490.39
     21.7700	  558.00	  594.27	-1807.77	  490.10
     21.8700	  569.00	  594.02	-1796.52	  489.80
     21.9700	  610.00	  593.94	-1755.44	  489.50
     22.0700	  582.00	  593.70	-1783.20	  489.20
     22.1700	  552.00	  593.46	-1812.96	  488.89
     22.2700	  569.00	  593.22	-1795.72	  488.58
     22.3700	  588.00	  592.99	-1776.49	  488.27
     22.4700	  624.00	  592.76	-1740.26	  487.95
     22.5700	  573.00	  592.54	-1791.04	  487.63
     22.6700	  610.00	  592.32	-1753.82	  487.31
     22.7700	  596.00	  592.12	-1767.62	  486.98
     22.8700	  576.00	  591.92	-1787.42	  486.65
     22.9700	  648.00	  591.74	-1715.24	  486.32
     23.0700	  558.00	  591.58	-1805.08	  485.99
     23.1700	  584.00	  591.44	-1778.94	  485.65
     23.2700	  635.00	  591.32	-1727.82	  485.31
     23.3700	  567.00	  591.25	-1795.75	  484.97
     23.4700	  580.00	  591.18	-1782.68	  484.62
     23.5700	  603.00	  591.21	-1759.71	  484.27
     23.6700	  559.00	  591.34	-1803.84	  483.92
     23.7700	  589.00	  591.61	-1774.11	  483.57
     23.8700	  566.00	  592.08	-1797.58	  483.22
     23.9700	  623.00	  592.88	-1741.38	  482.86
     24.0700	  596.00	  594.25	-1769.75	  482.50
     24.1700	  580.00	  596.52	-1788.02	  482.14
     24.2700	  618.00	  600.18	-1753.68	  481.77
     24.3700	  610.00	  605.78	-1767.28	  481.40
     24.4700	  636.00	  613.75	-1749.25	  481.03
     24.5700	  673.00	  624.11	-1722.61	  480.66
     24.6700	  629.00	  636.12	-1778.62	  480.29
     24.7700	  655.00	  647.70	-1764.20	  479.91
     24.8700	  726.00	  655.06	-1700.56	  479.54
     24.9700	  654.00	  653.63	-1771.13	  479.16
     25.0700	  648.00	  642.58	-1766.08	  478.78
     25.1700	  637.00	  627.34	-1761.84	  478.39
     25.2700	  630.00	  613.55	-1755.05	  478.01
     25.3700	  632.00	  603.35	-1742.85	  477.62
     25.4700	  635.00	  596.62	-1733.12	  477.23
     25.5700	  641.00	  592.48	-1722.98	  476.84
     25.6700	  626.00	  589.96	-1735.46	  476.45
     25.7700	  624.00	  588.37	-1735.87	  476.06
     25.8700	  617.00	  587.29	-1741.79	  475.66
     25.9700	  616.00	  586.51	-1742.01	  475.27
     26.0700	  634.00	  585.94	-1723.44	  474.87
     26.1700	  589.00	  585.53	-1768.03	  474.47
     26.2700	  638.00	  585.26	-1718.76	  474.07
     26.3700	  575.00	  585.10	-1781.60	  473.67
     26.4700	  614.00	  585.07	-1742.57	  473.26
     26.5700	  636.00	  585.17	-1720.67	  472.86
     26.6700	  632.00	  585.40	-1724.90	  472.45
     26.7700	  637.00	  585.80	-1720.30	  472.05
     26.8700	  656.00	  586.39	-1701.89	  471.64
     26.9700	  650.00	  587.22	-1708.72	  471.23
     27.0700	  609.00	  588.35	-1750.85	  470.82
     27.1700	  669.00	  589.90	-1692.40	  470.41
     27.2700	  637.00	  592.03	-1726.53	  469.99
     27.3700	  641.00	  595.09	-1725.59	  469.58
     27.4700	  649.00	  599.68	-1722.18	  469.16
     27.5700	  656.00	  606.96	-1722.46	  468.75
     27.6700	  712.00	  618.84	-1678.34	  468.33
     27.7700	  668.00	  638.20	-1741.70	  467.92
     27.8700	  710.00	  668.46	-1729.96	  467.50
     27.9700	  694.00	  712.11	-1789.61	  467.08
     28.0700	  752.00	  768.37	-1787.87	  466.66
     28.1700	  817.00	  830.57	-1785.07	  466.24
     28.2700	  962.00	  884.10	-1693.60	  465.82
     28.3700	 1025.00	  908.03	-1654.53	  465.40
     28.4700	  945.00	  891.21	-1717.71	  464.97
     28.5700	  827.00	  854.06	-1798.56	  464.55
     28.6700	  864.00	  828.85	-1736.35	  464.13
     28.7700	  747.00	  829.91	-1854.41	  463.71
     28.8700	  851.00	  852.31	-1772.81	  463.28
     28.9700	  851.00	  877.60	-1798.10	  462.86
     29.0700	  916.00	  879.82	-1735.32	  462.43
     29.1700	  879.00	  842.51	-1735.01	  462.01
     29.2700	  780.00	  778.81	-1770.31	  461.58
     29.3700	  724.00	  715.09	-1762.59	  461.16
     29.4700	  731.00	  665.54	-1706.04	  460.73
     29.5700	  681.00	  632.32	-1722.82	  460.30
     29.6700	  683.00	  612.11	-1700.61	  459.88
     29.7700	  639.00	  600.39	-1732.89	  459.45
     29.8700	  678.00	  593.52	-1687.02	  459.02
     29.9700	  672.00	  589.33	-1688.83	  458.60
     30.0700	  692.00	  586.79	-1666.29	  458.17
     30.1700	  629.00	  585.56	-1728.06	  457.74
     30.2700	  653.00	  585.78	-1704.28	  457.32
     30.3700	  630.00	  587.98	-1729.48	  456.89
     30.4700	  642.00	  593.12	-1722.62	  456.46
     30.5700	  688.00	  602.48	-1685.98	  456.04
     30.6700	  639.00	  617.07	-1749.57	  455.61
     30.7700	  640.00	  636.71	-1768.21	  455.18
     30.8700	  667.00	  658.88	-1763.38	  454.76
     30.9700	  673.00	  677.99	-1776.49	  454.33
     31.0700	  710.00	  685.76	-1747.26	  453.91
     31.1700	  692.00	  675.94	-1755.44	  453.48
     31.2700	  642.00	  652.57	-1782.07	  453.06
     31.3700	  622.00	  626.52	-1776.02	  452.63
     31.4700	  677.00	  604.89	-1699.39	  452.21
     31.5700	  609.00	  589.61	-1752.11	  451.78
     31.6700	  585.00	  579.90	-1766.40	  451.36
     31.7700	  596.00	  574.10	-1749.60	  450.93
     31.8700	  600.00	  570.64	-1742.14	  450.51
     31.9700	  598.00	  568.48	-1741.98	  450.09
     32.0700	  629.00	  567.04	-1709.54	  449.67
     32.1700	  569.00	  566.05	-1768.55	  449.25
     32.2700	  605.00	  565.38	-1731.88	  448.82
     32.3700	  604.00	  564.98	-1732.48	  448.40
     32.4700	  602.00	  564.83	-1734.33	  447.98
     32.5700	  616.00	  564.93	-1720.43	  447.57
     32.6700	  571.00	  565.30	-1765.80	  447.15
     32.7700	  563.00	  565.99	-1774.49	  446.73
     32.8700	  572.00	  567.05	-1766.55	  446.31
     32.9700	  535.00	  568.59	-1805.09	  445.90
     33.0700	  598.00	  570.83	-1744.33	  445.48
     33.1700	  504.00	  574.03	-1841.53	  445.07
     33.2700	  545.00	  578.84	-1805.34	  444.65
     33.3700	  576.00	  586.48	-1781.98	  444.24
     33.4700	  625.00	  599.12	-1745.62	  443.83
     33.5700	  627.00	  620.20	-1764.70	  443.41
     33.6700	  663.00	  654.28	-1762.78	  443.00
     33.7700	  742.00	  705.69	-1735.19	  442.59
     33.8700	  728.00	  775.36	-1818.86	  442.18
     33.9700	  875.00	  856.74	-1753.24	  441.78
     34.0700	  932.00	  932.76	-1772.26	  441.37
     34.1700	 1095.00	  976.30	-1652.80	  440.96
     34.2700	 1045.00	  962.23	-1688.73	  440.56
     34.3700	  970.00	  894.13	-1695.63	  440.16
     34.4700	  816.00	  805.10	-1760.60	  439.75
     34.5700	  747.00	  724.15	-1748.65	  439.35
     34.6700	  626.00	  662.91	-1808.41	  438.95
     34.7700	  634.00	  621.80	-1759.30	  438.55
     34.8700	  603.00	  596.34	-1764.84	  438.15
     34.9700	  568.00	  581.09	-1784.59	  437.76
     35.0700	  582.00	  571.73	-1761.23	  437.36
     35.1700	  558.00	  565.55	-1779.05	  436.96
     35.2700	  582.00	  561.11	-1750.61	  436.57
     35.3700	  548.00	  557.69	-1781.19	  436.18
     35.4700	  532.00	  555.42	-1794.92	  435.79
     35.5700	  587.00	  553.15	-1737.65	  435.40
     35.6700	  568.00	  551.24	-1754.74	  435.01
     35.7700	  556.00	  549.60	-1765.10	  434.62
     35.8700	  541.00	  548.18	-1778.68	  434.23
     35.9700	  538.00	  546.93	-1780.43	  433.85
     36.0700	  540.00	  545.82	-1777.32	  433.47
     36.1700	  559.00	  544.83	-1757.33	  433.08
     36.2700	  528.00	  543.94	-1787.44	  432.70
     36.3700	  569.00	  543.14	-1745.64	  432.32
     36.4700	  541.00	  542.41	-1772.91	  431.95
     36.5700	  518.00	  541.71	-1795.21	  431.57
     36.6700	  522.00	  541.12	-1790.62	  431.20
     36.7700	  455.00	  540.60	-1857.09	  430.82
     36.8700	  557.00	  540.15	-1754.65	  430.45
     36.9700	  499.00	  539.81	-1812.31	  430.08
     37.0700	  483.00	  539.64	-1828.14	  429.71
     37.1700	  509.00	  539.71	-1802.21	  429.34
     37.2700	  535.00	  540.36	-1776.86	  428.98
     37.3700	  523.00	  541.37	-1789.87	  428.61
     37.4700	  567.00	  543.06	-1747.56	  428.25
     37.5700	  529.00	  545.43	-1787.93	  427.89
     37.6700	  551.00	  548.22	-1768.72	  427.53
     37.7700	  536.00	  550.77	-1786.27	  427.17
     37.8700	  550.00	  552.13	-1773.63	  426.81
     37.9700	  576.00	  551.52	-1747.02	  426.46
     38.0700	  510.00	  549.12	-1810.62	  426.11
     38.1700	  501.00	  545.87	-1816.37	  425.75
     38.2700	  542.00	  542.52	-1772.02	  425.40
     38.3700	  519.00	  539.46	-1791.96	  425.06
     38.4700	  494.00	  536.94	-1814.44	  424.71
     38.5700	  518.00	  535.02	-1788.52	  424.37
     38.6700	  502.00	  533.61	-1803.11	  424.02
     38.7700	  536.00	  532.57	-1768.07	  423.68
     38.8700	  508.00	  531.78	-1795.28	  423.34
     38.9700	  552.00	  531.15	-1750.65	  423.00
     39.0700	  463.00	  530.62	-1839.12	  422.67
     39.1700	  526.00	  530.15	-1775.65	  422.33
     39.2700	  524.00	  529.72	-1777.22	  422.00
     39.3700	  496.00	  529.33	-1804.83	  421.67
     39.4700	  555.00	  528.95	-1745.45	  421.34
     39.5700	  551.00	  528.48	-1748.98	  421.01
     39.6700	  523.00	  528.20	-1776.70	  420.69
     39.7700	  503.00	  527.88	-1796.38	  420.37
     39.8700	  541.00	  527.57	-1758.07	  420.04
     39.9700	  552.00	  527.28	-1746.78	  419.72
     40.0700	  564.00	  527.54	-1735.04	  419.41
     40.1700	  503.00	  527.28	-1795.78	  419.09
     40.2700	  535.00	  527.03	-1763.53	  418.78
     40.3700	  483.00	  526.81	-1815.31	  418.46
     40.4700	  507.00	  526.48	-1790.98	  418.15
     40.5700	  524.00	  526.29	-1773.79	  417.85
     40.6700	  549.00	  526.12	-1748.62	  417.54
     40.7700	  523.00	  525.96	-1774.46	  417.23
