MSG Master    CELL:    5.91950   5.91950  23.27972   90.0000   90.0000  120.0000   SPGR: P 63/m m c             TEMP:   1074.85
  1   1280     2.52000     0.00000    -0.12737     0.00000     0.00000    0
    99     0     2
       0.00000      10.00000
     125.00000     130.00000
 2Theta	Yobs	Ycal	Yobs-Ycal	Backg	Posr	(hkl)	K
      0.7700	    0.00	  548.64	-1749.00	  430.01
      0.8700	    0.00	  549.25	-1749.00	  430.61
      0.9700	   35.00	  549.84	-1749.00	  431.21
      1.0700	   31.00	  550.43	-1749.00	  431.80
      1.1700	   55.00	  551.01	-1749.00	  432.38
      1.2700	   45.00	  551.58	-1749.00	  432.94
      1.3700	   48.00	  552.14	-1749.00	  433.50
      1.4700	   98.00	  552.69	-1749.00	  434.05
      1.5700	  308.00	  553.23	-1749.00	  434.59
      1.6700	  479.00	  553.76	-1749.00	  435.13
      1.7700	  547.00	  554.28	-1749.00	  435.65
      1.8700	  610.00	  554.80	-1749.00	  436.16
      1.9700	  713.00	  555.30	-1749.00	  436.67
      2.0700	  785.00	  555.80	-1749.00	  437.16
      2.1700	  739.00	  556.28	-1749.00	  437.65
      2.2700	  743.00	  556.76	-1749.00	  438.13
      2.3700	  730.00	  557.23	-1749.00	  438.59
      2.4700	  753.00	  557.69	-1749.00	  439.05
      2.5700	  662.00	  558.14	-1749.00	  439.51
      2.6700	  670.00	  558.58	-1749.00	  439.95
      2.7700	  669.00	  559.02	-1749.00	  440.38
      2.8700	  656.00	  559.44	-1749.00	  440.81
      2.9700	  615.00	  559.86	-1749.00	  441.23
      3.0700	  615.00	  560.27	-1749.00	  441.64
      3.1700	  576.00	  560.67	-1749.00	  442.04
      3.2700	  577.00	  561.07	-1749.00	  442.43
      3.3700	  671.00	  561.45	-1749.00	  442.82
      3.4700	  746.00	  561.83	-1749.00	  443.19
      3.5700	  872.00	  562.20	-1749.00	  443.56
      3.6700	  864.00	  562.56	-1749.00	  443.92
      3.7700	  931.00	  562.91	-1749.00	  444.27
      3.8700	  955.00	  563.25	-1749.00	  444.62
      3.9700	 1007.00	  563.59	-1749.00	  444.96
      4.0700	 1075.00	  563.92	-1749.00	  445.29
      4.1700	 1011.00	  564.24	-1749.00	  445.61
      4.2700	 1109.00	  564.56	-1749.00	  445.92
      4.3700	 1097.00	  564.86	-1749.00	  446.23
      4.4700	 1103.00	  565.16	-1749.00	  446.53
      4.5700	 1079.00	  565.45	-1749.00	  446.82
      4.6700	  972.00	  565.74	-1749.00	  447.10
      4.7700	  969.00	  566.02	-1749.00	  447.38
      4.8700	  947.00	  566.28	-1749.00	  447.65
      4.9700	  919.00	  566.55	-1749.00	  447.91
      5.0700	  945.00	  566.80	-1749.00	  448.17
      5.1700	  925.00	  567.05	-1749.00	  448.42
      5.2700	  895.00	  567.29	-1749.00	  448.66
      5.3700	  861.00	  567.53	-1749.00	  448.89
      5.4700	  868.00	  567.75	-1749.00	  449.12
      5.5700	  821.00	  567.97	-1749.00	  449.34
      5.6700	  844.00	  568.19	-1749.00	  449.55
      5.7700	  804.00	  568.40	-1749.00	  449.76
      5.8700	  822.00	  568.60	-1749.00	  449.96
      5.9700	  787.00	  568.79	-1749.00	  450.15
      6.0700	  830.00	  568.98	-1749.00	  450.34
      6.1700	  785.00	  569.16	-1749.00	  450.52
      6.2700	  790.00	  569.33	-1749.00	  450.70
      6.3700	  745.00	  569.50	-1749.00	  450.86
      6.4700	  759.00	  569.66	-1749.00	  451.02
      6.5700	  749.00	  569.81	-1749.00	  451.18
      6.6700	  727.00	  569.96	-1749.00	  451.33
      6.7700	  759.00	  570.10	-1749.00	  451.47
      6.8700	  742.00	  570.24	-1749.00	  451.61
      6.9700	  760.00	  570.37	-1749.00	  451.74
      7.0700	  681.00	  570.49	-1749.00	  451.86
      7.1700	  675.00	  570.61	-1749.00	  451.98
      7.2700	  686.00	  570.72	-1749.00	  452.09
      7.3700	  637.00	  570.83	-1749.00	  452.20
      7.4700	  691.00	  570.93	-1749.00	  452.30
      7.5700	  698.00	  571.03	-1749.00	  452.39
      7.6700	  632.00	  571.11	-1749.00	  452.48
      7.7700	  671.00	  571.20	-1749.00	  452.56
      7.8700	  640.00	  571.27	-1749.00	  452.64
      7.9700	  652.00	  571.35	-1749.00	  452.71
      8.0700	  613.00	  571.41	-1749.00	  452.78
      8.1700	  625.00	  571.47	-1749.00	  452.84
      8.2700	  684.00	  571.53	-1749.00	  452.89
      8.3700	  635.00	  571.58	-1749.00	  452.94
      8.4700	  599.00	  571.62	-1749.00	  452.99
      8.5700	  622.00	  571.66	-1749.00	  453.03
      8.6700	  654.00	  571.70	-1749.00	  453.06
      8.7700	  622.00	  571.72	-1749.00	  453.09
      8.8700	  606.00	  571.75	-1749.00	  453.11
      8.9700	  619.00	  571.77	-1749.00	  453.13
      9.0700	  650.00	  571.78	-1749.00	  453.14
      9.1700	  586.00	  571.79	-1749.00	  453.15
      9.2700	  646.00	  571.79	-1749.00	  453.16
      9.3700	  622.00	  571.79	-1749.00	  453.16
      9.4700	  579.00	  571.78	-1749.00	  453.15
      9.5700	  616.00	  571.77	-1749.00	  453.14
      9.6700	  607.00	  571.76	-1749.00	  453.12
      9.7700	  661.00	  571.74	-1749.00	  453.10
      9.8700	  597.00	  571.71	-1749.00	  453.08
      9.9700	  600.00	  571.68	-1749.00	  453.05
     10.0700	  590.00	  572.62	-1731.62	  453.01
     10.1700	  623.00	  572.69	-1698.69	  452.97
     10.2700	  575.00	  572.78	-1746.78	  452.93
     10.3700	  554.00	  572.91	-1767.91	  452.88
     10.4700	  575.00	  573.11	-1747.11	  452.83
     10.5700	  566.00	  573.44	-1756.44	  452.77
     10.6700	  547.00	  574.03	-1776.03	  452.71
     10.7700	  568.00	  575.00	-1756.00	  452.64
     10.8700	  580.00	  576.42	-1745.42	  452.57
     10.9700	  622.00	  578.28	-1705.28	  452.50
     11.0700	  595.00	  580.55	-1734.55	  452.42
     11.1700	  577.00	  583.22	-1755.22	  452.34
     11.2700	  586.00	  586.34	-1749.34	  452.25
     11.3700	  571.00	  590.01	-1768.01	  452.16
     11.4700	  611.00	  594.37	-1732.37	  452.07
     11.5700	  672.00	  599.68	-1676.68	  451.97
     11.6700	  609.00	  606.36	-1746.36	  451.87
     11.7700	  633.00	  615.12	-1731.12	  451.76
     11.8700	  647.00	  626.98	-1728.98	  451.65
     11.9700	  686.00	  642.48	-1705.48	  451.54
     12.0700	  726.00	  659.47	-1682.47	  451.42
     12.1700	  663.00	  670.77	-1756.77	  451.30
     12.2700	  659.00	  665.69	-1755.69	  451.18
     12.3700	  632.00	  641.90	-1758.90	  451.05
     12.4700	  647.00	  613.76	-1715.76	  450.92
     12.5700	  577.00	  593.24	-1765.24	  450.78
     12.6700	  602.00	  581.91	-1728.91	  450.64
     12.7700	  590.00	  576.63	-1735.63	  450.50
     12.8700	  632.00	  574.17	-1691.17	  450.36
     12.9700	  537.00	  572.80	-1784.80	  450.21
     13.0700	  530.00	  571.87	-1790.87	  450.05
     13.1700	  544.00	  571.16	-1776.16	  449.90
     13.2700	  545.00	  570.59	-1774.59	  449.74
     13.3700	  608.00	  570.11	-1711.11	  449.58
     13.4700	  527.00	  569.70	-1791.70	  449.41
     13.5700	  543.00	  569.33	-1775.33	  449.25
     13.6700	  581.00	  568.99	-1736.99	  449.07
     13.7700	  554.00	  568.69	-1763.69	  448.90
     13.8700	  544.00	  568.40	-1773.40	  448.72
     13.9700	  593.00	  568.12	-1724.12	  448.54
     14.0700	  574.00	  567.86	-1742.86	  448.36
     14.1700	  565.00	  567.61	-1751.61	  448.17
     14.2700	  596.00	  567.36	-1720.36	  447.99
     14.3700	  589.00	  567.12	-1727.12	  447.79
     14.4700	  583.00	  566.88	-1732.88	  447.60
     14.5700	  544.00	  566.64	-1771.64	  447.40
     14.6700	  575.00	  566.41	-1740.41	  447.20
     14.7700	  550.00	  566.17	-1765.17	  447.00
     14.8700	  545.00	  565.94	-1769.94	  446.80
     14.9700	  548.00	  565.71	-1766.71	  446.59
     15.0700	  569.00	  565.47	-1745.47	  446.38
     15.1700	  568.00	  565.24	-1746.24	  446.17
     15.2700	  546.00	  565.01	-1768.01	  445.95
     15.3700	  597.00	  564.77	-1716.77	  445.73
     15.4700	  572.00	  564.54	-1741.54	  445.51
     15.5700	  580.00	  564.30	-1733.30	  445.29
     15.6700	  563.00	  564.07	-1750.07	  445.07
     15.7700	  558.00	  563.83	-1754.83	  444.84
     15.8700	  532.00	  563.59	-1780.59	  444.61
     15.9700	  556.00	  563.37	-1756.37	  444.38
     16.0700	  529.00	  563.13	-1783.13	  444.14
     16.1700	  580.00	  562.89	-1731.89	  443.91
     16.2700	  556.00	  562.64	-1755.64	  443.67
     16.3700	  569.00	  562.39	-1742.39	  443.43
     16.4700	  499.00	  562.15	-1812.15	  443.19
     16.5700	  560.00	  561.90	-1750.90	  442.94
     16.6700	  557.00	  561.64	-1753.64	  442.70
     16.7700	  543.00	  561.39	-1767.39	  442.45
     16.8700	  543.00	  561.14	-1767.14	  442.20
     16.9700	  509.00	  560.88	-1800.88	  441.95
     17.0700	  544.00	  560.62	-1765.62	  441.69
     17.1700	  519.00	  560.36	-1790.36	  441.44
     17.2700	  556.00	  560.10	-1753.10	  441.18
     17.3700	  538.00	  559.84	-1770.84	  440.92
     17.4700	  545.00	  559.58	-1763.58	  440.66
     17.5700	  560.00	  559.31	-1748.31	  440.40
     17.6700	  564.00	  559.05	-1744.05	  440.13
     17.7700	  541.00	  558.78	-1766.78	  439.87
     17.8700	  524.00	  558.51	-1783.51	  439.60
     17.9700	  550.00	  558.24	-1757.24	  439.33
     18.0700	  529.00	  558.07	-1778.07	  439.06
     18.1700	  565.00	  557.80	-1741.80	  438.79
     18.2700	  550.00	  557.53	-1756.53	  438.51
     18.3700	  565.00	  557.25	-1741.25	  438.24
     18.4700	  569.00	  556.98	-1736.98	  437.96
     18.5700	  565.00	  556.70	-1740.70	  437.68
     18.6700	  556.00	  556.43	-1749.43	  437.40
     18.7700	  538.00	  556.15	-1767.15	  437.12
     18.8700	  556.00	  555.95	-1748.95	  436.84
     18.9700	  582.00	  555.68	-1722.68	  436.56
     19.0700	  504.00	  555.40	-1800.40	  436.27
     19.1700	  533.00	  555.12	-1771.12	  435.99
     19.2700	  551.00	  554.84	-1752.83	  435.70
     19.3700	  511.00	  554.55	-1792.55	  435.41
     19.4700	  542.00	  554.27	-1761.27	  435.12
     19.5700	  542.00	  553.99	-1760.99	  434.83
     19.6700	  541.00	  553.70	-1761.70	  434.54
     19.7700	  566.00	  553.42	-1736.42	  434.25
     19.8700	  567.00	  553.13	-1735.13	  433.95
     19.9700	  518.00	  552.85	-1783.85	  433.66
     20.0700	  524.00	  552.56	-1777.56	  433.36
     20.1700	  528.00	  552.27	-1773.27	  433.07
     20.2700	  519.00	  551.99	-1781.99	  432.77
     20.3700	  573.00	  551.70	-1727.70	  432.47
     20.4700	  495.00	  551.41	-1805.41	  432.17
     20.5700	  545.00	  551.12	-1755.12	  431.87
     20.6700	  577.00	  550.84	-1722.84	  431.57
     20.7700	  612.00	  550.55	-1687.55	  431.27
     20.8700	  552.00	  550.26	-1747.26	  430.97
     20.9700	  489.00	  549.97	-1809.97	  430.66
     21.0700	  565.00	  549.69	-1733.69	  430.36
     21.1700	  558.00	  549.40	-1740.40	  430.05
     21.2700	  565.00	  549.12	-1733.12	  429.75
     21.3700	  518.00	  548.83	-1779.83	  429.44
     21.4700	  538.00	  548.55	-1759.55	  429.14
     21.5700	  559.00	  548.27	-1738.27	  428.83
     21.6700	  561.00	  547.99	-1735.99	  428.52
     21.7700	  554.00	  547.71	-1742.71	  428.21
     21.8700	  589.00	  547.43	-1707.43	  427.91
     21.9700	  541.00	  547.15	-1755.15	  427.60
     22.0700	  577.00	  546.88	-1718.88	  427.29
     22.1700	  575.00	  546.61	-1720.61	  426.98
     22.2700	  571.00	  546.34	-1724.34	  426.67
     22.3700	  543.00	  546.07	-1752.07	  426.36
     22.4700	  549.00	  545.81	-1745.81	  426.05
     22.5700	  542.00	  545.56	-1752.56	  425.73
     22.6700	  550.00	  545.31	-1744.31	  425.42
     22.7700	  536.00	  545.07	-1758.07	  425.11
     22.8700	  524.00	  544.84	-1769.84	  424.80
     22.9700	  536.00	  544.61	-1757.61	  424.48
     23.0700	  539.00	  544.41	-1754.41	  424.17
     23.1700	  537.00	  544.22	-1756.22	  423.86
     23.2700	  524.00	  544.05	-1769.05	  423.55
     23.3700	  577.00	  543.90	-1715.90	  423.23
     23.4700	  537.00	  543.80	-1755.80	  422.92
     23.5700	  545.00	  543.74	-1747.74	  422.61
     23.6700	  584.00	  543.90	-1708.90	  422.29
     23.7700	  575.00	  544.04	-1718.04	  421.98
     23.8700	  551.00	  544.42	-1742.42	  421.66
     23.9700	  547.00	  545.26	-1747.26	  421.35
     24.0700	  530.00	  546.98	-1765.98	  421.04
     24.1700	  603.00	  550.24	-1696.24	  420.72
     24.2700	  558.00	  555.84	-1746.84	  420.41
     24.3700	  578.00	  564.68	-1735.68	  420.09
     24.4700	  553.00	  577.63	-1773.63	  419.78
     24.5700	  590.00	  594.63	-1753.63	  419.47
     24.6700	  649.00	  612.62	-1712.62	  419.15
     24.7700	  638.00	  624.05	-1735.05	  418.84
     24.8700	  620.00	  619.57	-1748.57	  418.53
     24.9700	  619.00	  599.32	-1729.32	  418.21
     25.0700	  565.00	  576.00	-1760.00	  417.90
     25.1700	  541.00	  558.76	-1766.76	  417.59
     25.2700	  616.00	  548.97	-1681.97	  417.28
     25.3700	  540.00	  544.25	-1753.25	  416.96
     25.4700	  557.00	  542.04	-1734.04	  416.65
     25.5700	  552.00	  540.84	-1737.84	  416.34
     25.6700	  535.00	  540.07	-1754.07	  416.03
     25.7700	  529.00	  539.51	-1759.51	  415.72
     25.8700	  532.00	  539.08	-1756.08	  415.41
     25.9700	  519.00	  538.77	-1768.77	  415.10
     26.0700	  567.00	  538.54	-1720.54	  414.79
     26.1700	  534.00	  538.39	-1753.39	  414.48
     26.2700	  535.00	  538.32	-1752.32	  414.17
     26.3700	  576.00	  538.32	-1711.32	  413.86
     26.4700	  541.00	  538.41	-1746.41	  413.55
     26.5700	  538.00	  538.60	-1749.60	  413.24
     26.6700	  567.00	  538.91	-1720.91	  412.93
     26.7700	  517.00	  539.35	-1771.35	  412.63
     26.8700	  567.00	  539.97	-1721.97	  412.32
     26.9700	  528.00	  540.82	-1761.82	  412.02
     27.0700	  498.00	  541.98	-1792.98	  411.71
     27.1700	  565.00	  543.58	-1727.58	  411.41
     27.2700	  592.00	  545.88	-1702.88	  411.10
     27.3700	  550.00	  549.39	-1748.39	  410.80
     27.4700	  544.00	  555.14	-1760.14	  410.49
     27.5700	  550.00	  564.95	-1763.95	  410.19
     27.6700	  537.00	  581.71	-1793.71	  409.89
     27.7700	  586.00	  609.12	-1772.12	  409.59
     27.8700	  588.00	  650.41	-1811.41	  409.29
     27.9700	  670.00	  705.68	-1784.68	  408.99
     28.0700	  784.00	  768.46	-1733.46	  408.69
     28.1700	  940.00	  822.71	-1631.71	  408.39
     28.2700	  978.00	  844.62	-1615.62	  408.10
     28.3700	  943.00	  820.99	-1626.99	  407.80
     28.4700	  719.00	  775.29	-1805.29	  407.50
     28.5700	  703.00	  744.18	-1790.18	  407.21
     28.6700	  698.00	  743.75	-1794.75	  406.91
     28.7700	  678.00	  768.47	-1839.47	  406.62
     28.8700	  814.00	  797.27	-1732.27	  406.33
     28.9700	  831.00	  801.07	-1719.07	  406.03
     29.0700	  784.00	  762.31	-1727.31	  405.74
     29.1700	  743.00	  698.01	-1704.01	  405.45
     29.2700	  654.00	  637.39	-1732.39	  405.16
     29.3700	  596.00	  593.96	-1746.96	  404.88
     29.4700	  586.00	  567.88	-1730.88	  404.59
     29.5700	  606.00	  553.84	-1696.84	  404.30
     29.6700	  597.00	  546.45	-1698.45	  404.02
     29.7700	  577.00	  542.27	-1714.27	  403.73
     29.8700	  547.00	  539.68	-1741.68	  403.45
     29.9700	  578.00	  538.05	-1709.05	  403.16
     30.0700	  567.00	  537.26	-1719.26	  402.88
     30.1700	  545.00	  537.47	-1741.47	  402.60
     30.2700	  600.00	  539.26	-1688.26	  402.32
     30.3700	  571.00	  543.70	-1721.70	  402.04
     30.4700	  558.00	  552.45	-1743.45	  401.76
     30.5700	  604.00	  567.15	-1712.15	  401.49
     30.6700	  599.00	  588.17	-1738.17	  401.21
     30.7700	  588.00	  612.76	-1773.76	  400.94
     30.8700	  624.00	  633.78	-1758.78	  400.66
     30.9700	  620.00	  640.59	-1769.59	  400.39
     31.0700	  600.00	  626.31	-1775.31	  400.12
     31.1700	  594.00	  598.59	-1753.59	  399.85
     31.2700	  564.00	  571.15	-1756.15	  399.58
     31.3700	  533.00	  551.02	-1767.02	  399.31
     31.4700	  551.00	  538.80	-1736.80	  399.05
     31.5700	  546.00	  532.27	-1735.27	  398.78
     31.6700	  520.00	  528.91	-1757.91	  398.52
     31.7700	  533.00	  527.05	-1743.05	  398.25
     31.8700	  543.00	  525.88	-1731.88	  397.99
     31.9700	  513.00	  525.09	-1761.09	  397.73
     32.0700	  552.00	  524.53	-1721.53	  397.47
     32.1700	  540.00	  524.17	-1733.17	  397.21
     32.2700	  568.00	  523.97	-1704.97	  396.95
     32.3700	  523.00	  523.93	-1749.93	  396.70
     32.4700	  565.00	  524.05	-1708.05	  396.44
     32.5700	  518.00	  524.36	-1755.36	  396.19
     32.6700	  580.00	  524.87	-1693.87	  395.94
     32.7700	  500.00	  525.65	-1774.65	  395.68
     32.8700	  578.00	  526.76	-1697.76	  395.43
     32.9700	  518.00	  528.34	-1759.34	  395.19
     33.0700	  528.00	  530.61	-1751.61	  394.94
     33.1700	  546.00	  534.10	-1737.10	  394.69
     33.2700	  532.00	  539.96	-1756.96	  394.45
     33.3700	  611.00	  550.66	-1688.66	  394.20
     33.4700	  558.00	  570.87	-1761.87	  393.96
     33.5700	  612.00	  607.83	-1744.83	  393.72
     33.6700	  658.00	  669.53	-1760.53	  393.48
     33.7700	  750.00	  758.94	-1757.94	  393.24
     33.8700	  935.00	  865.48	-1679.48	  393.01
     33.9700	 1071.00	  959.87	-1637.87	  392.77
     34.0700	 1115.00	  998.39	-1632.39	  392.54
     34.1700	  971.00	  950.97	-1728.97	  392.31
     34.2700	  969.00	  842.75	-1622.75	  392.08
     34.3700	  765.00	  728.45	-1712.45	  391.85
     34.4700	  621.00	  640.52	-1768.52	  391.62
     34.5700	  603.00	  585.22	-1731.22	  391.39
     34.6700	  562.00	  555.13	-1742.13	  391.16
     34.7700	  552.00	  539.88	-1736.88	  390.94
     34.8700	  563.00	  531.86	-1717.86	  390.72
     34.9700	  526.00	  527.04	-1750.04	  390.50
     35.0700	  524.00	  523.74	-1748.74	  390.28
     35.1700	  541.00	  521.23	-1729.23	  390.06
     35.2700	  558.00	  519.25	-1710.25	  389.84
     35.3700	  514.00	  517.64	-1752.65	  389.63
     35.4700	  512.00	  516.32	-1753.31	  389.41
     35.5700	  488.00	  515.19	-1776.19	  389.20
     35.6700	  492.00	  514.24	-1771.24	  388.99
     35.7700	  526.00	  513.41	-1736.41	  388.78
     35.8700	  527.00	  512.68	-1734.68	  388.57
     35.9700	  506.00	  512.04	-1755.04	  388.37
     36.0700	  555.00	  511.93	-1705.93	  388.16
     36.1700	  491.00	  511.42	-1769.42	  387.96
     36.2700	  506.00	  510.97	-1753.97	  387.76
     36.3700	  508.00	  510.56	-1751.56	  387.56
     36.4700	  517.00	  510.20	-1742.20	  387.36
     36.5700	  531.00	  509.88	-1727.88	  387.16
     36.6700	  503.00	  509.60	-1755.60	  386.96
     36.7700	  511.00	  509.38	-1747.38	  386.77
     36.8700	  515.00	  509.25	-1743.25	  386.58
     36.9700	  533.00	  509.28	-1725.28	  386.38
     37.0700	  502.00	  509.64	-1756.64	  386.20
     37.1700	  597.00	  510.60	-1662.60	  386.01
     37.2700	  504.00	  512.58	-1757.58	  385.82
     37.3700	  495.00	  515.92	-1769.92	  385.64
     37.4700	  552.00	  520.49	-1717.49	  385.45
     37.5700	  526.00	  525.39	-1748.39	  385.27
     37.6700	  534.00	  528.90	-1743.90	  385.09
     37.7700	  572.00	  529.28	-1706.28	  384.91
     37.8700	  494.00	  526.39	-1781.39	  384.73
     37.9700	  549.00	  521.99	-1721.99	  384.56
     38.0700	  548.00	  517.56	-1718.56	  384.39
     38.1700	  480.00	  513.66	-1782.66	  384.21
     38.2700	  507.00	  510.56	-1752.56	  384.04
     38.3700	  532.00	  508.32	-1725.32	  383.87
     38.4700	  491.00	  506.81	-1764.81	  383.71
     38.5700	  502.00	  505.84	-1752.84	  383.54
     38.6700	  510.00	  505.12	-1744.12	  383.38
     38.7700	  497.00	  504.69	-1756.69	  383.21
     38.8700	  496.00	  504.37	-1757.37	  383.05
     38.9700	  470.00	  504.11	-1783.11	  382.89
     39.0700	  527.00	  503.89	-1725.89	  382.73
     39.1700	  468.00	  503.60	-1784.60	  382.58
     39.2700	  516.00	  503.41	-1736.41	  382.42
     39.3700	  504.00	  503.37	-1748.37	  382.27
     39.4700	  502.00	  503.21	-1750.21	  382.12
     39.5700	  554.00	  503.06	-1698.06	  381.97
     39.6700	  522.00	  502.93	-1729.93	  381.82
     39.7700	  516.00	  502.80	-1735.80	  381.68
     39.8700	  478.00	  502.68	-1773.68	  381.53
     39.9700	  502.00	  502.57	-1749.57	  381.39
     40.0700	  476.00	  502.47	-1775.47	  381.25
     40.1700	  510.00	  502.38	-1741.38	  381.11
     40.2700	  488.00	  502.30	-1763.30	  380.97
     40.3700	  525.00	  502.24	-1726.24	  380.83
     40.4700	  494.00	  502.19	-1757.19	  380.70
     40.5700	  495.00	  502.15	-1756.15	  380.56
     40.6700	  515.00	  502.13	-1736.13	  380.43
     40.7700	  475.00	  502.13	-1776.13	  380.30
