MSG Master    CELL:    5.89693   5.89693  23.17104   90.0000   90.0000  120.0000   SPGR: P 63/m m c             TEMP:    742.35
  1   1280     2.52000     0.00000    -0.12569     0.00000     0.00000    0
    96     0     2
       0.00000      10.00000
     125.00000     130.00000
 2Theta	Yobs	Ycal	Yobs-Ycal	Backg	Posr	(hkl)	K
      0.7700	    0.00	  448.09	-1798.75	  336.07
      0.8700	    0.00	  450.91	-1798.75	  338.88
      0.9700	   34.00	  453.69	-1798.75	  341.67
      1.0700	   61.00	  456.46	-1798.75	  344.43
      1.1700	   48.00	  459.19	-1798.75	  347.17
      1.2700	   50.00	  461.90	-1798.75	  349.88
      1.3700	   39.00	  464.58	-1798.75	  352.55
      1.4700	   85.00	  467.23	-1798.75	  355.21
      1.5700	  291.00	  469.85	-1798.75	  357.83
      1.6700	  449.00	  472.45	-1798.75	  360.43
      1.7700	  577.00	  475.03	-1798.75	  363.00
      1.8700	  708.00	  477.57	-1798.75	  365.55
      1.9700	  700.00	  480.09	-1798.75	  368.07
      2.0700	  762.00	  482.58	-1798.75	  370.56
      2.1700	  769.00	  485.05	-1798.75	  373.03
      2.2700	  766.00	  487.49	-1798.75	  375.47
      2.3700	  721.00	  489.91	-1798.75	  377.89
      2.4700	  708.00	  492.30	-1798.75	  380.28
      2.5700	  743.00	  494.67	-1798.75	  382.64
      2.6700	  688.00	  497.00	-1798.75	  384.98
      2.7700	  692.00	  499.32	-1798.75	  387.30
      2.8700	  630.00	  501.61	-1798.75	  389.59
      2.9700	  650.00	  503.87	-1798.75	  391.85
      3.0700	  581.00	  506.12	-1798.75	  394.09
      3.1700	  586.00	  508.33	-1798.75	  396.31
      3.2700	  697.00	  510.52	-1798.75	  398.50
      3.3700	  853.00	  512.69	-1798.75	  400.67
      3.4700	 1037.00	  514.83	-1798.75	  402.81
      3.5700	 1145.00	  516.95	-1798.75	  404.93
      3.6700	 1216.00	  519.05	-1798.75	  407.03
      3.7700	 1344.00	  521.12	-1798.75	  409.10
      3.8700	 1406.00	  523.17	-1798.75	  411.15
      3.9700	 1429.00	  525.20	-1798.75	  413.17
      4.0700	 1552.00	  527.20	-1798.75	  415.18
      4.1700	 1588.00	  529.18	-1798.75	  417.15
      4.2700	 1611.00	  531.13	-1798.75	  419.11
      4.3700	 1589.00	  533.07	-1798.75	  421.04
      4.4700	 1560.00	  534.98	-1798.75	  422.96
      4.5700	 1496.00	  536.87	-1798.75	  424.84
      4.6700	 1448.00	  538.73	-1798.75	  426.71
      4.7700	 1379.00	  540.58	-1798.75	  428.55
      4.8700	 1396.00	  542.40	-1798.75	  430.38
      4.9700	 1247.00	  544.20	-1798.75	  432.18
      5.0700	 1266.00	  545.98	-1798.75	  433.95
      5.1700	 1267.00	  547.73	-1798.75	  435.71
      5.2700	 1121.00	  549.47	-1798.75	  437.45
      5.3700	 1133.00	  551.18	-1798.75	  439.16
      5.4700	 1116.00	  552.87	-1798.75	  440.85
      5.5700	 1063.00	  554.55	-1798.75	  442.52
      5.6700	 1067.00	  556.20	-1798.75	  444.17
      5.7700	 1087.00	  557.83	-1798.75	  445.80
      5.8700	 1001.00	  559.44	-1798.75	  447.41
      5.9700	 1002.00	  561.02	-1798.75	  449.00
      6.0700	  956.00	  562.59	-1798.75	  450.57
      6.1700	 1020.00	  564.14	-1798.75	  452.12
      6.2700	  956.00	  565.67	-1798.75	  453.65
      6.3700	  959.00	  567.18	-1798.75	  455.15
      6.4700	  964.00	  568.66	-1798.75	  456.64
      6.5700	  896.00	  570.13	-1798.75	  458.11
      6.6700	  891.00	  571.58	-1798.75	  459.56
      6.7700	  922.00	  573.01	-1798.75	  460.99
      6.8700	  852.00	  574.42	-1798.75	  462.40
      6.9700	  832.00	  575.81	-1798.75	  463.79
      7.0700	  862.00	  577.18	-1798.75	  465.16
      7.1700	  800.00	  578.53	-1798.75	  466.51
      7.2700	  834.00	  579.87	-1798.75	  467.84
      7.3700	  754.00	  581.18	-1798.75	  469.16
      7.4700	  832.00	  582.48	-1798.75	  470.46
      7.5700	  780.00	  583.76	-1798.75	  471.73
      7.6700	  786.00	  585.01	-1798.75	  472.99
      7.7700	  735.00	  586.26	-1798.75	  474.23
      7.8700	  717.00	  587.48	-1798.75	  475.46
      7.9700	  728.00	  588.68	-1798.75	  476.66
      8.0700	  695.00	  589.87	-1798.75	  477.85
      8.1700	  743.00	  591.04	-1798.75	  479.02
      8.2700	  740.00	  592.19	-1798.75	  480.17
      8.3700	  712.00	  593.33	-1798.75	  481.30
      8.4700	  721.00	  594.44	-1798.75	  482.42
      8.5700	  710.00	  595.54	-1798.75	  483.52
      8.6700	  701.00	  596.63	-1798.75	  484.60
      8.7700	  677.00	  597.69	-1798.75	  485.67
      8.8700	  681.00	  598.74	-1798.75	  486.72
      8.9700	  683.00	  599.77	-1798.75	  487.75
      9.0700	  685.00	  600.79	-1798.75	  488.77
      9.1700	  688.00	  601.79	-1798.75	  489.77
      9.2700	  635.00	  602.77	-1798.75	  490.75
      9.3700	  688.00	  603.74	-1798.75	  491.72
      9.4700	  654.00	  604.69	-1798.75	  492.67
      9.5700	  651.00	  605.62	-1798.75	  493.60
      9.6700	  708.00	  606.54	-1798.75	  494.52
      9.7700	  660.00	  607.44	-1798.75	  495.42
      9.8700	  692.00	  608.33	-1798.75	  496.31
      9.9700	  673.00	  609.20	-1798.75	  497.18
     10.0700	  658.00	  612.14	-1752.89	  498.03
     10.1700	  663.00	  613.22	-1748.97	  498.87
     10.2700	  700.00	  614.34	-1713.09	  499.70
     10.3700	  657.00	  615.52	-1757.27	  500.51
     10.4700	  588.00	  616.80	-1827.55	  501.30
     10.5700	  648.00	  618.23	-1768.98	  502.08
     10.6700	  683.00	  619.90	-1735.65	  502.85
     10.7700	  695.00	  621.91	-1725.66	  503.60
     10.8700	  660.00	  624.37	-1763.12	  504.34
     10.9700	  686.00	  627.33	-1740.08	  505.06
     11.0700	  701.00	  630.79	-1728.54	  505.77
     11.1700	  649.00	  634.79	-1784.54	  506.46
     11.2700	  694.00	  639.34	-1744.09	  507.14
     11.3700	  689.00	  644.54	-1754.29	  507.80
     11.4700	  658.00	  650.52	-1791.27	  508.45
     11.5700	  670.00	  657.51	-1786.26	  509.09
     11.6700	  704.00	  665.82	-1760.57	  509.71
     11.7700	  688.00	  675.87	-1786.62	  510.32
     11.8700	  716.00	  687.94	-1770.69	  510.92
     11.9700	  708.00	  701.81	-1792.56	  511.50
     12.0700	  763.00	  716.05	-1751.80	  512.07
     12.1700	  759.00	  727.29	-1767.04	  512.63
     12.2700	  811.00	  729.99	-1717.74	  513.17
     12.3700	  747.00	  719.54	-1771.29	  513.70
     12.4700	  753.00	  699.20	-1744.95	  514.22
     12.5700	  691.00	  678.08	-1785.83	  514.73
     12.6700	  666.00	  661.61	-1794.36	  515.22
     12.7700	  655.00	  650.61	-1794.36	  515.70
     12.8700	  613.00	  643.95	-1829.70	  516.17
     12.9700	  631.00	  640.13	-1807.88	  516.62
     13.0700	  603.00	  637.95	-1833.70	  517.07
     13.1700	  612.00	  636.65	-1823.40	  517.50
     13.2700	  608.00	  635.85	-1826.60	  517.91
     13.3700	  600.00	  635.37	-1834.12	  518.32
     13.4700	  640.00	  635.05	-1793.80	  518.72
     13.5700	  582.00	  634.86	-1851.61	  519.10
     13.6700	  610.00	  634.78	-1823.53	  519.47
     13.7700	  622.00	  634.76	-1811.51	  519.83
     13.8700	  595.00	  634.80	-1838.55	  520.18
     13.9700	  635.00	  634.87	-1798.62	  520.52
     14.0700	  634.00	  634.97	-1799.72	  520.84
     14.1700	  622.00	  635.10	-1811.85	  521.16
     14.2700	  612.00	  635.24	-1821.99	  521.46
     14.3700	  643.00	  635.39	-1791.14	  521.76
     14.4700	  605.00	  635.55	-1829.30	  522.04
     14.5700	  579.00	  635.71	-1855.46	  522.31
     14.6700	  575.00	  635.88	-1859.63	  522.57
     14.7700	  664.00	  636.04	-1770.79	  522.82
     14.8700	  593.00	  636.20	-1841.95	  523.06
     14.9700	  598.00	  636.37	-1837.12	  523.29
     15.0700	  626.00	  636.52	-1809.27	  523.51
     15.1700	  651.00	  636.68	-1784.43	  523.72
     15.2700	  609.00	  636.83	-1826.58	  523.92
     15.3700	  617.00	  636.97	-1818.72	  524.10
     15.4700	  641.00	  637.11	-1794.86	  524.28
     15.5700	  583.00	  637.24	-1852.99	  524.45
     15.6700	  645.00	  637.37	-1791.12	  524.61
     15.7700	  604.00	  637.49	-1832.24	  524.76
     15.8700	  656.00	  637.60	-1780.35	  524.90
     15.9700	  614.00	  637.70	-1822.45	  525.03
     16.0700	  607.00	  637.80	-1829.55	  525.15
     16.1700	  599.00	  637.89	-1837.64	  525.26
     16.2700	  658.00	  637.97	-1778.72	  525.37
     16.3700	  586.00	  638.05	-1850.80	  525.46
     16.4700	  601.00	  638.11	-1835.86	  525.54
     16.5700	  606.00	  638.17	-1830.92	  525.62
     16.6700	  574.00	  638.22	-1862.97	  525.69
     16.7700	  622.00	  638.27	-1815.02	  525.74
     16.8700	  594.00	  638.30	-1843.05	  525.79
     16.9700	  598.00	  638.33	-1839.08	  525.83
     17.0700	  605.00	  638.35	-1832.10	  525.87
     17.1700	  576.00	  638.37	-1861.12	  525.89
     17.2700	  646.00	  638.37	-1791.12	  525.90
     17.3700	  640.00	  638.37	-1797.12	  525.91
     17.4700	  619.00	  638.51	-1818.26	  525.91
     17.5700	  613.00	  638.50	-1824.25	  525.90
     17.6700	  661.00	  638.48	-1776.23	  525.88
     17.7700	  615.00	  638.45	-1822.20	  525.86
     17.8700	  639.00	  638.56	-1798.31	  525.83
     17.9700	  630.00	  638.52	-1807.27	  525.79
     18.0700	  580.00	  638.48	-1857.23	  525.74
     18.1700	  655.00	  638.42	-1782.17	  525.68
     18.2700	  584.00	  638.36	-1853.11	  525.62
     18.3700	  579.00	  638.29	-1858.04	  525.55
     18.4700	  593.00	  638.22	-1843.97	  525.47
     18.5700	  622.00	  638.14	-1814.89	  525.38
     18.6700	  646.00	  638.05	-1790.80	  525.29
     18.7700	  606.00	  637.95	-1830.70	  525.19
     18.8700	  595.00	  637.85	-1841.60	  525.08
     18.9700	  610.00	  637.75	-1826.50	  524.97
     19.0700	  638.00	  637.63	-1798.38	  524.85
     19.1700	  563.00	  637.51	-1873.26	  524.72
     19.2700	  603.00	  637.39	-1833.14	  524.58
     19.3700	  620.00	  637.26	-1816.01	  524.44
     19.4700	  606.00	  637.17	-1829.92	  524.29
     19.5700	  606.00	  637.03	-1829.78	  524.14
     19.6700	  576.00	  636.88	-1859.63	  523.98
     19.7700	  596.00	  636.73	-1839.48	  523.81
     19.8700	  613.00	  636.57	-1822.32	  523.64
     19.9700	  620.00	  636.40	-1815.15	  523.46
     20.0700	  618.00	  636.24	-1816.99	  523.27
     20.1700	  589.00	  636.06	-1845.81	  523.08
     20.2700	  587.00	  635.88	-1847.63	  522.88
     20.3700	  616.00	  635.70	-1818.45	  522.68
     20.4700	  597.00	  635.51	-1837.26	  522.47
     20.5700	  661.00	  635.32	-1773.07	  522.25
     20.6700	  602.00	  635.12	-1831.87	  522.03
     20.7700	  608.00	  634.92	-1825.67	  521.81
     20.8700	  621.00	  634.71	-1812.46	  521.57
     20.9700	  611.00	  634.50	-1822.25	  521.34
     21.0700	  580.00	  634.29	-1853.04	  521.09
     21.1700	  594.00	  634.07	-1838.82	  520.84
     21.2700	  619.00	  633.85	-1813.60	  520.59
     21.3700	  653.00	  633.63	-1779.38	  520.33
     21.4700	  609.00	  633.40	-1823.15	  520.07
     21.5700	  650.00	  633.18	-1781.93	  519.80
     21.6700	  599.00	  632.95	-1832.70	  519.52
     21.7700	  602.00	  632.71	-1829.46	  519.24
     21.8700	  624.00	  632.48	-1807.23	  518.96
     21.9700	  612.00	  632.40	-1819.15	  518.67
     22.0700	  611.00	  632.17	-1819.92	  518.37
     22.1700	  605.00	  631.94	-1825.69	  518.08
     22.2700	  617.00	  631.71	-1813.46	  517.77
     22.3700	  625.00	  631.48	-1805.23	  517.46
     22.4700	  625.00	  631.26	-1805.01	  517.15
     22.5700	  637.00	  631.04	-1792.79	  516.84
     22.6700	  627.00	  630.83	-1802.58	  516.51
     22.7700	  598.00	  630.63	-1831.38	  516.19
     22.8700	  606.00	  630.44	-1823.19	  515.86
     22.9700	  612.00	  630.26	-1817.01	  515.52
     23.0700	  629.00	  630.09	-1799.84	  515.19
     23.1700	  636.00	  629.95	-1792.70	  514.84
     23.2700	  589.00	  629.84	-1839.59	  514.50
     23.3700	  597.00	  629.77	-1831.52	  514.15
     23.4700	  626.00	  629.74	-1802.49	  513.79
     23.5700	  642.00	  629.77	-1786.52	  513.44
     23.6700	  655.00	  629.84	-1773.59	  513.07
     23.7700	  680.00	  630.10	-1748.85	  512.71
     23.8700	  575.00	  630.57	-1854.32	  512.34
     23.9700	  636.00	  631.36	-1794.11	  511.97
     24.0700	  653.00	  632.71	-1778.46	  511.59
     24.1700	  619.00	  634.94	-1814.69	  511.21
     24.2700	  656.00	  638.52	-1781.27	  510.83
     24.3700	  660.00	  643.96	-1782.71	  510.44
     24.4700	  659.00	  651.67	-1791.42	  510.05
     24.5700	  639.00	  661.66	-1821.41	  509.66
     24.6700	  652.00	  673.20	-1819.95	  509.27
     24.7700	  731.00	  684.33	-1752.08	  508.87
     24.8700	  662.00	  691.47	-1828.22	  508.46
     24.9700	  730.00	  690.28	-1759.03	  508.06
     25.0700	  696.00	  679.87	-1782.62	  507.65
     25.1700	  695.00	  665.28	-1769.03	  507.24
     25.2700	  692.00	  651.91	-1758.66	  506.83
     25.3700	  625.00	  641.90	-1815.65	  506.41
     25.4700	  622.00	  635.22	-1811.97	  505.99
     25.5700	  589.00	  631.06	-1840.81	  505.57
     25.6700	  634.00	  628.51	-1793.26	  505.15
     25.7700	  629.00	  626.91	-1796.66	  504.72
     25.8700	  652.00	  625.83	-1772.58	  504.29
     25.9700	  666.00	  625.07	-1757.82	  503.86
     26.0700	  687.00	  624.53	-1736.28	  503.42
     26.1700	  684.00	  624.16	-1738.91	  502.99
     26.2700	  693.00	  623.94	-1729.69	  502.55
     26.3700	  628.00	  623.85	-1794.60	  502.10
     26.4700	  749.00	  623.90	-1673.65	  501.66
     26.5700	  680.00	  624.10	-1742.85	  501.22
     26.6700	  669.00	  624.45	-1754.20	  500.77
     26.7700	  700.00	  625.00	-1723.75	  500.32
     26.8700	  687.00	  625.78	-1737.53	  499.87
     26.9700	  731.00	  626.84	-1694.59	  499.41
     27.0700	  708.00	  628.26	-1719.01	  498.96
     27.1700	  794.00	  630.17	-1634.92	  498.50
     27.2700	  739.00	  632.78	-1692.53	  498.04
     27.3700	  710.00	  636.45	-1725.20	  497.58
     27.4700	  751.00	  641.91	-1689.66	  497.12
     27.5700	  790.00	  650.49	-1659.24	  496.65
     27.6700	  803.00	  664.48	-1660.23	  496.18
     27.7700	  757.00	  687.38	-1729.13	  495.72
     27.8700	  799.00	  723.57	-1723.32	  495.25
     27.9700	  814.00	  776.60	-1761.35	  494.78
     28.0700	  888.00	  846.27	-1757.02	  494.30
     28.1700	  953.00	  925.25	-1771.00	  493.83
     28.2700	 1054.00	  996.20	-1740.95	  493.36
     28.3700	 1154.00	 1032.81	-1677.56	  492.88
     28.4700	 1096.00	 1017.60	-1720.35	  492.40
     28.5700	 1068.00	  972.32	-1703.07	  491.92
     28.6700	  955.00	  939.34	-1783.09	  491.44
     28.7700	  930.00	  940.10	-1808.85	  490.96
     28.8700	 1034.00	  970.31	-1735.06	  490.48
     28.9700	 1037.00	 1007.05	-1768.80	  490.00
     29.0700	 1041.00	 1016.46	-1774.21	  489.51
     29.1700	  984.00	  973.50	-1788.25	  489.03
     29.2700	  937.00	  891.33	-1753.08	  488.54
     29.3700	  924.00	  805.57	-1680.32	  488.06
     29.4700	  809.00	  737.51	-1727.26	  487.57
     29.5700	  780.00	  691.34	-1710.09	  487.08
     29.6700	  722.00	  663.10	-1739.85	  486.59
     29.7700	  752.00	  646.72	-1693.47	  486.10
     29.8700	  801.00	  637.12	-1634.87	  485.61
     29.9700	  769.00	  631.22	-1660.97	  485.12
     30.0700	  691.00	  627.49	-1735.24	  484.63
     30.1700	  764.00	  625.37	-1660.12	  484.14
     30.2700	  695.00	  624.89	-1728.64	  483.64
     30.3700	  681.00	  626.51	-1744.26	  483.15
     30.4700	  672.00	  631.20	-1757.95	  482.66
     30.5700	  721.00	  640.25	-1718.00	  482.16
     30.6700	  657.00	  654.83	-1796.58	  481.67
     30.7700	  701.00	  674.95	-1772.70	  481.18
     30.8700	  744.00	  698.24	-1752.99	  480.68
     30.9700	  775.00	  719.19	-1742.94	  480.19
     31.0700	  731.00	  729.18	-1796.93	  479.69
     31.1700	  775.00	  720.82	-1744.57	  479.19
     31.2700	  743.00	  696.93	-1752.68	  478.70
     31.3700	  696.00	  668.87	-1771.62	  478.20
     31.4700	  664.00	  644.95	-1779.70	  477.71
     31.5700	  632.00	  627.74	-1794.49	  477.21
     31.6700	  695.00	  616.64	-1720.39	  476.72
     31.7700	  623.00	  609.91	-1785.66	  476.22
     31.8700	  622.00	  605.85	-1782.60	  475.72
     31.9700	  638.00	  603.28	-1764.03	  475.23
     32.0700	  594.00	  601.52	-1806.27	  474.73
     32.1700	  605.00	  600.25	-1794.00	  474.24
     32.2700	  627.00	  599.33	-1771.08	  473.74
     32.3700	  634.00	  598.69	-1763.44	  473.25
     32.4700	  590.00	  598.30	-1807.05	  472.76
     32.5700	  628.00	  598.16	-1768.91	  472.26
     32.6700	  575.00	  598.28	-1822.03	  471.77
     32.7700	  627.00	  598.69	-1770.44	  471.27
     32.8700	  592.00	  599.45	-1806.20	  470.78
     32.9700	  620.00	  600.67	-1779.42	  470.29
     33.0700	  582.00	  602.46	-1819.21	  469.80
     33.1700	  625.00	  605.12	-1778.87	  469.31
     33.2700	  639.00	  609.18	-1768.93	  468.81
     33.3700	  646.00	  615.67	-1768.42	  468.32
     33.4700	  607.00	  626.44	-1818.19	  467.83
     33.5700	  654.00	  644.48	-1789.23	  467.35
     33.6700	  681.00	  673.85	-1791.60	  466.86
     33.7700	  671.00	  718.58	-1846.33	  466.37
     33.8700	  767.00	  780.06	-1811.81	  465.88
     33.9700	  880.00	  853.32	-1772.07	  465.40
     34.0700	  984.00	  924.12	-1738.87	  464.91
     34.1700	 1044.00	  968.73	-1723.48	  464.43
     34.2700	 1044.00	  962.95	-1717.70	  463.94
     34.3700	  986.00	  905.74	-1718.49	  463.46
     34.4700	  874.00	  825.27	-1750.02	  462.98
     34.5700	  739.00	  749.61	-1809.36	  462.50
     34.6700	  677.00	  691.14	-1812.89	  462.02
     34.7700	  643.00	  651.22	-1806.97	  461.54
     34.8700	  638.00	  626.16	-1786.91	  461.06
     34.9700	  606.00	  611.04	-1803.79	  460.58
     35.0700	  613.00	  601.76	-1787.51	  460.10
     35.1700	  581.00	  595.64	-1813.39	  459.63
     35.2700	  598.00	  591.27	-1792.02	  459.15
     35.3700	  619.00	  587.89	-1767.64	  458.68
     35.4700	  552.00	  585.16	-1831.91	  458.21
     35.5700	  565.00	  583.36	-1817.11	  457.74
     35.6700	  584.00	  581.44	-1796.19	  457.27
     35.7700	  597.00	  579.78	-1781.53	  456.80
     35.8700	  519.00	  578.33	-1858.08	  456.34
     35.9700	  554.00	  577.04	-1821.79	  455.87
     36.0700	  559.00	  575.89	-1815.64	  455.40
     36.1700	  546.00	  574.85	-1827.60	  454.94
     36.2700	  560.00	  573.90	-1812.65	  454.48
     36.3700	  530.00	  573.04	-1841.79	  454.02
     36.4700	  547.00	  572.25	-1824.00	  453.56
     36.5700	  515.00	  571.53	-1855.28	  453.10
     36.6700	  578.00	  570.87	-1791.62	  452.65
     36.7700	  548.00	  570.25	-1821.00	  452.19
     36.8700	  523.00	  569.75	-1845.50	  451.74
     36.9700	  542.00	  569.36	-1826.11	  451.29
     37.0700	  583.00	  569.13	-1784.88	  450.84
     37.1700	  585.00	  569.34	-1783.09	  450.39
     37.2700	  628.00	  569.77	-1740.52	  449.94
     37.3700	  565.00	  570.76	-1804.51	  449.50
     37.4700	  555.00	  572.45	-1816.20	  449.05
     37.5700	  514.00	  574.87	-1859.62	  448.61
     37.6700	  550.00	  577.79	-1826.54	  448.17
     37.7700	  557.00	  580.60	-1822.35	  447.73
     37.8700	  528.00	  582.35	-1853.10	  447.29
     37.9700	  546.00	  582.21	-1834.96	  446.86
     38.0700	  554.00	  580.20	-1824.95	  446.42
     38.1700	  538.00	  577.11	-1837.86	  445.99
     38.2700	  545.00	  573.61	-1827.36	  445.56
     38.3700	  547.00	  570.10	-1821.85	  445.13
     38.4700	  516.00	  566.96	-1849.71	  444.70
     38.5700	  538.00	  564.44	-1825.19	  444.28
     38.6700	  481.00	  562.52	-1880.27	  443.86
     38.7700	  521.00	  561.14	-1838.89	  443.43
     38.8700	  524.00	  560.06	-1834.81	  443.01
     38.9700	  502.00	  559.22	-1855.97	  442.60
     39.0700	  575.00	  558.52	-1782.27	  442.18
     39.1700	  574.00	  557.92	-1782.67	  441.77
     39.2700	  552.00	  557.36	-1804.11	  441.35
     39.3700	  557.00	  556.85	-1798.60	  440.94
     39.4700	  530.00	  556.22	-1824.97	  440.54
     39.5700	  547.00	  555.77	-1807.52	  440.13
     39.6700	  593.00	  555.33	-1761.08	  439.72
     39.7700	  497.00	  554.90	-1856.65	  439.32
     39.8700	  508.00	  554.50	-1845.25	  438.92
     39.9700	  520.00	  554.11	-1832.86	  438.52
     40.0700	  530.00	  554.28	-1823.03	  438.13
     40.1700	  571.00	  553.92	-1781.67	  437.73
     40.2700	  534.00	  553.58	-1818.33	  437.34
     40.3700	  549.00	  553.26	-1803.01	  436.95
     40.4700	  567.00	  552.80	-1784.55	  436.56
     40.5700	  544.00	  552.51	-1807.26	  436.18
     40.6700	  516.00	  552.23	-1834.98	  435.79
     40.7700	  514.00	  551.98	-1836.73	  435.41
