MSG Master    CELL:    5.91913   5.91913  23.26610   90.0000   90.0000  120.0000   SPGR: P 63/m m c             TEMP:   1074.95
  1   1280     2.52000     0.00000    -0.12715     0.00000     0.00000    0
    99     0     2
       0.00000      10.00000
     125.00000     130.00000
 2Theta	Yobs	Ycal	Yobs-Ycal	Backg	Posr	(hkl)	K
      0.7700	    0.00	  546.85	-1751.00	  429.64
      0.8700	    0.00	  547.58	-1751.00	  430.37
      0.9700	   38.00	  548.30	-1751.00	  431.09
      1.0700	   42.00	  549.01	-1751.00	  431.80
      1.1700	   37.00	  549.71	-1751.00	  432.49
      1.2700	   43.00	  550.40	-1751.00	  433.18
      1.3700	   50.00	  551.07	-1751.00	  433.86
      1.4700	  109.00	  551.74	-1751.00	  434.52
      1.5700	  289.00	  552.39	-1751.00	  435.18
      1.6700	  477.00	  553.04	-1751.00	  435.82
      1.7700	  622.00	  553.67	-1751.00	  436.46
      1.8700	  659.00	  554.30	-1751.00	  437.08
      1.9700	  677.00	  554.91	-1751.00	  437.70
      2.0700	  759.00	  555.52	-1751.00	  438.30
      2.1700	  832.00	  556.11	-1751.00	  438.90
      2.2700	  734.00	  556.70	-1751.00	  439.48
      2.3700	  757.00	  557.27	-1751.00	  440.06
      2.4700	  719.00	  557.84	-1751.00	  440.62
      2.5700	  683.00	  558.39	-1751.00	  441.18
      2.6700	  670.00	  558.94	-1751.00	  441.72
      2.7700	  709.00	  559.47	-1751.00	  442.26
      2.8700	  694.00	  560.00	-1751.00	  442.78
      2.9700	  629.00	  560.51	-1751.00	  443.30
      3.0700	  591.00	  561.02	-1751.00	  443.81
      3.1700	  647.00	  561.52	-1751.00	  444.31
      3.2700	  608.00	  562.01	-1751.00	  444.79
      3.3700	  713.00	  562.49	-1751.00	  445.27
      3.4700	  707.00	  562.96	-1751.00	  445.74
      3.5700	  814.00	  563.42	-1751.00	  446.21
      3.6700	  824.00	  563.87	-1751.00	  446.66
      3.7700	  873.00	  564.32	-1751.00	  447.10
      3.8700	  967.00	  564.75	-1751.00	  447.54
      3.9700	 1009.00	  565.18	-1751.00	  447.96
      4.0700	 1020.00	  565.60	-1751.00	  448.38
      4.1700	 1046.00	  566.00	-1751.00	  448.79
      4.2700	 1054.00	  566.40	-1751.00	  449.19
      4.3700	 1091.00	  566.80	-1751.00	  449.58
      4.4700	 1048.00	  567.18	-1751.00	  449.96
      4.5700	 1050.00	  567.55	-1751.00	  450.34
      4.6700	 1031.00	  567.92	-1751.00	  450.70
      4.7700	  952.00	  568.28	-1751.00	  451.06
      4.8700	  944.00	  568.63	-1751.00	  451.41
      4.9700	  962.00	  568.97	-1751.00	  451.75
      5.0700	  974.00	  569.30	-1751.00	  452.09
      5.1700	  922.00	  569.63	-1751.00	  452.41
      5.2700	  904.00	  569.94	-1751.00	  452.73
      5.3700	  890.00	  570.25	-1751.00	  453.04
      5.4700	  883.00	  570.56	-1751.00	  453.34
      5.5700	  828.00	  570.85	-1751.00	  453.64
      5.6700	  792.00	  571.14	-1751.00	  453.92
      5.7700	  831.00	  571.41	-1751.00	  454.20
      5.8700	  817.00	  571.69	-1751.00	  454.47
      5.9700	  827.00	  571.95	-1751.00	  454.73
      6.0700	  844.00	  572.21	-1751.00	  454.99
      6.1700	  767.00	  572.45	-1751.00	  455.24
      6.2700	  817.00	  572.69	-1751.00	  455.48
      6.3700	  764.00	  572.93	-1751.00	  455.71
      6.4700	  799.00	  573.16	-1751.00	  455.94
      6.5700	  712.00	  573.37	-1751.00	  456.16
      6.6700	  719.00	  573.59	-1751.00	  456.37
      6.7700	  737.00	  573.79	-1751.00	  456.58
      6.8700	  718.00	  573.99	-1751.00	  456.78
      6.9700	  711.00	  574.18	-1751.00	  456.97
      7.0700	  723.00	  574.37	-1751.00	  457.15
      7.1700	  708.00	  574.54	-1751.00	  457.33
      7.2700	  712.00	  574.71	-1751.00	  457.50
      7.3700	  691.00	  574.88	-1751.00	  457.66
      7.4700	  623.00	  575.04	-1751.00	  457.82
      7.5700	  645.00	  575.19	-1751.00	  457.97
      7.6700	  640.00	  575.33	-1751.00	  458.12
      7.7700	  649.00	  575.47	-1751.00	  458.25
      7.8700	  650.00	  575.60	-1751.00	  458.39
      7.9700	  610.00	  575.73	-1751.00	  458.51
      8.0700	  617.00	  575.84	-1751.00	  458.63
      8.1700	  658.00	  575.96	-1751.00	  458.74
      8.2700	  670.00	  576.06	-1751.00	  458.85
      8.3700	  585.00	  576.16	-1751.00	  458.95
      8.4700	  614.00	  576.26	-1751.00	  459.04
      8.5700	  590.00	  576.34	-1751.00	  459.13
      8.6700	  632.00	  576.43	-1751.00	  459.21
      8.7700	  616.00	  576.50	-1751.00	  459.29
      8.8700	  602.00	  576.57	-1751.00	  459.36
      8.9700	  618.00	  576.64	-1751.00	  459.42
      9.0700	  624.00	  576.70	-1751.00	  459.48
      9.1700	  613.00	  576.75	-1751.00	  459.53
      9.2700	  611.00	  576.79	-1751.00	  459.58
      9.3700	  620.00	  576.84	-1751.00	  459.62
      9.4700	  599.00	  576.87	-1751.00	  459.66
      9.5700	  640.00	  576.90	-1751.00	  459.69
      9.6700	  591.00	  576.93	-1751.00	  459.71
      9.7700	  595.00	  576.95	-1751.00	  459.73
      9.8700	  618.00	  576.96	-1751.00	  459.75
      9.9700	  609.00	  576.97	-1751.00	  459.75
     10.0700	  595.00	  577.60	-1733.60	  459.76
     10.1700	  605.00	  577.66	-1723.66	  459.76
     10.2700	  591.00	  577.73	-1737.73	  459.75
     10.3700	  573.00	  577.82	-1755.82	  459.74
     10.4700	  579.00	  577.94	-1749.94	  459.72
     10.5700	  593.00	  578.16	-1736.16	  459.70
     10.6700	  609.00	  578.56	-1720.56	  459.67
     10.7700	  560.00	  579.25	-1770.25	  459.64
     10.8700	  529.00	  580.30	-1802.30	  459.60
     10.9700	  575.00	  581.70	-1757.70	  459.56
     11.0700	  601.00	  583.41	-1733.41	  459.51
     11.1700	  570.00	  585.41	-1766.41	  459.46
     11.2700	  580.00	  587.75	-1758.75	  459.41
     11.3700	  572.00	  590.49	-1769.49	  459.35
     11.4700	  559.00	  593.75	-1785.75	  459.28
     11.5700	  603.00	  597.70	-1745.70	  459.21
     11.6700	  653.00	  602.67	-1700.67	  459.14
     11.7700	  598.00	  609.20	-1762.20	  459.06
     11.8700	  656.00	  618.26	-1713.26	  458.98
     11.9700	  696.00	  630.80	-1685.80	  458.89
     12.0700	  652.00	  645.78	-1744.78	  458.80
     12.1700	  716.00	  657.16	-1692.16	  458.70
     12.2700	  642.00	  654.60	-1763.60	  458.60
     12.3700	  653.00	  634.54	-1732.54	  458.50
     12.4700	  645.00	  609.83	-1715.83	  458.39
     12.5700	  583.00	  592.33	-1760.33	  458.28
     12.6700	  570.00	  583.48	-1764.48	  458.16
     12.7700	  554.00	  579.82	-1776.82	  458.04
     12.8700	  574.00	  578.27	-1755.27	  457.92
     12.9700	  604.00	  577.41	-1724.41	  457.79
     13.0700	  542.00	  576.82	-1785.82	  457.66
     13.1700	  587.00	  576.35	-1740.35	  457.52
     13.2700	  543.00	  575.97	-1783.97	  457.38
     13.3700	  569.00	  575.63	-1757.63	  457.24
     13.4700	  573.00	  575.34	-1753.34	  457.09
     13.5700	  553.00	  575.07	-1773.07	  456.94
     13.6700	  570.00	  574.82	-1755.82	  456.79
     13.7700	  536.00	  574.59	-1789.59	  456.63
     13.8700	  592.00	  574.36	-1733.36	  456.47
     13.9700	  588.00	  574.14	-1737.14	  456.30
     14.0700	  589.00	  573.93	-1735.93	  456.13
     14.1700	  545.00	  573.71	-1779.71	  455.96
     14.2700	  526.00	  573.51	-1798.51	  455.79
     14.3700	  562.00	  573.30	-1762.30	  455.61
     14.4700	  595.00	  573.09	-1729.09	  455.43
     14.5700	  547.00	  572.88	-1776.88	  455.25
     14.6700	  597.00	  572.68	-1726.68	  455.06
     14.7700	  604.00	  572.47	-1719.47	  454.87
     14.8700	  600.00	  572.26	-1723.26	  454.67
     14.9700	  564.00	  572.05	-1759.05	  454.48
     15.0700	  547.00	  571.83	-1775.83	  454.28
     15.1700	  590.00	  571.62	-1732.62	  454.07
     15.2700	  544.00	  571.40	-1778.40	  453.87
     15.3700	  581.00	  571.18	-1741.18	  453.66
     15.4700	  540.00	  570.96	-1781.96	  453.45
     15.5700	  586.00	  570.74	-1735.74	  453.24
     15.6700	  579.00	  570.52	-1742.52	  453.02
     15.7700	  544.00	  570.29	-1777.29	  452.80
     15.8700	  577.00	  570.06	-1744.06	  452.58
     15.9700	  592.00	  569.83	-1728.83	  452.35
     16.0700	  588.00	  569.60	-1732.60	  452.12
     16.1700	  607.00	  569.36	-1713.36	  451.89
     16.2700	  577.00	  569.13	-1743.13	  451.66
     16.3700	  579.00	  568.89	-1740.89	  451.43
     16.4700	  598.00	  568.65	-1721.65	  451.19
     16.5700	  574.00	  568.43	-1745.43	  450.95
     16.6700	  539.00	  568.18	-1780.18	  450.71
     16.7700	  514.00	  567.93	-1804.93	  450.46
     16.8700	  586.00	  567.69	-1732.69	  450.21
     16.9700	  560.00	  567.43	-1758.43	  449.97
     17.0700	  544.00	  567.18	-1774.18	  449.71
     17.1700	  554.00	  566.93	-1763.93	  449.46
     17.2700	  538.00	  566.67	-1779.67	  449.20
     17.3700	  534.00	  566.41	-1783.41	  448.95
     17.4700	  522.00	  566.15	-1795.15	  448.69
     17.5700	  568.00	  565.88	-1748.88	  448.42
     17.6700	  587.00	  565.62	-1729.62	  448.16
     17.7700	  536.00	  565.35	-1780.35	  447.89
     17.8700	  571.00	  565.18	-1745.18	  447.63
     17.9700	  623.00	  564.91	-1692.91	  447.36
     18.0700	  529.00	  564.64	-1786.64	  447.08
     18.1700	  557.00	  564.37	-1758.37	  446.81
     18.2700	  538.00	  564.10	-1777.10	  446.53
     18.3700	  591.00	  563.82	-1723.82	  446.26
     18.4700	  569.00	  563.55	-1745.55	  445.98
     18.5700	  545.00	  563.27	-1769.27	  445.70
     18.6700	  581.00	  562.99	-1732.99	  445.41
     18.7700	  530.00	  562.71	-1783.71	  445.13
     18.8700	  558.00	  562.52	-1755.52	  444.84
     18.9700	  513.00	  562.23	-1800.23	  444.56
     19.0700	  579.00	  561.95	-1733.95	  444.27
     19.1700	  556.00	  561.67	-1756.67	  443.98
     19.2700	  552.00	  561.38	-1760.38	  443.69
     19.3700	  570.00	  561.09	-1742.09	  443.39
     19.4700	  546.00	  560.81	-1765.81	  443.10
     19.5700	  506.00	  560.52	-1805.52	  442.80
     19.6700	  579.00	  560.23	-1732.23	  442.50
     19.7700	  566.00	  559.93	-1744.94	  442.21
     19.8700	  580.00	  559.64	-1730.64	  441.91
     19.9700	  539.00	  559.35	-1771.35	  441.60
     20.0700	  532.00	  559.06	-1778.06	  441.30
     20.1700	  582.00	  558.76	-1727.76	  441.00
     20.2700	  535.00	  558.44	-1774.44	  440.69
     20.3700	  540.00	  558.15	-1769.15	  440.39
     20.4700	  531.00	  557.85	-1777.85	  440.08
     20.5700	  582.00	  557.56	-1726.56	  439.77
     20.6700	  571.00	  557.26	-1737.26	  439.46
     20.7700	  523.00	  556.96	-1784.96	  439.15
     20.8700	  541.00	  556.66	-1766.66	  438.84
     20.9700	  556.00	  556.40	-1751.40	  438.53
     21.0700	  561.00	  556.10	-1746.10	  438.21
     21.1700	  527.00	  555.81	-1779.81	  437.90
     21.2700	  577.00	  555.51	-1729.51	  437.59
     21.3700	  591.00	  555.21	-1715.21	  437.27
     21.4700	  513.00	  554.92	-1792.92	  436.95
     21.5700	  543.00	  554.62	-1762.62	  436.64
     21.6700	  548.00	  554.33	-1757.33	  436.32
     21.7700	  547.00	  554.03	-1758.03	  436.00
     21.8700	  576.00	  553.74	-1728.74	  435.68
     21.9700	  543.00	  553.45	-1761.45	  435.36
     22.0700	  507.00	  553.16	-1797.16	  435.04
     22.1700	  548.00	  552.87	-1755.87	  434.72
     22.2700	  559.00	  552.58	-1744.58	  434.39
     22.3700	  534.00	  552.30	-1769.30	  434.07
     22.4700	  583.00	  552.02	-1720.02	  433.75
     22.5700	  525.00	  551.74	-1777.74	  433.42
     22.6700	  579.00	  551.47	-1723.47	  433.10
     22.7700	  526.00	  551.20	-1776.20	  432.77
     22.8700	  595.00	  550.94	-1706.94	  432.45
     22.9700	  576.00	  550.69	-1725.69	  432.12
     23.0700	  549.00	  550.45	-1752.45	  431.80
     23.1700	  553.00	  550.22	-1748.22	  431.47
     23.2700	  567.00	  550.01	-1734.01	  431.14
     23.3700	  573.00	  549.82	-1727.82	  430.81
     23.4700	  612.00	  549.65	-1688.65	  430.49
     23.5700	  606.00	  549.52	-1694.52	  430.16
     23.6700	  509.00	  549.45	-1791.45	  429.83
     23.7700	  538.00	  549.46	-1762.46	  429.50
     23.8700	  598.00	  549.64	-1702.64	  429.17
     23.9700	  547.00	  550.32	-1754.32	  428.85
     24.0700	  553.00	  551.66	-1749.66	  428.52
     24.1700	  567.00	  554.44	-1738.44	  428.19
     24.2700	  547.00	  559.52	-1763.52	  427.86
     24.3700	  584.00	  567.87	-1734.87	  427.53
     24.4700	  602.00	  580.70	-1729.70	  427.20
     24.5700	  605.00	  598.77	-1744.77	  426.87
     24.6700	  604.00	  619.81	-1766.81	  426.54
     24.7700	  637.00	  635.52	-1749.52	  426.21
     24.8700	  605.00	  633.80	-1779.80	  425.88
     24.9700	  625.00	  611.96	-1737.96	  425.55
     25.0700	  591.00	  584.62	-1744.62	  425.22
     25.1700	  595.00	  564.49	-1720.49	  424.90
     25.2700	  577.00	  553.71	-1727.71	  424.57
     25.3700	  565.00	  549.03	-1735.03	  424.24
     25.4700	  525.00	  547.05	-1773.05	  423.91
     25.5700	  565.00	  546.03	-1732.03	  423.58
     25.6700	  543.00	  545.36	-1753.36	  423.25
     25.7700	  566.00	  544.87	-1729.87	  422.92
     25.8700	  563.00	  544.49	-1732.49	  422.60
     25.9700	  517.00	  544.21	-1778.21	  422.27
     26.0700	  585.00	  544.01	-1710.01	  421.94
     26.1700	  554.00	  543.87	-1740.87	  421.62
     26.2700	  560.00	  543.81	-1734.81	  421.29
     26.3700	  544.00	  543.82	-1750.82	  420.96
     26.4700	  545.00	  543.91	-1749.91	  420.64
     26.5700	  545.00	  544.09	-1750.09	  420.31
     26.6700	  554.00	  544.39	-1741.39	  419.99
     26.7700	  543.00	  544.82	-1752.82	  419.66
     26.8700	  593.00	  545.42	-1703.42	  419.34
     26.9700	  618.00	  546.25	-1679.25	  419.01
     27.0700	  536.00	  547.37	-1762.37	  418.69
     27.1700	  566.00	  548.93	-1733.93	  418.37
     27.2700	  583.00	  551.16	-1719.16	  418.04
     27.3700	  546.00	  554.58	-1759.58	  417.72
     27.4700	  580.00	  560.11	-1731.11	  417.40
     27.5700	  557.00	  569.44	-1763.44	  417.08
     27.6700	  567.00	  585.18	-1769.18	  416.76
     27.7700	  618.00	  610.67	-1743.67	  416.44
     27.8700	  642.00	  648.69	-1757.69	  416.12
     27.9700	  655.00	  699.19	-1795.19	  415.80
     28.0700	  798.00	  756.35	-1709.35	  415.49
     28.1700	  829.00	  806.11	-1728.11	  415.17
     28.2700	 1007.00	  827.65	-1571.65	  414.85
     28.3700	  900.00	  809.39	-1660.39	  414.54
     28.4700	  810.00	  772.10	-1713.10	  414.22
     28.5700	  742.00	  749.07	-1758.07	  413.91
     28.6700	  703.00	  755.31	-1803.31	  413.60
     28.7700	  777.00	  785.47	-1759.47	  413.28
     28.8700	  811.00	  818.56	-1758.56	  412.97
     28.9700	  814.00	  824.61	-1761.61	  412.66
     29.0700	  779.00	  784.68	-1756.68	  412.35
     29.1700	  746.00	  716.29	-1721.29	  412.04
     29.2700	  635.00	  651.07	-1767.07	  411.73
     29.3700	  640.00	  604.08	-1715.08	  411.43
     29.4700	  586.00	  575.73	-1740.73	  411.12
     29.5700	  631.00	  560.46	-1680.46	  410.81
     29.6700	  622.00	  552.42	-1681.42	  410.51
     29.7700	  612.00	  547.87	-1686.87	  410.21
     29.8700	  591.00	  545.03	-1705.03	  409.90
     29.9700	  559.00	  543.20	-1735.20	  409.60
     30.0700	  544.00	  542.21	-1749.21	  409.30
     30.1700	  573.00	  542.19	-1720.19	  409.00
     30.2700	  578.00	  543.69	-1716.69	  408.70
     30.3700	  493.00	  547.76	-1805.76	  408.40
     30.4700	  528.00	  556.04	-1779.04	  408.11
     30.5700	  532.00	  570.33	-1789.33	  407.81
     30.6700	  585.00	  591.20	-1757.20	  407.52
     30.7700	  656.00	  616.14	-1711.14	  407.22
     30.8700	  632.00	  638.06	-1757.06	  406.93
     30.9700	  619.00	  645.99	-1777.99	  406.64
     31.0700	  608.00	  632.33	-1775.33	  406.35
     31.1700	  539.00	  604.23	-1816.23	  406.06
     31.2700	  601.00	  576.04	-1726.04	  405.77
     31.3700	  556.00	  555.37	-1750.37	  405.48
     31.4700	  521.00	  542.90	-1772.90	  405.20
     31.5700	  586.00	  536.31	-1701.31	  404.91
     31.6700	  553.00	  532.95	-1730.95	  404.63
     31.7700	  538.00	  531.09	-1744.09	  404.35
     31.8700	  534.00	  529.90	-1746.90	  404.06
     31.9700	  523.00	  529.06	-1757.06	  403.78
     32.0700	  550.00	  528.45	-1729.45	  403.51
     32.1700	  494.00	  528.01	-1785.01	  403.23
     32.2700	  520.00	  527.72	-1758.72	  402.95
     32.3700	  526.00	  527.58	-1752.58	  402.68
     32.4700	  539.00	  527.58	-1739.58	  402.40
     32.5700	  545.00	  527.73	-1733.73	  402.13
     32.6700	  507.00	  528.07	-1772.07	  401.86
     32.7700	  546.00	  528.62	-1733.62	  401.59
     32.8700	  578.00	  529.46	-1702.46	  401.32
     32.9700	  555.00	  530.67	-1726.67	  401.05
     33.0700	  548.00	  532.46	-1735.46	  400.79
     33.1700	  538.00	  535.21	-1748.21	  400.52
     33.2700	  544.00	  539.86	-1746.86	  400.26
     33.3700	  553.00	  548.56	-1746.56	  400.00
     33.4700	  547.00	  565.46	-1769.46	  399.74
     33.5700	  590.00	  597.44	-1758.44	  399.48
     33.6700	  679.00	  652.78	-1724.78	  399.22
     33.7700	  730.00	  735.89	-1756.89	  398.97
     33.8700	  889.00	  838.47	-1700.47	  398.71
     33.9700	  985.00	  933.23	-1699.23	  398.46
     34.0700	 1090.00	  977.11	-1638.11	  398.21
     34.1700	 1020.00	  937.16	-1668.16	  397.96
     34.2700	  886.00	  833.87	-1698.87	  397.71
     34.3700	  761.00	  721.91	-1711.91	  397.46
     34.4700	  636.00	  635.66	-1750.66	  397.21
     34.5700	  591.00	  582.21	-1742.21	  396.97
     34.6700	  569.00	  553.90	-1735.90	  396.73
     34.7700	  591.00	  540.03	-1700.03	  396.48
     34.8700	  531.00	  532.92	-1752.92	  396.24
     34.9700	  531.00	  528.70	-1748.70	  396.01
     35.0700	  522.00	  525.78	-1754.78	  395.77
     35.1700	  535.00	  523.57	-1739.57	  395.53
     35.2700	  514.00	  521.82	-1758.82	  395.30
     35.3700	  513.00	  520.39	-1758.39	  395.07
     35.4700	  506.00	  519.19	-1764.19	  394.84
     35.5700	  551.00	  518.20	-1718.20	  394.61
     35.6700	  520.00	  517.33	-1748.33	  394.38
     35.7700	  516.00	  516.57	-1751.57	  394.15
     35.8700	  489.00	  516.38	-1778.38	  393.93
     35.9700	  482.00	  515.79	-1784.79	  393.70
     36.0700	  516.00	  515.26	-1750.26	  393.48
     36.1700	  497.00	  514.78	-1768.78	  393.26
     36.2700	  505.00	  514.34	-1760.34	  393.05
     36.3700	  492.00	  513.94	-1772.94	  392.83
     36.4700	  503.00	  513.58	-1761.58	  392.61
     36.5700	  513.00	  513.25	-1751.25	  392.40
     36.6700	  491.00	  512.95	-1772.95	  392.19
     36.7700	  536.00	  512.69	-1727.69	  391.98
     36.8700	  493.00	  512.49	-1770.49	  391.77
     36.9700	  546.00	  512.38	-1717.39	  391.56
     37.0700	  511.00	  512.48	-1752.48	  391.36
     37.1700	  506.00	  512.98	-1757.98	  391.15
     37.2700	  519.00	  514.26	-1746.26	  390.95
     37.3700	  527.00	  516.74	-1740.74	  390.75
     37.4700	  526.00	  520.58	-1745.58	  390.55
     37.5700	  518.00	  525.31	-1758.31	  390.36
     37.6700	  526.00	  529.59	-1754.59	  390.16
     37.7700	  535.00	  531.74	-1747.74	  389.97
     37.8700	  522.00	  531.03	-1760.03	  389.77
     37.9700	  539.00	  528.41	-1740.41	  389.58
     38.0700	  536.00	  524.88	-1739.88	  389.40
     38.1700	  501.00	  520.83	-1770.83	  389.21
     38.2700	  523.00	  516.82	-1744.82	  389.02
     38.3700	  536.00	  513.53	-1728.53	  388.84
     38.4700	  520.00	  511.18	-1742.18	  388.66
     38.5700	  540.00	  509.69	-1720.69	  388.48
     38.6700	  509.00	  508.81	-1750.81	  388.30
     38.7700	  501.00	  508.27	-1758.27	  388.12
     38.8700	  484.00	  507.81	-1774.81	  387.95
     38.9700	  509.00	  507.52	-1749.52	  387.78
     39.0700	  488.00	  507.28	-1770.28	  387.60
     39.1700	  491.00	  507.06	-1767.06	  387.44
     39.2700	  501.00	  506.77	-1756.77	  387.27
     39.3700	  539.00	  506.59	-1718.59	  387.10
     39.4700	  502.00	  506.41	-1755.41	  386.94
     39.5700	  542.00	  506.25	-1715.25	  386.77
     39.6700	  472.00	  506.10	-1785.10	  386.61
     39.7700	  459.00	  505.96	-1797.96	  386.45
     39.8700	  489.00	  505.94	-1767.94	  386.30
     39.9700	  475.00	  505.82	-1781.82	  386.14
     40.0700	  503.00	  505.71	-1753.71	  385.99
     40.1700	  485.00	  505.61	-1771.61	  385.83
     40.2700	  489.00	  505.52	-1767.52	  385.68
     40.3700	  513.00	  505.44	-1743.44	  385.54
     40.4700	  489.00	  505.37	-1767.37	  385.39
     40.5700	  519.00	  505.32	-1737.32	  385.24
     40.6700	  463.00	  505.28	-1793.28	  385.10
     40.7700	  481.00	  505.27	-1775.27	  384.96
