MSG Master    CELL:    5.91930   5.91930  23.27661   90.0000   90.0000  120.0000   SPGR: P 63/m m c             TEMP:   1061.95
  1   1280     2.52000     0.00000    -0.12254     0.00000     0.00000    0
    99     0     2
       0.00000      10.00000
     125.00000     130.00000
 2Theta	Yobs	Ycal	Yobs-Ycal	Backg	Posr	(hkl)	K
      0.7700	    0.00	  522.23	-1717.75	  404.44
      0.8700	    0.00	  523.19	-1717.75	  405.41
      0.9700	   41.00	  524.15	-1717.75	  406.37
      1.0700	   46.00	  525.09	-1717.75	  407.31
      1.1700	   48.00	  526.03	-1717.75	  408.24
      1.2700	   38.00	  526.94	-1717.75	  409.16
      1.3700	   41.00	  527.85	-1717.75	  410.07
      1.4700	   90.00	  528.74	-1717.75	  410.96
      1.5700	  303.00	  529.63	-1717.75	  411.84
      1.6700	  450.00	  530.50	-1717.75	  412.71
      1.7700	  574.00	  531.35	-1717.75	  413.57
      1.8700	  620.00	  532.20	-1717.75	  414.41
      1.9700	  720.00	  533.03	-1717.75	  415.24
      2.0700	  759.00	  533.85	-1717.75	  416.07
      2.1700	  797.00	  534.66	-1717.75	  416.87
      2.2700	  718.00	  535.46	-1717.75	  417.67
      2.3700	  786.00	  536.24	-1717.75	  418.46
      2.4700	  778.00	  537.02	-1717.75	  419.23
      2.5700	  688.00	  537.78	-1717.75	  420.00
      2.6700	  665.00	  538.53	-1717.75	  420.75
      2.7700	  613.00	  539.27	-1717.75	  421.49
      2.8700	  624.00	  540.00	-1717.75	  422.22
      2.9700	  598.00	  540.72	-1717.75	  422.93
      3.0700	  601.00	  541.43	-1717.75	  423.64
      3.1700	  592.00	  542.12	-1717.75	  424.33
      3.2700	  632.00	  542.81	-1717.75	  425.02
      3.3700	  710.00	  543.48	-1717.75	  425.69
      3.4700	  797.00	  544.14	-1717.75	  426.36
      3.5700	  889.00	  544.79	-1717.75	  427.01
      3.6700	  927.00	  545.43	-1717.75	  427.65
      3.7700	  984.00	  546.07	-1717.75	  428.28
      3.8700	 1011.00	  546.69	-1717.75	  428.90
      3.9700	 1049.00	  547.30	-1717.75	  429.51
      4.0700	  979.00	  547.90	-1717.75	  430.11
      4.1700	 1153.00	  548.49	-1717.75	  430.70
      4.2700	 1146.00	  549.06	-1717.75	  431.28
      4.3700	 1105.00	  549.63	-1717.75	  431.85
      4.4700	 1097.00	  550.19	-1717.75	  432.41
      4.5700	 1043.00	  550.74	-1717.75	  432.96
      4.6700	 1002.00	  551.28	-1717.75	  433.49
      4.7700	 1024.00	  551.81	-1717.75	  434.02
      4.8700	  999.00	  552.33	-1717.75	  434.54
      4.9700	  986.00	  552.84	-1717.75	  435.05
      5.0700	 1019.00	  553.34	-1717.75	  435.55
      5.1700	  925.00	  553.83	-1717.75	  436.04
      5.2700	  906.00	  554.31	-1717.75	  436.53
      5.3700	  813.00	  554.78	-1717.75	  437.00
      5.4700	  950.00	  555.25	-1717.75	  437.46
      5.5700	  849.00	  555.70	-1717.75	  437.91
      5.6700	  833.00	  556.14	-1717.75	  438.36
      5.7700	  830.00	  556.58	-1717.75	  438.79
      5.8700	  826.00	  557.00	-1717.75	  439.22
      5.9700	  836.00	  557.42	-1717.75	  439.64
      6.0700	  836.00	  557.83	-1717.75	  440.04
      6.1700	  758.00	  558.23	-1717.75	  440.44
      6.2700	  779.00	  558.62	-1717.75	  440.83
      6.3700	  741.00	  559.00	-1717.75	  441.22
      6.4700	  777.00	  559.37	-1717.75	  441.59
      6.5700	  759.00	  559.74	-1717.75	  441.95
      6.6700	  741.00	  560.09	-1717.75	  442.31
      6.7700	  735.00	  560.44	-1717.75	  442.66
      6.8700	  742.00	  560.78	-1717.75	  443.00
      6.9700	  689.00	  561.11	-1717.75	  443.33
      7.0700	  664.00	  561.44	-1717.75	  443.65
      7.1700	  634.00	  561.75	-1717.75	  443.96
      7.2700	  686.00	  562.06	-1717.75	  444.27
      7.3700	  676.00	  562.36	-1717.75	  444.57
      7.4700	  623.00	  562.65	-1717.75	  444.86
      7.5700	  692.00	  562.93	-1717.75	  445.14
      7.6700	  673.00	  563.20	-1717.75	  445.42
      7.7700	  653.00	  563.47	-1717.75	  445.69
      7.8700	  629.00	  563.73	-1717.75	  445.94
      7.9700	  633.00	  563.98	-1717.75	  446.20
      8.0700	  593.00	  564.23	-1717.75	  446.44
      8.1700	  648.00	  564.46	-1717.75	  446.68
      8.2700	  604.00	  564.69	-1717.75	  446.91
      8.3700	  633.00	  564.91	-1717.75	  447.13
      8.4700	  638.00	  565.13	-1717.75	  447.34
      8.5700	  625.00	  565.34	-1717.75	  447.55
      8.6700	  668.00	  565.54	-1717.75	  447.75
      8.7700	  585.00	  565.73	-1717.75	  447.94
      8.8700	  633.00	  565.92	-1717.75	  448.13
      8.9700	  587.00	  566.10	-1717.75	  448.31
      9.0700	  591.00	  566.27	-1717.75	  448.48
      9.1700	  613.00	  566.43	-1717.75	  448.65
      9.2700	  585.00	  566.59	-1717.75	  448.80
      9.3700	  615.00	  566.74	-1717.75	  448.96
      9.4700	  630.00	  566.89	-1717.75	  449.10
      9.5700	  575.00	  567.03	-1717.75	  449.24
      9.6700	  610.00	  567.16	-1717.75	  449.37
      9.7700	  620.00	  567.28	-1717.75	  449.50
      9.8700	  614.00	  567.40	-1717.75	  449.62
      9.9700	  605.00	  567.51	-1717.75	  449.73
     10.0700	  582.00	  568.69	-1704.44	  449.83
     10.1700	  602.00	  568.90	-1684.65	  449.93
     10.2700	  560.00	  569.15	-1726.90	  450.03
     10.3700	  584.00	  569.43	-1703.18	  450.11
     10.4700	  579.00	  569.78	-1708.53	  450.20
     10.5700	  588.00	  570.26	-1700.01	  450.27
     10.6700	  622.00	  570.98	-1666.73	  450.34
     10.7700	  590.00	  572.05	-1699.80	  450.40
     10.8700	  583.00	  573.55	-1708.30	  450.46
     10.9700	  615.00	  575.46	-1678.21	  450.51
     11.0700	  545.00	  577.78	-1750.53	  450.56
     11.1700	  587.00	  580.49	-1711.24	  450.60
     11.2700	  561.00	  583.64	-1740.39	  450.63
     11.3700	  592.00	  587.31	-1713.06	  450.66
     11.4700	  574.00	  591.65	-1735.40	  450.68
     11.5700	  564.00	  596.90	-1750.65	  450.70
     11.6700	  609.00	  603.44	-1712.19	  450.71
     11.7700	  618.00	  611.92	-1711.67	  450.72
     11.8700	  624.00	  623.14	-1716.89	  450.72
     11.9700	  639.00	  637.40	-1716.15	  450.72
     12.0700	  697.00	  652.70	-1673.45	  450.71
     12.1700	  642.00	  663.03	-1738.78	  450.70
     12.2700	  689.00	  659.35	-1688.10	  450.68
     12.3700	  660.00	  638.95	-1696.70	  450.65
     12.4700	  669.00	  613.56	-1662.31	  450.62
     12.5700	  596.00	  594.07	-1715.82	  450.59
     12.6700	  588.00	  582.60	-1712.35	  450.55
     12.7700	  591.00	  576.88	-1703.63	  450.51
     12.8700	  589.00	  574.14	-1702.89	  450.46
     12.9700	  547.00	  572.66	-1743.41	  450.40
     13.0700	  532.00	  571.71	-1757.46	  450.34
     13.1700	  535.00	  571.02	-1753.77	  450.28
     13.2700	  570.00	  570.48	-1718.23	  450.21
     13.3700	  615.00	  570.05	-1672.80	  450.14
     13.4700	  521.00	  569.69	-1766.44	  450.07
     13.5700	  577.00	  569.39	-1710.14	  449.98
     13.6700	  564.00	  569.12	-1722.87	  449.90
     13.7700	  575.00	  568.88	-1711.63	  449.81
     13.8700	  570.00	  568.66	-1716.41	  449.72
     13.9700	  577.00	  568.45	-1709.20	  449.62
     14.0700	  515.00	  568.26	-1771.01	  449.52
     14.1700	  563.00	  568.08	-1722.83	  449.41
     14.2700	  557.00	  567.90	-1728.65	  449.30
     14.3700	  549.00	  567.73	-1736.48	  449.18
     14.4700	  557.00	  567.56	-1728.31	  449.06
     14.5700	  530.00	  567.39	-1755.14	  448.94
     14.6700	  570.00	  567.22	-1714.97	  448.82
     14.7700	  546.00	  567.06	-1738.81	  448.68
     14.8700	  557.00	  566.89	-1727.64	  448.55
     14.9700	  579.00	  566.73	-1705.48	  448.41
     15.0700	  601.00	  566.56	-1683.31	  448.27
     15.1700	  549.00	  566.39	-1735.14	  448.13
     15.2700	  535.00	  566.22	-1748.97	  447.98
     15.3700	  592.00	  566.05	-1691.80	  447.82
     15.4700	  552.00	  565.88	-1731.63	  447.67
     15.5700	  589.00	  565.73	-1694.48	  447.51
     15.6700	  565.00	  565.55	-1718.30	  447.34
     15.7700	  552.00	  565.37	-1731.12	  447.18
     15.8700	  548.00	  565.19	-1734.94	  447.01
     15.9700	  583.00	  565.01	-1699.76	  446.83
     16.0700	  555.00	  564.82	-1727.57	  446.66
     16.1700	  559.00	  564.63	-1723.38	  446.48
     16.2700	  534.00	  564.44	-1748.19	  446.30
     16.3700	  538.00	  564.25	-1744.00	  446.11
     16.4700	  581.00	  564.05	-1700.80	  445.92
     16.5700	  556.00	  563.86	-1725.61	  445.73
     16.6700	  593.00	  563.65	-1688.40	  445.53
     16.7700	  545.00	  563.45	-1736.20	  445.33
     16.8700	  586.00	  563.25	-1695.00	  445.13
     16.9700	  534.00	  563.04	-1746.79	  444.93
     17.0700	  576.00	  562.83	-1704.58	  444.72
     17.1700	  588.00	  562.61	-1692.36	  444.51
     17.2700	  547.00	  562.40	-1733.15	  444.30
     17.3700	  548.00	  562.18	-1731.93	  444.09
     17.4700	  583.00	  561.96	-1696.71	  443.87
     17.5700	  523.00	  561.74	-1756.49	  443.65
     17.6700	  557.00	  561.51	-1722.26	  443.42
     17.7700	  610.00	  561.28	-1669.03	  443.20
     17.8700	  563.00	  561.05	-1715.80	  442.97
     17.9700	  551.00	  560.82	-1727.57	  442.74
     18.0700	  597.00	  560.69	-1681.44	  442.51
     18.1700	  593.00	  560.46	-1685.21	  442.27
     18.2700	  602.00	  560.22	-1675.97	  442.03
     18.3700	  559.00	  559.98	-1718.73	  441.79
     18.4700	  565.00	  559.74	-1712.49	  441.55
     18.5700	  563.00	  559.50	-1714.25	  441.31
     18.6700	  533.00	  559.26	-1744.01	  441.06
     18.7700	  558.00	  559.10	-1718.85	  440.81
     18.8700	  549.00	  558.85	-1727.60	  440.56
     18.9700	  541.00	  558.60	-1735.35	  440.31
     19.0700	  575.00	  558.35	-1701.10	  440.05
     19.1700	  568.00	  558.10	-1707.85	  439.80
     19.2700	  540.00	  557.85	-1735.60	  439.54
     19.3700	  559.00	  557.59	-1716.34	  439.27
     19.4700	  537.00	  557.34	-1738.09	  439.01
     19.5700	  556.00	  557.08	-1718.83	  438.75
     19.6700	  519.00	  556.82	-1755.57	  438.48
     19.7700	  546.00	  556.56	-1728.31	  438.21
     19.8700	  539.00	  556.30	-1735.05	  437.94
     19.9700	  486.00	  556.04	-1787.79	  437.67
     20.0700	  547.00	  555.77	-1726.52	  437.40
     20.1700	  564.00	  555.51	-1709.26	  437.12
     20.2700	  501.00	  555.24	-1771.99	  436.84
     20.3700	  554.00	  554.98	-1718.73	  436.56
     20.4700	  538.00	  554.71	-1734.46	  436.28
     20.5700	  569.00	  554.44	-1703.19	  436.00
     20.6700	  552.00	  554.20	-1719.95	  435.72
     20.7700	  550.00	  553.93	-1721.68	  435.44
     20.8700	  551.00	  553.66	-1720.41	  435.15
     20.9700	  515.00	  553.40	-1756.15	  434.86
     21.0700	  580.00	  553.13	-1690.88	  434.57
     21.1700	  544.00	  552.86	-1726.61	  434.28
     21.2700	  517.00	  552.55	-1753.30	  433.99
     21.3700	  573.00	  552.28	-1697.03	  433.70
     21.4700	  541.00	  552.01	-1728.76	  433.41
     21.5700	  528.00	  551.74	-1741.49	  433.11
     21.6700	  565.00	  551.47	-1704.22	  432.81
     21.7700	  574.00	  551.21	-1694.96	  432.52
     21.8700	  561.00	  550.94	-1707.69	  432.22
     21.9700	  518.00	  550.68	-1750.43	  431.92
     22.0700	  555.00	  550.42	-1713.17	  431.62
     22.1700	  566.00	  550.16	-1701.91	  431.32
     22.2700	  525.00	  549.91	-1742.66	  431.02
     22.3700	  571.00	  549.66	-1696.41	  430.71
     22.4700	  571.00	  549.41	-1696.16	  430.41
     22.5700	  558.00	  549.17	-1708.92	  430.10
     22.6700	  536.00	  548.93	-1730.68	  429.80
     22.7700	  577.00	  548.71	-1689.46	  429.49
     22.8700	  555.00	  548.49	-1711.24	  429.18
     22.9700	  501.00	  548.28	-1765.03	  428.87
     23.0700	  491.00	  548.09	-1774.84	  428.57
     23.1700	  544.00	  547.92	-1721.67	  428.26
     23.2700	  550.00	  547.78	-1715.53	  427.95
     23.3700	  582.00	  547.66	-1683.41	  427.63
     23.4700	  557.00	  547.73	-1708.48	  427.32
     23.5700	  581.00	  547.72	-1684.47	  427.01
     23.6700	  526.00	  547.80	-1739.55	  426.70
     23.7700	  593.00	  548.01	-1672.76	  426.38
     23.8700	  545.00	  548.48	-1721.23	  426.07
     23.9700	  552.00	  549.43	-1715.18	  425.76
     24.0700	  545.00	  551.29	-1724.04	  425.44
     24.1700	  534.00	  554.68	-1738.43	  425.13
     24.2700	  592.00	  560.40	-1686.15	  424.81
     24.3700	  585.00	  569.33	-1702.08	  424.49
     24.4700	  587.00	  582.19	-1712.94	  424.18
     24.5700	  571.00	  598.76	-1745.51	  423.86
     24.6700	  601.00	  616.19	-1732.94	  423.55
     24.7700	  626.00	  627.72	-1719.47	  423.23
     24.8700	  623.00	  624.65	-1719.40	  422.91
     24.9700	  595.00	  606.12	-1728.87	  422.59
     25.0700	  618.00	  583.40	-1683.15	  422.28
     25.1700	  578.00	  565.66	-1705.41	  421.96
     25.2700	  577.00	  554.88	-1695.63	  421.64
     25.3700	  546.00	  549.30	-1721.05	  421.32
     25.4700	  545.00	  546.55	-1719.30	  421.00
     25.5700	  524.00	  545.07	-1738.82	  420.69
     25.6700	  543.00	  544.13	-1718.88	  420.37
     25.7700	  575.00	  543.46	-1686.21	  420.05
     25.8700	  563.00	  542.95	-1697.70	  419.73
     25.9700	  540.00	  542.57	-1720.32	  419.41
     26.0700	  561.00	  542.29	-1699.04	  419.09
     26.1700	  573.00	  542.10	-1686.85	  418.78
     26.2700	  528.00	  541.99	-1731.74	  418.46
     26.3700	  542.00	  541.97	-1717.72	  418.14
     26.4700	  534.00	  542.04	-1725.79	  417.82
     26.5700	  584.00	  542.20	-1675.95	  417.51
     26.6700	  553.00	  542.49	-1707.24	  417.19
     26.7700	  539.00	  542.92	-1721.67	  416.87
     26.8700	  572.00	  543.52	-1689.27	  416.55
     26.9700	  538.00	  544.35	-1724.10	  416.24
     27.0700	  527.00	  545.49	-1736.24	  415.92
     27.1700	  595.00	  547.07	-1669.82	  415.60
     27.2700	  569.00	  549.33	-1698.08	  415.29
     27.3700	  513.00	  552.80	-1757.55	  414.97
     27.4700	  578.00	  558.43	-1698.18	  414.66
     27.5700	  553.00	  568.02	-1732.77	  414.34
     27.6700	  527.00	  584.38	-1775.13	  414.03
     27.7700	  616.00	  611.17	-1712.92	  413.72
     27.8700	  611.00	  651.64	-1758.39	  413.40
     27.9700	  702.00	  706.09	-1721.84	  413.09
     28.0700	  803.00	  768.50	-1683.25	  412.78
     28.1700	  868.00	  823.51	-1673.26	  412.47
     28.2700	  971.00	  847.72	-1594.47	  412.15
     28.3700	  858.00	  826.53	-1686.28	  411.84
     28.4700	  826.00	  781.03	-1672.78	  411.53
     28.5700	  757.00	  747.81	-1708.56	  411.22
     28.6700	  655.00	  744.06	-1806.81	  410.92
     28.7700	  775.00	  765.51	-1708.26	  410.61
     28.8700	  800.00	  792.64	-1710.39	  410.30
     28.9700	  781.00	  797.75	-1734.50	  409.99
     29.0700	  782.00	  762.67	-1698.42	  409.69
     29.1700	  689.00	  701.53	-1730.28	  409.38
     29.2700	  643.00	  642.35	-1717.10	  409.08
     29.3700	  637.00	  599.03	-1679.78	  408.77
     29.4700	  555.00	  572.41	-1735.16	  408.47
     29.5700	  604.00	  557.78	-1671.53	  408.16
     29.6700	  584.00	  549.97	-1683.72	  407.86
     29.7700	  581.00	  545.53	-1682.28	  407.56
     29.8700	  637.00	  542.76	-1623.51	  407.26
     29.9700	  569.00	  540.98	-1689.73	  406.96
     30.0700	  546.00	  540.00	-1711.75	  406.66
     30.1700	  582.00	  539.95	-1675.70	  406.37
     30.2700	  547.00	  541.28	-1712.03	  406.07
     30.3700	  555.00	  544.88	-1707.63	  405.77
     30.4700	  532.00	  552.06	-1737.81	  405.48
     30.5700	  629.00	  564.18	-1652.93	  405.18
     30.6700	  569.00	  581.57	-1730.32	  404.89
     30.7700	  571.00	  601.97	-1748.72	  404.60
     30.8700	  608.00	  619.74	-1729.49	  404.31
     30.9700	  559.00	  626.21	-1784.96	  404.02
     31.0700	  600.00	  615.31	-1733.06	  403.73
     31.1700	  578.00	  592.53	-1732.28	  403.44
     31.2700	  544.00	  569.22	-1742.97	  403.15
     31.3700	  559.00	  551.63	-1710.38	  402.87
     31.4700	  513.00	  540.62	-1745.37	  402.58
     31.5700	  529.00	  534.54	-1723.29	  402.30
     31.6700	  528.00	  531.33	-1721.08	  402.02
     31.7700	  499.00	  529.54	-1748.29	  401.73
     31.8700	  549.00	  528.43	-1697.18	  401.45
     31.9700	  551.00	  527.68	-1694.43	  401.17
     32.0700	  556.00	  527.16	-1688.91	  400.90
     32.1700	  576.00	  526.83	-1668.58	  400.62
     32.2700	  556.00	  526.66	-1688.41	  400.34
     32.3700	  562.00	  526.65	-1682.40	  400.07
     32.4700	  571.00	  526.80	-1673.55	  399.80
     32.5700	  518.00	  527.14	-1726.89	  399.52
     32.6700	  552.00	  527.69	-1693.44	  399.25
     32.7700	  525.00	  528.51	-1721.26	  398.98
     32.8700	  552.00	  529.68	-1695.43	  398.71
     32.9700	  557.00	  531.33	-1692.08	  398.45
     33.0700	  557.00	  533.70	-1694.45	  398.18
     33.1700	  575.00	  537.30	-1680.05	  397.92
     33.2700	  546.00	  543.28	-1715.03	  397.65
     33.3700	  526.00	  553.99	-1745.74	  397.39
     33.4700	  548.00	  573.79	-1743.54	  397.13
     33.5700	  604.00	  609.34	-1723.09	  396.87
     33.6700	  657.00	  667.87	-1728.62	  396.61
     33.7700	  774.00	  752.06	-1695.81	  396.35
     33.8700	  893.00	  852.55	-1677.30	  396.10
     33.9700	  970.00	  943.11	-1690.86	  395.85
     34.0700	 1030.00	  983.81	-1671.56	  395.59
     34.1700	 1015.00	  944.76	-1647.51	  395.34
     34.2700	  892.00	  845.38	-1671.13	  395.09
     34.3700	  795.00	  736.30	-1659.05	  394.84
     34.4700	  672.00	  649.69	-1695.44	  394.60
     34.5700	  614.00	  593.27	-1697.02	  394.35
     34.6700	  547.00	  561.37	-1732.12	  394.11
     34.7700	  518.00	  544.68	-1744.43	  393.86
     34.8700	  554.00	  535.77	-1699.52	  393.62
     34.9700	  521.00	  530.46	-1727.21	  393.38
     35.0700	  542.00	  526.83	-1702.58	  393.15
     35.1700	  499.00	  524.11	-1742.86	  392.91
     35.2700	  551.00	  521.98	-1688.73	  392.67
     35.3700	  516.00	  520.24	-1721.99	  392.44
     35.4700	  547.00	  518.81	-1689.56	  392.21
     35.5700	  513.00	  517.60	-1722.35	  391.98
     35.6700	  540.00	  516.57	-1694.32	  391.75
     35.7700	  502.00	  515.68	-1731.43	  391.52
     35.8700	  494.00	  514.90	-1738.65	  391.29
     35.9700	  555.00	  514.21	-1676.96	  391.07
     36.0700	  505.00	  514.04	-1726.79	  390.85
     36.1700	  505.00	  513.50	-1726.25	  390.63
     36.2700	  546.00	  513.01	-1684.76	  390.41
     36.3700	  490.00	  512.57	-1740.32	  390.19
     36.4700	  485.00	  512.18	-1744.93	  389.97
     36.5700	  519.00	  511.83	-1710.58	  389.76
     36.6700	  512.00	  511.54	-1717.29	  389.54
     36.7700	  515.00	  511.30	-1714.05	  389.33
     36.8700	  520.00	  511.16	-1708.91	  389.12
     36.9700	  487.00	  511.20	-1741.95	  388.91
     37.0700	  537.00	  511.56	-1692.31	  388.71
     37.1700	  525.00	  512.52	-1705.27	  388.50
     37.2700	  453.00	  514.45	-1779.20	  388.30
     37.3700	  512.00	  517.64	-1723.39	  388.10
     37.4700	  526.00	  521.93	-1713.68	  387.90
     37.5700	  511.00	  526.47	-1733.22	  387.70
     37.6700	  500.00	  529.63	-1747.38	  387.50
     37.7700	  505.00	  529.69	-1742.44	  387.31
     37.8700	  534.00	  526.40	-1710.15	  387.11
     37.9700	  542.00	  521.55	-1697.30	  386.92
     38.0700	  497.00	  516.89	-1737.64	  386.73
     38.1700	  495.00	  513.18	-1735.93	  386.54
     38.2700	  494.00	  510.56	-1734.31	  386.35
     38.3700	  487.00	  508.84	-1739.59	  386.17
     38.4700	  555.00	  507.75	-1670.50	  385.99
     38.5700	  552.00	  507.04	-1672.79	  385.80
     38.6700	  514.00	  506.45	-1710.20	  385.62
     38.7700	  514.00	  506.07	-1709.82	  385.45
     38.8700	  501.00	  505.77	-1722.52	  385.27
     38.9700	  485.00	  505.50	-1738.25	  385.10
     39.0700	  493.00	  505.41	-1730.16	  384.92
     39.1700	  524.00	  505.20	-1698.95	  384.75
     39.2700	  546.00	  505.00	-1676.75	  384.58
     39.3700	  503.00	  504.73	-1719.48	  384.41
     39.4700	  508.00	  504.56	-1714.31	  384.25
     39.5700	  508.00	  504.40	-1714.15	  384.08
     39.6700	  513.00	  504.25	-1709.00	  383.92
     39.7700	  527.00	  504.11	-1694.86	  383.76
     39.8700	  500.00	  503.98	-1721.73	  383.60
     39.9700	  524.00	  503.86	-1697.61	  383.44
     40.0700	  489.00	  503.75	-1732.50	  383.29
     40.1700	  491.00	  503.65	-1730.40	  383.14
     40.2700	  503.00	  503.56	-1718.31	  382.98
     40.3700	  486.00	  503.48	-1735.23	  382.83
     40.4700	  506.00	  503.42	-1715.17	  382.69
     40.5700	  518.00	  503.38	-1703.13	  382.54
     40.6700	  477.00	  503.35	-1744.10	  382.39
     40.7700	  479.00	  503.34	-1742.09	  382.25
