MSG Master    CELL:    5.91566   5.91566  23.25109   90.0000   90.0000  120.0000   SPGR: P 63/m m c             TEMP:   1007.35
  1   1280     2.52000     0.00000    -0.12483     0.00000     0.00000    0
    99     0     2
       0.00000      10.00000
     125.00000     130.00000
 2Theta	Yobs	Ycal	Yobs-Ycal	Backg	Posr	(hkl)	K
      0.7700	    0.00	  555.02	-1803.00	  440.87
      0.8700	    0.00	  555.66	-1803.00	  441.51
      0.9700	   35.00	  556.29	-1803.00	  442.14
      1.0700	   35.00	  556.91	-1803.00	  442.76
      1.1700	   49.00	  557.52	-1803.00	  443.37
      1.2700	   38.00	  558.12	-1803.00	  443.96
      1.3700	   49.00	  558.71	-1803.00	  444.55
      1.4700	   97.00	  559.29	-1803.00	  445.13
      1.5700	  310.00	  559.85	-1803.00	  445.70
      1.6700	  435.00	  560.41	-1803.00	  446.26
      1.7700	  538.00	  560.96	-1803.00	  446.81
      1.8700	  679.00	  561.50	-1803.00	  447.35
      1.9700	  681.00	  562.03	-1803.00	  447.88
      2.0700	  778.00	  562.55	-1803.00	  448.40
      2.1700	  775.00	  563.06	-1803.00	  448.91
      2.2700	  698.00	  563.56	-1803.00	  449.41
      2.3700	  741.00	  564.05	-1803.00	  449.90
      2.4700	  702.00	  564.54	-1803.00	  450.38
      2.5700	  656.00	  565.01	-1803.00	  450.86
      2.6700	  604.00	  565.47	-1803.00	  451.32
      2.7700	  634.00	  565.93	-1803.00	  451.77
      2.8700	  597.00	  566.37	-1803.00	  452.22
      2.9700	  585.00	  566.81	-1803.00	  452.66
      3.0700	  605.00	  567.24	-1803.00	  453.08
      3.1700	  596.00	  567.66	-1803.00	  453.50
      3.2700	  562.00	  568.07	-1803.00	  453.91
      3.3700	  735.00	  568.47	-1803.00	  454.31
      3.4700	  752.00	  568.86	-1803.00	  454.70
      3.5700	  777.00	  569.24	-1803.00	  455.09
      3.6700	  813.00	  569.62	-1803.00	  455.46
      3.7700	  936.00	  569.98	-1803.00	  455.83
      3.8700	  892.00	  570.34	-1803.00	  456.19
      3.9700	  979.00	  570.69	-1803.00	  456.54
      4.0700	 1035.00	  571.03	-1803.00	  456.88
      4.1700	 1072.00	  571.37	-1803.00	  457.21
      4.2700	 1030.00	  571.69	-1803.00	  457.54
      4.3700	 1077.00	  572.01	-1803.00	  457.85
      4.4700	 1028.00	  572.32	-1803.00	  458.16
      4.5700	 1038.00	  572.62	-1803.00	  458.46
      4.6700	 1021.00	  572.91	-1803.00	  458.76
      4.7700	  976.00	  573.19	-1803.00	  459.04
      4.8700	  997.00	  573.47	-1803.00	  459.32
      4.9700	  952.00	  573.74	-1803.00	  459.59
      5.0700	  892.00	  574.00	-1803.00	  459.85
      5.1700	  888.00	  574.26	-1803.00	  460.10
      5.2700	  943.00	  574.50	-1803.00	  460.35
      5.3700	  896.00	  574.74	-1803.00	  460.59
      5.4700	  901.00	  574.97	-1803.00	  460.82
      5.5700	  862.00	  575.20	-1803.00	  461.04
      5.6700	  844.00	  575.41	-1803.00	  461.26
      5.7700	  813.00	  575.62	-1803.00	  461.47
      5.8700	  810.00	  575.83	-1803.00	  461.67
      5.9700	  786.00	  576.02	-1803.00	  461.87
      6.0700	  798.00	  576.21	-1803.00	  462.06
      6.1700	  806.00	  576.39	-1803.00	  462.24
      6.2700	  756.00	  576.56	-1803.00	  462.41
      6.3700	  709.00	  576.73	-1803.00	  462.58
      6.4700	  737.00	  576.89	-1803.00	  462.74
      6.5700	  720.00	  577.05	-1803.00	  462.89
      6.6700	  749.00	  577.19	-1803.00	  463.04
      6.7700	  697.00	  577.33	-1803.00	  463.18
      6.8700	  724.00	  577.47	-1803.00	  463.31
      6.9700	  659.00	  577.59	-1803.00	  463.44
      7.0700	  707.00	  577.71	-1803.00	  463.56
      7.1700	  681.00	  577.83	-1803.00	  463.67
      7.2700	  680.00	  577.93	-1803.00	  463.78
      7.3700	  666.00	  578.03	-1803.00	  463.88
      7.4700	  714.00	  578.13	-1803.00	  463.98
      7.5700	  704.00	  578.22	-1803.00	  464.06
      7.6700	  621.00	  578.30	-1803.00	  464.15
      7.7700	  655.00	  578.38	-1803.00	  464.22
      7.8700	  644.00	  578.45	-1803.00	  464.29
      7.9700	  612.00	  578.51	-1803.00	  464.36
      8.0700	  669.00	  578.57	-1803.00	  464.42
      8.1700	  608.00	  578.62	-1803.00	  464.47
      8.2700	  606.00	  578.67	-1803.00	  464.51
      8.3700	  643.00	  578.71	-1803.00	  464.55
      8.4700	  601.00	  578.74	-1803.00	  464.59
      8.5700	  576.00	  578.77	-1803.00	  464.62
      8.6700	  627.00	  578.80	-1803.00	  464.64
      8.7700	  606.00	  578.81	-1803.00	  464.66
      8.8700	  639.00	  578.83	-1803.00	  464.67
      8.9700	  673.00	  578.83	-1803.00	  464.68
      9.0700	  625.00	  578.83	-1803.00	  464.68
      9.1700	  622.00	  578.83	-1803.00	  464.68
      9.2700	  621.00	  578.82	-1803.00	  464.67
      9.3700	  631.00	  578.81	-1803.00	  464.65
      9.4700	  597.00	  578.79	-1803.00	  464.63
      9.5700	  622.00	  578.76	-1803.00	  464.61
      9.6700	  615.00	  578.73	-1803.00	  464.58
      9.7700	  596.00	  578.69	-1803.00	  464.54
      9.8700	  602.00	  578.65	-1803.00	  464.50
      9.9700	  652.00	  578.61	-1803.00	  464.46
     10.0700	  610.00	  579.35	-1772.35	  464.41
     10.1700	  614.00	  579.37	-1768.37	  464.35
     10.2700	  606.00	  579.41	-1776.41	  464.29
     10.3700	  580.00	  579.47	-1802.47	  464.23
     10.4700	  606.00	  579.57	-1776.57	  464.16
     10.5700	  617.00	  579.77	-1765.77	  464.08
     10.6700	  604.00	  580.15	-1779.15	  464.00
     10.7700	  603.00	  580.82	-1780.82	  463.92
     10.8700	  589.00	  581.85	-1795.85	  463.83
     10.9700	  530.00	  583.26	-1856.26	  463.74
     11.0700	  618.00	  585.01	-1770.01	  463.64
     11.1700	  625.00	  587.08	-1765.08	  463.54
     11.2700	  567.00	  589.50	-1825.50	  463.43
     11.3700	  598.00	  592.34	-1797.34	  463.32
     11.4700	  620.00	  595.73	-1778.73	  463.21
     11.5700	  636.00	  599.83	-1766.83	  463.09
     11.6700	  661.00	  604.97	-1746.97	  462.97
     11.7700	  621.00	  611.69	-1793.69	  462.84
     11.8700	  616.00	  620.86	-1807.86	  462.71
     11.9700	  638.00	  633.28	-1798.28	  462.58
     12.0700	  672.00	  647.88	-1778.88	  462.44
     12.1700	  652.00	  659.34	-1810.34	  462.29
     12.2700	  696.00	  658.25	-1765.25	  462.15
     12.3700	  668.00	  640.01	-1775.01	  462.00
     12.4700	  613.00	  615.48	-1805.48	  461.84
     12.5700	  608.00	  596.75	-1791.75	  461.68
     12.6700	  595.00	  586.34	-1794.34	  461.52
     12.7700	  602.00	  581.59	-1782.59	  461.36
     12.8700	  559.00	  579.46	-1823.46	  461.19
     12.9700	  553.00	  578.31	-1828.31	  461.01
     13.0700	  593.00	  577.52	-1787.52	  460.84
     13.1700	  560.00	  576.90	-1819.90	  460.66
     13.2700	  540.00	  576.40	-1839.40	  460.47
     13.3700	  548.00	  575.97	-1830.97	  460.29
     13.4700	  574.00	  575.59	-1804.59	  460.10
     13.5700	  578.00	  575.24	-1800.24	  459.90
     13.6700	  585.00	  574.92	-1792.92	  459.71
     13.7700	  549.00	  574.62	-1828.62	  459.51
     13.8700	  543.00	  574.33	-1834.33	  459.30
     13.9700	  608.00	  574.05	-1769.05	  459.10
     14.0700	  544.00	  573.78	-1832.78	  458.89
     14.1700	  558.00	  573.52	-1818.52	  458.68
     14.2700	  543.00	  573.26	-1833.26	  458.46
     14.3700	  535.00	  573.00	-1841.00	  458.24
     14.4700	  555.00	  572.75	-1820.75	  458.02
     14.5700	  562.00	  572.49	-1813.49	  457.79
     14.6700	  550.00	  572.24	-1825.24	  457.57
     14.7700	  567.00	  571.99	-1807.99	  457.34
     14.8700	  549.00	  571.73	-1825.73	  457.10
     14.9700	  559.00	  571.48	-1815.48	  456.87
     15.0700	  540.00	  571.22	-1834.22	  456.63
     15.1700	  560.00	  570.97	-1813.97	  456.39
     15.2700	  501.00	  570.71	-1872.71	  456.14
     15.3700	  571.00	  570.45	-1802.45	  455.90
     15.4700	  575.00	  570.19	-1798.19	  455.65
     15.5700	  530.00	  569.93	-1842.93	  455.40
     15.6700	  555.00	  569.66	-1817.66	  455.14
     15.7700	  553.00	  569.40	-1819.40	  454.88
     15.8700	  573.00	  569.13	-1799.13	  454.63
     15.9700	  554.00	  568.86	-1817.86	  454.36
     16.0700	  553.00	  568.59	-1818.59	  454.10
     16.1700	  531.00	  568.32	-1840.32	  453.83
     16.2700	  510.00	  568.07	-1861.07	  453.57
     16.3700	  546.00	  567.80	-1824.80	  453.29
     16.4700	  555.00	  567.52	-1815.52	  453.02
     16.5700	  548.00	  567.24	-1822.24	  452.75
     16.6700	  560.00	  566.96	-1809.96	  452.47
     16.7700	  583.00	  566.68	-1786.68	  452.19
     16.8700	  530.00	  566.39	-1839.39	  451.91
     16.9700	  557.00	  566.11	-1812.11	  451.63
     17.0700	  585.00	  565.82	-1783.82	  451.34
     17.1700	  552.00	  565.53	-1816.53	  451.05
     17.2700	  551.00	  565.24	-1817.24	  450.76
     17.3700	  578.00	  564.94	-1789.94	  450.47
     17.4700	  555.00	  564.65	-1812.65	  450.18
     17.5700	  520.00	  564.35	-1847.35	  449.88
     17.6700	  556.00	  564.05	-1811.05	  449.59
     17.7700	  573.00	  563.76	-1793.76	  449.29
     17.8700	  550.00	  563.45	-1816.45	  448.99
     17.9700	  592.00	  563.26	-1774.26	  448.69
     18.0700	  568.00	  562.95	-1797.95	  448.38
     18.1700	  519.00	  562.65	-1846.65	  448.08
     18.2700	  586.00	  562.35	-1779.35	  447.77
     18.3700	  529.00	  562.04	-1836.04	  447.46
     18.4700	  592.00	  561.73	-1772.73	  447.15
     18.5700	  540.00	  561.42	-1824.42	  446.84
     18.6700	  565.00	  561.11	-1799.11	  446.53
     18.7700	  549.00	  560.80	-1814.80	  446.22
     18.8700	  523.00	  560.59	-1840.59	  445.90
     18.9700	  607.00	  560.28	-1756.28	  445.58
     19.0700	  532.00	  559.96	-1830.96	  445.27
     19.1700	  562.00	  559.65	-1800.65	  444.95
     19.2700	  577.00	  559.34	-1785.34	  444.62
     19.3700	  595.00	  559.02	-1767.02	  444.30
     19.4700	  552.00	  558.70	-1809.70	  443.98
     19.5700	  540.00	  558.39	-1821.39	  443.66
     19.6700	  543.00	  558.07	-1818.07	  443.33
     19.7700	  545.00	  557.75	-1815.75	  443.00
     19.8700	  570.00	  557.43	-1790.43	  442.68
     19.9700	  506.00	  557.11	-1854.11	  442.35
     20.0700	  583.00	  556.79	-1776.79	  442.02
     20.1700	  568.00	  556.47	-1791.47	  441.69
     20.2700	  558.00	  556.15	-1801.15	  441.35
     20.3700	  543.00	  555.83	-1815.83	  441.02
     20.4700	  569.00	  555.51	-1789.51	  440.69
     20.5700	  561.00	  555.16	-1797.16	  440.35
     20.6700	  562.00	  554.84	-1795.84	  440.02
     20.7700	  544.00	  554.51	-1813.51	  439.68
     20.8700	  536.00	  554.23	-1821.23	  439.34
     20.9700	  538.00	  553.91	-1818.91	  439.01
     21.0700	  547.00	  553.59	-1809.59	  438.67
     21.1700	  560.00	  553.27	-1796.27	  438.33
     21.2700	  544.00	  552.95	-1811.95	  437.99
     21.3700	  543.00	  552.63	-1812.63	  437.65
     21.4700	  569.00	  552.31	-1786.31	  437.31
     21.5700	  551.00	  551.99	-1803.99	  436.97
     21.6700	  556.00	  551.68	-1798.68	  436.62
     21.7700	  577.00	  551.36	-1777.36	  436.28
     21.8700	  521.00	  551.05	-1833.05	  435.94
     21.9700	  533.00	  550.74	-1820.74	  435.59
     22.0700	  564.00	  550.43	-1789.43	  435.25
     22.1700	  580.00	  550.12	-1773.12	  434.90
     22.2700	  550.00	  549.82	-1802.82	  434.56
     22.3700	  525.00	  549.52	-1827.52	  434.21
     22.4700	  564.00	  549.22	-1788.22	  433.87
     22.5700	  517.00	  548.93	-1834.93	  433.52
     22.6700	  578.00	  548.64	-1773.64	  433.17
     22.7700	  541.00	  548.36	-1810.36	  432.83
     22.8700	  537.00	  548.09	-1814.09	  432.48
     22.9700	  539.00	  547.82	-1811.82	  432.13
     23.0700	  545.00	  547.57	-1805.57	  431.78
     23.1700	  536.00	  547.34	-1814.34	  431.43
     23.2700	  567.00	  547.12	-1783.12	  431.09
     23.3700	  554.00	  546.93	-1795.93	  430.74
     23.4700	  623.00	  546.77	-1726.77	  430.39
     23.5700	  598.00	  546.65	-1751.65	  430.04
     23.6700	  486.00	  546.59	-1863.59	  429.69
     23.7700	  587.00	  546.77	-1762.77	  429.34
     23.8700	  557.00	  546.99	-1792.99	  428.99
     23.9700	  587.00	  547.57	-1763.57	  428.65
     24.0700	  536.00	  548.89	-1815.89	  428.30
     24.1700	  590.00	  551.56	-1764.56	  427.95
     24.2700	  581.00	  556.40	-1778.40	  427.60
     24.3700	  597.00	  564.37	-1770.37	  427.25
     24.4700	  592.00	  576.53	-1787.53	  426.90
     24.5700	  600.00	  593.55	-1796.55	  426.55
     24.6700	  648.00	  613.66	-1768.66	  426.21
     24.7700	  648.00	  630.14	-1785.14	  425.86
     24.8700	  629.00	  632.10	-1806.10	  425.51
     24.9700	  631.00	  614.29	-1786.29	  425.16
     25.0700	  551.00	  587.98	-1839.98	  424.81
     25.1700	  569.00	  566.48	-1800.48	  424.47
     25.2700	  582.00	  553.68	-1774.68	  424.12
     25.3700	  560.00	  547.51	-1790.51	  423.77
     25.4700	  569.00	  544.75	-1778.75	  423.43
     25.5700	  562.00	  543.37	-1784.37	  423.08
     25.6700	  581.00	  542.50	-1764.50	  422.74
     25.7700	  599.00	  541.88	-1745.88	  422.39
     25.8700	  583.00	  541.42	-1761.42	  422.05
     25.9700	  502.00	  541.06	-1842.06	  421.70
     26.0700	  551.00	  540.80	-1792.80	  421.36
     26.1700	  505.00	  540.62	-1838.62	  421.01
     26.2700	  543.00	  540.51	-1800.51	  420.67
     26.3700	  546.00	  540.49	-1797.49	  420.33
     26.4700	  562.00	  540.55	-1781.55	  419.99
     26.5700	  612.00	  540.71	-1731.71	  419.64
     26.6700	  544.00	  540.98	-1799.98	  419.30
     26.7700	  559.00	  541.39	-1785.39	  418.96
     26.8700	  535.00	  541.97	-1809.97	  418.62
     26.9700	  576.00	  542.78	-1769.78	  418.28
     27.0700	  533.00	  543.88	-1813.88	  417.94
     27.1700	  583.00	  545.39	-1765.39	  417.61
     27.2700	  538.00	  547.55	-1812.55	  417.27
     27.3700	  592.00	  550.81	-1761.81	  416.93
     27.4700	  589.00	  556.05	-1770.05	  416.59
     27.5700	  558.00	  564.85	-1809.85	  416.26
     27.6700	  566.00	  579.78	-1816.78	  415.92
     27.7700	  524.00	  604.29	-1883.29	  415.59
     27.8700	  645.00	  641.63	-1799.63	  415.26
     27.9700	  677.00	  692.61	-1818.61	  414.92
     28.0700	  741.00	  752.52	-1814.52	  414.59
     28.1700	  910.00	  808.23	-1701.23	  414.26
     28.2700	  937.00	  838.38	-1704.38	  413.93
     28.3700	  991.00	  826.28	-1638.28	  413.60
     28.4700	  835.00	  787.01	-1755.01	  413.27
     28.5700	  707.00	  756.60	-1852.60	  412.95
     28.6700	  694.00	  755.40	-1864.40	  412.62
     28.7700	  728.00	  781.61	-1856.61	  412.29
     28.8700	  816.00	  816.42	-1803.42	  411.97
     28.9700	  867.00	  830.08	-1766.08	  411.65
     29.0700	  841.00	  798.50	-1760.50	  411.32
     29.1700	  724.00	  731.91	-1810.91	  411.00
     29.2700	  680.00	  662.99	-1785.99	  410.68
     29.3700	  602.00	  610.88	-1811.88	  410.36
     29.4700	  651.00	  578.29	-1730.29	  410.04
     29.5700	  598.00	  560.32	-1765.32	  409.72
     29.6700	  607.00	  550.85	-1746.85	  409.40
     29.7700	  577.00	  545.61	-1771.61	  409.09
     29.8700	  616.00	  542.40	-1729.40	  408.77
     29.9700	  562.00	  540.36	-1781.36	  408.46
     30.0700	  666.00	  539.22	-1676.22	  408.15
     30.1700	  556.00	  539.07	-1786.07	  407.83
     30.2700	  521.00	  540.40	-1822.40	  407.52
     30.3700	  576.00	  544.22	-1771.22	  407.21
     30.4700	  526.00	  552.13	-1829.13	  406.91
     30.5700	  575.00	  566.02	-1794.02	  406.60
     30.6700	  556.00	  586.85	-1833.85	  406.29
     30.7700	  587.00	  612.71	-1828.71	  405.99
     30.8700	  614.00	  637.25	-1826.25	  405.68
     30.9700	  603.00	  649.62	-1849.62	  405.38
     31.0700	  619.00	  640.11	-1824.11	  405.08
     31.1700	  586.00	  612.64	-1829.64	  404.78
     31.2700	  542.00	  582.04	-1843.04	  404.48
     31.3700	  537.00	  558.12	-1824.12	  404.18
     31.4700	  511.00	  542.98	-1834.98	  403.89
     31.5700	  571.00	  534.67	-1766.67	  403.59
     31.6700	  529.00	  530.38	-1804.38	  403.30
     31.7700	  529.00	  528.06	-1802.06	  403.01
     31.8700	  525.00	  526.63	-1804.63	  402.71
     31.9700	  553.00	  525.65	-1775.65	  402.42
     32.0700	  517.00	  524.94	-1810.94	  402.14
     32.1700	  575.00	  524.45	-1752.45	  401.85
     32.2700	  563.00	  524.12	-1764.12	  401.56
     32.3700	  568.00	  523.95	-1758.95	  401.28
     32.4700	  551.00	  523.95	-1775.95	  400.99
     32.5700	  578.00	  524.11	-1749.11	  400.71
     32.6700	  559.00	  524.47	-1768.47	  400.43
     32.7700	  548.00	  525.06	-1780.06	  400.15
     32.8700	  573.00	  525.95	-1755.95	  399.87
     32.9700	  518.00	  527.23	-1812.23	  399.60
     33.0700	  527.00	  529.09	-1805.09	  399.32
     33.1700	  555.00	  531.90	-1779.90	  399.05
     33.2700	  552.00	  536.51	-1787.51	  398.78
     33.3700	  530.00	  544.84	-1817.84	  398.51
     33.4700	  567.00	  560.65	-1796.65	  398.24
     33.5700	  586.00	  590.32	-1807.32	  397.97
     33.6700	  628.00	  641.99	-1816.99	  397.70
     33.7700	  767.00	  721.27	-1757.27	  397.44
     33.8700	  861.00	  822.96	-1764.96	  397.18
     33.9700	 1026.00	  924.14	-1701.14	  396.91
     34.0700	 1046.00	  984.44	-1741.44	  396.65
     34.1700	 1048.00	  964.71	-1719.71	  396.40
     34.2700	  930.00	  870.88	-1743.88	  396.14
     34.3700	  791.00	  755.13	-1767.13	  395.88
     34.4700	  657.00	  658.92	-1804.92	  395.63
     34.5700	  593.00	  595.29	-1805.29	  395.38
     34.6700	  563.00	  559.59	-1799.59	  395.13
     34.7700	  530.00	  541.44	-1814.44	  394.88
     34.8700	  557.00	  532.18	-1778.18	  394.63
     34.9700	  525.00	  526.87	-1804.87	  394.38
     35.0700	  547.00	  523.34	-1779.34	  394.14
     35.1700	  535.00	  520.71	-1788.71	  393.89
     35.2700	  556.00	  518.67	-1765.67	  393.65
     35.3700	  502.00	  517.01	-1818.01	  393.41
     35.4700	  545.00	  515.64	-1773.64	  393.17
     35.5700	  507.00	  514.48	-1810.48	  392.94
     35.6700	  494.00	  513.49	-1822.49	  392.70
     35.7700	  492.00	  512.63	-1823.63	  392.47
     35.8700	  511.00	  511.88	-1803.88	  392.24
     35.9700	  520.00	  511.71	-1794.71	  392.01
     36.0700	  516.00	  511.12	-1798.12	  391.78
     36.1700	  511.00	  510.58	-1802.58	  391.55
     36.2700	  491.00	  510.10	-1822.10	  391.33
     36.3700	  503.00	  509.67	-1809.67	  391.10
     36.4700	  523.00	  509.27	-1789.27	  390.88
     36.5700	  487.00	  508.92	-1824.92	  390.66
     36.6700	  491.00	  508.60	-1820.60	  390.44
     36.7700	  494.00	  508.33	-1817.33	  390.22
     36.8700	  512.00	  508.12	-1799.12	  390.01
     36.9700	  519.00	  508.01	-1792.01	  389.80
     37.0700	  513.00	  508.09	-1798.09	  389.58
     37.1700	  513.00	  508.57	-1798.57	  389.37
     37.2700	  498.00	  509.78	-1814.78	  389.17
     37.3700	  540.00	  512.13	-1775.13	  388.96
     37.4700	  476.00	  515.85	-1842.85	  388.75
     37.5700	  531.00	  520.62	-1792.62	  388.55
     37.6700	  540.00	  525.29	-1788.29	  388.35
     37.7700	  512.00	  528.11	-1819.11	  388.15
     37.8700	  497.00	  527.93	-1833.93	  387.95
     37.9700	  542.00	  525.38	-1786.38	  387.76
     38.0700	  478.00	  521.72	-1846.72	  387.56
     38.1700	  489.00	  517.53	-1831.53	  387.37
     38.2700	  534.00	  513.33	-1782.33	  387.18
     38.3700	  507.00	  509.78	-1805.78	  386.99
     38.4700	  489.00	  507.17	-1821.17	  386.80
     38.5700	  479.00	  505.45	-1829.45	  386.61
     38.6700	  525.00	  504.38	-1782.38	  386.43
     38.7700	  491.00	  503.63	-1815.63	  386.25
     38.8700	  489.00	  503.20	-1817.20	  386.07
     38.9700	  521.00	  502.87	-1784.87	  385.89
     39.0700	  465.00	  502.59	-1840.59	  385.71
     39.1700	  519.00	  502.35	-1786.35	  385.54
     39.2700	  512.00	  502.13	-1793.13	  385.36
     39.3700	  504.00	  501.84	-1800.84	  385.19
     39.4700	  474.00	  501.65	-1830.65	  385.02
     39.5700	  502.00	  501.48	-1802.48	  384.85
     39.6700	  520.00	  501.44	-1784.44	  384.69
     39.7700	  487.00	  501.29	-1817.29	  384.52
     39.8700	  507.00	  501.15	-1797.15	  384.36
     39.9700	  504.00	  501.02	-1800.02	  384.20
     40.0700	  498.00	  500.90	-1805.90	  384.04
     40.1700	  499.00	  500.80	-1804.80	  383.88
     40.2700	  485.00	  500.70	-1818.70	  383.72
     40.3700	  439.00	  500.61	-1864.61	  383.57
     40.4700	  514.00	  500.54	-1789.54	  383.42
     40.5700	  489.00	  500.48	-1814.48	  383.27
     40.6700	  502.00	  500.44	-1801.44	  383.12
     40.7700	  484.00	  500.42	-1819.42	  382.97
