MSG Master    CELL:    5.91911   5.91911  23.27435   90.0000   90.0000  120.0000   SPGR: P 63/m m c             TEMP:   1074.85
  1   1280     2.52000     0.00000    -0.12647     0.00000     0.00000    0
    99     0     2
       0.00000      10.00000
     125.00000     130.00000
 2Theta	Yobs	Ycal	Yobs-Ycal	Backg	Posr	(hkl)	K
      0.7700	    0.00	  564.79	-1752.25	  447.33
      0.8700	    0.00	  565.34	-1752.25	  447.88
      0.9700	   38.00	  565.88	-1752.25	  448.42
      1.0700	   52.00	  566.40	-1752.25	  448.95
      1.1700	   58.00	  566.92	-1752.25	  449.47
      1.2700	   48.00	  567.43	-1752.25	  449.98
      1.3700	   47.00	  567.93	-1752.25	  450.48
      1.4700	  101.00	  568.42	-1752.25	  450.97
      1.5700	  321.00	  568.91	-1752.25	  451.45
      1.6700	  459.00	  569.38	-1752.25	  451.92
      1.7700	  577.00	  569.84	-1752.25	  452.39
      1.8700	  619.00	  570.30	-1752.25	  452.84
      1.9700	  711.00	  570.74	-1752.25	  453.29
      2.0700	  774.00	  571.18	-1752.25	  453.72
      2.1700	  746.00	  571.61	-1752.25	  454.15
      2.2700	  743.00	  572.02	-1752.25	  454.57
      2.3700	  781.00	  572.43	-1752.25	  454.98
      2.4700	  717.00	  572.84	-1752.25	  455.38
      2.5700	  731.00	  573.23	-1752.25	  455.77
      2.6700	  665.00	  573.61	-1752.25	  456.16
      2.7700	  664.00	  573.99	-1752.25	  456.53
      2.8700	  606.00	  574.36	-1752.25	  456.90
      2.9700	  608.00	  574.71	-1752.25	  457.26
      3.0700	  593.00	  575.06	-1752.25	  457.61
      3.1700	  553.00	  575.41	-1752.25	  457.95
      3.2700	  579.00	  575.74	-1752.25	  458.29
      3.3700	  724.00	  576.07	-1752.25	  458.61
      3.4700	  767.00	  576.39	-1752.25	  458.93
      3.5700	  830.00	  576.70	-1752.25	  459.24
      3.6700	  825.00	  577.00	-1752.25	  459.54
      3.7700	  924.00	  577.29	-1752.25	  459.84
      3.8700	  995.00	  577.58	-1752.25	  460.12
      3.9700	 1009.00	  577.86	-1752.25	  460.40
      4.0700	 1044.00	  578.13	-1752.25	  460.67
      4.1700	 1034.00	  578.39	-1752.25	  460.94
      4.2700	 1119.00	  578.65	-1752.25	  461.19
      4.3700	 1065.00	  578.89	-1752.25	  461.44
      4.4700	 1064.00	  579.14	-1752.25	  461.68
      4.5700	 1064.00	  579.37	-1752.25	  461.91
      4.6700	 1052.00	  579.60	-1752.25	  462.14
      4.7700	 1008.00	  579.81	-1752.25	  462.36
      4.8700	  953.00	  580.03	-1752.25	  462.57
      4.9700	  964.00	  580.23	-1752.25	  462.78
      5.0700	  945.00	  580.43	-1752.25	  462.97
      5.1700	  932.00	  580.62	-1752.25	  463.16
      5.2700	  874.00	  580.80	-1752.25	  463.35
      5.3700	  944.00	  580.98	-1752.25	  463.52
      5.4700	  919.00	  581.15	-1752.25	  463.69
      5.5700	  818.00	  581.31	-1752.25	  463.86
      5.6700	  855.00	  581.47	-1752.25	  464.01
      5.7700	  855.00	  581.62	-1752.25	  464.16
      5.8700	  826.00	  581.76	-1752.25	  464.30
      5.9700	  817.00	  581.89	-1752.25	  464.44
      6.0700	  782.00	  582.02	-1752.25	  464.57
      6.1700	  754.00	  582.15	-1752.25	  464.69
      6.2700	  744.00	  582.26	-1752.25	  464.81
      6.3700	  784.00	  582.37	-1752.25	  464.92
      6.4700	  740.00	  582.48	-1752.25	  465.02
      6.5700	  743.00	  582.58	-1752.25	  465.12
      6.6700	  773.00	  582.67	-1752.25	  465.21
      6.7700	  732.00	  582.75	-1752.25	  465.30
      6.8700	  781.00	  582.83	-1752.25	  465.38
      6.9700	  696.00	  582.91	-1752.25	  465.45
      7.0700	  685.00	  582.97	-1752.25	  465.52
      7.1700	  639.00	  583.03	-1752.25	  465.58
      7.2700	  726.00	  583.09	-1752.25	  465.64
      7.3700	  716.00	  583.14	-1752.25	  465.68
      7.4700	  670.00	  583.18	-1752.25	  465.73
      7.5700	  617.00	  583.22	-1752.25	  465.77
      7.6700	  662.00	  583.25	-1752.25	  465.80
      7.7700	  682.00	  583.28	-1752.25	  465.83
      7.8700	  636.00	  583.30	-1752.25	  465.85
      7.9700	  658.00	  583.32	-1752.25	  465.86
      8.0700	  683.00	  583.33	-1752.25	  465.87
      8.1700	  620.00	  583.33	-1752.25	  465.88
      8.2700	  632.00	  583.33	-1752.25	  465.88
      8.3700	  592.00	  583.33	-1752.25	  465.87
      8.4700	  677.00	  583.32	-1752.25	  465.86
      8.5700	  628.00	  583.30	-1752.25	  465.85
      8.6700	  656.00	  583.28	-1752.25	  465.83
      8.7700	  682.00	  583.25	-1752.25	  465.80
      8.8700	  611.00	  583.22	-1752.25	  465.77
      8.9700	  643.00	  583.19	-1752.25	  465.73
      9.0700	  573.00	  583.15	-1752.25	  465.69
      9.1700	  617.00	  583.10	-1752.25	  465.64
      9.2700	  599.00	  583.05	-1752.25	  465.59
      9.3700	  639.00	  582.99	-1752.25	  465.54
      9.4700	  579.00	  582.93	-1752.25	  465.48
      9.5700	  600.00	  582.87	-1752.25	  465.41
      9.6700	  643.00	  582.80	-1752.25	  465.34
      9.7700	  632.00	  582.72	-1752.25	  465.27
      9.8700	  605.00	  582.64	-1752.25	  465.19
      9.9700	  614.00	  582.56	-1752.25	  465.10
     10.0700	  573.00	  583.27	-1762.52	  465.02
     10.1700	  605.00	  583.26	-1730.51	  464.92
     10.2700	  611.00	  583.27	-1724.52	  464.83
     10.3700	  583.00	  583.31	-1752.56	  464.72
     10.4700	  654.00	  583.40	-1681.65	  464.62
     10.5700	  577.00	  583.61	-1758.86	  464.51
     10.6700	  566.00	  584.03	-1770.28	  464.39
     10.7700	  575.00	  584.78	-1762.03	  464.28
     10.8700	  592.00	  585.94	-1746.19	  464.15
     10.9700	  645.00	  587.48	-1694.73	  464.03
     11.0700	  605.00	  589.39	-1736.64	  463.90
     11.1700	  617.00	  591.65	-1726.90	  463.76
     11.2700	  574.00	  594.29	-1772.54	  463.62
     11.3700	  605.00	  597.40	-1744.65	  463.48
     11.4700	  606.00	  601.12	-1747.37	  463.34
     11.5700	  635.00	  605.65	-1722.90	  463.19
     11.6700	  608.00	  611.36	-1755.61	  463.03
     11.7700	  617.00	  618.89	-1754.14	  462.87
     11.8700	  626.00	  629.21	-1755.46	  462.71
     11.9700	  686.00	  643.05	-1709.30	  462.55
     12.0700	  651.00	  658.78	-1760.03	  462.38
     12.1700	  695.00	  669.86	-1727.11	  462.21
     12.2700	  654.00	  666.01	-1764.26	  462.03
     12.3700	  696.00	  644.32	-1700.57	  461.86
     12.4700	  636.00	  618.19	-1734.44	  461.67
     12.5700	  584.00	  599.30	-1767.55	  461.49
     12.6700	  580.00	  589.17	-1761.42	  461.30
     12.7700	  579.00	  584.62	-1757.87	  461.11
     12.8700	  565.00	  582.54	-1769.79	  460.91
     12.9700	  552.00	  581.36	-1781.61	  460.71
     13.0700	  572.00	  580.54	-1760.79	  460.51
     13.1700	  545.00	  579.89	-1787.14	  460.31
     13.2700	  563.00	  579.35	-1768.60	  460.10
     13.3700	  529.00	  578.89	-1802.14	  459.89
     13.4700	  620.00	  578.47	-1710.72	  459.67
     13.5700	  590.00	  578.10	-1740.35	  459.46
     13.6700	  582.00	  577.75	-1748.00	  459.24
     13.7700	  549.00	  577.42	-1780.67	  459.01
     13.8700	  575.00	  577.10	-1754.35	  458.79
     13.9700	  575.00	  576.80	-1754.05	  458.56
     14.0700	  591.00	  576.51	-1737.76	  458.33
     14.1700	  610.00	  576.22	-1718.47	  458.09
     14.2700	  561.00	  575.93	-1767.18	  457.86
     14.3700	  542.00	  575.65	-1785.90	  457.62
     14.4700	  511.00	  575.38	-1816.63	  457.38
     14.5700	  538.00	  575.10	-1789.35	  457.13
     14.6700	  577.00	  574.83	-1750.08	  456.89
     14.7700	  595.00	  574.55	-1731.80	  456.64
     14.8700	  539.00	  574.28	-1787.53	  456.38
     14.9700	  605.00	  574.00	-1721.25	  456.13
     15.0700	  559.00	  573.73	-1766.98	  455.87
     15.1700	  562.00	  573.46	-1763.71	  455.61
     15.2700	  555.00	  573.18	-1770.43	  455.35
     15.3700	  545.00	  572.90	-1780.15	  455.09
     15.4700	  586.00	  572.62	-1738.87	  454.82
     15.5700	  530.00	  572.35	-1794.60	  454.55
     15.6700	  571.00	  572.07	-1753.32	  454.28
     15.7700	  619.00	  571.78	-1705.03	  454.01
     15.8700	  535.00	  571.50	-1788.75	  453.74
     15.9700	  625.00	  571.22	-1698.47	  453.46
     16.0700	  561.00	  570.93	-1762.18	  453.18
     16.1700	  547.00	  570.64	-1775.89	  452.90
     16.2700	  560.00	  570.38	-1762.63	  452.62
     16.3700	  580.00	  570.09	-1742.34	  452.33
     16.4700	  597.00	  569.80	-1725.05	  452.05
     16.5700	  536.00	  569.51	-1785.76	  451.76
     16.6700	  542.00	  569.21	-1779.46	  451.47
     16.7700	  538.00	  568.92	-1783.17	  451.18
     16.8700	  594.00	  568.62	-1726.87	  450.88
     16.9700	  554.00	  568.32	-1766.57	  450.59
     17.0700	  574.00	  568.02	-1746.27	  450.29
     17.1700	  542.00	  567.72	-1777.97	  449.99
     17.2700	  569.00	  567.42	-1750.67	  449.69
     17.3700	  548.00	  567.11	-1771.36	  449.39
     17.4700	  533.00	  566.81	-1786.06	  449.09
     17.5700	  521.00	  566.50	-1797.75	  448.78
     17.6700	  582.00	  566.19	-1736.44	  448.47
     17.7700	  555.00	  565.89	-1763.14	  448.17
     17.8700	  628.00	  565.57	-1689.82	  447.86
     17.9700	  580.00	  565.37	-1737.62	  447.55
     18.0700	  583.00	  565.05	-1734.30	  447.23
     18.1700	  562.00	  564.74	-1754.99	  446.92
     18.2700	  572.00	  564.43	-1744.68	  446.60
     18.3700	  593.00	  564.11	-1723.36	  446.29
     18.4700	  566.00	  563.80	-1750.05	  445.97
     18.5700	  574.00	  563.48	-1741.73	  445.65
     18.6700	  529.00	  563.17	-1786.42	  445.33
     18.7700	  567.00	  562.85	-1748.10	  445.01
     18.8700	  542.00	  562.61	-1772.86	  444.69
     18.9700	  564.00	  562.29	-1750.54	  444.37
     19.0700	  580.00	  561.98	-1734.23	  444.04
     19.1700	  586.00	  561.66	-1727.91	  443.72
     19.2700	  582.00	  561.34	-1731.58	  443.39
     19.3700	  529.00	  561.01	-1784.26	  443.06
     19.4700	  525.00	  560.69	-1787.94	  442.73
     19.5700	  562.00	  560.37	-1750.62	  442.40
     19.6700	  538.00	  560.05	-1774.30	  442.07
     19.7700	  545.00	  559.72	-1766.97	  441.74
     19.8700	  573.00	  559.40	-1738.65	  441.41
     19.9700	  517.00	  559.08	-1794.33	  441.08
     20.0700	  536.00	  558.75	-1775.00	  440.75
     20.1700	  576.00	  558.43	-1734.68	  440.41
     20.2700	  581.00	  558.10	-1729.35	  440.08
     20.3700	  571.00	  557.78	-1739.03	  439.74
     20.4700	  568.00	  557.45	-1741.70	  439.40
     20.5700	  552.00	  557.10	-1757.35	  439.07
     20.6700	  543.00	  556.77	-1766.02	  438.73
     20.7700	  522.00	  556.45	-1786.70	  438.39
     20.8700	  542.00	  556.16	-1766.41	  438.05
     20.9700	  590.00	  555.84	-1718.08	  437.71
     21.0700	  531.00	  555.51	-1776.76	  437.37
     21.1700	  562.00	  555.19	-1745.44	  437.03
     21.2700	  599.00	  554.87	-1708.12	  436.69
     21.3700	  553.00	  554.55	-1753.80	  436.35
     21.4700	  549.00	  554.23	-1757.48	  436.01
     21.5700	  556.00	  553.91	-1750.16	  435.67
     21.6700	  553.00	  553.59	-1752.84	  435.32
     21.7700	  551.00	  553.28	-1754.53	  434.98
     21.8700	  587.00	  552.96	-1718.21	  434.64
     21.9700	  524.00	  552.65	-1780.90	  434.29
     22.0700	  506.00	  552.34	-1798.59	  433.95
     22.1700	  505.00	  552.04	-1799.29	  433.61
     22.2700	  520.00	  551.73	-1783.98	  433.26
     22.3700	  556.00	  551.43	-1747.68	  432.92
     22.4700	  554.00	  551.14	-1749.39	  432.57
     22.5700	  516.00	  550.85	-1787.10	  432.23
     22.6700	  542.00	  550.56	-1760.81	  431.88
     22.7700	  556.00	  550.28	-1746.53	  431.54
     22.8700	  574.00	  550.01	-1728.26	  431.19
     22.9700	  536.00	  549.76	-1766.01	  430.85
     23.0700	  576.00	  549.51	-1725.76	  430.50
     23.1700	  514.00	  549.28	-1787.53	  430.16
     23.2700	  560.00	  549.07	-1741.32	  429.81
     23.3700	  543.00	  548.89	-1758.14	  429.47
     23.4700	  547.00	  548.74	-1753.99	  429.12
     23.5700	  539.00	  548.64	-1761.89	  428.78
     23.6700	  559.00	  548.61	-1741.86	  428.43
     23.7700	  571.00	  548.82	-1730.07	  428.09
     23.8700	  537.00	  549.12	-1764.37	  427.74
     23.9700	  524.00	  549.86	-1778.11	  427.40
     24.0700	  569.00	  551.50	-1734.75	  427.06
     24.1700	  573.00	  554.70	-1733.95	  426.71
     24.2700	  565.00	  560.35	-1747.60	  426.37
     24.3700	  587.00	  569.42	-1734.67	  426.02
     24.4700	  572.00	  582.98	-1763.23	  425.68
     24.5700	  586.00	  601.30	-1767.55	  425.34
     24.6700	  592.00	  621.41	-1781.66	  425.00
     24.7700	  636.00	  635.07	-1751.32	  424.65
     24.8700	  634.00	  631.39	-1749.64	  424.31
     24.9700	  640.00	  609.46	-1721.71	  423.97
     25.0700	  584.00	  583.40	-1751.65	  423.63
     25.1700	  624.00	  564.18	-1692.43	  423.29
     25.2700	  577.00	  553.49	-1728.74	  422.95
     25.3700	  582.00	  548.54	-1718.79	  422.61
     25.4700	  590.00	  546.30	-1708.55	  422.27
     25.5700	  600.00	  545.10	-1697.35	  421.93
     25.6700	  588.00	  544.31	-1708.56	  421.59
     25.7700	  541.00	  543.73	-1754.98	  421.25
     25.8700	  525.00	  543.29	-1770.54	  420.91
     25.9700	  551.00	  542.95	-1744.20	  420.58
     26.0700	  609.00	  542.70	-1685.95	  420.24
     26.1700	  535.00	  542.53	-1759.78	  419.90
     26.2700	  571.00	  542.43	-1723.68	  419.57
     26.3700	  536.00	  542.41	-1758.66	  419.23
     26.4700	  569.00	  542.47	-1725.72	  418.90
     26.5700	  566.00	  542.63	-1728.88	  418.57
     26.6700	  552.00	  542.90	-1743.15	  418.23
     26.7700	  544.00	  543.32	-1751.57	  417.90
     26.8700	  561.00	  543.90	-1735.15	  417.57
     26.9700	  531.00	  544.71	-1765.96	  417.24
     27.0700	  568.00	  545.82	-1730.07	  416.91
     27.1700	  551.00	  547.37	-1748.62	  416.58
     27.2700	  564.00	  549.61	-1737.86	  416.25
     27.3700	  604.00	  553.05	-1701.30	  415.93
     27.4700	  567.00	  558.66	-1743.91	  415.60
     27.5700	  583.00	  568.19	-1737.44	  415.27
     27.6700	  561.00	  584.41	-1775.66	  414.95
     27.7700	  582.00	  610.86	-1781.11	  414.62
     27.8700	  599.00	  650.59	-1803.84	  414.30
     27.9700	  691.00	  703.69	-1764.94	  413.98
     28.0700	  767.00	  764.02	-1749.27	  413.66
     28.1700	  881.00	  816.49	-1687.74	  413.34
     28.2700	  959.00	  838.51	-1631.76	  413.02
     28.3700	  881.00	  816.92	-1688.17	  412.70
     28.4700	  827.00	  773.17	-1698.42	  412.38
     28.5700	  736.00	  742.45	-1758.70	  412.06
     28.6700	  707.00	  740.80	-1786.05	  411.75
     28.7700	  753.00	  763.56	-1762.81	  411.43
     28.8700	  809.00	  791.00	-1734.25	  411.12
     28.9700	  814.00	  795.36	-1733.61	  410.81
     29.0700	  794.00	  759.05	-1717.30	  410.49
     29.1700	  660.00	  697.40	-1789.65	  410.18
     29.2700	  628.00	  638.63	-1762.88	  409.87
     29.3700	  595.00	  596.21	-1753.46	  409.56
     29.4700	  597.00	  570.54	-1725.79	  409.26
     29.5700	  585.00	  556.64	-1723.89	  408.95
     29.6700	  622.00	  549.28	-1679.53	  408.65
     29.7700	  564.00	  545.10	-1733.35	  408.34
     29.8700	  586.00	  542.47	-1708.72	  408.04
     29.9700	  549.00	  540.79	-1744.04	  407.74
     30.0700	  567.00	  539.88	-1725.13	  407.44
     30.1700	  582.00	  539.90	-1710.15	  407.14
     30.2700	  558.00	  541.33	-1735.58	  406.84
     30.3700	  541.00	  545.17	-1756.43	  406.54
     30.4700	  527.00	  552.91	-1778.16	  406.25
     30.5700	  575.00	  566.12	-1743.37	  405.95
     30.6700	  647.00	  585.25	-1690.50	  405.66
     30.7700	  605.00	  607.90	-1755.15	  405.37
     30.8700	  618.00	  627.62	-1761.87	  405.07
     30.9700	  594.00	  634.54	-1792.79	  404.78
     31.0700	  582.00	  621.97	-1792.22	  404.50
     31.1700	  579.00	  596.45	-1769.70	  404.21
     31.2700	  555.00	  570.86	-1768.11	  403.92
     31.3700	  563.00	  551.97	-1741.22	  403.64
     31.4700	  534.00	  540.50	-1758.75	  403.36
     31.5700	  566.00	  534.36	-1720.61	  403.07
     31.6700	  563.00	  531.20	-1720.45	  402.79
     31.7700	  490.00	  529.45	-1791.70	  402.52
     31.8700	  495.00	  528.34	-1785.59	  402.24
     31.9700	  523.00	  527.57	-1756.82	  401.96
     32.0700	  528.00	  527.02	-1751.27	  401.69
     32.1700	  555.00	  526.65	-1723.90	  401.41
     32.2700	  525.00	  526.44	-1753.69	  401.14
     32.3700	  572.00	  526.37	-1706.62	  400.87
     32.4700	  563.00	  526.45	-1715.70	  400.60
     32.5700	  561.00	  526.69	-1717.94	  400.33
     32.6700	  509.00	  527.14	-1770.39	  400.07
     32.7700	  566.00	  527.82	-1714.07	  399.80
     32.8700	  495.00	  528.82	-1786.07	  399.54
     32.9700	  509.00	  530.23	-1773.48	  399.28
     33.0700	  576.00	  532.29	-1708.54	  399.02
     33.1700	  562.00	  535.44	-1725.69	  398.76
     33.2700	  548.00	  540.75	-1745.00	  398.50
     33.3700	  568.00	  550.50	-1734.75	  398.24
     33.4700	  579.00	  569.10	-1742.35	  397.99
     33.5700	  574.00	  603.60	-1781.85	  397.74
     33.6700	  650.00	  662.06	-1764.31	  397.48
     33.7700	  770.00	  748.19	-1730.44	  397.23
     33.8700	  878.00	  852.63	-1726.88	  396.99
     33.9700	 1021.00	  947.28	-1678.53	  396.74
     34.0700	 1086.00	  989.02	-1655.27	  396.49
     34.1700	  995.00	  946.17	-1703.42	  396.25
     34.2700	  855.00	  840.96	-1738.21	  396.01
     34.3700	  703.00	  727.85	-1777.10	  395.77
     34.4700	  617.00	  640.40	-1775.65	  395.53
     34.5700	  583.00	  585.53	-1754.78	  395.29
     34.6700	  567.00	  555.90	-1741.15	  395.06
     34.7700	  546.00	  541.06	-1747.31	  394.82
     34.8700	  561.00	  533.34	-1724.59	  394.59
     34.9700	  568.00	  528.73	-1712.98	  394.36
     35.0700	  533.00	  525.56	-1744.81	  394.13
     35.1700	  518.00	  523.16	-1757.41	  393.90
     35.2700	  535.00	  521.28	-1738.53	  393.67
     35.3700	  531.00	  519.74	-1740.99	  393.45
     35.4700	  514.00	  518.47	-1756.72	  393.23
     35.5700	  537.00	  517.39	-1732.64	  393.01
     35.6700	  509.00	  516.46	-1759.71	  392.79
     35.7700	  508.00	  515.66	-1759.91	  392.57
     35.8700	  544.00	  514.95	-1723.20	  392.35
     35.9700	  511.00	  514.81	-1756.06	  392.14
     36.0700	  502.00	  514.25	-1764.50	  391.93
     36.1700	  519.00	  513.75	-1747.00	  391.71
     36.2700	  512.00	  513.30	-1753.55	  391.50
     36.3700	  498.00	  512.89	-1767.14	  391.30
     36.4700	  485.00	  512.52	-1779.77	  391.09
     36.5700	  501.00	  512.19	-1763.44	  390.89
     36.6700	  517.00	  511.90	-1747.15	  390.68
     36.7700	  520.00	  511.65	-1743.90	  390.48
     36.8700	  533.00	  511.48	-1730.73	  390.28
     36.9700	  507.00	  511.43	-1756.68	  390.09
     37.0700	  534.00	  511.63	-1729.88	  389.89
     37.1700	  486.00	  512.33	-1778.58	  389.70
     37.2700	  495.00	  513.91	-1771.16	  389.50
     37.3700	  512.00	  516.70	-1756.95	  389.31
     37.4700	  560.00	  520.72	-1712.97	  389.12
     37.5700	  539.00	  525.22	-1738.47	  388.94
     37.6700	  495.00	  528.68	-1785.93	  388.75
     37.7700	  512.00	  529.40	-1769.65	  388.57
     37.8700	  494.00	  527.06	-1785.31	  388.39
     37.9700	  532.00	  523.18	-1743.43	  388.20
     38.0700	  496.00	  519.17	-1775.42	  388.03
     38.1700	  462.00	  515.57	-1805.82	  387.85
     38.2700	  529.00	  512.64	-1735.89	  387.67
     38.3700	  482.00	  510.50	-1780.75	  387.50
     38.4700	  501.00	  509.04	-1760.29	  387.33
     38.5700	  529.00	  508.10	-1731.35	  387.16
     38.6700	  497.00	  507.50	-1762.75	  386.99
     38.7700	  499.00	  507.00	-1760.25	  386.83
     38.8700	  479.00	  506.70	-1779.95	  386.66
     38.9700	  510.00	  506.45	-1748.70	  386.50
     39.0700	  501.00	  506.23	-1757.48	  386.34
     39.1700	  494.00	  506.03	-1764.28	  386.18
     39.2700	  483.00	  505.77	-1775.02	  386.02
     39.3700	  503.00	  505.60	-1754.85	  385.87
     39.4700	  508.00	  505.44	-1749.69	  385.71
     39.5700	  515.00	  505.42	-1742.67	  385.56
     39.6700	  498.00	  505.29	-1759.54	  385.41
     39.7700	  547.00	  505.16	-1710.41	  385.26
     39.8700	  500.00	  505.04	-1757.29	  385.12
     39.9700	  503.00	  504.93	-1754.18	  384.97
     40.0700	  499.00	  504.83	-1758.08	  384.83
     40.1700	  511.00	  504.74	-1745.99	  384.69
     40.2700	  541.00	  504.67	-1715.92	  384.55
     40.3700	  454.00	  504.60	-1802.85	  384.41
     40.4700	  511.00	  504.55	-1745.80	  384.27
     40.5700	  536.00	  504.51	-1720.76	  384.14
     40.6700	  502.00	  504.48	-1754.73	  384.01
     40.7700	  533.00	  504.48	-1723.73	  383.88
