MSG Master    CELL:    5.89876   5.89876  23.17356   90.0000   90.0000  120.0000   SPGR: P 63/m m c             TEMP:    757.05
  1   1280     2.52000     0.00000    -0.11666     0.00000     0.00000    0
    96     0     2
       0.00000      10.00000
     125.00000     130.00000
 2Theta	Yobs	Ycal	Yobs-Ycal	Backg	Posr	(hkl)	K
      0.7700	    0.00	  492.00	-1783.38	  378.89
      0.8700	    0.00	  494.16	-1783.38	  381.05
      0.9700	   46.00	  496.30	-1783.38	  383.18
      1.0700	   55.00	  498.41	-1783.38	  385.30
      1.1700	   51.00	  500.50	-1783.38	  387.39
      1.2700	   27.00	  502.57	-1783.38	  389.46
      1.3700	   50.00	  504.62	-1783.38	  391.50
      1.4700	  101.00	  506.64	-1783.38	  393.53
      1.5700	  297.00	  508.65	-1783.38	  395.53
      1.6700	  460.00	  510.63	-1783.38	  397.52
      1.7700	  583.00	  512.59	-1783.38	  399.48
      1.8700	  621.00	  514.53	-1783.38	  401.42
      1.9700	  716.00	  516.45	-1783.38	  403.34
      2.0700	  736.00	  518.35	-1783.38	  405.24
      2.1700	  763.00	  520.23	-1783.38	  407.11
      2.2700	  732.00	  522.09	-1783.38	  408.97
      2.3700	  721.00	  523.92	-1783.38	  410.81
      2.4700	  684.00	  525.74	-1783.38	  412.62
      2.5700	  693.00	  527.53	-1783.38	  414.42
      2.6700	  639.00	  529.31	-1783.38	  416.19
      2.7700	  667.00	  531.06	-1783.38	  417.95
      2.8700	  678.00	  532.80	-1783.38	  419.68
      2.9700	  615.00	  534.51	-1783.38	  421.40
      3.0700	  613.00	  536.21	-1783.38	  423.10
      3.1700	  561.00	  537.89	-1783.38	  424.77
      3.2700	  710.00	  539.54	-1783.38	  426.43
      3.3700	  866.00	  541.18	-1783.38	  428.07
      3.4700	 1016.00	  542.80	-1783.38	  429.69
      3.5700	 1122.00	  544.40	-1783.38	  431.28
      3.6700	 1200.00	  545.98	-1783.38	  432.86
      3.7700	 1326.00	  547.54	-1783.38	  434.43
      3.8700	 1410.00	  549.08	-1783.38	  435.97
      3.9700	 1516.00	  550.61	-1783.38	  437.49
      4.0700	 1576.00	  552.11	-1783.38	  439.00
      4.1700	 1605.00	  553.60	-1783.38	  440.49
      4.2700	 1563.00	  555.07	-1783.38	  441.95
      4.3700	 1560.00	  556.52	-1783.38	  443.40
      4.4700	 1526.00	  557.95	-1783.38	  444.84
      4.5700	 1387.00	  559.37	-1783.38	  446.25
      4.6700	 1422.00	  560.76	-1783.38	  447.65
      4.7700	 1350.00	  562.14	-1783.38	  449.03
      4.8700	 1326.00	  563.50	-1783.38	  450.39
      4.9700	 1238.00	  564.85	-1783.38	  451.73
      5.0700	 1220.00	  566.17	-1783.38	  453.06
      5.1700	 1183.00	  567.48	-1783.38	  454.37
      5.2700	 1127.00	  568.78	-1783.38	  455.66
      5.3700	 1073.00	  570.05	-1783.38	  456.94
      5.4700	 1111.00	  571.31	-1783.38	  458.20
      5.5700	 1083.00	  572.55	-1783.38	  459.44
      5.6700	 1029.00	  573.78	-1783.38	  460.66
      5.7700	 1036.00	  574.98	-1783.38	  461.87
      5.8700	  991.00	  576.18	-1783.38	  463.06
      5.9700	  959.00	  577.35	-1783.38	  464.24
      6.0700	  976.00	  578.51	-1783.38	  465.40
      6.1700	  899.00	  579.65	-1783.38	  466.54
      6.2700	  891.00	  580.78	-1783.38	  467.67
      6.3700	  945.00	  581.89	-1783.38	  468.78
      6.4700	  916.00	  582.99	-1783.38	  469.87
      6.5700	  891.00	  584.07	-1783.38	  470.95
      6.6700	  865.00	  585.13	-1783.38	  472.02
      6.7700	  822.00	  586.18	-1783.38	  473.06
      6.8700	  834.00	  587.21	-1783.38	  474.10
      6.9700	  819.00	  588.23	-1783.38	  475.11
      7.0700	  853.00	  589.23	-1783.38	  476.12
      7.1700	  838.00	  590.22	-1783.38	  477.10
      7.2700	  794.00	  591.19	-1783.38	  478.08
      7.3700	  759.00	  592.15	-1783.38	  479.03
      7.4700	  792.00	  593.09	-1783.38	  479.98
      7.5700	  745.00	  594.02	-1783.38	  480.90
      7.6700	  742.00	  594.93	-1783.38	  481.82
      7.7700	  737.00	  595.83	-1783.38	  482.72
      7.8700	  742.00	  596.71	-1783.38	  483.60
      7.9700	  710.00	  597.58	-1783.38	  484.47
      8.0700	  742.00	  598.44	-1783.38	  485.33
      8.1700	  737.00	  599.28	-1783.38	  486.17
      8.2700	  721.00	  600.11	-1783.38	  487.00
      8.3700	  705.00	  600.92	-1783.38	  487.81
      8.4700	  691.00	  601.72	-1783.38	  488.61
      8.5700	  671.00	  602.51	-1783.38	  489.40
      8.6700	  686.00	  603.28	-1783.38	  490.17
      8.7700	  660.00	  604.04	-1783.38	  490.93
      8.8700	  694.00	  604.79	-1783.38	  491.68
      8.9700	  690.00	  605.52	-1783.38	  492.41
      9.0700	  723.00	  606.24	-1783.38	  493.13
      9.1700	  692.00	  606.95	-1783.38	  493.83
      9.2700	  718.00	  607.64	-1783.38	  494.53
      9.3700	  672.00	  608.32	-1783.38	  495.21
      9.4700	  703.00	  608.99	-1783.38	  495.88
      9.5700	  688.00	  609.65	-1783.38	  496.53
      9.6700	  686.00	  610.29	-1783.38	  497.17
      9.7700	  649.00	  610.92	-1783.38	  497.80
      9.8700	  699.00	  611.54	-1783.38	  498.42
      9.9700	  635.00	  612.14	-1783.38	  499.03
     10.0700	  687.00	  614.51	-1710.88	  499.62
     10.1700	  642.00	  615.29	-1756.67	  500.20
     10.2700	  670.00	  616.10	-1729.48	  500.77
     10.3700	  669.00	  616.97	-1731.35	  501.33
     10.4700	  646.00	  617.92	-1755.30	  501.87
     10.5700	  703.00	  619.00	-1699.38	  502.40
     10.6700	  665.00	  620.29	-1738.66	  502.93
     10.7700	  667.00	  621.88	-1738.26	  503.44
     10.8700	  686.00	  623.87	-1721.25	  503.93
     10.9700	  647.00	  626.32	-1762.70	  504.42
     11.0700	  668.00	  629.23	-1744.61	  504.90
     11.1700	  640.00	  632.62	-1776.00	  505.36
     11.2700	  678.00	  636.51	-1741.89	  505.81
     11.3700	  642.00	  640.98	-1782.35	  506.26
     11.4700	  642.00	  646.13	-1787.51	  506.69
     11.5700	  662.00	  652.18	-1773.56	  507.11
     11.6700	  675.00	  659.42	-1767.80	  507.52
     11.7700	  685.00	  668.24	-1766.62	  507.92
     11.8700	  688.00	  678.99	-1774.37	  508.30
     11.9700	  758.00	  691.61	-1716.99	  508.68
     12.0700	  766.00	  704.94	-1722.32	  509.05
     12.1700	  791.00	  715.95	-1708.33	  509.41
     12.2700	  796.00	  719.41	-1706.79	  509.75
     12.3700	  811.00	  710.40	-1682.78	  510.09
     12.4700	  711.00	  691.37	-1763.75	  510.41
     12.5700	  719.00	  671.15	-1735.53	  510.73
     12.6700	  664.00	  655.35	-1774.73	  511.04
     12.7700	  617.00	  644.87	-1811.25	  511.33
     12.8700	  604.00	  638.60	-1817.98	  511.62
     12.9700	  612.00	  635.04	-1806.41	  511.90
     13.0700	  634.00	  632.98	-1782.36	  512.16
     13.1700	  630.00	  631.73	-1785.10	  512.42
     13.2700	  637.00	  630.91	-1777.28	  512.67
     13.3700	  627.00	  630.34	-1786.72	  512.91
     13.4700	  604.00	  629.95	-1809.33	  513.14
     13.5700	  596.00	  629.68	-1817.06	  513.36
     13.6700	  644.00	  629.52	-1768.90	  513.57
     13.7700	  594.00	  629.40	-1818.78	  513.77
     13.8700	  601.00	  629.32	-1811.70	  513.96
     13.9700	  584.00	  629.28	-1828.66	  514.15
     14.0700	  600.00	  629.26	-1812.64	  514.32
     14.1700	  597.00	  629.27	-1815.64	  514.49
     14.2700	  586.00	  629.28	-1826.66	  514.65
     14.3700	  589.00	  629.31	-1823.69	  514.80
     14.4700	  618.00	  629.35	-1794.72	  514.94
     14.5700	  627.00	  629.38	-1785.76	  515.07
     14.6700	  613.00	  629.43	-1799.80	  515.19
     14.7700	  622.00	  629.47	-1790.85	  515.31
     14.8700	  565.00	  629.51	-1847.89	  515.42
     14.9700	  602.00	  629.55	-1810.93	  515.52
     15.0700	  602.00	  629.59	-1810.97	  515.61
     15.1700	  568.00	  629.63	-1845.01	  515.69
     15.2700	  602.00	  629.66	-1811.04	  515.77
     15.3700	  622.00	  629.69	-1791.07	  515.83
     15.4700	  617.00	  629.72	-1796.10	  515.89
     15.5700	  633.00	  629.74	-1780.12	  515.95
     15.6700	  612.00	  629.75	-1801.13	  515.99
     15.7700	  628.00	  629.77	-1785.14	  516.03
     15.8700	  600.00	  629.77	-1813.15	  516.06
     15.9700	  635.00	  629.77	-1778.15	  516.08
     16.0700	  655.00	  629.77	-1758.14	  516.10
     16.1700	  605.00	  629.76	-1808.13	  516.10
     16.2700	  583.00	  629.74	-1830.12	  516.10
     16.3700	  588.00	  629.72	-1825.09	  516.10
     16.4700	  562.00	  629.69	-1851.07	  516.08
     16.5700	  626.00	  629.65	-1787.03	  516.06
     16.6700	  558.00	  629.61	-1854.99	  516.04
     16.7700	  660.00	  629.57	-1752.95	  516.00
     16.8700	  604.00	  629.52	-1808.90	  515.96
     16.9700	  606.00	  629.46	-1806.84	  515.91
     17.0700	  593.00	  629.40	-1819.77	  515.86
     17.1700	  566.00	  629.33	-1846.71	  515.80
     17.2700	  644.00	  629.25	-1768.63	  515.73
     17.3700	  565.00	  629.28	-1847.66	  515.66
     17.4700	  568.00	  629.20	-1844.58	  515.58
     17.5700	  588.00	  629.11	-1824.49	  515.49
     17.6700	  543.00	  629.01	-1869.39	  515.40
     17.7700	  597.00	  628.91	-1815.29	  515.30
     17.8700	  644.00	  628.95	-1768.33	  515.19
     17.9700	  591.00	  628.84	-1821.22	  515.08
     18.0700	  605.00	  628.73	-1807.11	  514.97
     18.1700	  610.00	  628.61	-1801.99	  514.84
     18.2700	  641.00	  628.48	-1770.86	  514.72
     18.3700	  622.00	  628.35	-1789.73	  514.58
     18.4700	  610.00	  628.22	-1801.59	  514.44
     18.5700	  600.00	  628.08	-1811.45	  514.30
     18.6700	  585.00	  627.93	-1826.31	  514.15
     18.7700	  603.00	  627.78	-1808.16	  513.99
     18.8700	  597.00	  627.62	-1814.00	  513.83
     18.9700	  600.00	  627.46	-1810.84	  513.66
     19.0700	  590.00	  627.30	-1820.68	  513.49
     19.1700	  604.00	  627.13	-1806.51	  513.31
     19.2700	  596.00	  626.95	-1814.33	  513.13
     19.3700	  632.00	  626.78	-1778.15	  512.94
     19.4700	  559.00	  626.64	-1851.01	  512.74
     19.5700	  571.00	  626.45	-1838.83	  512.55
     19.6700	  606.00	  626.26	-1803.64	  512.34
     19.7700	  633.00	  626.06	-1776.44	  512.14
     19.8700	  591.00	  625.87	-1818.24	  511.92
     19.9700	  614.00	  625.66	-1795.04	  511.70
     20.0700	  593.00	  625.46	-1815.83	  511.48
     20.1700	  600.00	  625.25	-1808.62	  511.26
     20.2700	  608.00	  625.03	-1800.41	  511.02
     20.3700	  630.00	  624.81	-1778.19	  510.79
     20.4700	  603.00	  624.59	-1804.97	  510.55
     20.5700	  586.00	  624.37	-1821.75	  510.30
     20.6700	  586.00	  624.14	-1821.52	  510.05
     20.7700	  548.00	  623.91	-1859.29	  509.80
     20.8700	  619.00	  623.68	-1788.06	  509.54
     20.9700	  564.00	  623.44	-1842.82	  509.28
     21.0700	  584.00	  623.21	-1822.58	  509.01
     21.1700	  585.00	  622.97	-1821.34	  508.74
     21.2700	  626.00	  622.73	-1780.10	  508.47
     21.3700	  588.00	  622.48	-1817.86	  508.19
     21.4700	  617.00	  622.24	-1788.61	  507.91
     21.5700	  601.00	  621.99	-1804.37	  507.62
     21.6700	  635.00	  621.74	-1770.12	  507.33
     21.7700	  634.00	  621.50	-1770.87	  507.04
     21.8700	  613.00	  621.25	-1791.63	  506.74
     21.9700	  672.00	  621.00	-1732.38	  506.44
     22.0700	  561.00	  620.91	-1843.29	  506.14
     22.1700	  576.00	  620.67	-1828.05	  505.83
     22.2700	  568.00	  620.43	-1835.81	  505.52
     22.3700	  670.00	  620.20	-1733.57	  505.20
     22.4700	  573.00	  619.96	-1830.34	  504.88
     22.5700	  634.00	  619.74	-1769.12	  504.56
     22.6700	  602.00	  619.52	-1800.90	  504.24
     22.7700	  612.00	  619.31	-1790.69	  503.91
     22.8700	  631.00	  619.12	-1771.49	  503.58
     22.9700	  628.00	  618.93	-1774.31	  503.24
     23.0700	  550.00	  618.77	-1852.15	  502.91
     23.1700	  665.00	  618.63	-1737.01	  502.56
     23.2700	  641.00	  618.52	-1760.89	  502.22
     23.3700	  625.00	  618.39	-1776.77	  501.88
     23.4700	  617.00	  618.37	-1784.75	  501.53
     23.5700	  615.00	  618.41	-1786.79	  501.17
     23.6700	  625.00	  618.54	-1776.92	  500.82
     23.7700	  607.00	  618.81	-1795.19	  500.46
     23.8700	  620.00	  619.29	-1782.67	  500.10
     23.9700	  602.00	  620.11	-1801.48	  499.74
     24.0700	  639.00	  621.50	-1765.87	  499.37
     24.1700	  599.00	  623.82	-1808.19	  499.00
     24.2700	  609.00	  627.59	-1801.97	  498.63
     24.3700	  654.00	  633.42	-1762.80	  498.26
     24.4700	  654.00	  641.82	-1771.19	  497.89
     24.5700	  629.00	  652.90	-1807.28	  497.51
     24.6700	  635.00	  665.97	-1814.35	  497.13
     24.7700	  735.00	  678.90	-1727.28	  496.75
     24.8700	  684.00	  687.66	-1787.04	  496.36
     24.9700	  761.00	  687.05	-1709.43	  495.97
     25.0700	  702.00	  675.57	-1756.95	  495.59
     25.1700	  664.00	  658.90	-1778.28	  495.20
     25.2700	  677.00	  643.57	-1749.95	  494.80
     25.3700	  690.00	  632.18	-1725.56	  494.41
     25.4700	  649.00	  624.70	-1759.08	  494.01
     25.5700	  649.00	  620.14	-1754.52	  493.61
     25.6700	  625.00	  617.40	-1775.78	  493.21
     25.7700	  631.00	  615.68	-1768.06	  492.81
     25.8700	  662.00	  614.53	-1735.91	  492.40
     25.9700	  681.00	  613.70	-1716.08	  492.00
     26.0700	  628.00	  613.10	-1768.47	  491.59
     26.1700	  623.00	  612.66	-1773.03	  491.18
     26.2700	  642.00	  612.36	-1753.73	  490.77
     26.3700	  656.00	  612.18	-1739.56	  490.36
     26.4700	  722.00	  612.14	-1673.51	  489.94
     26.5700	  706.00	  612.22	-1689.60	  489.53
     26.6700	  641.00	  612.44	-1754.82	  489.11
     26.7700	  729.00	  612.82	-1667.20	  488.69
     26.8700	  702.00	  613.40	-1694.77	  488.27
     26.9700	  722.00	  614.20	-1675.58	  487.85
     27.0700	  708.00	  615.31	-1690.68	  487.43
     27.1700	  746.00	  616.80	-1654.18	  487.01
     27.2700	  665.00	  618.86	-1737.24	  486.58
     27.3700	  741.00	  621.76	-1664.14	  486.16
     27.4700	  720.00	  626.07	-1689.45	  485.73
     27.5700	  702.00	  632.78	-1714.16	  485.30
     27.6700	  736.00	  643.61	-1690.99	  484.87
     27.7700	  727.00	  661.14	-1717.52	  484.44
     27.8700	  745.00	  688.53	-1726.91	  484.01
     27.9700	  719.00	  728.30	-1792.67	  483.58
     28.0700	  822.00	  780.21	-1741.59	  483.15
     28.1700	  878.00	  838.99	-1744.37	  482.71
     28.2700	  942.00	  892.41	-1733.79	  482.28
     28.3700	 1057.00	  922.13	-1648.51	  481.84
     28.4700	 1043.00	  916.57	-1656.95	  481.40
     28.5700	  931.00	  892.34	-1744.72	  480.97
     28.6700	  912.00	  880.52	-1751.89	  480.53
     28.7700	  911.00	  896.36	-1768.74	  480.09
     28.8700	  918.00	  934.92	-1800.30	  479.65
     28.9700	  976.00	  975.55	-1782.93	  479.21
     29.0700	  967.00	  987.38	-1803.76	  478.77
     29.1700	  993.00	  947.58	-1737.96	  478.33
     29.2700	  865.00	  869.44	-1787.81	  477.89
     29.3700	  827.00	  787.38	-1743.76	  477.45
     29.4700	  798.00	  722.04	-1707.42	  477.01
     29.5700	  738.00	  677.59	-1722.97	  476.56
     29.6700	  761.00	  650.34	-1672.72	  476.12
     29.7700	  724.00	  634.51	-1693.89	  475.68
     29.8700	  724.00	  625.26	-1684.64	  475.23
     29.9700	  724.00	  619.58	-1678.96	  474.79
     30.0700	  702.00	  615.98	-1697.36	  474.35
     30.1700	  703.00	  613.90	-1694.28	  473.90
     30.2700	  708.00	  613.31	-1688.69	  473.46
     30.3700	  697.00	  614.63	-1701.01	  473.01
     30.4700	  690.00	  618.70	-1712.08	  472.57
     30.5700	  689.00	  626.67	-1721.05	  472.12
     30.6700	  671.00	  639.60	-1751.98	  471.68
     30.7700	  633.00	  657.50	-1807.88	  471.23
     30.8700	  683.00	  678.28	-1778.66	  470.79
     30.9700	  704.00	  697.00	-1776.38	  470.34
     31.0700	  715.00	  705.96	-1774.34	  469.90
     31.1700	  757.00	  698.51	-1724.89	  469.45
     31.2700	  628.00	  677.17	-1832.55	  469.01
     31.3700	  647.00	  652.11	-1788.49	  468.57
     31.4700	  599.00	  630.78	-1815.16	  468.12
     31.5700	  650.00	  615.47	-1748.84	  467.68
     31.6700	  634.00	  605.62	-1755.00	  467.23
     31.7700	  613.00	  599.68	-1770.06	  466.79
     31.8700	  618.00	  596.13	-1761.50	  466.35
     31.9700	  611.00	  593.89	-1766.27	  465.90
     32.0700	  681.00	  592.38	-1694.76	  465.46
     32.1700	  650.00	  591.32	-1724.70	  465.02
     32.2700	  616.00	  590.57	-1757.95	  464.58
     32.3700	  608.00	  590.08	-1765.46	  464.14
     32.4700	  638.00	  589.84	-1735.21	  463.70
     32.5700	  621.00	  589.82	-1752.20	  463.26
     32.6700	  615.00	  590.07	-1758.45	  462.82
     32.7700	  630.00	  590.60	-1743.98	  462.38
     32.8700	  632.00	  591.48	-1742.86	  461.94
     32.9700	  607.00	  592.80	-1769.18	  461.50
     33.0700	  637.00	  594.72	-1741.10	  461.06
     33.1700	  573.00	  597.54	-1807.92	  460.62
     33.2700	  578.00	  601.76	-1807.14	  460.19
     33.3700	  641.00	  608.46	-1750.84	  459.75
     33.4700	  558.00	  619.56	-1844.94	  459.32
     33.5700	  675.00	  638.21	-1746.59	  458.88
     33.6700	  708.00	  668.70	-1744.08	  458.45
     33.7700	  715.00	  715.41	-1783.78	  458.02
     33.8700	  720.00	  779.93	-1843.31	  457.59
     33.9700	  835.00	  857.18	-1805.55	  457.15
     34.0700	 1017.00	  932.11	-1698.49	  456.72
     34.1700	 1025.00	  979.57	-1737.94	  456.29
     34.2700	 1082.00	  973.72	-1675.09	  455.87
     34.3700	 1007.00	  913.35	-1689.73	  455.44
     34.4700	  820.00	  828.46	-1791.84	  455.01
     34.5700	  729.00	  748.88	-1803.26	  454.59
     34.6700	  725.00	  687.70	-1746.08	  454.16
     34.7700	  603.00	  646.23	-1826.60	  453.74
     34.8700	  626.00	  620.43	-1777.81	  453.32
     34.9700	  629.00	  605.00	-1759.38	  452.89
     35.0700	  580.00	  595.60	-1798.98	  452.47
     35.1700	  597.00	  589.45	-1775.83	  452.05
     35.2700	  629.00	  585.05	-1739.42	  451.63
     35.3700	  590.00	  582.15	-1775.53	  451.22
     35.4700	  536.00	  579.44	-1826.82	  450.80
     35.5700	  568.00	  577.21	-1792.59	  450.39
     35.6700	  541.00	  575.32	-1817.70	  449.97
     35.7700	  541.00	  573.70	-1816.07	  449.56
     35.8700	  584.00	  572.28	-1771.66	  449.15
     35.9700	  544.00	  571.04	-1810.41	  448.74
     36.0700	  541.00	  569.93	-1812.31	  448.33
     36.1700	  543.00	  568.94	-1809.31	  447.92
     36.2700	  554.00	  568.04	-1797.42	  447.51
     36.3700	  553.00	  567.22	-1797.60	  447.11
     36.4700	  518.00	  566.45	-1831.83	  446.70
     36.5700	  529.00	  565.78	-1820.16	  446.30
     36.6700	  548.00	  565.18	-1800.56	  445.90
     36.7700	  553.00	  564.65	-1795.02	  445.50
     36.8700	  517.00	  564.20	-1830.57	  445.10
     36.9700	  558.00	  563.86	-1789.23	  444.71
     37.0700	  502.00	  563.69	-1845.06	  444.31
     37.1700	  567.00	  563.78	-1780.16	  443.92
     37.2700	  531.00	  564.30	-1816.68	  443.52
     37.3700	  541.00	  565.45	-1807.83	  443.13
     37.4700	  541.00	  567.58	-1809.95	  442.74
     37.5700	  542.00	  570.36	-1811.73	  442.35
     37.6700	  588.00	  573.71	-1769.09	  441.97
     37.7700	  587.00	  576.94	-1773.32	  441.58
     37.8700	  538.00	  578.93	-1824.31	  441.20
     37.9700	  598.00	  578.66	-1764.03	  440.81
     38.0700	  543.00	  576.17	-1816.54	  440.43
     38.1700	  546.00	  572.50	-1809.88	  440.05
     38.2700	  512.00	  568.57	-1839.95	  439.68
     38.3700	  571.00	  564.89	-1777.27	  439.30
     38.4700	  579.00	  561.79	-1766.17	  438.93
     38.5700	  515.00	  559.39	-1827.77	  438.55
     38.6700	  534.00	  557.63	-1807.01	  438.18
     38.7700	  515.00	  556.35	-1824.73	  437.81
     38.8700	  523.00	  555.40	-1815.78	  437.45
     38.9700	  523.00	  554.65	-1815.03	  437.08
     39.0700	  538.00	  554.03	-1799.41	  436.71
     39.1700	  565.00	  553.49	-1771.87	  436.35
     39.2700	  517.00	  553.06	-1819.44	  435.99
     39.3700	  578.00	  552.60	-1757.98	  435.63
     39.4700	  513.00	  552.18	-1822.55	  435.27
     39.5700	  508.00	  551.66	-1827.04	  434.92
     39.6700	  546.00	  551.28	-1788.66	  434.57
     39.7700	  528.00	  550.91	-1806.29	  434.21
     39.8700	  541.00	  550.56	-1792.94	  433.86
     39.9700	  523.00	  550.22	-1810.60	  433.51
     40.0700	  541.00	  549.90	-1792.28	  433.17
     40.1700	  504.00	  550.14	-1829.52	  432.82
     40.2700	  521.00	  549.85	-1812.23	  432.48
     40.3700	  516.00	  549.58	-1816.96	  432.14
     40.4700	  481.00	  549.32	-1851.70	  431.80
     40.5700	  524.00	  548.94	-1808.32	  431.46
     40.6700	  513.00	  548.72	-1819.10	  431.12
     40.7700	  584.00	  548.52	-1747.90	  430.79
