MSG Master    CELL:    5.90446   5.90446  23.19132   90.0000   90.0000  120.0000   SPGR: P 63/m m c             TEMP:    840.65
  1   1280     2.52000     0.00000    -0.13060     0.00000     0.00000    0
    98     0     2
       0.00000      10.00000
     125.00000     130.00000
 2Theta	Yobs	Ycal	Yobs-Ycal	Backg	Posr	(hkl)	K
      0.7700	    0.00	  460.03	-1769.75	  352.03
      0.8700	    0.00	  461.83	-1769.75	  353.84
      0.9700	   43.00	  463.62	-1769.75	  355.63
      1.0700	   43.00	  465.39	-1769.75	  357.39
      1.1700	   44.00	  467.14	-1769.75	  359.14
      1.2700	   42.00	  468.87	-1769.75	  360.87
      1.3700	   36.00	  470.58	-1769.75	  362.58
      1.4700	   96.00	  472.27	-1769.75	  364.27
      1.5700	  283.00	  473.94	-1769.75	  365.95
      1.6700	  445.00	  475.59	-1769.75	  367.60
      1.7700	  582.00	  477.23	-1769.75	  369.23
      1.8700	  669.00	  478.84	-1769.75	  370.85
      1.9700	  697.00	  480.44	-1769.75	  372.45
      2.0700	  820.00	  482.02	-1769.75	  374.03
      2.1700	  761.00	  483.58	-1769.75	  375.59
      2.2700	  778.00	  485.13	-1769.75	  377.13
      2.3700	  726.00	  486.65	-1769.75	  378.66
      2.4700	  734.00	  488.16	-1769.75	  380.16
      2.5700	  711.00	  489.65	-1769.75	  381.65
      2.6700	  646.00	  491.12	-1769.75	  383.12
      2.7700	  641.00	  492.57	-1769.75	  384.58
      2.8700	  618.00	  494.01	-1769.75	  386.01
      2.9700	  575.00	  495.43	-1769.75	  387.43
      3.0700	  607.00	  496.83	-1769.75	  388.84
      3.1700	  581.00	  498.22	-1769.75	  390.22
      3.2700	  663.00	  499.58	-1769.75	  391.59
      3.3700	  797.00	  500.93	-1769.75	  392.94
      3.4700	  936.00	  502.27	-1769.75	  394.27
      3.5700	  930.00	  503.59	-1769.75	  395.59
      3.6700	 1116.00	  504.89	-1769.75	  396.89
      3.7700	 1138.00	  506.17	-1769.75	  398.18
      3.8700	 1237.00	  507.44	-1769.75	  399.45
      3.9700	 1217.00	  508.69	-1769.75	  400.70
      4.0700	 1338.00	  509.93	-1769.75	  401.93
      4.1700	 1377.00	  511.15	-1769.75	  403.15
      4.2700	 1308.00	  512.35	-1769.75	  404.36
      4.3700	 1352.00	  513.54	-1769.75	  405.55
      4.4700	 1299.00	  514.71	-1769.75	  406.72
      4.5700	 1223.00	  515.87	-1769.75	  407.87
      4.6700	 1201.00	  517.01	-1769.75	  409.02
      4.7700	 1132.00	  518.13	-1769.75	  410.14
      4.8700	 1174.00	  519.25	-1769.75	  411.25
      4.9700	 1133.00	  520.34	-1769.75	  412.35
      5.0700	 1126.00	  521.42	-1769.75	  413.43
      5.1700	 1037.00	  522.49	-1769.75	  414.49
      5.2700	 1020.00	  523.54	-1769.75	  415.54
      5.3700	 1017.00	  524.57	-1769.75	  416.58
      5.4700	  996.00	  525.59	-1769.75	  417.60
      5.5700	  983.00	  526.60	-1769.75	  418.60
      5.6700	  891.00	  527.59	-1769.75	  419.60
      5.7700	  960.00	  528.57	-1769.75	  420.57
      5.8700	  868.00	  529.53	-1769.75	  421.54
      5.9700	  888.00	  530.48	-1769.75	  422.48
      6.0700	  853.00	  531.41	-1769.75	  423.42
      6.1700	  811.00	  532.33	-1769.75	  424.34
      6.2700	  821.00	  533.24	-1769.75	  425.25
      6.3700	  805.00	  534.13	-1769.75	  426.14
      6.4700	  797.00	  535.01	-1769.75	  427.02
      6.5700	  766.00	  535.88	-1769.75	  427.88
      6.6700	  765.00	  536.73	-1769.75	  428.74
      6.7700	  753.00	  537.57	-1769.75	  429.57
      6.8700	  795.00	  538.39	-1769.75	  430.40
      6.9700	  738.00	  539.20	-1769.75	  431.21
      7.0700	  732.00	  540.00	-1769.75	  432.01
      7.1700	  719.00	  540.79	-1769.75	  432.80
      7.2700	  706.00	  541.56	-1769.75	  433.57
      7.3700	  729.00	  542.32	-1769.75	  434.33
      7.4700	  710.00	  543.07	-1769.75	  435.08
      7.5700	  670.00	  543.80	-1769.75	  435.81
      7.6700	  653.00	  544.53	-1769.75	  436.53
      7.7700	  691.00	  545.24	-1769.75	  437.24
      7.8700	  649.00	  545.93	-1769.75	  437.94
      7.9700	  637.00	  546.62	-1769.75	  438.62
      8.0700	  595.00	  547.29	-1769.75	  439.30
      8.1700	  634.00	  547.95	-1769.75	  439.96
      8.2700	  673.00	  548.60	-1769.75	  440.61
      8.3700	  686.00	  549.24	-1769.75	  441.24
      8.4700	  656.00	  549.86	-1769.75	  441.87
      8.5700	  645.00	  550.47	-1769.75	  442.48
      8.6700	  632.00	  551.07	-1769.75	  443.08
      8.7700	  615.00	  551.66	-1769.75	  443.67
      8.8700	  640.00	  552.24	-1769.75	  444.25
      8.9700	  619.00	  552.81	-1769.75	  444.82
      9.0700	  653.00	  553.36	-1769.75	  445.37
      9.1700	  662.00	  553.91	-1769.75	  445.92
      9.2700	  627.00	  554.44	-1769.75	  446.45
      9.3700	  651.00	  554.96	-1769.75	  446.97
      9.4700	  605.00	  555.48	-1769.75	  447.48
      9.5700	  569.00	  555.98	-1769.75	  447.98
      9.6700	  620.00	  556.46	-1769.75	  448.47
      9.7700	  618.00	  556.94	-1769.75	  448.95
      9.8700	  603.00	  557.41	-1769.75	  449.42
      9.9700	  606.00	  557.87	-1769.75	  449.88
     10.0700	  605.00	  560.11	-1724.86	  450.32
     10.1700	  611.00	  560.71	-1719.46	  450.76
     10.2700	  605.00	  561.33	-1726.08	  451.19
     10.3700	  591.00	  562.00	-1740.75	  451.60
     10.4700	  595.00	  562.73	-1737.48	  452.01
     10.5700	  565.00	  563.58	-1768.33	  452.40
     10.6700	  588.00	  564.62	-1746.37	  452.79
     10.7700	  608.00	  565.93	-1727.68	  453.17
     10.8700	  597.00	  567.58	-1740.33	  453.53
     10.9700	  597.00	  569.62	-1742.37	  453.89
     11.0700	  609.00	  572.03	-1732.78	  454.24
     11.1700	  631.00	  574.83	-1713.58	  454.57
     11.2700	  551.00	  578.05	-1796.80	  454.90
     11.3700	  573.00	  581.74	-1778.49	  455.22
     11.4700	  591.00	  586.02	-1764.77	  455.53
     11.5700	  644.00	  591.08	-1716.83	  455.83
     11.6700	  571.00	  597.19	-1795.94	  456.12
     11.7700	  617.00	  604.72	-1757.47	  456.40
     11.8700	  596.00	  614.01	-1787.76	  456.67
     11.9700	  642.00	  624.96	-1752.71	  456.94
     12.0700	  662.00	  636.32	-1744.07	  457.19
     12.1700	  656.00	  644.98	-1758.73	  457.44
     12.2700	  653.00	  645.89	-1762.64	  457.68
     12.3700	  679.00	  635.47	-1726.22	  457.91
     12.4700	  629.00	  617.89	-1758.64	  458.13
     12.5700	  650.00	  601.13	-1720.88	  458.34
     12.6700	  618.00	  588.93	-1740.68	  458.54
     12.7700	  539.00	  581.31	-1812.06	  458.74
     12.8700	  597.00	  576.97	-1749.72	  458.92
     12.9700	  585.00	  574.58	-1759.33	  459.10
     13.0700	  550.00	  573.19	-1792.94	  459.27
     13.1700	  584.00	  572.32	-1758.07	  459.44
     13.2700	  559.00	  571.73	-1782.48	  459.59
     13.3700	  572.00	  571.31	-1769.06	  459.74
     13.4700	  536.00	  571.01	-1804.76	  459.88
     13.5700	  563.00	  570.79	-1777.54	  460.01
     13.6700	  565.00	  570.62	-1775.37	  460.13
     13.7700	  588.00	  570.51	-1752.26	  460.25
     13.8700	  536.00	  570.42	-1804.17	  460.36
     13.9700	  569.00	  570.36	-1771.11	  460.46
     14.0700	  560.00	  570.34	-1780.09	  460.55
     14.1700	  547.00	  570.31	-1793.06	  460.64
     14.2700	  545.00	  570.29	-1795.04	  460.72
     14.3700	  587.00	  570.27	-1753.02	  460.79
     14.4700	  565.00	  570.26	-1775.01	  460.86
     14.5700	  576.00	  570.25	-1764.00	  460.91
     14.6700	  545.00	  570.24	-1794.99	  460.96
     14.7700	  548.00	  570.23	-1791.98	  461.01
     14.8700	  533.00	  570.23	-1806.98	  461.05
     14.9700	  529.00	  570.21	-1810.96	  461.08
     15.0700	  534.00	  570.20	-1805.95	  461.10
     15.1700	  541.00	  570.18	-1798.93	  461.12
     15.2700	  544.00	  570.16	-1795.91	  461.13
     15.3700	  571.00	  570.14	-1768.89	  461.13
     15.4700	  557.00	  570.11	-1782.86	  461.13
     15.5700	  599.00	  570.08	-1740.83	  461.12
     15.6700	  572.00	  570.05	-1767.80	  461.11
     15.7700	  562.00	  570.01	-1777.76	  461.09
     15.8700	  525.00	  569.96	-1814.71	  461.06
     15.9700	  533.00	  569.92	-1806.67	  461.03
     16.0700	  557.00	  569.86	-1782.61	  460.99
     16.1700	  546.00	  569.80	-1793.55	  460.94
     16.2700	  589.00	  569.74	-1750.49	  460.89
     16.3700	  514.00	  569.67	-1825.42	  460.83
     16.4700	  584.00	  569.60	-1755.35	  460.77
     16.5700	  577.00	  569.52	-1762.27	  460.70
     16.6700	  577.00	  569.44	-1762.19	  460.63
     16.7700	  568.00	  569.35	-1771.10	  460.55
     16.8700	  542.00	  569.26	-1797.01	  460.46
     16.9700	  559.00	  569.16	-1779.91	  460.37
     17.0700	  517.00	  569.06	-1821.81	  460.28
     17.1700	  577.00	  568.96	-1761.71	  460.18
     17.2700	  561.00	  568.84	-1777.59	  460.07
     17.3700	  541.00	  568.73	-1797.48	  459.96
     17.4700	  520.00	  568.72	-1818.47	  459.84
     17.5700	  544.00	  568.59	-1794.34	  459.72
     17.6700	  597.00	  568.47	-1741.22	  459.59
     17.7700	  529.00	  568.33	-1809.08	  459.46
     17.8700	  532.00	  568.20	-1805.95	  459.32
     17.9700	  534.00	  568.15	-1803.90	  459.18
     18.0700	  542.00	  568.01	-1795.76	  459.04
     18.1700	  562.00	  567.86	-1775.61	  458.88
     18.2700	  531.00	  567.71	-1806.46	  458.73
     18.3700	  520.00	  567.55	-1817.30	  458.57
     18.4700	  518.00	  567.39	-1819.14	  458.40
     18.5700	  551.00	  567.23	-1785.98	  458.23
     18.6700	  548.00	  567.06	-1788.81	  458.06
     18.7700	  551.00	  566.88	-1785.63	  457.88
     18.8700	  558.00	  566.71	-1778.46	  457.70
     18.9700	  571.00	  566.53	-1765.28	  457.51
     19.0700	  545.00	  566.34	-1791.09	  457.32
     19.1700	  568.00	  566.15	-1767.90	  457.12
     19.2700	  565.00	  565.96	-1770.71	  456.92
     19.3700	  571.00	  565.77	-1764.52	  456.72
     19.4700	  530.00	  565.57	-1805.32	  456.51
     19.5700	  596.00	  565.37	-1739.12	  456.30
     19.6700	  517.00	  565.20	-1817.95	  456.08
     19.7700	  557.00	  564.99	-1777.74	  455.86
     19.8700	  536.00	  564.78	-1798.53	  455.64
     19.9700	  551.00	  564.56	-1783.31	  455.41
     20.0700	  570.00	  564.35	-1764.10	  455.18
     20.1700	  564.00	  564.13	-1769.88	  454.95
     20.2700	  538.00	  563.90	-1795.65	  454.71
     20.3700	  537.00	  563.68	-1796.43	  454.47
     20.4700	  537.00	  563.45	-1796.20	  454.22
     20.5700	  522.00	  563.22	-1810.97	  453.98
     20.6700	  532.00	  562.99	-1800.74	  453.72
     20.7700	  564.00	  562.75	-1768.50	  453.47
     20.8700	  527.00	  562.51	-1805.26	  453.21
     20.9700	  515.00	  562.27	-1817.02	  452.95
     21.0700	  533.00	  562.03	-1798.78	  452.68
     21.1700	  579.00	  561.79	-1752.54	  452.42
     21.2700	  590.00	  561.55	-1741.30	  452.14
     21.3700	  568.00	  561.30	-1763.05	  451.87
     21.4700	  584.00	  561.06	-1746.81	  451.59
     21.5700	  571.00	  560.81	-1759.56	  451.31
     21.6700	  534.00	  560.56	-1796.31	  451.03
     21.7700	  560.00	  560.31	-1770.06	  450.74
     21.8700	  534.00	  560.07	-1795.82	  450.46
     21.9700	  496.00	  559.82	-1833.57	  450.16
     22.0700	  532.00	  559.57	-1797.32	  449.87
     22.1700	  498.00	  559.33	-1831.08	  449.57
     22.2700	  529.00	  559.25	-1800.00	  449.27
     22.3700	  540.00	  559.01	-1788.76	  448.97
     22.4700	  533.00	  558.78	-1795.53	  448.67
     22.5700	  578.00	  558.55	-1750.30	  448.36
     22.6700	  556.00	  558.33	-1772.08	  448.05
     22.7700	  570.00	  558.12	-1757.87	  447.74
     22.8700	  534.00	  557.87	-1793.62	  447.43
     22.9700	  540.00	  557.68	-1787.43	  447.11
     23.0700	  545.00	  557.51	-1782.26	  446.79
     23.1700	  615.00	  557.35	-1712.10	  446.47
     23.2700	  559.00	  557.22	-1767.97	  446.15
     23.3700	  570.00	  557.13	-1756.88	  445.82
     23.4700	  567.00	  557.07	-1759.82	  445.49
     23.5700	  545.00	  557.07	-1781.82	  445.17
     23.6700	  571.00	  557.15	-1755.90	  444.83
     23.7700	  580.00	  557.36	-1747.11	  444.50
     23.8700	  594.00	  557.75	-1733.50	  444.17
     23.9700	  557.00	  558.47	-1771.22	  443.83
     24.0700	  541.00	  559.74	-1788.49	  443.49
     24.1700	  567.00	  561.91	-1764.66	  443.15
     24.2700	  589.00	  565.49	-1746.24	  442.81
     24.3700	  583.00	  571.02	-1757.77	  442.46
     24.4700	  584.00	  578.93	-1764.68	  442.12
     24.5700	  572.00	  589.24	-1786.99	  441.77
     24.6700	  690.00	  601.05	-1680.80	  441.42
     24.7700	  663.00	  611.95	-1718.70	  441.07
     24.8700	  655.00	  617.65	-1732.40	  440.72
     24.9700	  651.00	  613.72	-1732.47	  440.37
     25.0700	  626.00	  600.99	-1744.74	  440.01
     25.1700	  590.00	  585.98	-1765.73	  439.66
     25.2700	  596.00	  573.57	-1747.32	  439.30
     25.3700	  597.00	  565.01	-1737.76	  438.94
     25.4700	  555.00	  559.73	-1774.48	  438.58
     25.5700	  586.00	  556.65	-1740.40	  438.22
     25.6700	  611.00	  554.81	-1713.56	  437.86
     25.7700	  602.00	  553.63	-1721.38	  437.49
     25.8700	  555.00	  552.81	-1767.56	  437.13
     25.9700	  582.00	  552.22	-1739.97	  436.76
     26.0700	  600.00	  551.77	-1721.52	  436.39
     26.1700	  602.00	  551.46	-1719.21	  436.03
     26.2700	  597.00	  551.25	-1724.00	  435.66
     26.3700	  573.00	  551.15	-1747.90	  435.29
     26.4700	  621.00	  551.16	-1699.91	  434.92
     26.5700	  595.00	  551.28	-1726.03	  434.55
     26.6700	  581.00	  551.54	-1740.29	  434.17
     26.7700	  596.00	  551.94	-1725.69	  433.80
     26.8700	  576.00	  552.52	-1746.27	  433.43
     26.9700	  597.00	  553.34	-1726.09	  433.05
     27.0700	  609.00	  554.46	-1715.21	  432.68
     27.1700	  587.00	  555.98	-1738.73	  432.30
     27.2700	  601.00	  558.12	-1726.87	  431.92
     27.3700	  605.00	  561.22	-1725.97	  431.55
     27.4700	  591.00	  565.98	-1744.73	  431.17
     27.5700	  611.00	  573.65	-1732.40	  430.79
     27.6700	  585.00	  586.27	-1771.02	  430.41
     27.7700	  600.00	  606.73	-1776.48	  430.03
     27.8700	  636.00	  638.16	-1771.91	  429.65
     27.9700	  654.00	  682.23	-1797.98	  429.27
     28.0700	  704.00	  736.80	-1802.55	  428.89
     28.1700	  814.00	  793.57	-1749.32	  428.51
     28.2700	  927.00	  836.52	-1679.27	  428.13
     28.3700	  984.00	  846.32	-1632.07	  427.75
     28.4700	  855.00	  820.45	-1735.20	  427.37
     28.5700	  760.00	  785.27	-1795.02	  426.98
     28.6700	  748.00	  767.43	-1789.18	  426.60
     28.7700	  704.00	  774.33	-1840.08	  426.22
     28.8700	  787.00	  797.22	-1779.97	  425.84
     28.9700	  845.00	  816.19	-1740.94	  425.45
     29.0700	  803.00	  807.66	-1774.41	  425.07
     29.1700	  822.00	  763.76	-1711.51	  424.69
     29.2700	  699.00	  703.72	-1774.47	  424.31
     29.3700	  655.00	  649.57	-1764.32	  423.92
     29.4700	  659.00	  609.98	-1720.73	  423.54
     29.5700	  599.00	  584.66	-1755.41	  423.16
     29.6700	  587.00	  569.75	-1752.50	  422.78
     29.7700	  606.00	  561.20	-1724.95	  422.39
     29.8700	  587.00	  556.11	-1738.86	  422.01
     29.9700	  573.00	  552.94	-1749.69	  421.63
     30.0700	  640.00	  551.01	-1680.76	  421.25
     30.1700	  590.00	  550.17	-1729.92	  420.87
     30.2700	  565.00	  550.63	-1755.38	  420.49
     30.3700	  596.00	  552.97	-1726.72	  420.10
     30.4700	  585.00	  558.12	-1742.87	  419.72
     30.5700	  626.00	  567.24	-1710.99	  419.34
     30.6700	  641.00	  581.09	-1709.84	  418.96
     30.7700	  608.00	  599.04	-1760.79	  418.58
     30.8700	  640.00	  618.14	-1747.89	  418.20
     30.9700	  630.00	  632.59	-1772.34	  417.83
     31.0700	  610.00	  634.82	-1794.57	  417.45
     31.1700	  620.00	  621.54	-1771.29	  417.07
     31.2700	  574.00	  599.38	-1795.13	  416.69
     31.3700	  569.00	  577.63	-1778.38	  416.32
     31.4700	  565.00	  560.87	-1765.62	  415.94
     31.5700	  555.00	  549.68	-1764.43	  415.56
     31.6700	  577.00	  542.91	-1735.66	  415.19
     31.7700	  537.00	  538.97	-1771.72	  414.82
     31.8700	  597.00	  536.63	-1709.38	  414.44
     31.9700	  540.00	  535.15	-1764.90	  414.07
     32.0700	  560.00	  534.16	-1743.91	  413.70
     32.1700	  554.00	  533.49	-1749.24	  413.33
     32.2700	  517.00	  533.08	-1785.83	  412.95
     32.3700	  556.00	  532.88	-1746.63	  412.58
     32.4700	  552.00	  532.91	-1750.66	  412.22
     32.5700	  545.00	  533.17	-1757.92	  411.85
     32.6700	  593.00	  533.68	-1710.43	  411.48
     32.7700	  549.00	  534.49	-1755.24	  411.11
     32.8700	  611.00	  535.69	-1694.44	  410.75
     32.9700	  547.00	  537.38	-1760.13	  410.38
     33.0700	  564.00	  539.76	-1745.51	  410.02
     33.1700	  566.00	  543.22	-1746.97	  409.65
     33.2700	  575.00	  548.50	-1743.25	  409.29
     33.3700	  581.00	  557.06	-1745.81	  408.93
     33.4700	  563.00	  571.53	-1778.28	  408.57
     33.5700	  597.00	  595.99	-1768.74	  408.21
     33.6700	  609.00	  635.66	-1796.41	  407.85
     33.7700	  699.00	  694.88	-1765.63	  407.50
     33.8700	  770.00	  772.98	-1772.73	  407.14
     33.9700	  905.00	  859.79	-1724.54	  406.79
     34.0700	 1020.00	  933.03	-1682.78	  406.43
     34.1700	 1023.00	  961.50	-1708.25	  406.08
     34.2700	 1029.00	  924.76	-1665.51	  405.73
     34.3700	  888.00	  840.32	-1722.07	  405.38
     34.4700	  732.00	  746.73	-1784.48	  405.03
     34.5700	  588.00	  668.75	-1850.50	  404.68
     34.6700	  605.00	  613.51	-1778.26	  404.33
     34.7700	  612.00	  578.52	-1736.27	  403.99
     34.8700	  592.00	  557.82	-1735.57	  403.64
     34.9700	  587.00	  545.70	-1728.45	  403.30
     35.0700	  538.00	  538.19	-1769.94	  402.96
     35.1700	  511.00	  533.09	-1791.84	  402.62
     35.2700	  510.00	  529.32	-1789.07	  402.28
     35.3700	  490.00	  526.37	-1806.12	  401.94
     35.4700	  549.00	  524.45	-1745.20	  401.61
     35.5700	  504.00	  522.46	-1788.21	  401.27
     35.6700	  521.00	  520.78	-1769.53	  400.94
     35.7700	  455.00	  519.34	-1834.09	  400.61
     35.8700	  520.00	  518.10	-1767.85	  400.27
     35.9700	  522.00	  516.97	-1764.72	  399.95
     36.0700	  463.00	  515.99	-1822.74	  399.62
     36.1700	  522.00	  515.11	-1762.86	  399.29
     36.2700	  507.00	  514.32	-1777.07	  398.97
     36.3700	  489.00	  513.61	-1794.36	  398.64
     36.4700	  491.00	  512.96	-1791.71	  398.32
     36.5700	  508.00	  512.37	-1774.12	  398.00
     36.6700	  533.00	  511.84	-1748.59	  397.68
     36.7700	  489.00	  511.37	-1792.12	  397.36
     36.8700	  506.00	  510.97	-1774.72	  397.05
     36.9700	  562.00	  510.67	-1718.42	  396.73
     37.0700	  494.00	  510.51	-1786.26	  396.42
     37.1700	  469.00	  510.60	-1811.35	  396.11
     37.2700	  505.00	  511.07	-1775.82	  395.80
     37.3700	  542.00	  512.08	-1739.83	  395.49
     37.4700	  533.00	  513.75	-1750.50	  395.18
     37.5700	  518.00	  516.01	-1767.76	  394.88
     37.6700	  532.00	  518.51	-1756.26	  394.58
     37.7700	  515.00	  520.66	-1775.41	  394.27
     37.8700	  497.00	  521.17	-1793.92	  393.97
     37.9700	  516.00	  519.72	-1773.47	  393.68
     38.0700	  512.00	  516.89	-1774.64	  393.38
     38.1700	  536.00	  513.71	-1747.46	  393.08
     38.2700	  484.00	  510.83	-1796.58	  392.79
     38.3700	  504.00	  508.50	-1774.25	  392.50
     38.4700	  487.00	  506.77	-1789.52	  392.21
     38.5700	  454.00	  505.54	-1821.29	  391.92
     38.6700	  523.00	  504.66	-1751.41	  391.64
     38.7700	  488.00	  504.01	-1785.76	  391.35
     38.8700	  483.00	  503.49	-1790.24	  391.07
     38.9700	  487.00	  503.05	-1785.80	  390.79
     39.0700	  491.00	  502.65	-1781.40	  390.51
     39.1700	  476.00	  502.30	-1796.05	  390.23
     39.2700	  518.00	  501.96	-1753.71	  389.96
     39.3700	  522.00	  501.65	-1749.40	  389.68
     39.4700	  520.00	  501.25	-1751.00	  389.41
     39.5700	  507.00	  500.97	-1763.72	  389.14
     39.6700	  512.00	  500.70	-1758.45	  388.87
     39.7700	  504.00	  500.44	-1766.19	  388.61
     39.8700	  505.00	  500.20	-1764.95	  388.34
     39.9700	  482.00	  499.97	-1787.72	  388.08
     40.0700	  516.00	  499.75	-1753.50	  387.82
     40.1700	  467.00	  499.54	-1802.29	  387.56
     40.2700	  464.00	  499.25	-1805.00	  387.30
     40.3700	  493.00	  499.60	-1776.35	  387.05
     40.4700	  477.00	  499.44	-1792.19	  386.80
     40.5700	  465.00	  499.30	-1804.05	  386.54
     40.6700	  501.00	  499.18	-1767.93	  386.30
     40.7700	  503.00	  499.08	-1765.83	  386.05
