MSG Master    CELL:    5.91914   5.91914  23.26916   90.0000   90.0000  120.0000   SPGR: P 63/m m c             TEMP:   1074.95
  1   1280     2.52000     0.00000    -0.12553     0.00000     0.00000    0
    99     0     2
       0.00000      10.00000
     125.00000     130.00000
 2Theta	Yobs	Ycal	Yobs-Ycal	Backg	Posr	(hkl)	K
      0.7700	    0.00	  561.70	-1759.75	  442.53
      0.8700	    0.00	  562.20	-1759.75	  443.04
      0.9700	   37.00	  562.70	-1759.75	  443.53
      1.0700	   48.00	  563.19	-1759.75	  444.02
      1.1700	   47.00	  563.66	-1759.75	  444.50
      1.2700	   37.00	  564.13	-1759.75	  444.97
      1.3700	   47.00	  564.59	-1759.75	  445.43
      1.4700	   89.00	  565.04	-1759.75	  445.88
      1.5700	  271.00	  565.48	-1759.75	  446.32
      1.6700	  455.00	  565.92	-1759.75	  446.75
      1.7700	  626.00	  566.34	-1759.75	  447.18
      1.8700	  652.00	  566.76	-1759.75	  447.59
      1.9700	  726.00	  567.16	-1759.75	  448.00
      2.0700	  802.00	  567.56	-1759.75	  448.40
      2.1700	  747.00	  567.95	-1759.75	  448.79
      2.2700	  758.00	  568.34	-1759.75	  449.17
      2.3700	  751.00	  568.71	-1759.75	  449.54
      2.4700	  679.00	  569.07	-1759.75	  449.91
      2.5700	  679.00	  569.43	-1759.75	  450.27
      2.6700	  656.00	  569.78	-1759.75	  450.61
      2.7700	  676.00	  570.12	-1759.75	  450.95
      2.8700	  640.00	  570.45	-1759.75	  451.29
      2.9700	  572.00	  570.78	-1759.75	  451.61
      3.0700	  608.00	  571.09	-1759.75	  451.93
      3.1700	  627.00	  571.40	-1759.75	  452.24
      3.2700	  626.00	  571.70	-1759.75	  452.54
      3.3700	  672.00	  572.00	-1759.75	  452.83
      3.4700	  697.00	  572.28	-1759.75	  453.12
      3.5700	  844.00	  572.56	-1759.75	  453.39
      3.6700	  883.00	  572.83	-1759.75	  453.66
      3.7700	  924.00	  573.09	-1759.75	  453.93
      3.8700	  971.00	  573.35	-1759.75	  454.18
      3.9700	  964.00	  573.59	-1759.75	  454.43
      4.0700	 1098.00	  573.84	-1759.75	  454.67
      4.1700	 1093.00	  574.07	-1759.75	  454.90
      4.2700	 1118.00	  574.29	-1759.75	  455.13
      4.3700	 1082.00	  574.51	-1759.75	  455.35
      4.4700	 1021.00	  574.73	-1759.75	  455.56
      4.5700	  991.00	  574.93	-1759.75	  455.77
      4.6700	  991.00	  575.13	-1759.75	  455.96
      4.7700	 1041.00	  575.32	-1759.75	  456.15
      4.8700	 1007.00	  575.50	-1759.75	  456.34
      4.9700	 1007.00	  575.68	-1759.75	  456.52
      5.0700	  968.00	  575.85	-1759.75	  456.69
      5.1700	  904.00	  576.01	-1759.75	  456.85
      5.2700	  932.00	  576.17	-1759.75	  457.01
      5.3700	  906.00	  576.32	-1759.75	  457.16
      5.4700	  810.00	  576.47	-1759.75	  457.30
      5.5700	  807.00	  576.60	-1759.75	  457.44
      5.6700	  883.00	  576.74	-1759.75	  457.57
      5.7700	  841.00	  576.86	-1759.75	  457.70
      5.8700	  825.00	  576.98	-1759.75	  457.81
      5.9700	  825.00	  577.09	-1759.75	  457.93
      6.0700	  754.00	  577.20	-1759.75	  458.03
      6.1700	  762.00	  577.30	-1759.75	  458.13
      6.2700	  762.00	  577.39	-1759.75	  458.23
      6.3700	  782.00	  577.48	-1759.75	  458.31
      6.4700	  802.00	  577.56	-1759.75	  458.39
      6.5700	  726.00	  577.64	-1759.75	  458.47
      6.6700	  769.00	  577.71	-1759.75	  458.54
      6.7700	  739.00	  577.77	-1759.75	  458.60
      6.8700	  708.00	  577.83	-1759.75	  458.66
      6.9700	  743.00	  577.88	-1759.75	  458.72
      7.0700	  722.00	  577.93	-1759.75	  458.76
      7.1700	  670.00	  577.97	-1759.75	  458.80
      7.2700	  697.00	  578.00	-1759.75	  458.84
      7.3700	  693.00	  578.03	-1759.75	  458.87
      7.4700	  675.00	  578.06	-1759.75	  458.89
      7.5700	  649.00	  578.08	-1759.75	  458.91
      7.6700	  656.00	  578.09	-1759.75	  458.93
      7.7700	  677.00	  578.10	-1759.75	  458.94
      7.8700	  629.00	  578.10	-1759.75	  458.94
      7.9700	  622.00	  578.10	-1759.75	  458.94
      8.0700	  623.00	  578.10	-1759.75	  458.93
      8.1700	  644.00	  578.08	-1759.75	  458.92
      8.2700	  639.00	  578.07	-1759.75	  458.90
      8.3700	  631.00	  578.04	-1759.75	  458.88
      8.4700	  618.00	  578.02	-1759.75	  458.85
      8.5700	  634.00	  577.99	-1759.75	  458.82
      8.6700	  644.00	  577.95	-1759.75	  458.78
      8.7700	  626.00	  577.91	-1759.75	  458.74
      8.8700	  589.00	  577.86	-1759.75	  458.70
      8.9700	  643.00	  577.81	-1759.75	  458.64
      9.0700	  590.00	  577.75	-1759.75	  458.59
      9.1700	  584.00	  577.69	-1759.75	  458.53
      9.2700	  587.00	  577.63	-1759.75	  458.46
      9.3700	  611.00	  577.56	-1759.75	  458.39
      9.4700	  594.00	  577.48	-1759.75	  458.32
      9.5700	  617.00	  577.41	-1759.75	  458.24
      9.6700	  551.00	  577.32	-1759.75	  458.16
      9.7700	  603.00	  577.24	-1759.75	  458.07
      9.8700	  588.00	  577.14	-1759.75	  457.98
      9.9700	  624.00	  577.05	-1759.75	  457.88
     10.0700	  599.00	  577.61	-1738.36	  457.78
     10.1700	  581.00	  577.57	-1756.32	  457.68
     10.2700	  596.00	  577.55	-1741.30	  457.57
     10.3700	  576.00	  577.54	-1761.29	  457.46
     10.4700	  629.00	  577.58	-1708.33	  457.34
     10.5700	  587.00	  577.72	-1750.47	  457.22
     10.6700	  598.00	  578.05	-1739.80	  457.10
     10.7700	  601.00	  578.70	-1737.45	  456.97
     10.8700	  582.00	  579.72	-1757.47	  456.84
     10.9700	  603.00	  581.12	-1737.87	  456.70
     11.0700	  607.00	  582.85	-1735.60	  456.56
     11.1700	  582.00	  584.91	-1762.66	  456.42
     11.2700	  595.00	  587.31	-1752.06	  456.27
     11.3700	  572.00	  590.14	-1777.89	  456.12
     11.4700	  554.00	  593.53	-1799.28	  455.96
     11.5700	  645.00	  597.67	-1712.42	  455.81
     11.6700	  637.00	  602.88	-1725.62	  455.65
     11.7700	  604.00	  609.76	-1765.51	  455.48
     11.8700	  614.00	  619.32	-1765.07	  455.31
     11.9700	  651.00	  632.56	-1741.31	  455.14
     12.0700	  683.00	  648.32	-1725.07	  454.97
     12.1700	  658.00	  660.21	-1761.96	  454.79
     12.2700	  746.00	  657.38	-1671.13	  454.61
     12.3700	  608.00	  636.08	-1787.83	  454.42
     12.4700	  624.00	  609.88	-1745.63	  454.23
     12.5700	  572.00	  591.26	-1779.01	  454.04
     12.6700	  561.00	  581.74	-1780.49	  453.85
     12.7700	  591.00	  577.74	-1746.49	  453.65
     12.8700	  562.00	  575.99	-1773.74	  453.45
     12.9700	  612.00	  575.01	-1722.76	  453.25
     13.0700	  515.00	  574.30	-1819.05	  453.04
     13.1700	  550.00	  573.73	-1783.48	  452.83
     13.2700	  521.00	  573.25	-1812.00	  452.62
     13.3700	  566.00	  572.83	-1766.58	  452.40
     13.4700	  550.00	  572.45	-1782.20	  452.19
     13.5700	  540.00	  572.11	-1791.86	  451.97
     13.6700	  607.00	  571.78	-1724.53	  451.74
     13.7700	  544.00	  571.47	-1787.22	  451.52
     13.8700	  541.00	  571.17	-1789.92	  451.29
     13.9700	  560.00	  570.88	-1770.63	  451.06
     14.0700	  571.00	  570.60	-1759.35	  450.82
     14.1700	  570.00	  570.32	-1760.07	  450.59
     14.2700	  577.00	  570.04	-1752.79	  450.35
     14.3700	  569.00	  569.77	-1760.52	  450.11
     14.4700	  563.00	  569.50	-1766.25	  449.87
     14.5700	  574.00	  569.23	-1754.98	  449.62
     14.6700	  572.00	  568.96	-1756.71	  449.37
     14.7700	  538.00	  568.69	-1790.44	  449.12
     14.8700	  585.00	  568.42	-1743.17	  448.87
     14.9700	  548.00	  568.14	-1779.89	  448.61
     15.0700	  552.00	  567.87	-1775.62	  448.36
     15.1700	  540.00	  567.60	-1787.35	  448.10
     15.2700	  558.00	  567.33	-1769.08	  447.84
     15.3700	  568.00	  567.06	-1758.81	  447.57
     15.4700	  565.00	  566.78	-1761.53	  447.31
     15.5700	  559.00	  566.50	-1767.25	  447.04
     15.6700	  550.00	  566.23	-1775.98	  446.77
     15.7700	  554.00	  565.95	-1771.70	  446.50
     15.8700	  553.00	  565.67	-1772.42	  446.23
     15.9700	  586.00	  565.39	-1739.14	  445.95
     16.0700	  598.00	  565.10	-1726.85	  445.67
     16.1700	  582.00	  564.82	-1742.57	  445.39
     16.2700	  557.00	  564.53	-1767.28	  445.11
     16.3700	  544.00	  564.25	-1780.00	  444.83
     16.4700	  544.00	  563.96	-1779.71	  444.55
     16.5700	  576.00	  563.69	-1747.44	  444.26
     16.6700	  565.00	  563.40	-1758.15	  443.97
     16.7700	  588.00	  563.11	-1734.86	  443.68
     16.8700	  604.00	  562.82	-1718.57	  443.39
     16.9700	  554.00	  562.52	-1768.27	  443.10
     17.0700	  593.00	  562.23	-1728.98	  442.81
     17.1700	  556.00	  561.93	-1765.68	  442.51
     17.2700	  530.00	  561.63	-1791.38	  442.22
     17.3700	  507.00	  561.33	-1814.08	  441.92
     17.4700	  517.00	  561.03	-1803.78	  441.62
     17.5700	  608.00	  560.73	-1712.48	  441.32
     17.6700	  572.00	  560.43	-1748.18	  441.02
     17.7700	  541.00	  560.12	-1778.87	  440.71
     17.8700	  581.00	  559.82	-1738.57	  440.41
     17.9700	  561.00	  559.51	-1758.26	  440.10
     18.0700	  547.00	  559.31	-1772.06	  439.79
     18.1700	  568.00	  559.00	-1750.75	  439.49
     18.2700	  545.00	  558.69	-1773.44	  439.18
     18.3700	  537.00	  558.39	-1781.14	  438.87
     18.4700	  562.00	  558.08	-1755.83	  438.55
     18.5700	  562.00	  557.77	-1755.52	  438.24
     18.6700	  571.00	  557.45	-1746.20	  437.93
     18.7700	  592.00	  557.14	-1724.89	  437.61
     18.8700	  525.00	  556.83	-1791.58	  437.30
     18.9700	  559.00	  556.52	-1757.27	  436.98
     19.0700	  544.00	  556.28	-1772.03	  436.66
     19.1700	  569.00	  555.97	-1746.72	  436.34
     19.2700	  557.00	  555.66	-1758.41	  436.02
     19.3700	  583.00	  555.34	-1732.09	  435.70
     19.4700	  504.00	  555.03	-1810.78	  435.38
     19.5700	  546.00	  554.71	-1768.46	  435.06
     19.6700	  491.00	  554.40	-1823.15	  434.74
     19.7700	  553.00	  554.08	-1760.83	  434.42
     19.8700	  546.00	  553.77	-1767.52	  434.09
     19.9700	  529.00	  553.45	-1784.20	  433.77
     20.0700	  539.00	  553.13	-1773.88	  433.44
     20.1700	  534.00	  552.82	-1778.57	  433.12
     20.2700	  576.00	  552.47	-1736.22	  432.79
     20.3700	  556.00	  552.16	-1755.91	  432.46
     20.4700	  515.00	  551.84	-1796.59	  432.13
     20.5700	  567.00	  551.53	-1744.28	  431.81
     20.6700	  552.00	  551.21	-1758.96	  431.48
     20.7700	  587.00	  550.89	-1723.64	  431.15
     20.8700	  526.00	  550.58	-1784.33	  430.82
     20.9700	  548.00	  550.26	-1762.01	  430.49
     21.0700	  517.00	  549.99	-1792.74	  430.16
     21.1700	  558.00	  549.67	-1751.42	  429.83
     21.2700	  570.00	  549.36	-1739.11	  429.50
     21.3700	  514.00	  549.05	-1794.80	  429.17
     21.4700	  568.00	  548.74	-1740.49	  428.83
     21.5700	  583.00	  548.43	-1725.18	  428.50
     21.6700	  518.00	  548.12	-1789.87	  428.17
     21.7700	  571.00	  547.81	-1736.56	  427.84
     21.8700	  556.00	  547.50	-1751.25	  427.50
     21.9700	  558.00	  547.20	-1748.95	  427.17
     22.0700	  557.00	  546.90	-1749.65	  426.84
     22.1700	  511.00	  546.60	-1795.35	  426.51
     22.2700	  545.00	  546.30	-1761.05	  426.17
     22.3700	  516.00	  546.01	-1789.76	  425.84
     22.4700	  547.00	  545.72	-1758.47	  425.51
     22.5700	  550.00	  545.44	-1755.19	  425.17
     22.6700	  563.00	  545.16	-1741.91	  424.84
     22.7700	  547.00	  544.89	-1757.64	  424.51
     22.8700	  527.00	  544.62	-1777.37	  424.17
     22.9700	  539.00	  544.36	-1765.11	  423.84
     23.0700	  536.00	  544.12	-1767.87	  423.51
     23.1700	  544.00	  543.89	-1759.64	  423.17
     23.2700	  545.00	  543.68	-1758.43	  422.84
     23.3700	  554.00	  543.49	-1749.24	  422.51
     23.4700	  543.00	  543.33	-1760.08	  422.18
     23.5700	  561.00	  543.21	-1741.96	  421.84
     23.6700	  551.00	  543.15	-1751.90	  421.51
     23.7700	  584.00	  543.18	-1718.93	  421.18
     23.8700	  539.00	  543.40	-1764.15	  420.85
     23.9700	  502.00	  544.14	-1801.89	  420.52
     24.0700	  567.00	  545.61	-1738.36	  420.18
     24.1700	  525.00	  548.63	-1783.38	  419.85
     24.2700	  534.00	  554.11	-1779.86	  419.52
     24.3700	  558.00	  563.08	-1764.83	  419.19
     24.4700	  582.00	  576.81	-1754.56	  418.86
     24.5700	  589.00	  596.02	-1766.77	  418.53
     24.6700	  599.00	  618.16	-1778.91	  418.20
     24.7700	  576.00	  634.39	-1818.14	  417.88
     24.8700	  679.00	  632.06	-1712.81	  417.55
     24.9700	  607.00	  608.79	-1761.54	  417.22
     25.0700	  604.00	  580.09	-1735.84	  416.89
     25.1700	  563.00	  559.06	-1755.81	  416.57
     25.2700	  548.00	  547.81	-1759.56	  416.24
     25.3700	  542.00	  542.90	-1760.65	  415.91
     25.4700	  528.00	  540.82	-1772.57	  415.59
     25.5700	  501.00	  539.74	-1798.49	  415.26
     25.6700	  537.00	  539.03	-1761.78	  414.94
     25.7700	  549.00	  538.51	-1749.26	  414.62
     25.8700	  603.00	  538.12	-1694.87	  414.29
     25.9700	  609.00	  537.82	-1688.57	  413.97
     26.0700	  560.00	  537.60	-1737.35	  413.65
     26.1700	  547.00	  537.45	-1750.20	  413.33
     26.2700	  522.00	  537.37	-1775.12	  413.01
     26.3700	  514.00	  537.37	-1783.12	  412.69
     26.4700	  588.00	  537.45	-1709.20	  412.37
     26.5700	  598.00	  537.63	-1699.38	  412.05
     26.6700	  521.00	  537.91	-1776.66	  411.73
     26.7700	  539.00	  538.33	-1759.08	  411.42
     26.8700	  568.00	  538.92	-1730.67	  411.10
     26.9700	  555.00	  539.73	-1744.48	  410.79
     27.0700	  509.00	  540.83	-1791.58	  410.47
     27.1700	  567.00	  542.37	-1735.12	  410.16
     27.2700	  540.00	  544.58	-1764.33	  409.85
     27.3700	  540.00	  547.98	-1767.73	  409.54
     27.4700	  499.00	  553.54	-1814.29	  409.22
     27.5700	  532.00	  563.03	-1790.78	  408.92
     27.6700	  578.00	  579.29	-1761.04	  408.61
     27.7700	  579.00	  605.99	-1786.74	  408.30
     27.8700	  597.00	  646.35	-1809.10	  407.99
     27.9700	  678.00	  700.62	-1782.37	  407.68
     28.0700	  748.00	  762.64	-1774.39	  407.38
     28.1700	  956.00	  816.81	-1620.56	  407.08
     28.2700	  980.00	  839.53	-1619.28	  406.77
     28.3700	  923.00	  816.74	-1653.49	  406.47
     28.4700	  815.00	  770.48	-1715.23	  406.17
     28.5700	  641.00	  737.51	-1856.26	  405.87
     28.6700	  715.00	  734.84	-1779.59	  405.57
     28.7700	  745.00	  757.90	-1772.65	  405.27
     28.8700	  851.00	  786.44	-1695.19	  404.98
     28.9700	  820.00	  791.72	-1731.47	  404.68
     29.0700	  755.00	  755.25	-1760.00	  404.38
     29.1700	  662.00	  692.58	-1790.33	  404.09
     29.2700	  620.00	  632.95	-1772.70	  403.80
     29.3700	  557.00	  590.29	-1793.04	  403.51
     29.4700	  595.00	  564.87	-1729.62	  403.22
     29.5700	  580.00	  551.37	-1731.12	  402.93
     29.6700	  622.00	  544.34	-1682.09	  402.64
     29.7700	  588.00	  540.40	-1712.15	  402.35
     29.8700	  549.00	  537.96	-1748.71	  402.07
     29.9700	  547.00	  536.44	-1749.19	  401.78
     30.0700	  506.00	  535.70	-1789.45	  401.50
     30.1700	  614.00	  535.96	-1681.71	  401.22
     30.2700	  591.00	  537.79	-1706.54	  400.94
     30.3700	  535.00	  542.38	-1767.13	  400.66
     30.4700	  548.00	  551.59	-1763.34	  400.38
     30.5700	  545.00	  567.45	-1782.20	  400.10
     30.6700	  615.00	  590.72	-1735.47	  399.83
     30.7700	  613.00	  618.69	-1765.44	  399.55
     30.8700	  614.00	  643.46	-1789.21	  399.28
     30.9700	  631.00	  652.68	-1781.43	  399.01
     31.0700	  593.00	  637.65	-1804.40	  398.74
     31.1700	  602.00	  606.33	-1764.08	  398.47
     31.2700	  555.00	  574.91	-1779.66	  398.20
     31.3700	  581.00	  552.01	-1730.76	  397.94
     31.4700	  551.00	  538.35	-1747.10	  397.67
     31.5700	  536.00	  531.25	-1755.00	  397.41
     31.6700	  547.00	  527.69	-1740.44	  397.15
     31.7700	  538.00	  525.74	-1747.49	  396.89
     31.8700	  552.00	  524.52	-1732.27	  396.63
     31.9700	  506.00	  523.66	-1777.41	  396.37
     32.0700	  542.00	  523.04	-1740.79	  396.11
     32.1700	  552.00	  522.60	-1730.35	  395.86
     32.2700	  502.00	  522.32	-1780.07	  395.60
     32.3700	  548.00	  522.19	-1733.94	  395.35
     32.4700	  569.00	  522.20	-1712.95	  395.10
     32.5700	  591.00	  522.37	-1691.12	  394.85
     32.6700	  506.00	  522.72	-1776.47	  394.60
     32.7700	  546.00	  523.29	-1737.04	  394.36
     32.8700	  520.00	  524.14	-1763.89	  394.11
     32.9700	  570.00	  525.37	-1715.12	  393.87
     33.0700	  547.00	  527.17	-1739.92	  393.63
     33.1700	  556.00	  529.93	-1733.68	  393.39
     33.2700	  534.00	  534.60	-1760.35	  393.15
     33.3700	  572.00	  543.30	-1731.05	  392.91
     33.4700	  564.00	  560.33	-1756.08	  392.68
     33.5700	  568.00	  592.72	-1784.47	  392.44
     33.6700	  634.00	  649.11	-1774.86	  392.21
     33.7700	  762.00	  734.21	-1731.96	  391.98
     33.8700	  914.00	  839.69	-1685.44	  391.75
     33.9700	 1066.00	  937.44	-1631.19	  391.52
     34.0700	 1048.00	  982.85	-1694.60	  391.30
     34.1700	 1000.00	  941.79	-1701.54	  391.07
     34.2700	  903.00	  835.38	-1692.13	  390.85
     34.3700	  711.00	  720.25	-1769.00	  390.63
     34.4700	  619.00	  631.90	-1772.65	  390.41
     34.5700	  586.00	  577.51	-1751.26	  390.19
     34.6700	  582.00	  548.97	-1726.72	  389.97
     34.7700	  525.00	  535.11	-1769.86	  389.76
     34.8700	  547.00	  528.07	-1740.82	  389.54
     34.9700	  516.00	  523.90	-1767.65	  389.33
     35.0700	  520.00	  521.02	-1760.77	  389.12
     35.1700	  521.00	  518.85	-1757.60	  388.91
     35.2700	  561.00	  517.13	-1715.88	  388.71
     35.3700	  559.00	  515.73	-1716.48	  388.50
     35.4700	  531.00	  514.57	-1743.32	  388.30
     35.5700	  462.00	  513.61	-1811.36	  388.10
     35.6700	  517.00	  512.77	-1755.52	  387.90
     35.7700	  502.00	  512.04	-1769.79	  387.70
     35.8700	  548.00	  511.41	-1723.16	  387.50
     35.9700	  534.00	  510.84	-1736.59	  387.31
     36.0700	  530.00	  510.81	-1740.56	  387.11
     36.1700	  544.00	  510.36	-1726.11	  386.92
     36.2700	  489.00	  509.96	-1780.71	  386.73
     36.3700	  528.00	  509.59	-1741.34	  386.54
     36.4700	  521.00	  509.26	-1748.01	  386.36
     36.5700	  497.00	  508.97	-1771.72	  386.17
     36.6700	  445.00	  508.71	-1823.46	  385.99
     36.7700	  557.00	  508.49	-1711.24	  385.81
     36.8700	  540.00	  508.33	-1728.08	  385.63
     36.9700	  518.00	  508.27	-1750.02	  385.45
     37.0700	  567.00	  508.42	-1701.17	  385.27
     37.1700	  539.00	  509.00	-1729.75	  385.10
     37.2700	  525.00	  510.36	-1745.11	  384.92
     37.3700	  504.00	  512.96	-1768.71	  384.75
     37.4700	  542.00	  516.98	-1734.73	  384.58
     37.5700	  529.00	  521.99	-1752.74	  384.42
     37.6700	  552.00	  526.79	-1734.54	  384.25
     37.7700	  513.00	  529.76	-1776.51	  384.09
     37.8700	  522.00	  530.14	-1767.89	  383.92
     37.9700	  503.00	  528.57	-1785.32	  383.76
     38.0700	  498.00	  525.50	-1787.25	  383.60
     38.1700	  517.00	  521.04	-1763.79	  383.45
     38.2700	  471.00	  516.05	-1804.80	  383.29
     38.3700	  522.00	  511.70	-1749.45	  383.14
     38.4700	  485.00	  508.55	-1783.30	  382.99
     38.5700	  481.00	  506.58	-1785.33	  382.84
     38.6700	  542.00	  505.35	-1723.10	  382.69
     38.7700	  546.00	  504.71	-1718.46	  382.54
     38.8700	  456.00	  504.31	-1808.06	  382.40
     38.9700	  483.00	  504.02	-1780.77	  382.25
     39.0700	  498.00	  503.71	-1765.46	  382.11
     39.1700	  523.00	  503.50	-1740.25	  381.97
     39.2700	  504.00	  503.32	-1759.07	  381.83
     39.3700	  473.00	  503.15	-1789.90	  381.70
     39.4700	  492.00	  503.00	-1770.75	  381.56
     39.5700	  524.00	  502.86	-1738.61	  381.43
     39.6700	  505.00	  502.74	-1757.49	  381.30
     39.7700	  522.00	  502.62	-1740.37	  381.17
     39.8700	  544.00	  502.62	-1718.37	  381.04
     39.9700	  484.00	  502.53	-1778.28	  380.92
     40.0700	  468.00	  502.44	-1794.19	  380.80
     40.1700	  479.00	  502.37	-1783.12	  380.67
     40.2700	  500.00	  502.31	-1762.06	  380.55
     40.3700	  457.00	  502.25	-1805.00	  380.44
     40.4700	  497.00	  502.21	-1764.96	  380.32
     40.5700	  489.00	  502.19	-1772.94	  380.20
     40.6700	  468.00	  502.18	-1793.93	  380.09
     40.7700	  502.00	  502.19	-1759.94	  379.98
