MSG Master    CELL:    5.91464   5.91464  23.25535   90.0000   90.0000  120.0000   SPGR: P 63/m m c             TEMP:    993.35
  1   1280     2.52000     0.00000    -0.13065     0.00000     0.00000    0
    99     0     2
       0.00000      10.00000
     125.00000     130.00000
 2Theta	Yobs	Ycal	Yobs-Ycal	Backg	Posr	(hkl)	K
      0.7700	    0.00	  505.67	-1748.50	  391.96
      0.8700	    0.00	  506.79	-1748.50	  393.08
      0.9700	   50.00	  507.90	-1748.50	  394.19
      1.0700	   45.00	  508.99	-1748.50	  395.28
      1.1700	   37.00	  510.07	-1748.50	  396.36
      1.2700	   42.00	  511.13	-1748.50	  397.42
      1.3700	   47.00	  512.18	-1748.50	  398.47
      1.4700	  104.00	  513.22	-1748.50	  399.51
      1.5700	  273.00	  514.24	-1748.50	  400.53
      1.6700	  443.00	  515.25	-1748.50	  401.54
      1.7700	  579.00	  516.25	-1748.50	  402.54
      1.8700	  694.00	  517.24	-1748.50	  403.53
      1.9700	  726.00	  518.21	-1748.50	  404.50
      2.0700	  808.00	  519.17	-1748.50	  405.46
      2.1700	  802.00	  520.11	-1748.50	  406.40
      2.2700	  809.00	  521.05	-1748.50	  407.33
      2.3700	  761.00	  521.97	-1748.50	  408.25
      2.4700	  746.00	  522.87	-1748.50	  409.16
      2.5700	  626.00	  523.77	-1748.50	  410.06
      2.6700	  636.00	  524.65	-1748.50	  410.94
      2.7700	  626.00	  525.52	-1748.50	  411.81
      2.8700	  639.00	  526.38	-1748.50	  412.67
      2.9700	  604.00	  527.23	-1748.50	  413.52
      3.0700	  574.00	  528.06	-1748.50	  414.35
      3.1700	  595.00	  528.88	-1748.50	  415.17
      3.2700	  622.00	  529.69	-1748.50	  415.98
      3.3700	  742.00	  530.49	-1748.50	  416.78
      3.4700	  828.00	  531.28	-1748.50	  417.57
      3.5700	  875.00	  532.05	-1748.50	  418.34
      3.6700	  901.00	  532.82	-1748.50	  419.10
      3.7700	 1005.00	  533.57	-1748.50	  419.86
      3.8700	 1032.00	  534.31	-1748.50	  420.60
      3.9700	 1104.00	  535.04	-1748.50	  421.32
      4.0700	 1112.00	  535.75	-1748.50	  422.04
      4.1700	 1169.00	  536.46	-1748.50	  422.75
      4.2700	 1190.00	  537.15	-1748.50	  423.44
      4.3700	 1145.00	  537.84	-1748.50	  424.13
      4.4700	 1134.00	  538.51	-1748.50	  424.80
      4.5700	 1124.00	  539.17	-1748.50	  425.46
      4.6700	 1085.00	  539.82	-1748.50	  426.11
      4.7700	 1061.00	  540.47	-1748.50	  426.75
      4.8700	 1041.00	  541.09	-1748.50	  427.38
      4.9700	  957.00	  541.71	-1748.50	  428.00
      5.0700	  960.00	  542.32	-1748.50	  428.61
      5.1700	  933.00	  542.92	-1748.50	  429.21
      5.2700	  914.00	  543.51	-1748.50	  429.80
      5.3700	  937.00	  544.09	-1748.50	  430.38
      5.4700	  870.00	  544.65	-1748.50	  430.94
      5.5700	  832.00	  545.21	-1748.50	  431.50
      5.6700	  892.00	  545.76	-1748.50	  432.05
      5.7700	  846.00	  546.30	-1748.50	  432.58
      5.8700	  856.00	  546.82	-1748.50	  433.11
      5.9700	  756.00	  547.34	-1748.50	  433.63
      6.0700	  797.00	  547.85	-1748.50	  434.14
      6.1700	  821.00	  548.35	-1748.50	  434.63
      6.2700	  739.00	  548.83	-1748.50	  435.12
      6.3700	  770.00	  549.31	-1748.50	  435.60
      6.4700	  743.00	  549.78	-1748.50	  436.07
      6.5700	  755.00	  550.24	-1748.50	  436.53
      6.6700	  754.00	  550.69	-1748.50	  436.98
      6.7700	  726.00	  551.13	-1748.50	  437.42
      6.8700	  744.00	  551.57	-1748.50	  437.85
      6.9700	  694.00	  551.99	-1748.50	  438.28
      7.0700	  716.00	  552.40	-1748.50	  438.69
      7.1700	  704.00	  552.81	-1748.50	  439.10
      7.2700	  687.00	  553.20	-1748.50	  439.49
      7.3700	  722.00	  553.59	-1748.50	  439.88
      7.4700	  677.00	  553.97	-1748.50	  440.26
      7.5700	  635.00	  554.34	-1748.50	  440.63
      7.6700	  632.00	  554.70	-1748.50	  440.99
      7.7700	  646.00	  555.05	-1748.50	  441.34
      7.8700	  619.00	  555.39	-1748.50	  441.68
      7.9700	  637.00	  555.73	-1748.50	  442.02
      8.0700	  631.00	  556.06	-1748.50	  442.34
      8.1700	  682.00	  556.38	-1748.50	  442.66
      8.2700	  652.00	  556.69	-1748.50	  442.97
      8.3700	  671.00	  556.99	-1748.50	  443.28
      8.4700	  593.00	  557.28	-1748.50	  443.57
      8.5700	  610.00	  557.57	-1748.50	  443.86
      8.6700	  618.00	  557.85	-1748.50	  444.13
      8.7700	  615.00	  558.12	-1748.50	  444.40
      8.8700	  635.00	  558.38	-1748.50	  444.67
      8.9700	  588.00	  558.63	-1748.50	  444.92
      9.0700	  646.00	  558.88	-1748.50	  445.17
      9.1700	  655.00	  559.12	-1748.50	  445.41
      9.2700	  648.00	  559.35	-1748.50	  445.64
      9.3700	  602.00	  559.57	-1748.50	  445.86
      9.4700	  605.00	  559.79	-1748.50	  446.08
      9.5700	  612.00	  560.00	-1748.50	  446.29
      9.6700	  617.00	  560.20	-1748.50	  446.49
      9.7700	  614.00	  560.40	-1748.50	  446.69
      9.8700	  621.00	  560.58	-1748.50	  446.87
      9.9700	  583.00	  560.76	-1748.50	  447.05
     10.0700	  617.00	  562.33	-1693.83	  447.23
     10.1700	  603.00	  562.65	-1708.15	  447.39
     10.2700	  597.00	  563.00	-1714.50	  447.55
     10.3700	  588.00	  563.40	-1723.90	  447.70
     10.4700	  569.00	  563.88	-1743.38	  447.85
     10.5700	  573.00	  564.51	-1740.01	  447.99
     10.6700	  589.00	  565.37	-1724.87	  448.12
     10.7700	  575.00	  566.57	-1740.07	  448.24
     10.8700	  579.00	  568.17	-1737.67	  448.36
     10.9700	  587.00	  570.18	-1731.68	  448.48
     11.0700	  624.00	  572.60	-1697.10	  448.58
     11.1700	  607.00	  575.43	-1716.93	  448.68
     11.2700	  598.00	  578.71	-1729.21	  448.77
     11.3700	  559.00	  582.53	-1772.03	  448.86
     11.4700	  589.00	  587.03	-1746.53	  448.94
     11.5700	  561.00	  592.44	-1779.94	  449.01
     11.6700	  580.00	  599.13	-1767.63	  449.08
     11.7700	  565.00	  607.63	-1791.13	  449.14
     11.8700	  644.00	  618.43	-1722.93	  449.20
     11.9700	  709.00	  631.35	-1670.85	  449.25
     12.0700	  708.00	  644.41	-1684.91	  449.29
     12.1700	  660.00	  652.77	-1741.27	  449.33
     12.2700	  672.00	  649.51	-1726.01	  449.37
     12.3700	  626.00	  632.52	-1755.02	  449.39
     12.4700	  615.00	  610.58	-1744.08	  449.41
     12.5700	  600.00	  592.60	-1741.10	  449.43
     12.6700	  596.00	  580.94	-1733.44	  449.44
     12.7700	  562.00	  574.39	-1760.89	  449.44
     12.8700	  559.00	  570.93	-1760.43	  449.44
     12.9700	  559.00	  569.01	-1758.51	  449.44
     13.0700	  588.00	  567.81	-1728.31	  449.42
     13.1700	  567.00	  566.98	-1748.48	  449.41
     13.2700	  554.00	  566.34	-1760.84	  449.38
     13.3700	  584.00	  565.85	-1730.35	  449.36
     13.4700	  515.00	  565.45	-1798.95	  449.32
     13.5700	  563.00	  565.12	-1750.62	  449.29
     13.6700	  501.00	  564.84	-1812.34	  449.24
     13.7700	  551.00	  564.59	-1762.09	  449.20
     13.8700	  542.00	  564.38	-1770.88	  449.14
     13.9700	  547.00	  564.18	-1765.68	  449.09
     14.0700	  526.00	  564.00	-1786.50	  449.02
     14.1700	  558.00	  563.83	-1754.33	  448.96
     14.2700	  590.00	  563.67	-1722.17	  448.88
     14.3700	  547.00	  563.52	-1765.02	  448.81
     14.4700	  584.00	  563.37	-1727.87	  448.73
     14.5700	  536.00	  563.23	-1775.73	  448.64
     14.6700	  538.00	  563.09	-1773.59	  448.55
     14.7700	  525.00	  562.98	-1786.48	  448.46
     14.8700	  534.00	  562.84	-1777.34	  448.36
     14.9700	  508.00	  562.70	-1803.20	  448.25
     15.0700	  560.00	  562.56	-1751.06	  448.15
     15.1700	  526.00	  562.42	-1784.92	  448.03
     15.2700	  548.00	  562.28	-1762.78	  447.92
     15.3700	  532.00	  562.13	-1778.63	  447.80
     15.4700	  554.00	  561.99	-1756.49	  447.67
     15.5700	  542.00	  561.84	-1768.34	  447.55
     15.6700	  567.00	  561.69	-1743.19	  447.41
     15.7700	  539.00	  561.54	-1771.04	  447.28
     15.8700	  538.00	  561.38	-1771.88	  447.14
     15.9700	  583.00	  561.22	-1726.72	  446.99
     16.0700	  540.00	  561.06	-1769.56	  446.84
     16.1700	  569.00	  560.90	-1740.40	  446.69
     16.2700	  598.00	  560.73	-1711.23	  446.54
     16.3700	  552.00	  560.56	-1757.06	  446.38
     16.4700	  492.00	  560.39	-1816.89	  446.21
     16.5700	  554.00	  560.22	-1754.72	  446.05
     16.6700	  545.00	  560.04	-1763.54	  445.88
     16.7700	  524.00	  559.86	-1784.36	  445.70
     16.8700	  542.00	  559.68	-1766.18	  445.53
     16.9700	  552.00	  559.49	-1755.99	  445.35
     17.0700	  574.00	  559.30	-1733.80	  445.16
     17.1700	  546.00	  559.11	-1761.61	  444.98
     17.2700	  559.00	  558.91	-1748.41	  444.79
     17.3700	  583.00	  558.72	-1724.22	  444.59
     17.4700	  568.00	  558.51	-1739.01	  444.40
     17.5700	  528.00	  558.31	-1778.81	  444.20
     17.6700	  599.00	  558.11	-1707.61	  443.99
     17.7700	  531.00	  557.90	-1775.40	  443.79
     17.8700	  534.00	  557.78	-1772.28	  443.58
     17.9700	  587.00	  557.57	-1719.07	  443.37
     18.0700	  572.00	  557.36	-1733.86	  443.15
     18.1700	  594.00	  557.14	-1711.64	  442.93
     18.2700	  524.00	  556.92	-1781.42	  442.71
     18.3700	  534.00	  556.70	-1771.20	  442.49
     18.4700	  570.00	  556.57	-1735.07	  442.26
     18.5700	  591.00	  556.34	-1713.84	  442.03
     18.6700	  569.00	  556.11	-1735.61	  441.80
     18.7700	  517.00	  555.88	-1787.38	  441.57
     18.8700	  539.00	  555.65	-1765.15	  441.33
     18.9700	  541.00	  555.42	-1762.92	  441.09
     19.0700	  583.00	  555.18	-1720.68	  440.85
     19.1700	  500.00	  554.94	-1803.44	  440.60
     19.2700	  557.00	  554.70	-1746.20	  440.36
     19.3700	  512.00	  554.46	-1790.96	  440.11
     19.4700	  581.00	  554.22	-1721.72	  439.85
     19.5700	  569.00	  553.97	-1733.47	  439.60
     19.6700	  558.00	  553.72	-1744.22	  439.34
     19.7700	  525.00	  553.47	-1776.97	  439.09
     19.8700	  564.00	  553.22	-1737.72	  438.82
     19.9700	  562.00	  552.97	-1739.47	  438.56
     20.0700	  529.00	  552.71	-1772.21	  438.30
     20.1700	  534.00	  552.46	-1766.96	  438.03
     20.2700	  541.00	  552.24	-1759.74	  437.76
     20.3700	  576.00	  551.98	-1724.48	  437.49
     20.4700	  536.00	  551.72	-1764.22	  437.21
     20.5700	  570.00	  551.46	-1729.96	  436.94
     20.6700	  520.00	  551.20	-1779.70	  436.66
     20.7700	  509.00	  550.94	-1790.44	  436.38
     20.8700	  555.00	  550.68	-1744.18	  436.10
     20.9700	  545.00	  550.42	-1753.92	  435.82
     21.0700	  563.00	  550.15	-1735.65	  435.53
     21.1700	  561.00	  549.89	-1737.39	  435.25
     21.2700	  556.00	  549.63	-1742.13	  434.96
     21.3700	  544.00	  549.36	-1753.86	  434.67
     21.4700	  535.00	  549.10	-1762.60	  434.38
     21.5700	  549.00	  548.84	-1748.34	  434.09
     21.6700	  543.00	  548.57	-1754.07	  433.79
     21.7700	  560.00	  548.31	-1736.81	  433.50
     21.8700	  568.00	  548.05	-1728.55	  433.20
     21.9700	  496.00	  547.75	-1800.25	  432.90
     22.0700	  492.00	  547.50	-1804.00	  432.60
     22.1700	  581.00	  547.25	-1714.75	  432.30
     22.2700	  565.00	  547.00	-1730.50	  432.00
     22.3700	  585.00	  546.76	-1710.26	  431.69
     22.4700	  565.00	  546.52	-1730.02	  431.39
     22.5700	  533.00	  546.29	-1761.79	  431.08
     22.6700	  571.00	  546.06	-1723.56	  430.77
     22.7700	  593.00	  545.85	-1701.35	  430.46
     22.8700	  536.00	  545.79	-1758.29	  430.15
     22.9700	  530.00	  545.61	-1764.11	  429.84
     23.0700	  563.00	  545.44	-1730.94	  429.53
     23.1700	  566.00	  545.29	-1727.79	  429.21
     23.2700	  535.00	  545.18	-1758.68	  428.90
     23.3700	  518.00	  545.10	-1775.60	  428.58
     23.4700	  508.00	  545.07	-1785.57	  428.27
     23.5700	  536.00	  545.10	-1757.60	  427.95
     23.6700	  576.00	  545.24	-1717.74	  427.63
     23.7700	  553.00	  545.54	-1741.04	  427.31
     23.8700	  585.00	  546.11	-1709.61	  426.99
     23.9700	  539.00	  547.17	-1756.67	  426.67
     24.0700	  546.00	  549.07	-1751.57	  426.35
     24.1700	  563.00	  552.37	-1737.87	  426.03
     24.2700	  547.00	  557.75	-1759.25	  425.70
     24.3700	  575.00	  565.89	-1739.39	  425.38
     24.4700	  587.00	  577.22	-1738.72	  425.05
     24.5700	  630.00	  591.31	-1709.81	  424.73
     24.6700	  648.00	  605.89	-1706.39	  424.40
     24.7700	  657.00	  616.08	-1707.58	  424.08
     24.8700	  637.00	  615.28	-1726.78	  423.75
     24.9700	  624.00	  601.61	-1726.11	  423.42
     25.0700	  615.00	  582.66	-1716.16	  423.09
     25.1700	  536.00	  566.35	-1778.85	  422.76
     25.2700	  604.00	  555.23	-1699.73	  422.44
     25.3700	  551.00	  548.68	-1746.18	  422.11
     25.4700	  595.00	  545.10	-1698.60	  421.78
     25.5700	  541.00	  543.10	-1750.60	  421.45
     25.6700	  513.00	  541.86	-1777.36	  421.12
     25.7700	  568.00	  541.00	-1721.50	  420.78
     25.8700	  532.00	  540.36	-1756.86	  420.45
     25.9700	  570.00	  539.89	-1718.39	  420.12
     26.0700	  523.00	  539.53	-1765.03	  419.79
     26.1700	  562.00	  539.27	-1725.77	  419.46
     26.2700	  492.00	  539.11	-1795.61	  419.13
     26.3700	  565.00	  539.03	-1722.53	  418.79
     26.4700	  569.00	  539.05	-1718.55	  418.46
     26.5700	  542.00	  539.18	-1745.68	  418.13
     26.6700	  580.00	  539.42	-1707.92	  417.80
     26.7700	  585.00	  539.81	-1703.31	  417.46
     26.8700	  568.00	  540.37	-1720.87	  417.13
     26.9700	  601.00	  541.15	-1688.65	  416.80
     27.0700	  565.00	  542.22	-1725.72	  416.47
     27.1700	  570.00	  543.71	-1722.21	  416.13
     27.2700	  588.00	  545.83	-1706.33	  415.80
     27.3700	  532.00	  549.04	-1765.54	  415.47
     27.4700	  585.00	  554.19	-1717.69	  415.14
     27.5700	  586.00	  562.83	-1725.32	  414.80
     27.6700	  527.00	  577.44	-1798.94	  414.47
     27.7700	  565.00	  601.36	-1784.86	  414.14
     27.8700	  611.00	  637.70	-1775.20	  413.81
     27.9700	  657.00	  687.15	-1778.65	  413.48
     28.0700	  764.00	  745.11	-1729.61	  413.15
     28.1700	  844.00	  798.86	-1703.36	  412.82
     28.2700	  936.00	  827.82	-1640.32	  412.48
     28.3700	  826.00	  816.00	-1738.50	  412.15
     28.4700	  795.00	  777.83	-1731.33	  411.82
     28.5700	  795.00	  747.35	-1700.85	  411.49
     28.6700	  719.00	  743.36	-1772.86	  411.17
     28.7700	  718.00	  764.02	-1794.52	  410.84
     28.8700	  815.00	  792.42	-1725.92	  410.51
     28.9700	  790.00	  802.55	-1761.05	  410.18
     29.0700	  743.00	  773.89	-1779.39	  409.85
     29.1700	  719.00	  715.25	-1744.75	  409.53
     29.2700	  646.00	  654.21	-1756.71	  409.20
     29.3700	  574.00	  607.12	-1781.62	  408.87
     29.4700	  611.00	  576.71	-1714.21	  408.55
     29.5700	  577.00	  559.25	-1730.75	  408.22
     29.6700	  593.00	  549.71	-1705.21	  407.90
     29.7700	  545.00	  544.32	-1747.82	  407.57
     29.8700	  600.00	  541.04	-1689.54	  407.25
     29.9700	  637.00	  539.00	-1650.50	  406.93
     30.0700	  574.00	  537.85	-1712.35	  406.61
     30.1700	  524.00	  537.70	-1762.20	  406.28
     30.2700	  593.00	  538.95	-1694.45	  405.96
     30.3700	  550.00	  542.41	-1740.91	  405.64
     30.4700	  523.00	  549.29	-1774.79	  405.32
     30.5700	  584.00	  560.82	-1725.32	  405.01
     30.6700	  566.00	  577.33	-1759.83	  404.69
     30.7700	  571.00	  597.03	-1774.53	  404.37
     30.8700	  601.00	  615.07	-1762.57	  404.05
     30.9700	  623.00	  623.63	-1749.13	  403.74
     31.0700	  621.00	  616.02	-1743.52	  403.42
     31.1700	  581.00	  595.29	-1762.79	  403.11
     31.2700	  586.00	  572.01	-1734.51	  402.80
     31.3700	  568.00	  553.22	-1733.72	  402.49
     31.4700	  554.00	  540.64	-1735.14	  402.17
     31.5700	  553.00	  533.23	-1728.73	  401.86
     31.6700	  538.00	  529.13	-1739.63	  401.56
     31.7700	  540.00	  526.84	-1735.34	  401.25
     31.8700	  529.00	  525.44	-1744.94	  400.94
     31.9700	  530.00	  524.52	-1743.02	  400.63
     32.0700	  548.00	  523.89	-1724.39	  400.33
     32.1700	  556.00	  523.49	-1715.99	  400.02
     32.2700	  541.00	  523.28	-1730.78	  399.72
     32.3700	  587.00	  523.26	-1684.76	  399.42
     32.4700	  543.00	  523.42	-1728.92	  399.12
     32.5700	  546.00	  523.79	-1726.29	  398.82
     32.6700	  521.00	  524.40	-1751.90	  398.52
     32.7700	  522.00	  525.31	-1751.81	  398.22
     32.8700	  532.00	  526.60	-1743.10	  397.92
     32.9700	  519.00	  528.41	-1757.91	  397.63
     33.0700	  531.00	  530.99	-1748.49	  397.33
     33.1700	  527.00	  534.86	-1756.36	  397.04
     33.2700	  538.00	  541.09	-1751.59	  396.74
     33.3700	  585.00	  551.81	-1715.31	  396.45
     33.4700	  532.00	  570.82	-1787.32	  396.16
     33.5700	  576.00	  603.72	-1776.22	  395.87
     33.6700	  610.00	  656.65	-1795.15	  395.59
     33.7700	  730.00	  732.21	-1750.71	  395.30
     33.8700	  801.00	  823.65	-1771.15	  395.01
     33.9700	  987.00	  910.48	-1671.98	  394.73
     34.0700	 1039.00	  959.30	-1668.80	  394.45
     34.1700	  982.00	  939.35	-1705.85	  394.17
     34.2700	  921.00	  857.42	-1684.92	  393.89
     34.3700	  795.00	  755.98	-1709.48	  393.61
     34.4700	  675.00	  668.71	-1742.21	  393.33
     34.5700	  541.00	  607.17	-1814.67	  393.05
     34.6700	  549.00	  569.34	-1768.84	  392.78
     34.7700	  519.00	  548.06	-1777.56	  392.50
     34.8700	  548.00	  536.29	-1736.79	  392.23
     34.9700	  561.00	  529.32	-1716.82	  391.96
     35.0700	  516.00	  524.73	-1757.23	  391.69
     35.1700	  542.00	  521.38	-1727.88	  391.42
     35.2700	  530.00	  518.77	-1737.27	  391.16
     35.3700	  535.00	  516.68	-1730.18	  390.89
     35.4700	  541.00	  514.95	-1722.45	  390.63
     35.5700	  507.00	  513.50	-1755.00	  390.36
     35.6700	  493.00	  512.26	-1767.76	  390.10
     35.7700	  539.00	  511.20	-1720.70	  389.84
     35.8700	  514.00	  510.27	-1744.77	  389.59
     35.9700	  551.00	  509.91	-1707.41	  389.33
     36.0700	  459.00	  509.18	-1798.68	  389.07
     36.1700	  519.00	  508.54	-1738.04	  388.82
     36.2700	  525.00	  507.96	-1731.46	  388.57
     36.3700	  493.00	  507.44	-1762.94	  388.32
     36.4700	  482.00	  506.97	-1773.47	  388.07
     36.5700	  519.00	  506.58	-1736.08	  387.82
     36.6700	  509.00	  506.22	-1745.72	  387.57
     36.7700	  484.00	  505.94	-1770.44	  387.33
     36.8700	  536.00	  505.77	-1718.27	  387.09
     36.9700	  496.00	  505.76	-1758.26	  386.84
     37.0700	  512.00	  506.05	-1742.55	  386.60
     37.1700	  487.00	  506.85	-1768.35	  386.37
     37.2700	  550.00	  508.42	-1706.92	  386.13
     37.3700	  537.00	  510.96	-1722.46	  385.89
     37.4700	  467.00	  514.41	-1795.91	  385.66
     37.5700	  499.00	  518.19	-1767.69	  385.43
     37.6700	  506.00	  521.13	-1763.63	  385.20
     37.7700	  501.00	  521.81	-1769.31	  384.97
     37.8700	  547.00	  519.59	-1721.09	  384.74
     37.9700	  505.00	  515.54	-1759.04	  384.51
     38.0700	  506.00	  511.26	-1753.76	  384.29
     38.1700	  514.00	  507.62	-1742.12	  384.07
     38.2700	  479.00	  504.89	-1774.39	  383.85
     38.3700	  478.00	  503.18	-1773.68	  383.63
     38.4700	  530.00	  501.95	-1720.45	  383.41
     38.5700	  506.00	  501.12	-1743.62	  383.19
     38.6700	  488.00	  500.54	-1761.04	  382.98
     38.7700	  482.00	  500.09	-1766.59	  382.77
     38.8700	  488.00	  499.62	-1760.12	  382.56
     38.9700	  473.00	  499.31	-1774.81	  382.35
     39.0700	  452.00	  499.02	-1795.52	  382.14
     39.1700	  480.00	  498.76	-1767.26	  381.93
     39.2700	  489.00	  498.51	-1758.01	  381.73
     39.3700	  506.00	  498.28	-1740.78	  381.53
     39.4700	  532.00	  498.07	-1714.57	  381.33
     39.5700	  505.00	  497.87	-1741.37	  381.13
     39.6700	  455.00	  497.59	-1791.09	  380.93
     39.7700	  470.00	  497.42	-1775.92	  380.73
     39.8700	  488.00	  497.26	-1757.76	  380.54
     39.9700	  468.00	  497.10	-1777.60	  380.35
     40.0700	  542.00	  496.96	-1703.46	  380.16
     40.1700	  474.00	  496.83	-1771.33	  379.97
     40.2700	  515.00	  496.72	-1730.22	  379.78
     40.3700	  496.00	  496.61	-1749.11	  379.60
     40.4700	  474.00	  496.53	-1771.03	  379.41
     40.5700	  497.00	  496.46	-1747.96	  379.23
     40.6700	  531.00	  496.41	-1713.91	  379.05
     40.7700	  487.00	  496.38	-1757.88	  378.87
