MSG Master    CELL:    5.89466   5.89466  23.16740   90.0000   90.0000  120.0000   SPGR: P 63/m m c             TEMP:    708.55
  2   1280     2.52000     0.00000    -0.11238     0.00000     0.00000    0
    96    96     0     0     2
       0.00000      10.00000
     125.00000     130.00000
 2Theta	Yobs	Ycal	Yobs-Ycal	Backg	Posr	(hkl)	K
      0.7700	    0.00	  598.81	-1816.26	  482.85
      0.8700	    0.00	  599.72	-1816.26	  483.76
      0.9700	   52.00	  600.62	-1816.26	  484.66
      1.0700	   59.00	  601.51	-1816.26	  485.54
      1.1700	   46.00	  602.38	-1816.26	  486.42
      1.2700	   41.00	  603.24	-1816.26	  487.27
      1.3700	   48.00	  604.09	-1816.26	  488.12
      1.4700	   91.00	  604.92	-1816.26	  488.95
      1.5700	  278.00	  605.74	-1816.26	  489.77
      1.6700	  493.00	  606.55	-1816.26	  490.58
      1.7700	  586.00	  607.34	-1816.26	  491.38
      1.8700	  689.00	  608.12	-1816.26	  492.16
      1.9700	  716.00	  608.89	-1816.26	  492.93
      2.0700	  739.00	  609.65	-1816.26	  493.69
      2.1700	  845.00	  610.40	-1816.26	  494.43
      2.2700	  767.00	  611.13	-1816.26	  495.16
      2.3700	  744.00	  611.85	-1816.26	  495.88
      2.4700	  740.00	  612.56	-1816.26	  496.59
      2.5700	  703.00	  613.25	-1816.26	  497.29
      2.6700	  669.00	  613.94	-1816.26	  497.97
      2.7700	  668.00	  614.61	-1816.26	  498.65
      2.8700	  630.00	  615.27	-1816.26	  499.31
      2.9700	  622.00	  615.92	-1816.26	  499.96
      3.0700	  598.00	  616.56	-1816.26	  500.59
      3.1700	  604.00	  617.18	-1816.26	  501.22
      3.2700	  721.00	  617.80	-1816.26	  501.83
      3.3700	  795.00	  618.40	-1816.26	  502.44
      3.4700	 1097.00	  618.99	-1816.26	  503.03
      3.5700	 1073.00	  619.58	-1816.26	  503.61
      3.6700	 1242.00	  620.15	-1816.26	  504.18
      3.7700	 1337.00	  620.70	-1816.26	  504.74
      3.8700	 1391.00	  621.25	-1816.26	  505.29
      3.9700	 1543.00	  621.79	-1816.26	  505.82
      4.0700	 1532.00	  622.31	-1816.26	  506.35
      4.1700	 1582.00	  622.83	-1816.26	  506.86
      4.2700	 1630.00	  623.33	-1816.26	  507.37
      4.3700	 1584.00	  623.83	-1816.26	  507.86
      4.4700	 1511.00	  624.31	-1816.26	  508.35
      4.5700	 1416.00	  624.79	-1816.26	  508.82
      4.6700	 1414.00	  625.25	-1816.26	  509.28
      4.7700	 1309.00	  625.70	-1816.26	  509.74
      4.8700	 1302.00	  626.14	-1816.26	  510.18
      4.9700	 1284.00	  626.58	-1816.26	  510.61
      5.0700	 1239.00	  627.00	-1816.26	  511.03
      5.1700	 1199.00	  627.41	-1816.26	  511.45
      5.2700	 1152.00	  627.81	-1816.26	  511.85
      5.3700	 1132.00	  628.21	-1816.26	  512.24
      5.4700	 1089.00	  628.59	-1816.26	  512.62
      5.5700	 1097.00	  628.96	-1816.26	  513.00
      5.6700	 1145.00	  629.33	-1816.26	  513.36
      5.7700	 1053.00	  629.68	-1816.26	  513.72
      5.8700	 1016.00	  630.03	-1816.26	  514.06
      5.9700	  973.00	  630.36	-1816.26	  514.40
      6.0700	  935.00	  630.69	-1816.26	  514.72
      6.1700	  965.00	  631.01	-1816.26	  515.04
      6.2700	  955.00	  631.31	-1816.26	  515.35
      6.3700	  945.00	  631.61	-1816.26	  515.65
      6.4700	  901.00	  631.90	-1816.26	  515.94
      6.5700	  951.00	  632.18	-1816.26	  516.22
      6.6700	  922.00	  632.45	-1816.26	  516.49
      6.7700	  881.00	  632.72	-1816.26	  516.75
      6.8700	  873.00	  632.97	-1816.26	  517.01
      6.9700	  854.00	  633.22	-1816.26	  517.25
      7.0700	  825.00	  633.46	-1816.26	  517.49
      7.1700	  869.00	  633.69	-1816.26	  517.72
      7.2700	  819.00	  633.91	-1816.26	  517.94
      7.3700	  849.00	  634.12	-1816.26	  518.15
      7.4700	  766.00	  634.32	-1816.26	  518.36
      7.5700	  731.00	  634.52	-1816.26	  518.55
      7.6700	  811.00	  634.70	-1816.26	  518.74
      7.7700	  727.00	  634.88	-1816.26	  518.92
      7.8700	  735.00	  635.06	-1816.26	  519.09
      7.9700	  749.00	  635.22	-1816.26	  519.25
      8.0700	  742.00	  635.37	-1816.26	  519.41
      8.1700	  712.00	  635.52	-1816.26	  519.56
      8.2700	  780.00	  635.66	-1816.26	  519.70
      8.3700	  749.00	  635.79	-1816.26	  519.83
      8.4700	  712.00	  635.92	-1816.26	  519.95
      8.5700	  730.00	  636.04	-1816.26	  520.07
      8.6700	  715.00	  636.14	-1816.26	  520.18
      8.7700	  731.00	  636.25	-1816.26	  520.28
      8.8700	  653.00	  636.34	-1816.26	  520.38
      8.9700	  682.00	  636.43	-1816.26	  520.46
      9.0700	  684.00	  636.51	-1816.26	  520.54
      9.1700	  701.00	  636.58	-1816.26	  520.62
      9.2700	  695.00	  636.65	-1816.26	  520.68
      9.3700	  709.00	  636.71	-1816.26	  520.74
      9.4700	  648.00	  636.76	-1816.26	  520.79
      9.5700	  692.00	  636.80	-1816.26	  520.84
      9.6700	  661.00	  636.84	-1816.26	  520.88
      9.7700	  685.00	  636.87	-1816.26	  520.91
      9.8700	  695.00	  636.90	-1816.26	  520.93
      9.9700	  714.00	  636.92	-1816.26	  520.95
     10.0700	  622.00	  639.08	-1833.33	  520.96
     10.1700	  710.00	  639.32	-1745.58	  520.97
     10.2700	  650.00	  639.62	-1805.88	  520.97
     10.3700	  679.00	  639.98	-1777.24	  520.96
     10.4700	  659.00	  640.45	-1797.70	  520.94
     10.5700	  677.00	  641.07	-1780.32	  520.92
     10.6700	  672.00	  641.93	-1786.18	  520.90
     10.7700	  700.00	  643.12	-1759.38	  520.86
     10.8700	  646.00	  644.76	-1815.01	  520.82
     10.9700	  651.00	  646.90	-1812.16	  520.78
     11.0700	  694.00	  649.58	-1771.83	  520.73
     11.1700	  666.00	  652.79	-1803.05	  520.67
     11.2700	  676.00	  656.58	-1796.83	  520.61
     11.3700	  646.00	  661.01	-1831.27	  520.54
     11.4700	  736.00	  666.23	-1746.48	  520.46
     11.5700	  671.00	  672.43	-1817.69	  520.38
     11.6700	  722.00	  679.93	-1774.19	  520.30
     11.7700	  736.00	  689.10	-1769.36	  520.20
     11.8700	  720.00	  700.26	-1796.51	  520.11
     11.9700	  726.00	  713.24	-1803.50	  520.00
     12.0700	  770.00	  726.84	-1773.09	  519.90
     12.1700	  765.00	  738.03	-1789.28	  519.78
     12.2700	  793.00	  741.64	-1764.90	  519.66
     12.3700	  766.00	  732.63	-1782.88	  519.54
     12.4700	  745.00	  712.77	-1784.02	  519.41
     12.5700	  693.00	  690.74	-1813.99	  519.28
     12.6700	  693.00	  672.74	-1796.00	  519.14
     12.7700	  676.00	  660.18	-1800.43	  518.99
     12.8700	  607.00	  652.14	-1861.40	  518.84
     12.9700	  651.00	  647.20	-1812.46	  518.69
     13.0700	  650.00	  644.10	-1810.36	  518.53
     13.1700	  606.00	  642.05	-1852.31	  518.36
     13.2700	  648.00	  640.54	-1808.80	  518.19
     13.3700	  648.00	  639.37	-1807.62	  518.02
     13.4700	  597.00	  638.42	-1857.67	  517.84
     13.5700	  620.00	  637.62	-1833.88	  517.66
     13.6700	  612.00	  636.94	-1841.20	  517.47
     13.7700	  628.00	  636.34	-1824.60	  517.28
     13.8700	  622.00	  635.81	-1830.07	  517.08
     13.9700	  607.00	  635.33	-1844.58	  516.88
     14.0700	  617.00	  634.88	-1834.14	  516.68
     14.1700	  617.00	  634.47	-1833.73	  516.47
     14.2700	  602.00	  634.08	-1848.34	  516.25
     14.3700	  616.00	  633.71	-1833.97	  516.03
     14.4700	  621.00	  633.36	-1828.61	  515.81
     14.5700	  579.00	  633.02	-1870.27	  515.59
     14.6700	  634.00	  632.68	-1814.94	  515.35
     14.7700	  627.00	  632.36	-1821.61	  515.12
     14.8700	  594.00	  632.04	-1854.29	  514.88
     14.9700	  619.00	  631.72	-1828.98	  514.64
     15.0700	  608.00	  631.41	-1839.67	  514.39
     15.1700	  635.00	  631.11	-1812.36	  514.14
     15.2700	  566.00	  630.80	-1881.05	  513.89
     15.3700	  595.00	  630.49	-1851.75	  513.63
     15.4700	  608.00	  630.19	-1838.44	  513.37
     15.5700	  629.00	  629.89	-1817.14	  513.11
     15.6700	  605.00	  629.58	-1840.84	  512.84
     15.7700	  633.00	  629.28	-1812.53	  512.57
     15.8700	  655.00	  628.97	-1790.23	  512.29
     15.9700	  608.00	  628.66	-1836.92	  512.01
     16.0700	  598.00	  628.36	-1846.61	  511.73
     16.1700	  587.00	  628.05	-1857.30	  511.44
     16.2700	  603.00	  627.74	-1840.99	  511.15
     16.3700	  622.00	  627.43	-1821.68	  510.86
     16.4700	  618.00	  627.11	-1825.37	  510.57
     16.5700	  578.00	  626.80	-1865.05	  510.27
     16.6700	  642.00	  626.48	-1800.73	  509.97
     16.7700	  618.00	  626.16	-1824.41	  509.66
     16.8700	  632.00	  625.84	-1810.09	  509.35
     16.9700	  602.00	  625.51	-1839.77	  509.04
     17.0700	  621.00	  625.19	-1820.44	  508.73
     17.1700	  638.00	  624.86	-1803.12	  508.41
     17.2700	  609.00	  624.53	-1831.79	  508.09
     17.3700	  585.00	  624.20	-1855.46	  507.77
     17.4700	  601.00	  623.87	-1839.12	  507.45
     17.5700	  605.00	  623.53	-1834.79	  507.12
     17.6700	  611.00	  623.19	-1828.45	  506.79
     17.7700	  586.00	  623.46	-1853.72	  506.46
     17.8700	  593.00	  623.13	-1846.39	  506.12
     17.9700	  626.00	  622.80	-1813.06	  505.78
     18.0700	  645.00	  622.84	-1794.10	  505.44
     18.1700	  574.00	  622.52	-1864.77	  505.10
     18.2700	  583.00	  622.19	-1855.44	  504.75
     18.3700	  620.00	  621.86	-1818.11	  504.40
     18.4700	  587.00	  621.52	-1850.78	  504.05
     18.5700	  578.00	  621.19	-1859.45	  503.70
     18.6700	  609.00	  620.86	-1828.11	  503.35
     18.7700	  567.00	  620.52	-1869.78	  502.99
     18.8700	  646.00	  620.18	-1790.44	  502.63
     18.9700	  616.00	  619.85	-1820.10	  502.27
     19.0700	  608.00	  619.51	-1827.76	  501.90
     19.1700	  635.00	  619.17	-1800.42	  501.54
     19.2700	  636.00	  618.83	-1799.08	  501.17
     19.3700	  643.00	  618.49	-1791.74	  500.80
     19.4700	  604.00	  618.15	-1830.40	  500.43
     19.5700	  601.00	  617.86	-1833.11	  500.05
     19.6700	  618.00	  617.52	-1815.77	  499.68
     19.7700	  537.00	  617.17	-1896.43	  499.30
     19.8700	  610.00	  616.83	-1823.09	  498.92
     19.9700	  627.00	  616.49	-1805.75	  498.54
     20.0700	  585.00	  616.15	-1847.40	  498.16
     20.1700	  587.00	  615.81	-1845.06	  497.77
     20.2700	  634.00	  615.46	-1797.72	  497.39
     20.3700	  615.00	  615.12	-1816.38	  497.00
     20.4700	  595.00	  614.78	-1836.04	  496.61
     20.5700	  594.00	  614.44	-1836.70	  496.22
     20.6700	  587.00	  614.11	-1843.36	  495.83
     20.7700	  605.00	  613.77	-1825.02	  495.43
     20.8700	  583.00	  613.43	-1846.69	  495.04
     20.9700	  598.00	  613.10	-1831.35	  494.64
     21.0700	  612.00	  612.77	-1817.02	  494.24
     21.1700	  554.00	  612.43	-1874.69	  493.84
     21.2700	  556.00	  612.11	-1872.36	  493.44
     21.3700	  624.00	  611.78	-1804.04	  493.04
     21.4700	  601.00	  611.46	-1826.71	  492.64
     21.5700	  619.00	  611.14	-1808.39	  492.23
     21.6700	  578.00	  610.82	-1849.08	  491.83
     21.7700	  581.00	  610.51	-1845.77	  491.42
     21.8700	  581.00	  610.20	-1845.46	  491.01
     21.9700	  603.00	  610.08	-1823.34	  490.60
     22.0700	  606.00	  609.79	-1820.04	  490.19
     22.1700	  607.00	  609.50	-1818.76	  489.78
     22.2700	  593.00	  609.22	-1832.48	  489.37
     22.3700	  570.00	  608.96	-1855.21	  488.96
     22.4700	  575.00	  608.70	-1849.95	  488.54
     22.5700	  605.00	  608.45	-1819.70	  488.13
     22.6700	  650.00	  608.21	-1774.47	  487.71
     22.7700	  617.00	  607.99	-1807.25	  487.29
     22.8700	  595.00	  607.79	-1829.05	  486.88
     22.9700	  601.00	  607.61	-1822.86	  486.46
     23.0700	  641.00	  607.45	-1782.71	  486.04
     23.1700	  628.00	  607.32	-1795.58	  485.62
     23.2700	  654.00	  607.23	-1769.48	  485.20
     23.3700	  579.00	  607.18	-1844.43	  484.78
     23.4700	  588.00	  607.18	-1835.44	  484.36
     23.5700	  594.00	  607.25	-1829.51	  483.94
     23.6700	  620.00	  607.42	-1803.68	  483.51
     23.7700	  626.00	  607.66	-1797.92	  483.09
     23.8700	  626.00	  608.16	-1798.42	  482.67
     23.9700	  628.00	  608.97	-1797.23	  482.24
     24.0700	  651.00	  610.28	-1775.53	  481.82
     24.1700	  633.00	  612.38	-1795.64	  481.39
     24.2700	  647.00	  615.70	-1784.96	  480.97
     24.3700	  691.00	  620.72	-1745.98	  480.54
     24.4700	  608.00	  627.83	-1836.08	  480.11
     24.5700	  641.00	  637.10	-1812.36	  479.69
     24.6700	  713.00	  647.99	-1751.24	  479.26
     24.7700	  654.00	  658.88	-1821.14	  478.84
     24.8700	  705.00	  666.72	-1777.98	  478.41
     24.9700	  682.00	  667.45	-1801.71	  477.98
     25.0700	  682.00	  659.37	-1793.63	  477.55
     25.1700	  694.00	  646.39	-1768.64	  477.13
     25.2700	  702.00	  633.82	-1748.07	  476.70
     25.3700	  635.00	  624.20	-1805.46	  476.27
     25.4700	  656.00	  617.80	-1778.06	  475.84
     25.5700	  624.00	  613.97	-1806.22	  475.41
     25.6700	  610.00	  611.87	-1818.13	  474.99
     25.7700	  657.00	  610.86	-1770.11	  474.56
     25.8700	  650.00	  610.50	-1776.75	  474.13
     25.9700	  661.00	  610.57	-1765.83	  473.70
     26.0700	  642.00	  610.99	-1785.25	  473.28
     26.1700	  664.00	  611.71	-1763.97	  472.85
     26.2700	  646.00	  612.74	-1782.99	  472.42
     26.3700	  686.00	  614.08	-1744.34	  471.99
     26.4700	  693.00	  615.79	-1739.04	  471.57
     26.5700	  660.00	  617.91	-1774.16	  471.14
     26.6700	  650.00	  620.52	-1786.78	  470.71
     26.7700	  718.00	  623.73	-1721.99	  470.29
     26.8700	  684.00	  627.68	-1759.94	  469.86
     26.9700	  667.00	  632.57	-1781.83	  469.43
     27.0700	  672.00	  638.69	-1782.95	  469.01
     27.1700	  653.00	  646.45	-1809.71	  468.58
     27.2700	  699.00	  656.54	-1773.79	  468.16
     27.3700	  693.00	  670.20	-1793.45	  467.73
     27.4700	  728.00	  689.84	-1778.10	  467.31
     27.5700	  702.00	  720.08	-1834.34	  466.89
     27.6700	  731.00	  769.21	-1854.47	  466.46
     27.7700	  800.00	  850.61	-1866.87	  466.04
     27.8700	  860.00	  982.39	-1938.65	  465.62
     27.9700	 1034.00	 1182.07	-1964.32	  465.20
     28.0700	 1250.00	 1454.91	-2021.17	  464.78
     28.1700	 1669.00	 1778.63	-1925.88	  464.36
     28.2700	 2189.00	 2088.37	-1715.63	  463.94
     28.3700	 2488.00	 2273.21	-1601.47	  463.52
     28.4700	 2467.00	 2227.83	-1577.09	  463.10
     28.5700	 2183.00	 1992.64	-1625.90	  462.68
     28.6700	 1687.00	 1744.64	-1873.89	  462.26
     28.7700	 1420.00	 1605.36	-2001.62	  461.85
     28.8700	 1453.00	 1590.27	-1953.53	  461.43
     28.9700	 1639.00	 1643.73	-1820.99	  461.01
     29.0700	 1721.00	 1670.67	-1765.93	  460.60
     29.1700	 1668.00	 1583.21	-1731.46	  460.19
     29.2700	 1417.00	 1382.68	-1781.93	  459.77
     29.3700	 1155.00	 1154.93	-1816.19	  459.36
     29.4700	 1006.00	  966.16	-1776.42	  458.95
     29.5700	  821.00	  834.70	-1829.95	  458.54
     29.6700	  789.00	  752.93	-1780.19	  458.13
     29.7700	  780.00	  705.03	-1741.29	  457.72
     29.8700	  733.00	  676.78	-1760.04	  457.31
     29.9700	  735.00	  659.01	-1740.27	  456.90
     30.0700	  708.00	  646.98	-1755.23	  456.50
     30.1700	  719.00	  638.58	-1735.83	  456.09
     30.2700	  689.00	  633.06	-1760.32	  455.69
     30.3700	  684.00	  630.48	-1762.74	  455.28
     30.4700	  691.00	  631.50	-1756.76	  454.88
     30.5700	  666.00	  637.29	-1787.55	  454.48
     30.6700	  657.00	  649.12	-1808.38	  454.08
     30.7700	  639.00	  667.37	-1844.62	  453.68
     30.8700	  714.00	  690.21	-1792.47	  453.28
     30.9700	  698.00	  712.61	-1830.87	  452.89
     31.0700	  766.00	  726.01	-1776.27	  452.49
     31.1700	  741.00	  721.32	-1796.58	  452.09
     31.2700	  640.00	  698.22	-1874.47	  451.70
     31.3700	  653.00	  667.75	-1831.01	  451.31
     31.4700	  675.00	  640.31	-1781.57	  450.92
     31.5700	  664.00	  619.87	-1772.13	  450.53
     31.6700	  625.00	  606.35	-1797.60	  450.14
     31.7700	  635.00	  598.00	-1779.26	  449.75
     31.8700	  601.00	  592.93	-1808.18	  449.36
     31.9700	  624.00	  589.70	-1781.96	  448.98
     32.0700	  608.00	  587.50	-1795.75	  448.59
     32.1700	  608.00	  585.91	-1794.17	  448.21
     32.2700	  561.00	  584.76	-1840.01	  447.83
     32.3700	  630.00	  583.95	-1770.20	  447.45
     32.4700	  644.00	  583.44	-1755.70	  447.07
     32.5700	  572.00	  583.24	-1827.50	  446.69
     32.6700	  626.00	  583.35	-1773.60	  446.31
     32.7700	  614.00	  583.80	-1786.06	  445.94
     32.8700	  628.00	  584.69	-1772.94	  445.56
     32.9700	  638.00	  586.05	-1764.30	  445.19
     33.0700	  647.00	  588.06	-1757.32	  444.82
     33.1700	  587.00	  591.02	-1820.27	  444.45
     33.2700	  631.00	  595.46	-1780.72	  444.08
     33.3700	  636.00	  602.43	-1782.69	  443.71
     33.4700	  619.00	  613.86	-1811.12	  443.34
     33.5700	  633.00	  632.97	-1816.23	  442.98
     33.6700	  614.00	  664.35	-1866.61	  442.62
     33.7700	  694.00	  713.06	-1835.32	  442.25
     33.8700	  783.00	  781.94	-1815.19	  441.89
     33.9700	  904.00	  867.34	-1779.60	  441.54
     34.0700	 1018.00	  955.16	-1753.42	  441.18
     34.1700	 1159.00	 1019.47	-1676.73	  440.82
     34.2700	 1060.00	 1029.31	-1785.57	  440.47
     34.3700	 1089.00	  974.01	-1701.27	  440.12
     34.4700	  942.00	  881.06	-1755.31	  439.76
     34.5700	  780.00	  787.24	-1823.49	  439.41
     34.6700	  669.00	  711.91	-1859.17	  439.07
     34.7700	  653.00	  659.17	-1822.43	  438.72
     34.8700	  562.00	  625.59	-1879.84	  438.37
     34.9700	  597.00	  605.30	-1824.56	  438.03
     35.0700	  599.00	  593.07	-1810.32	  437.69
     35.1700	  636.00	  585.24	-1765.49	  437.35
     35.2700	  621.00	  579.80	-1775.05	  437.01
     35.3700	  548.00	  575.72	-1843.97	  436.67
     35.4700	  574.00	  572.50	-1814.75	  436.34
     35.5700	  557.00	  569.88	-1829.13	  436.00
     35.6700	  503.00	  567.70	-1880.96	  435.67
     35.7700	  559.00	  566.37	-1823.62	  435.34
     35.8700	  542.00	  564.80	-1839.06	  435.01
     35.9700	  590.00	  563.45	-1789.71	  434.68
     36.0700	  557.00	  562.28	-1821.54	  434.36
     36.1700	  539.00	  561.26	-1838.51	  434.03
     36.2700	  530.00	  560.36	-1846.61	  433.71
     36.3700	  542.00	  559.57	-1833.83	  433.39
     36.4700	  537.00	  558.88	-1838.14	  433.07
     36.5700	  593.00	  558.30	-1781.55	  432.75
     36.6700	  580.00	  557.80	-1794.06	  432.44
     36.7700	  557.00	  557.42	-1816.67	  432.12
     36.8700	  525.00	  557.14	-1848.40	  431.81
     36.9700	  537.00	  557.00	-1836.25	  431.50
     37.0700	  580.00	  557.28	-1793.54	  431.19
     37.1700	  537.00	  557.70	-1836.96	  430.89
     37.2700	  594.00	  558.61	-1780.87	  430.58
     37.3700	  559.00	  560.28	-1817.53	  430.28
     37.4700	  569.00	  563.04	-1810.29	  429.97
     37.5700	  545.00	  567.29	-1838.54	  429.67
     37.6700	  593.00	  573.32	-1796.58	  429.38
     37.7700	  572.00	  581.16	-1825.41	  429.08
     37.8700	  571.00	  590.25	-1835.50	  428.79
     37.9700	  611.00	  599.40	-1804.65	  428.49
     38.0700	  564.00	  607.03	-1859.29	  428.20
     38.1700	  619.00	  611.18	-1808.43	  427.91
     38.2700	  593.00	  609.51	-1832.77	  427.62
     38.3700	  580.00	  601.40	-1837.65	  427.34
     38.4700	  543.00	  589.62	-1862.87	  427.05
     38.5700	  571.00	  577.88	-1823.13	  426.77
     38.6700	  550.00	  568.13	-1834.39	  426.49
     38.7700	  518.00	  560.97	-1859.23	  426.21
     38.8700	  550.00	  556.11	-1822.37	  425.94
     38.9700	  543.00	  552.95	-1826.21	  425.66
     39.0700	  586.00	  550.31	-1780.56	  425.39
     39.1700	  570.00	  548.92	-1795.18	  425.12
     39.2700	  510.00	  547.91	-1854.16	  424.85
     39.3700	  530.00	  547.11	-1833.36	  424.58
     39.4700	  562.00	  546.44	-1800.69	  424.31
     39.5700	  553.00	  545.87	-1809.12	  424.05
     39.6700	  540.00	  545.36	-1821.62	  423.79
     39.7700	  568.00	  544.92	-1793.17	  423.53
     39.8700	  486.00	  544.52	-1874.77	  423.27
     39.9700	  554.00	  544.16	-1806.41	  423.01
     40.0700	  560.00	  543.83	-1800.09	  422.76
     40.1700	  529.00	  544.08	-1831.34	  422.51
     40.2700	  543.00	  543.82	-1817.08	  422.26
     40.3700	  508.00	  543.23	-1851.49	  422.01
     40.4700	  547.00	  543.03	-1812.29	  421.76
     40.5700	  513.00	  542.85	-1846.11	  421.52
     40.6700	  570.00	  542.71	-1788.96	  421.27
     40.7700	  541.00	  542.59	-1817.84	  421.03
