MSG Master    CELL:    5.91892   5.91892  23.27182   90.0000   90.0000  120.0000   SPGR: P 63/m m c             TEMP:   1074.85
  1   1280     2.52000     0.00000    -0.13351     0.00000     0.00000    0
    99     0     2
       0.00000      10.00000
     125.00000     130.00000
 2Theta	Yobs	Ycal	Yobs-Ycal	Backg	Posr	(hkl)	K
      0.7700	    0.00	  557.07	-1766.50	  438.76
      0.8700	    0.00	  557.64	-1766.50	  439.33
      0.9700	   35.00	  558.20	-1766.50	  439.88
      1.0700	   42.00	  558.74	-1766.50	  440.43
      1.1700	   38.00	  559.28	-1766.50	  440.97
      1.2700	   53.00	  559.81	-1766.50	  441.50
      1.3700	   46.00	  560.33	-1766.50	  442.01
      1.4700	   90.00	  560.83	-1766.50	  442.52
      1.5700	  285.00	  561.33	-1766.50	  443.02
      1.6700	  456.00	  561.82	-1766.50	  443.51
      1.7700	  581.00	  562.31	-1766.50	  443.99
      1.8700	  670.00	  562.78	-1766.50	  444.47
      1.9700	  762.00	  563.24	-1766.50	  444.93
      2.0700	  816.00	  563.70	-1766.50	  445.38
      2.1700	  797.00	  564.14	-1766.50	  445.83
      2.2700	  702.00	  564.58	-1766.50	  446.27
      2.3700	  738.00	  565.00	-1766.50	  446.69
      2.4700	  745.00	  565.42	-1766.50	  447.11
      2.5700	  721.00	  565.83	-1766.50	  447.52
      2.6700	  683.00	  566.24	-1766.50	  447.92
      2.7700	  652.00	  566.63	-1766.50	  448.32
      2.8700	  621.00	  567.01	-1766.50	  448.70
      2.9700	  628.00	  567.39	-1766.50	  449.08
      3.0700	  632.00	  567.76	-1766.50	  449.45
      3.1700	  611.00	  568.12	-1766.50	  449.81
      3.2700	  594.00	  568.47	-1766.50	  450.16
      3.3700	  644.00	  568.82	-1766.50	  450.50
      3.4700	  756.00	  569.15	-1766.50	  450.84
      3.5700	  780.00	  569.48	-1766.50	  451.17
      3.6700	  849.00	  569.80	-1766.50	  451.49
      3.7700	  946.00	  570.11	-1766.50	  451.80
      3.8700	  971.00	  570.41	-1766.50	  452.10
      3.9700	 1032.00	  570.71	-1766.50	  452.40
      4.0700	 1085.00	  571.00	-1766.50	  452.69
      4.1700	 1056.00	  571.28	-1766.50	  452.97
      4.2700	 1073.00	  571.55	-1766.50	  453.24
      4.3700	 1076.00	  571.82	-1766.50	  453.51
      4.4700	 1046.00	  572.08	-1766.50	  453.77
      4.5700	 1050.00	  572.33	-1766.50	  454.02
      4.6700	 1044.00	  572.57	-1766.50	  454.26
      4.7700	 1012.00	  572.81	-1766.50	  454.50
      4.8700	  952.00	  573.04	-1766.50	  454.73
      4.9700	 1006.00	  573.26	-1766.50	  454.95
      5.0700	  950.00	  573.48	-1766.50	  455.17
      5.1700	  884.00	  573.69	-1766.50	  455.37
      5.2700	  899.00	  573.89	-1766.50	  455.58
      5.3700	  893.00	  574.08	-1766.50	  455.77
      5.4700	  820.00	  574.27	-1766.50	  455.96
      5.5700	  838.00	  574.45	-1766.50	  456.14
      5.6700	  845.00	  574.62	-1766.50	  456.31
      5.7700	  884.00	  574.79	-1766.50	  456.48
      5.8700	  826.00	  574.95	-1766.50	  456.64
      5.9700	  780.00	  575.10	-1766.50	  456.79
      6.0700	  813.00	  575.25	-1766.50	  456.94
      6.1700	  777.00	  575.39	-1766.50	  457.08
      6.2700	  798.00	  575.53	-1766.50	  457.22
      6.3700	  704.00	  575.66	-1766.50	  457.34
      6.4700	  779.00	  575.78	-1766.50	  457.47
      6.5700	  724.00	  575.89	-1766.50	  457.58
      6.6700	  757.00	  576.00	-1766.50	  457.69
      6.7700	  731.00	  576.11	-1766.50	  457.79
      6.8700	  737.00	  576.20	-1766.50	  457.89
      6.9700	  700.00	  576.29	-1766.50	  457.98
      7.0700	  727.00	  576.38	-1766.50	  458.07
      7.1700	  705.00	  576.46	-1766.50	  458.15
      7.2700	  704.00	  576.53	-1766.50	  458.22
      7.3700	  690.00	  576.60	-1766.50	  458.29
      7.4700	  658.00	  576.66	-1766.50	  458.35
      7.5700	  633.00	  576.72	-1766.50	  458.40
      7.6700	  646.00	  576.77	-1766.50	  458.45
      7.7700	  623.00	  576.81	-1766.50	  458.50
      7.8700	  635.00	  576.85	-1766.50	  458.54
      7.9700	  573.00	  576.88	-1766.50	  458.57
      8.0700	  668.00	  576.91	-1766.50	  458.60
      8.1700	  618.00	  576.93	-1766.50	  458.62
      8.2700	  649.00	  576.95	-1766.50	  458.64
      8.3700	  601.00	  576.96	-1766.50	  458.65
      8.4700	  596.00	  576.97	-1766.50	  458.66
      8.5700	  635.00	  576.97	-1766.50	  458.66
      8.6700	  666.00	  576.97	-1766.50	  458.66
      8.7700	  618.00	  576.96	-1766.50	  458.65
      8.8700	  635.00	  576.95	-1766.50	  458.64
      8.9700	  583.00	  576.93	-1766.50	  458.62
      9.0700	  630.00	  576.90	-1766.50	  458.59
      9.1700	  604.00	  576.88	-1766.50	  458.56
      9.2700	  597.00	  576.84	-1766.50	  458.53
      9.3700	  603.00	  576.80	-1766.50	  458.49
      9.4700	  607.00	  576.76	-1766.50	  458.45
      9.5700	  609.00	  576.71	-1766.50	  458.40
      9.6700	  607.00	  576.66	-1766.50	  458.35
      9.7700	  571.00	  576.60	-1766.50	  458.29
      9.8700	  588.00	  576.54	-1766.50	  458.23
      9.9700	  605.00	  576.48	-1766.50	  458.16
     10.0700	  637.00	  577.25	-1706.75	  458.09
     10.1700	  590.00	  577.27	-1753.77	  458.02
     10.2700	  607.00	  577.30	-1736.80	  457.94
     10.3700	  585.00	  577.37	-1758.87	  457.86
     10.4700	  627.00	  577.49	-1716.99	  457.77
     10.5700	  556.00	  577.74	-1788.24	  457.68
     10.6700	  568.00	  578.20	-1776.70	  457.58
     10.7700	  591.00	  578.99	-1754.49	  457.48
     10.8700	  617.00	  580.17	-1729.67	  457.37
     10.9700	  568.00	  581.73	-1780.23	  457.27
     11.0700	  621.00	  583.63	-1729.13	  457.15
     11.1700	  599.00	  585.89	-1753.39	  457.04
     11.2700	  541.00	  588.52	-1814.02	  456.91
     11.3700	  593.00	  591.63	-1765.13	  456.79
     11.4700	  566.00	  595.33	-1795.83	  456.66
     11.5700	  653.00	  599.86	-1713.36	  456.53
     11.6700	  579.00	  605.56	-1793.06	  456.39
     11.7700	  618.00	  613.08	-1761.58	  456.25
     11.8700	  647.00	  623.30	-1742.80	  456.11
     11.9700	  740.00	  636.71	-1663.21	  455.96
     12.0700	  696.00	  651.41	-1721.91	  455.81
     12.1700	  647.00	  661.05	-1780.55	  455.66
     12.2700	  665.00	  656.26	-1757.76	  455.50
     12.3700	  636.00	  635.28	-1765.78	  455.34
     12.4700	  591.00	  610.86	-1786.36	  455.17
     12.5700	  592.00	  593.26	-1767.76	  455.01
     12.6700	  584.00	  583.67	-1766.17	  454.83
     12.7700	  609.00	  579.22	-1736.72	  454.66
     12.8700	  601.00	  577.14	-1742.64	  454.48
     12.9700	  561.00	  575.95	-1781.45	  454.30
     13.0700	  595.00	  575.12	-1746.62	  454.12
     13.1700	  590.00	  574.47	-1750.97	  453.93
     13.2700	  559.00	  573.93	-1781.43	  453.74
     13.3700	  577.00	  573.47	-1762.97	  453.55
     13.4700	  571.00	  573.07	-1768.57	  453.35
     13.5700	  532.00	  572.70	-1807.20	  453.15
     13.6700	  556.00	  572.36	-1782.86	  452.95
     13.7700	  572.00	  572.05	-1766.55	  452.74
     13.8700	  523.00	  571.75	-1815.25	  452.53
     13.9700	  580.00	  571.46	-1757.96	  452.32
     14.0700	  548.00	  571.18	-1789.68	  452.11
     14.1700	  573.00	  570.90	-1764.40	  451.89
     14.2700	  591.00	  570.64	-1746.14	  451.67
     14.3700	  541.00	  570.37	-1795.87	  451.45
     14.4700	  526.00	  570.11	-1810.61	  451.23
     14.5700	  582.00	  569.85	-1754.35	  451.00
     14.6700	  558.00	  569.59	-1778.09	  450.77
     14.7700	  550.00	  569.33	-1785.83	  450.54
     14.8700	  547.00	  569.07	-1788.57	  450.30
     14.9700	  587.00	  568.82	-1748.32	  450.07
     15.0700	  599.00	  568.56	-1736.06	  449.83
     15.1700	  551.00	  568.30	-1783.80	  449.58
     15.2700	  584.00	  568.04	-1750.54	  449.34
     15.3700	  540.00	  567.78	-1794.28	  449.09
     15.4700	  554.00	  567.52	-1780.02	  448.85
     15.5700	  559.00	  567.26	-1774.76	  448.59
     15.6700	  525.00	  566.99	-1808.49	  448.34
     15.7700	  518.00	  566.73	-1815.23	  448.09
     15.8700	  534.00	  566.46	-1798.96	  447.83
     15.9700	  547.00	  566.19	-1785.69	  447.57
     16.0700	  527.00	  565.95	-1805.45	  447.31
     16.1700	  528.00	  565.68	-1804.18	  447.04
     16.2700	  563.00	  565.41	-1768.91	  446.78
     16.3700	  532.00	  565.14	-1799.64	  446.51
     16.4700	  553.00	  564.86	-1778.36	  446.24
     16.5700	  564.00	  564.59	-1767.09	  445.97
     16.6700	  528.00	  564.31	-1802.81	  445.70
     16.7700	  537.00	  564.03	-1793.53	  445.42
     16.8700	  562.00	  563.75	-1768.25	  445.15
     16.9700	  564.00	  563.47	-1765.97	  444.87
     17.0700	  552.00	  563.19	-1777.69	  444.59
     17.1700	  575.00	  562.90	-1754.40	  444.31
     17.2700	  570.00	  562.62	-1759.12	  444.02
     17.3700	  542.00	  562.33	-1786.83	  443.74
     17.4700	  572.00	  562.04	-1756.54	  443.45
     17.5700	  554.00	  561.75	-1774.25	  443.16
     17.6700	  555.00	  561.46	-1772.96	  442.87
     17.7700	  559.00	  561.17	-1768.67	  442.58
     17.8700	  562.00	  560.87	-1765.37	  442.29
     17.9700	  614.00	  560.58	-1713.08	  442.00
     18.0700	  531.00	  560.38	-1795.88	  441.70
     18.1700	  552.00	  560.09	-1774.59	  441.40
     18.2700	  573.00	  559.79	-1753.29	  441.11
     18.3700	  536.00	  559.49	-1789.99	  440.81
     18.4700	  551.00	  559.19	-1774.69	  440.51
     18.5700	  591.00	  558.89	-1734.39	  440.20
     18.6700	  556.00	  558.59	-1769.09	  439.90
     18.7700	  569.00	  558.29	-1755.79	  439.60
     18.8700	  542.00	  558.07	-1782.57	  439.29
     18.9700	  549.00	  557.77	-1775.27	  438.98
     19.0700	  554.00	  557.47	-1769.97	  438.68
     19.1700	  573.00	  557.17	-1750.67	  438.37
     19.2700	  513.00	  556.86	-1810.36	  438.06
     19.3700	  581.00	  556.56	-1742.06	  437.75
     19.4700	  511.00	  556.25	-1811.75	  437.44
     19.5700	  540.00	  555.95	-1782.45	  437.12
     19.6700	  516.00	  555.64	-1806.14	  436.81
     19.7700	  575.00	  555.34	-1746.84	  436.50
     19.8700	  526.00	  555.03	-1795.53	  436.18
     19.9700	  568.00	  554.72	-1753.22	  435.86
     20.0700	  579.00	  554.41	-1741.91	  435.55
     20.1700	  560.00	  554.11	-1760.61	  435.23
     20.2700	  572.00	  553.80	-1748.30	  434.91
     20.3700	  528.00	  553.49	-1791.99	  434.59
     20.4700	  575.00	  553.18	-1744.68	  434.27
     20.5700	  548.00	  552.87	-1771.37	  433.95
     20.6700	  516.00	  552.56	-1803.06	  433.63
     20.7700	  552.00	  552.22	-1766.72	  433.31
     20.8700	  572.00	  551.95	-1746.45	  432.99
     20.9700	  540.00	  551.65	-1778.15	  432.66
     21.0700	  537.00	  551.34	-1780.84	  432.34
     21.1700	  584.00	  551.04	-1733.54	  432.02
     21.2700	  560.00	  550.73	-1757.23	  431.69
     21.3700	  533.00	  550.43	-1783.93	  431.37
     21.4700	  581.00	  550.12	-1735.62	  431.04
     21.5700	  559.00	  549.82	-1757.32	  430.72
     21.6700	  553.00	  549.52	-1763.02	  430.39
     21.7700	  520.00	  549.22	-1795.72	  430.06
     21.8700	  541.00	  548.93	-1774.43	  429.74
     21.9700	  552.00	  548.63	-1763.13	  429.41
     22.0700	  569.00	  548.34	-1745.84	  429.08
     22.1700	  564.00	  548.05	-1750.55	  428.76
     22.2700	  552.00	  547.76	-1762.26	  428.43
     22.3700	  535.00	  547.48	-1778.98	  428.10
     22.4700	  579.00	  547.20	-1734.70	  427.77
     22.5700	  520.00	  546.93	-1793.43	  427.44
     22.6700	  572.00	  546.66	-1741.16	  427.11
     22.7700	  575.00	  546.40	-1737.90	  426.78
     22.8700	  537.00	  546.15	-1775.65	  426.46
     22.9700	  522.00	  545.91	-1790.41	  426.13
     23.0700	  528.00	  545.68	-1784.18	  425.80
     23.1700	  575.00	  545.47	-1736.97	  425.47
     23.2700	  510.00	  545.28	-1801.78	  425.14
     23.3700	  565.00	  545.12	-1746.62	  424.81
     23.4700	  537.00	  544.99	-1774.49	  424.48
     23.5700	  570.00	  544.92	-1741.42	  424.15
     23.6700	  563.00	  545.05	-1748.55	  423.82
     23.7700	  559.00	  545.16	-1752.66	  423.49
     23.8700	  518.00	  545.51	-1794.01	  423.17
     23.9700	  570.00	  546.31	-1742.81	  422.84
     24.0700	  577.00	  547.99	-1737.49	  422.51
     24.1700	  537.00	  551.20	-1780.70	  422.18
     24.2700	  582.00	  556.77	-1741.27	  421.85
     24.3700	  572.00	  565.60	-1760.10	  421.53
     24.4700	  603.00	  578.60	-1742.10	  421.20
     24.5700	  580.00	  595.79	-1782.29	  420.87
     24.6700	  649.00	  614.15	-1731.65	  420.54
     24.7700	  657.00	  626.02	-1735.52	  420.22
     24.8700	  645.00	  621.77	-1743.27	  419.89
     24.9700	  570.00	  601.28	-1797.78	  419.56
     25.0700	  548.00	  577.45	-1795.95	  419.24
     25.1700	  566.00	  559.84	-1760.34	  418.91
     25.2700	  530.00	  549.87	-1786.37	  418.59
     25.3700	  523.00	  545.10	-1788.60	  418.26
     25.4700	  583.00	  542.88	-1726.38	  417.94
     25.5700	  519.00	  541.68	-1789.18	  417.62
     25.6700	  545.00	  540.89	-1762.39	  417.29
     25.7700	  551.00	  540.31	-1755.81	  416.97
     25.8700	  573.00	  539.87	-1733.37	  416.65
     25.9700	  505.00	  539.54	-1801.04	  416.33
     26.0700	  526.00	  539.29	-1779.79	  416.01
     26.1700	  568.00	  539.12	-1737.62	  415.69
     26.2700	  566.00	  539.03	-1739.53	  415.37
     26.3700	  553.00	  539.01	-1752.51	  415.05
     26.4700	  574.00	  539.08	-1731.58	  414.73
     26.5700	  563.00	  539.23	-1742.73	  414.41
     26.6700	  551.00	  539.51	-1755.01	  414.09
     26.7700	  556.00	  539.91	-1750.41	  413.78
     26.8700	  518.00	  540.49	-1788.99	  413.46
     26.9700	  524.00	  541.28	-1783.78	  413.14
     27.0700	  518.00	  542.37	-1790.87	  412.83
     27.1700	  579.00	  543.90	-1731.40	  412.52
     27.2700	  580.00	  546.10	-1732.60	  412.20
     27.3700	  546.00	  549.48	-1769.98	  411.89
     27.4700	  606.00	  555.03	-1715.53	  411.58
     27.5700	  597.00	  564.51	-1734.01	  411.27
     27.6700	  547.00	  580.68	-1800.18	  410.96
     27.7700	  551.00	  607.05	-1822.55	  410.65
     27.8700	  605.00	  646.60	-1808.10	  410.34
     27.9700	  679.00	  699.25	-1786.75	  410.03
     28.0700	  810.00	  758.61	-1715.11	  409.73
     28.1700	  914.00	  809.27	-1661.77	  409.42
     28.2700	  965.00	  828.79	-1630.29	  409.12
     28.3700	  880.00	  805.67	-1692.17	  408.81
     28.4700	  730.00	  763.22	-1799.72	  408.51
     28.5700	  709.00	  735.79	-1793.29	  408.21
     28.6700	  689.00	  737.80	-1815.30	  407.90
     28.7700	  739.00	  763.32	-1790.82	  407.60
     28.8700	  803.00	  791.60	-1755.10	  407.31
     28.9700	  806.00	  794.42	-1754.92	  407.01
     29.0700	  780.00	  755.54	-1742.04	  406.71
     29.1700	  692.00	  692.52	-1767.02	  406.41
     29.2700	  643.00	  633.71	-1757.21	  406.12
     29.3700	  593.00	  591.84	-1765.34	  405.83
     29.4700	  610.00	  566.80	-1723.30	  405.53
     29.5700	  550.00	  553.35	-1769.85	  405.24
     29.6700	  535.00	  546.27	-1777.77	  404.95
     29.7700	  591.00	  542.26	-1717.76	  404.66
     29.8700	  547.00	  539.76	-1759.26	  404.37
     29.9700	  589.00	  538.20	-1715.70	  404.08
     30.0700	  550.00	  537.45	-1753.95	  403.80
     30.1700	  580.00	  537.70	-1724.20	  403.51
     30.2700	  571.00	  539.51	-1735.01	  403.23
     30.3700	  561.00	  543.99	-1749.49	  402.95
     30.4700	  600.00	  552.76	-1719.26	  402.66
     30.5700	  569.00	  567.47	-1764.97	  402.38
     30.6700	  576.00	  588.45	-1778.95	  402.10
     30.7700	  605.00	  612.92	-1774.42	  401.83
     30.8700	  607.00	  633.67	-1793.17	  401.55
     30.9700	  607.00	  640.11	-1799.61	  401.27
     31.0700	  632.00	  625.55	-1760.05	  401.00
     31.1700	  550.00	  597.87	-1814.37	  400.73
     31.2700	  560.00	  570.69	-1777.19	  400.45
     31.3700	  548.00	  550.84	-1769.34	  400.18
     31.4700	  517.00	  538.86	-1788.36	  399.91
     31.5700	  531.00	  532.47	-1767.97	  399.65
     31.6700	  561.00	  529.18	-1734.68	  399.38
     31.7700	  572.00	  527.36	-1721.86	  399.12
     31.8700	  564.00	  526.21	-1728.71	  398.85
     31.9700	  535.00	  525.42	-1756.92	  398.59
     32.0700	  528.00	  524.87	-1763.37	  398.33
     32.1700	  584.00	  524.50	-1707.00	  398.07
     32.2700	  555.00	  524.30	-1735.80	  397.81
     32.3700	  582.00	  524.25	-1708.75	  397.55
     32.4700	  498.00	  524.36	-1792.86	  397.30
     32.5700	  507.00	  524.64	-1784.14	  397.04
     32.6700	  531.00	  525.14	-1760.64	  396.79
     32.7700	  514.00	  525.88	-1778.38	  396.54
     32.8700	  549.00	  526.95	-1744.45	  396.29
     32.9700	  502.00	  528.48	-1792.98	  396.04
     33.0700	  532.00	  530.68	-1765.18	  395.79
     33.1700	  533.00	  534.06	-1767.56	  395.55
     33.2700	  552.00	  539.76	-1754.26	  395.30
     33.3700	  575.00	  550.18	-1741.68	  395.06
     33.4700	  556.00	  569.93	-1780.43	  394.82
     33.5700	  610.00	  606.12	-1762.62	  394.58
     33.6700	  654.00	  666.70	-1779.20	  394.34
     33.7700	  694.00	  754.59	-1827.09	  394.10
     33.8700	  873.00	  859.48	-1752.98	  393.87
     33.9700	 1089.00	  952.40	-1629.90	  393.63
     34.0700	 1094.00	  990.21	-1662.71	  393.40
     34.1700	 1039.00	  943.30	-1670.80	  393.17
     34.2700	  886.00	  836.62	-1717.12	  392.94
     34.3700	  764.00	  724.14	-1726.64	  392.71
     34.4700	  673.00	  637.82	-1731.32	  392.49
     34.5700	  580.00	  583.70	-1770.20	  392.26
     34.6700	  561.00	  554.37	-1759.87	  392.04
     34.7700	  567.00	  539.55	-1739.05	  391.82
     34.8700	  564.00	  531.77	-1734.27	  391.60
     34.9700	  538.00	  527.09	-1755.59	  391.38
     35.0700	  555.00	  523.86	-1735.36	  391.16
     35.1700	  519.00	  521.44	-1768.94	  390.95
     35.2700	  490.00	  519.52	-1796.02	  390.73
     35.3700	  526.00	  517.95	-1758.45	  390.52
     35.4700	  533.00	  516.66	-1750.16	  390.31
     35.5700	  524.00	  515.57	-1758.07	  390.10
     35.6700	  498.00	  514.63	-1783.13	  389.90
     35.7700	  537.00	  513.82	-1743.32	  389.69
     35.8700	  526.00	  513.12	-1753.62	  389.49
     35.9700	  538.00	  512.49	-1740.99	  389.28
     36.0700	  533.00	  512.40	-1745.90	  389.08
     36.1700	  521.00	  511.91	-1757.41	  388.89
     36.2700	  514.00	  511.46	-1763.96	  388.69
     36.3700	  474.00	  511.06	-1803.56	  388.49
     36.4700	  517.00	  510.70	-1760.20	  388.30
     36.5700	  522.00	  510.38	-1754.88	  388.11
     36.6700	  512.00	  510.10	-1764.60	  387.91
     36.7700	  481.00	  509.86	-1795.36	  387.73
     36.8700	  519.00	  509.71	-1757.21	  387.54
     36.9700	  511.00	  509.68	-1765.18	  387.35
     37.0700	  493.00	  509.91	-1783.41	  387.17
     37.1700	  521.00	  510.64	-1756.14	  386.99
     37.2700	  481.00	  512.20	-1797.70	  386.81
     37.3700	  502.00	  514.92	-1779.42	  386.63
     37.4700	  526.00	  518.75	-1759.25	  386.45
     37.5700	  528.00	  523.01	-1761.51	  386.27
     37.6700	  509.00	  526.30	-1783.80	  386.10
     37.7700	  524.00	  527.10	-1769.60	  385.93
     37.8700	  529.00	  525.14	-1762.64	  385.76
     37.9700	  488.00	  521.72	-1800.22	  385.59
     38.0700	  537.00	  518.00	-1747.50	  385.42
     38.1700	  511.00	  514.46	-1769.96	  385.26
     38.2700	  536.00	  511.44	-1741.94	  385.09
     38.3700	  458.00	  509.16	-1817.66	  384.93
     38.4700	  502.00	  507.59	-1772.09	  384.77
     38.5700	  515.00	  506.58	-1758.08	  384.61
     38.6700	  514.00	  505.85	-1758.35	  384.45
     38.7700	  470.00	  505.43	-1801.93	  384.30
     38.8700	  544.00	  505.12	-1727.62	  384.15
     38.9700	  502.00	  504.87	-1769.37	  383.99
     39.0700	  498.00	  504.66	-1773.16	  383.85
     39.1700	  527.00	  504.47	-1743.97	  383.70
     39.2700	  497.00	  504.21	-1773.71	  383.55
     39.3700	  534.00	  504.05	-1736.55	  383.41
     39.4700	  509.00	  504.03	-1761.53	  383.26
     39.5700	  509.00	  503.90	-1761.40	  383.12
     39.6700	  506.00	  503.77	-1764.27	  382.98
     39.7700	  487.00	  503.65	-1783.15	  382.84
     39.8700	  494.00	  503.55	-1776.05	  382.71
     39.9700	  495.00	  503.45	-1774.95	  382.57
     40.0700	  482.00	  503.36	-1787.86	  382.44
     40.1700	  523.00	  503.29	-1746.79	  382.31
     40.2700	  505.00	  503.22	-1764.72	  382.18
     40.3700	  486.00	  503.17	-1783.67	  382.05
     40.4700	  495.00	  503.13	-1774.63	  381.93
     40.5700	  492.00	  503.10	-1777.60	  381.81
     40.6700	  497.00	  503.10	-1772.60	  381.68
     40.7700	  547.00	  503.11	-1722.61	  381.56
