MSG Master    CELL:    5.91969   5.91969  23.28508   90.0000   90.0000  120.0000   SPGR: P 63/m m c             TEMP:   1074.85
  1   1280     2.52000     0.00000    -0.11709     0.00000     0.00000    0
    99     0     2
       0.00000      10.00000
     125.00000     130.00000
 2Theta	Yobs	Ycal	Yobs-Ycal	Backg	Posr	(hkl)	K
      0.7700	    0.00	  550.53	-1726.71	  431.30
      0.8700	    0.00	  551.12	-1726.71	  431.89
      0.9700	   33.00	  551.70	-1726.71	  432.47
      1.0700	   34.00	  552.27	-1726.71	  433.04
      1.1700	   63.00	  552.83	-1726.71	  433.60
      1.2700	   40.00	  553.38	-1726.71	  434.15
      1.3700	   40.00	  553.92	-1726.71	  434.69
      1.4700	   94.00	  554.45	-1726.71	  435.22
      1.5700	  313.00	  554.98	-1726.71	  435.75
      1.6700	  467.00	  555.49	-1726.71	  436.26
      1.7700	  584.00	  556.00	-1726.71	  436.77
      1.8700	  657.00	  556.49	-1726.71	  437.26
      1.9700	  685.00	  556.98	-1726.71	  437.75
      2.0700	  760.00	  557.46	-1726.71	  438.23
      2.1700	  783.00	  557.93	-1726.71	  438.70
      2.2700	  782.00	  558.39	-1726.71	  439.16
      2.3700	  739.00	  558.84	-1726.71	  439.61
      2.4700	  681.00	  559.29	-1726.71	  440.06
      2.5700	  690.00	  559.72	-1726.71	  440.49
      2.6700	  649.00	  560.15	-1726.71	  440.92
      2.7700	  620.00	  560.57	-1726.71	  441.34
      2.8700	  610.00	  560.98	-1726.71	  441.75
      2.9700	  615.00	  561.38	-1726.71	  442.15
      3.0700	  678.00	  561.77	-1726.71	  442.54
      3.1700	  630.00	  562.16	-1726.71	  442.93
      3.2700	  635.00	  562.54	-1726.71	  443.31
      3.3700	  720.00	  562.91	-1726.71	  443.68
      3.4700	  739.00	  563.27	-1726.71	  444.04
      3.5700	  850.00	  563.62	-1726.71	  444.39
      3.6700	  855.00	  563.97	-1726.71	  444.74
      3.7700	  861.00	  564.30	-1726.71	  445.08
      3.8700	  937.00	  564.63	-1726.71	  445.41
      3.9700	 1002.00	  564.96	-1726.71	  445.73
      4.0700	 1058.00	  565.27	-1726.71	  446.04
      4.1700	 1035.00	  565.58	-1726.71	  446.35
      4.2700	 1057.00	  565.88	-1726.71	  446.65
      4.3700	 1136.00	  566.17	-1726.71	  446.94
      4.4700	 1088.00	  566.46	-1726.71	  447.23
      4.5700	 1067.00	  566.74	-1726.71	  447.51
      4.6700	 1062.00	  567.01	-1726.71	  447.78
      4.7700	  958.00	  567.27	-1726.71	  448.04
      4.8700	  931.00	  567.53	-1726.71	  448.30
      4.9700	  904.00	  567.78	-1726.71	  448.55
      5.0700	  915.00	  568.02	-1726.71	  448.79
      5.1700	  904.00	  568.25	-1726.71	  449.02
      5.2700	  949.00	  568.48	-1726.71	  449.25
      5.3700	  895.00	  568.70	-1726.71	  449.47
      5.4700	  889.00	  568.92	-1726.71	  449.69
      5.5700	  886.00	  569.12	-1726.71	  449.90
      5.6700	  829.00	  569.33	-1726.71	  450.10
      5.7700	  811.00	  569.52	-1726.71	  450.29
      5.8700	  850.00	  569.71	-1726.71	  450.48
      5.9700	  764.00	  569.89	-1726.71	  450.66
      6.0700	  748.00	  570.06	-1726.71	  450.84
      6.1700	  802.00	  570.23	-1726.71	  451.00
      6.2700	  785.00	  570.40	-1726.71	  451.17
      6.3700	  764.00	  570.55	-1726.71	  451.32
      6.4700	  774.00	  570.70	-1726.71	  451.47
      6.5700	  748.00	  570.84	-1726.71	  451.62
      6.6700	  744.00	  570.98	-1726.71	  451.75
      6.7700	  717.00	  571.11	-1726.71	  451.88
      6.8700	  723.00	  571.24	-1726.71	  452.01
      6.9700	  700.00	  571.36	-1726.71	  452.13
      7.0700	  714.00	  571.47	-1726.71	  452.24
      7.1700	  705.00	  571.58	-1726.71	  452.35
      7.2700	  680.00	  571.68	-1726.71	  452.45
      7.3700	  700.00	  571.77	-1726.71	  452.54
      7.4700	  667.00	  571.86	-1726.71	  452.63
      7.5700	  649.00	  571.95	-1726.71	  452.72
      7.6700	  647.00	  572.03	-1726.71	  452.80
      7.7700	  616.00	  572.10	-1726.71	  452.87
      7.8700	  683.00	  572.17	-1726.71	  452.94
      7.9700	  663.00	  572.23	-1726.71	  453.00
      8.0700	  666.00	  572.28	-1726.71	  453.06
      8.1700	  642.00	  572.34	-1726.71	  453.11
      8.2700	  662.00	  572.38	-1726.71	  453.15
      8.3700	  668.00	  572.42	-1726.71	  453.19
      8.4700	  696.00	  572.46	-1726.71	  453.23
      8.5700	  594.00	  572.49	-1726.71	  453.26
      8.6700	  670.00	  572.51	-1726.71	  453.28
      8.7700	  606.00	  572.53	-1726.71	  453.30
      8.8700	  613.00	  572.55	-1726.71	  453.32
      8.9700	  614.00	  572.56	-1726.71	  453.33
      9.0700	  603.00	  572.56	-1726.71	  453.33
      9.1700	  607.00	  572.56	-1726.71	  453.33
      9.2700	  605.00	  572.56	-1726.71	  453.33
      9.3700	  576.00	  572.55	-1726.71	  453.32
      9.4700	  568.00	  572.53	-1726.71	  453.30
      9.5700	  606.00	  572.51	-1726.71	  453.28
      9.6700	  606.00	  572.49	-1726.71	  453.26
      9.7700	  594.00	  572.46	-1726.71	  453.23
      9.8700	  591.00	  572.43	-1726.71	  453.20
      9.9700	  621.00	  572.39	-1726.71	  453.16
     10.0700	  596.00	  573.31	-1704.02	  453.12
     10.1700	  567.00	  573.37	-1733.08	  453.07
     10.2700	  631.00	  573.45	-1669.16	  453.02
     10.3700	  566.00	  573.57	-1734.28	  452.96
     10.4700	  543.00	  573.75	-1757.47	  452.90
     10.5700	  601.00	  574.07	-1699.78	  452.84
     10.6700	  621.00	  574.62	-1680.33	  452.77
     10.7700	  593.00	  575.52	-1709.23	  452.70
     10.8700	  638.00	  576.85	-1665.57	  452.62
     10.9700	  553.00	  578.62	-1752.33	  452.54
     11.0700	  600.00	  580.78	-1707.49	  452.46
     11.1700	  564.00	  583.34	-1746.05	  452.37
     11.2700	  597.00	  586.33	-1716.04	  452.28
     11.3700	  577.00	  589.84	-1739.55	  452.18
     11.4700	  594.00	  594.01	-1726.72	  452.08
     11.5700	  612.00	  599.08	-1713.79	  451.97
     11.6700	  627.00	  605.44	-1705.15	  451.87
     11.7700	  657.00	  613.75	-1683.46	  451.75
     11.8700	  602.00	  624.94	-1749.66	  451.64
     11.9700	  654.00	  639.56	-1712.27	  451.52
     12.0700	  606.00	  655.74	-1776.46	  451.40
     12.1700	  690.00	  667.08	-1703.79	  451.27
     12.2700	  684.00	  663.56	-1706.27	  451.14
     12.3700	  697.00	  641.91	-1671.62	  451.01
     12.4700	  617.00	  614.92	-1724.63	  450.87
     12.5700	  568.00	  594.56	-1753.27	  450.73
     12.6700	  601.00	  582.98	-1708.70	  450.59
     12.7700	  578.00	  577.44	-1726.15	  450.44
     12.8700	  560.00	  574.84	-1741.55	  450.29
     12.9700	  563.00	  573.41	-1737.12	  450.14
     13.0700	  569.00	  572.45	-1730.16	  449.98
     13.1700	  595.00	  571.72	-1703.43	  449.82
     13.2700	  536.00	  571.13	-1761.84	  449.66
     13.3700	  561.00	  570.64	-1736.35	  449.49
     13.4700	  548.00	  570.22	-1748.93	  449.32
     13.5700	  541.00	  569.84	-1755.55	  449.15
     13.6700	  569.00	  569.50	-1727.21	  448.97
     13.7700	  593.00	  569.19	-1702.90	  448.80
     13.8700	  557.00	  568.89	-1738.60	  448.61
     13.9700	  552.00	  568.61	-1743.32	  448.43
     14.0700	  525.00	  568.34	-1770.06	  448.24
     14.1700	  517.00	  568.09	-1777.80	  448.05
     14.2700	  558.00	  567.83	-1736.54	  447.86
     14.3700	  567.00	  567.59	-1727.30	  447.67
     14.4700	  595.00	  567.34	-1699.05	  447.47
     14.5700	  566.00	  567.10	-1727.81	  447.27
     14.6700	  537.00	  566.86	-1756.58	  447.07
     14.7700	  565.00	  566.63	-1728.34	  446.86
     14.8700	  538.00	  566.39	-1755.10	  446.65
     14.9700	  544.00	  566.16	-1748.87	  446.44
     15.0700	  516.00	  565.92	-1776.63	  446.23
     15.1700	  570.00	  565.68	-1722.40	  446.01
     15.2700	  560.00	  565.45	-1732.16	  445.80
     15.3700	  541.00	  565.21	-1750.92	  445.58
     15.4700	  568.00	  564.97	-1723.68	  445.35
     15.5700	  581.00	  564.73	-1710.45	  445.13
     15.6700	  583.00	  564.49	-1708.21	  444.90
     15.7700	  563.00	  564.25	-1727.96	  444.67
     15.8700	  549.00	  564.04	-1741.75	  444.44
     15.9700	  562.00	  563.79	-1728.51	  444.21
     16.0700	  513.00	  563.55	-1777.26	  443.97
     16.1700	  567.00	  563.30	-1723.02	  443.73
     16.2700	  574.00	  563.06	-1715.77	  443.49
     16.3700	  585.00	  562.81	-1704.52	  443.25
     16.4700	  539.00	  562.56	-1750.27	  443.01
     16.5700	  562.00	  562.31	-1727.02	  442.76
     16.6700	  560.00	  562.05	-1728.77	  442.52
     16.7700	  542.00	  561.80	-1746.51	  442.27
     16.8700	  584.00	  561.54	-1704.26	  442.01
     16.9700	  572.00	  561.29	-1716.00	  441.76
     17.0700	  509.00	  561.03	-1778.74	  441.51
     17.1700	  574.00	  560.77	-1713.48	  441.25
     17.2700	  554.00	  560.51	-1733.22	  440.99
     17.3700	  562.00	  560.24	-1724.95	  440.73
     17.4700	  541.00	  559.98	-1745.69	  440.47
     17.5700	  515.00	  559.71	-1771.42	  440.21
     17.6700	  517.00	  559.45	-1769.16	  439.94
     17.7700	  566.00	  559.18	-1719.89	  439.67
     17.8700	  526.00	  558.91	-1759.62	  439.41
     17.9700	  585.00	  558.64	-1700.35	  439.14
     18.0700	  584.00	  558.47	-1701.18	  438.87
     18.1700	  588.00	  558.20	-1696.91	  438.59
     18.2700	  557.00	  557.92	-1727.64	  438.32
     18.3700	  585.00	  557.65	-1699.36	  438.04
     18.4700	  601.00	  557.37	-1683.09	  437.77
     18.5700	  569.00	  557.10	-1714.81	  437.49
     18.6700	  576.00	  556.82	-1707.53	  437.21
     18.7700	  545.00	  556.54	-1738.26	  436.93
     18.8700	  550.00	  556.26	-1732.98	  436.65
     18.9700	  571.00	  556.07	-1711.78	  436.36
     19.0700	  590.00	  555.79	-1692.50	  436.08
     19.1700	  540.00	  555.51	-1742.22	  435.79
     19.2700	  544.00	  555.23	-1737.94	  435.51
     19.3700	  535.00	  554.95	-1746.66	  435.22
     19.4700	  557.00	  554.67	-1724.38	  434.93
     19.5700	  520.00	  554.39	-1761.10	  434.64
     19.6700	  529.00	  554.10	-1751.81	  434.35
     19.7700	  557.00	  553.82	-1723.53	  434.06
     19.8700	  522.00	  553.53	-1758.25	  433.77
     19.9700	  565.00	  553.25	-1714.96	  433.47
     20.0700	  554.00	  552.96	-1725.68	  433.18
     20.1700	  550.00	  552.68	-1729.39	  432.88
     20.2700	  548.00	  552.39	-1731.10	  432.59
     20.3700	  552.00	  552.11	-1726.82	  432.29
     20.4700	  530.00	  551.82	-1748.53	  431.99
     20.5700	  598.00	  551.53	-1680.25	  431.69
     20.6700	  551.00	  551.25	-1726.96	  431.39
     20.7700	  515.00	  550.96	-1762.67	  431.09
     20.8700	  544.00	  550.71	-1733.42	  430.79
     20.9700	  577.00	  550.39	-1700.10	  430.49
     21.0700	  555.00	  550.10	-1721.82	  430.19
     21.1700	  520.00	  549.82	-1756.53	  429.89
     21.2700	  565.00	  549.54	-1711.25	  429.58
     21.3700	  561.00	  549.26	-1714.97	  429.28
     21.4700	  536.00	  548.97	-1739.69	  428.98
     21.5700	  532.00	  548.69	-1743.41	  428.67
     21.6700	  551.00	  548.42	-1724.13	  428.37
     21.7700	  566.00	  548.14	-1708.85	  428.06
     21.8700	  557.00	  547.86	-1717.57	  427.75
     21.9700	  573.00	  547.59	-1701.30	  427.45
     22.0700	  586.00	  547.32	-1688.03	  427.14
     22.1700	  521.00	  547.05	-1752.76	  426.83
     22.2700	  537.00	  546.78	-1736.49	  426.52
     22.3700	  584.00	  546.52	-1689.23	  426.22
     22.4700	  552.00	  546.26	-1720.97	  425.91
     22.5700	  542.00	  546.01	-1730.72	  425.60
     22.6700	  527.00	  545.76	-1745.48	  425.29
     22.7700	  560.00	  545.53	-1712.24	  424.98
     22.8700	  535.00	  545.30	-1737.01	  424.67
     22.9700	  543.00	  545.08	-1728.79	  424.36
     23.0700	  540.00	  544.87	-1731.58	  424.05
     23.1700	  539.00	  544.68	-1732.40	  423.74
     23.2700	  532.00	  544.52	-1739.23	  423.43
     23.3700	  558.00	  544.38	-1713.09	  423.12
     23.4700	  531.00	  544.28	-1739.99	  422.81
     23.5700	  563.00	  544.23	-1707.94	  422.50
     23.6700	  586.00	  544.38	-1685.09	  422.19
     23.7700	  504.00	  544.53	-1767.24	  421.88
     23.8700	  552.00	  544.90	-1719.61	  421.57
     23.9700	  565.00	  545.72	-1707.43	  421.26
     24.0700	  559.00	  547.39	-1715.10	  420.95
     24.1700	  558.00	  550.53	-1719.24	  420.64
     24.2700	  544.00	  555.91	-1738.62	  420.33
     24.3700	  600.00	  564.41	-1691.12	  420.02
     24.4700	  589.00	  576.83	-1714.55	  419.71
     24.5700	  599.00	  593.13	-1720.84	  419.40
     24.6700	  638.00	  610.46	-1699.18	  419.09
     24.7700	  610.00	  621.82	-1738.53	  418.78
     24.8700	  628.00	  618.23	-1716.94	  418.47
     24.9700	  593.00	  599.26	-1732.97	  418.16
     25.0700	  638.00	  576.73	-1665.44	  417.85
     25.1700	  579.00	  559.73	-1707.44	  417.54
     25.2700	  508.00	  549.84	-1768.55	  417.23
     25.3700	  545.00	  544.98	-1726.69	  416.92
     25.4700	  503.00	  542.68	-1766.39	  416.62
     25.5700	  543.00	  541.44	-1725.16	  416.31
     25.6700	  576.00	  540.65	-1691.36	  416.00
     25.7700	  508.00	  540.07	-1758.78	  415.70
     25.8700	  561.00	  539.64	-1705.35	  415.39
     25.9700	  547.00	  539.32	-1719.03	  415.08
     26.0700	  568.00	  539.08	-1697.79	  414.78
     26.1700	  553.00	  538.93	-1712.64	  414.47
     26.2700	  590.00	  538.85	-1675.56	  414.17
     26.3700	  561.00	  538.85	-1704.56	  413.86
     26.4700	  523.00	  538.93	-1742.64	  413.56
     26.5700	  518.00	  539.11	-1747.82	  413.26
     26.6700	  525.00	  539.40	-1741.12	  412.95
     26.7700	  544.00	  539.83	-1722.54	  412.65
     26.8700	  543.00	  540.43	-1724.14	  412.35
     26.9700	  580.00	  541.25	-1687.96	  412.05
     27.0700	  523.00	  542.37	-1746.08	  411.75
     27.1700	  575.00	  543.91	-1695.62	  411.45
     27.2700	  576.00	  546.11	-1696.82	  411.15
     27.3700	  543.00	  549.45	-1733.16	  410.85
     27.4700	  539.00	  554.90	-1742.61	  410.55
     27.5700	  554.00	  564.18	-1736.89	  410.26
     27.6700	  619.00	  580.11	-1687.82	  409.96
     27.7700	  577.00	  606.38	-1756.09	  409.66
     27.8700	  566.00	  646.40	-1807.11	  409.37
     27.9700	  695.00	  700.78	-1732.49	  409.08
     28.0700	  765.00	  763.80	-1725.51	  408.78
     28.1700	  916.00	  820.24	-1630.96	  408.49
     28.2700	  976.00	  846.34	-1597.05	  408.20
     28.3700	  910.00	  826.26	-1642.97	  407.91
     28.4700	  783.00	  780.30	-1724.01	  407.61
     28.5700	  711.00	  746.26	-1761.97	  407.32
     28.6700	  730.00	  742.64	-1739.35	  407.04
     28.7700	  714.00	  765.61	-1778.32	  406.75
     28.8700	  832.00	  795.16	-1689.87	  406.46
     28.9700	  818.00	  802.37	-1711.08	  406.17
     29.0700	  735.00	  767.36	-1759.07	  405.89
     29.1700	  728.00	  704.15	-1702.86	  405.60
     29.2700	  617.00	  642.49	-1752.20	  405.32
     29.3700	  600.00	  597.48	-1724.19	  405.04
     29.4700	  584.00	  570.09	-1712.80	  404.76
     29.5700	  568.00	  555.27	-1713.98	  404.48
     29.6700	  579.00	  547.48	-1695.19	  404.20
     29.7700	  599.00	  543.12	-1670.83	  403.92
     29.8700	  609.00	  540.42	-1658.13	  403.64
     29.9700	  522.00	  538.71	-1743.42	  403.36
     30.0700	  574.00	  537.82	-1690.53	  403.09
     30.1700	  595.00	  537.88	-1669.59	  402.81
     30.2700	  581.00	  539.40	-1685.11	  402.54
     30.3700	  589.00	  543.37	-1681.08	  402.26
     30.4700	  601.00	  551.31	-1677.02	  401.99
     30.5700	  588.00	  564.84	-1703.55	  401.72
     30.6700	  547.00	  584.44	-1764.15	  401.45
     30.7700	  611.00	  607.80	-1723.51	  401.18
     30.8700	  648.00	  628.48	-1707.20	  400.92
     30.9700	  615.00	  636.41	-1748.12	  400.65
     31.0700	  632.00	  624.35	-1719.06	  400.38
     31.1700	  543.00	  598.42	-1782.13	  400.12
     31.2700	  563.00	  571.85	-1735.56	  399.86
     31.3700	  550.00	  551.95	-1728.67	  399.60
     31.4700	  533.00	  539.70	-1733.41	  399.33
     31.5700	  541.00	  533.08	-1718.79	  399.07
     31.6700	  518.00	  529.66	-1738.37	  398.82
     31.7700	  529.00	  527.79	-1725.50	  398.56
     31.8700	  522.00	  526.63	-1731.34	  398.30
     31.9700	  488.00	  525.84	-1764.55	  398.05
     32.0700	  520.00	  525.29	-1732.00	  397.80
     32.1700	  542.00	  524.92	-1709.64	  397.54
     32.2700	  544.00	  524.72	-1707.44	  397.29
     32.3700	  599.00	  524.68	-1652.39	  397.04
     32.4700	  533.00	  524.79	-1718.51	  396.79
     32.5700	  519.00	  525.08	-1732.80	  396.55
     32.6700	  575.00	  525.58	-1677.29	  396.30
     32.7700	  522.00	  526.32	-1731.04	  396.06
     32.8700	  554.00	  527.39	-1700.10	  395.81
     32.9700	  512.00	  528.90	-1743.62	  395.57
     33.0700	  519.00	  531.08	-1738.79	  395.33
     33.1700	  560.00	  534.39	-1701.10	  395.09
     33.2700	  550.00	  539.91	-1716.62	  394.85
     33.3700	  584.00	  549.92	-1692.63	  394.62
     33.4700	  557.00	  568.75	-1738.47	  394.38
     33.5700	  570.00	  603.22	-1759.93	  394.15
     33.6700	  629.00	  661.06	-1758.77	  393.91
     33.7700	  727.00	  745.64	-1745.35	  393.68
     33.8700	  872.00	  847.94	-1702.66	  393.45
     33.9700	  981.00	  941.06	-1686.77	  393.22
     34.0700	 1087.00	  983.53	-1623.24	  393.00
     34.1700	 1032.00	  943.87	-1638.58	  392.77
     34.2700	  885.00	  842.10	-1683.81	  392.55
     34.3700	  734.00	  730.85	-1723.57	  392.32
     34.4700	  641.00	  643.54	-1729.25	  392.10
     34.5700	  639.00	  587.72	-1675.43	  391.88
     34.6700	  528.00	  556.94	-1755.65	  391.66
     34.7700	  536.00	  541.23	-1731.95	  391.44
     34.8700	  534.00	  533.00	-1725.71	  391.23
     34.9700	  548.00	  528.14	-1706.85	  391.01
     35.0700	  519.00	  524.79	-1732.51	  390.80
     35.1700	  465.00	  522.29	-1784.00	  390.59
     35.2700	  482.00	  520.31	-1765.03	  390.38
     35.3700	  535.00	  518.72	-1710.43	  390.17
     35.4700	  496.00	  517.40	-1748.11	  389.96
     35.5700	  501.00	  516.29	-1742.00	  389.76
     35.6700	  493.00	  515.34	-1749.05	  389.55
     35.7700	  533.00	  514.52	-1708.23	  389.35
     35.8700	  504.00	  513.80	-1736.51	  389.15
     35.9700	  549.00	  513.17	-1690.88	  388.95
     36.0700	  509.00	  513.06	-1730.77	  388.75
     36.1700	  531.00	  512.57	-1708.28	  388.56
     36.2700	  490.00	  512.12	-1748.83	  388.36
     36.3700	  502.00	  511.72	-1736.43	  388.17
     36.4700	  512.00	  511.37	-1726.08	  387.98
     36.5700	  536.00	  511.05	-1701.77	  387.79
     36.6700	  463.00	  510.79	-1774.50	  387.60
     36.7700	  514.00	  510.58	-1723.29	  387.41
     36.8700	  516.00	  510.45	-1721.16	  387.22
     36.9700	  500.00	  510.48	-1737.19	  387.04
     37.0700	  502.00	  510.82	-1735.53	  386.86
     37.1700	  529.00	  511.74	-1709.46	  386.67
     37.2700	  569.00	  513.62	-1671.33	  386.49
     37.3700	  504.00	  516.75	-1739.46	  386.32
     37.4700	  515.00	  521.04	-1732.75	  386.14
     37.5700	  544.00	  525.65	-1708.36	  385.96
     37.6700	  516.00	  529.03	-1739.74	  385.79
     37.7700	  530.00	  529.51	-1726.22	  385.62
     37.8700	  516.00	  526.99	-1737.70	  385.45
     37.9700	  531.00	  523.03	-1718.74	  385.28
     38.0700	  502.00	  518.94	-1743.65	  385.11
     38.1700	  533.00	  515.22	-1708.93	  384.95
     38.2700	  523.00	  512.14	-1715.85	  384.78
     38.3700	  515.00	  509.84	-1721.56	  384.62
     38.4700	  564.00	  508.27	-1670.98	  384.46
     38.5700	  530.00	  507.25	-1703.96	  384.30
     38.6700	  496.00	  506.50	-1737.21	  384.14
     38.7700	  490.00	  506.06	-1742.78	  383.99
     38.8700	  531.00	  505.74	-1701.46	  383.83
     38.9700	  514.00	  505.49	-1718.20	  383.68
     39.0700	  515.00	  505.26	-1716.97	  383.53
     39.1700	  516.00	  505.06	-1715.77	  383.38
     39.2700	  515.00	  504.79	-1716.51	  383.23
     39.3700	  488.00	  504.76	-1743.48	  383.09
     39.4700	  522.00	  504.61	-1709.32	  382.94
     39.5700	  465.00	  504.47	-1766.18	  382.80
     39.6700	  547.00	  504.34	-1684.05	  382.66
     39.7700	  537.00	  504.21	-1693.92	  382.52
     39.8700	  479.00	  504.10	-1751.81	  382.38
     39.9700	  503.00	  504.00	-1727.71	  382.24
     40.0700	  474.00	  503.90	-1756.62	  382.11
     40.1700	  483.00	  503.82	-1747.53	  381.97
     40.2700	  494.00	  503.75	-1736.46	  381.84
     40.3700	  501.00	  503.69	-1729.40	  381.71
     40.4700	  479.00	  503.64	-1751.35	  381.58
     40.5700	  494.00	  503.61	-1736.32	  381.46
     40.6700	  497.00	  503.59	-1733.30	  381.33
     40.7700	  506.00	  503.60	-1724.31	  381.21
