MSG Master    CELL:    5.91588   5.91588  23.26407   90.0000   90.0000  120.0000   SPGR: P 63/m m c             TEMP:   1012.75
  1   1280     2.52000     0.00000    -0.12640     0.00000     0.00000    0
    99     0     2
       0.00000      10.00000
     125.00000     130.00000
 2Theta	Yobs	Ycal	Yobs-Ycal	Backg	Posr	(hkl)	K
      0.7700	    0.00	  487.48	-1730.00	  372.14
      0.8700	    0.00	  488.90	-1730.00	  373.55
      0.9700	   29.00	  490.30	-1730.00	  374.95
      1.0700	   38.00	  491.68	-1730.00	  376.33
      1.1700	   39.00	  493.05	-1730.00	  377.70
      1.2700	   46.00	  494.40	-1730.00	  379.05
      1.3700	   47.00	  495.73	-1730.00	  380.38
      1.4700	   85.00	  497.05	-1730.00	  381.70
      1.5700	  291.00	  498.35	-1730.00	  383.01
      1.6700	  442.00	  499.64	-1730.00	  384.29
      1.7700	  591.00	  500.91	-1730.00	  385.56
      1.8700	  616.00	  502.16	-1730.00	  386.82
      1.9700	  722.00	  503.40	-1730.00	  388.06
      2.0700	  794.00	  504.63	-1730.00	  389.28
      2.1700	  793.00	  505.84	-1730.00	  390.49
      2.2700	  813.00	  507.03	-1730.00	  391.69
      2.3700	  767.00	  508.21	-1730.00	  392.87
      2.4700	  704.00	  509.38	-1730.00	  394.04
      2.5700	  639.00	  510.53	-1730.00	  395.19
      2.6700	  691.00	  511.67	-1730.00	  396.32
      2.7700	  700.00	  512.79	-1730.00	  397.44
      2.8700	  599.00	  513.89	-1730.00	  398.55
      2.9700	  607.00	  514.99	-1730.00	  399.64
      3.0700	  616.00	  516.07	-1730.00	  400.72
      3.1700	  555.00	  517.13	-1730.00	  401.78
      3.2700	  674.00	  518.18	-1730.00	  402.83
      3.3700	  711.00	  519.22	-1730.00	  403.87
      3.4700	  774.00	  520.24	-1730.00	  404.89
      3.5700	  862.00	  521.25	-1730.00	  405.90
      3.6700	  886.00	  522.24	-1730.00	  406.90
      3.7700	  943.00	  523.22	-1730.00	  407.88
      3.8700	 1056.00	  524.19	-1730.00	  408.84
      3.9700	 1047.00	  525.14	-1730.00	  409.80
      4.0700	 1094.00	  526.08	-1730.00	  410.74
      4.1700	 1144.00	  527.01	-1730.00	  411.66
      4.2700	 1186.00	  527.92	-1730.00	  412.58
      4.3700	 1124.00	  528.82	-1730.00	  413.48
      4.4700	 1128.00	  529.71	-1730.00	  414.37
      4.5700	 1086.00	  530.59	-1730.00	  415.24
      4.6700	 1047.00	  531.45	-1730.00	  416.10
      4.7700	 1000.00	  532.30	-1730.00	  416.95
      4.8700	  990.00	  533.14	-1730.00	  417.79
      4.9700	  951.00	  533.96	-1730.00	  418.62
      5.0700	  976.00	  534.77	-1730.00	  419.43
      5.1700	  971.00	  535.57	-1730.00	  420.23
      5.2700	  950.00	  536.36	-1730.00	  421.01
      5.3700	  966.00	  537.13	-1730.00	  421.79
      5.4700	  932.00	  537.90	-1730.00	  422.55
      5.5700	  935.00	  538.65	-1730.00	  423.30
      5.6700	  825.00	  539.38	-1730.00	  424.04
      5.7700	  783.00	  540.11	-1730.00	  424.77
      5.8700	  883.00	  540.83	-1730.00	  425.48
      5.9700	  783.00	  541.53	-1730.00	  426.18
      6.0700	  841.00	  542.22	-1730.00	  426.88
      6.1700	  784.00	  542.90	-1730.00	  427.56
      6.2700	  791.00	  543.57	-1730.00	  428.22
      6.3700	  779.00	  544.23	-1730.00	  428.88
      6.4700	  795.00	  544.87	-1730.00	  429.53
      6.5700	  776.00	  545.51	-1730.00	  430.16
      6.6700	  693.00	  546.13	-1730.00	  430.79
      6.7700	  682.00	  546.74	-1730.00	  431.40
      6.8700	  741.00	  547.35	-1730.00	  432.00
      6.9700	  681.00	  547.94	-1730.00	  432.59
      7.0700	  716.00	  548.52	-1730.00	  433.17
      7.1700	  691.00	  549.08	-1730.00	  433.74
      7.2700	  703.00	  549.64	-1730.00	  434.30
      7.3700	  696.00	  550.19	-1730.00	  434.85
      7.4700	  691.00	  550.73	-1730.00	  435.38
      7.5700	  692.00	  551.26	-1730.00	  435.91
      7.6700	  627.00	  551.77	-1730.00	  436.43
      7.7700	  643.00	  552.28	-1730.00	  436.93
      7.8700	  610.00	  552.78	-1730.00	  437.43
      7.9700	  640.00	  553.26	-1730.00	  437.92
      8.0700	  654.00	  553.74	-1730.00	  438.39
      8.1700	  618.00	  554.20	-1730.00	  438.86
      8.2700	  594.00	  554.66	-1730.00	  439.32
      8.3700	  660.00	  555.11	-1730.00	  439.76
      8.4700	  643.00	  555.54	-1730.00	  440.20
      8.5700	  601.00	  555.97	-1730.00	  440.63
      8.6700	  611.00	  556.39	-1730.00	  441.04
      8.7700	  604.00	  556.80	-1730.00	  441.45
      8.8700	  648.00	  557.20	-1730.00	  441.85
      8.9700	  584.00	  557.58	-1730.00	  442.24
      9.0700	  608.00	  557.97	-1730.00	  442.62
      9.1700	  630.00	  558.34	-1730.00	  442.99
      9.2700	  639.00	  558.70	-1730.00	  443.35
      9.3700	  633.00	  559.05	-1730.00	  443.71
      9.4700	  575.00	  559.39	-1730.00	  444.05
      9.5700	  604.00	  559.73	-1730.00	  444.39
      9.6700	  587.00	  560.06	-1730.00	  444.71
      9.7700	  587.00	  560.37	-1730.00	  445.03
      9.8700	  602.00	  560.68	-1730.00	  445.34
      9.9700	  590.00	  560.98	-1730.00	  445.64
     10.0700	  579.00	  562.61	-1713.61	  445.93
     10.1700	  611.00	  563.04	-1682.04	  446.21
     10.2700	  582.00	  563.49	-1711.49	  446.49
     10.3700	  559.00	  564.00	-1735.00	  446.75
     10.4700	  589.00	  564.58	-1705.58	  447.01
     10.5700	  628.00	  565.30	-1667.30	  447.26
     10.6700	  553.00	  566.25	-1743.25	  447.50
     10.7700	  587.00	  567.53	-1710.53	  447.74
     10.8700	  577.00	  569.19	-1722.19	  447.96
     10.9700	  576.00	  571.27	-1725.27	  448.18
     11.0700	  597.00	  573.74	-1706.74	  448.39
     11.1700	  535.00	  576.60	-1771.60	  448.59
     11.2700	  597.00	  579.90	-1712.90	  448.79
     11.3700	  588.00	  583.73	-1725.73	  448.98
     11.4700	  609.00	  588.22	-1709.22	  449.15
     11.5700	  589.00	  593.60	-1734.60	  449.33
     11.6700	  571.00	  600.23	-1759.23	  449.49
     11.7700	  611.00	  608.63	-1727.63	  449.65
     11.8700	  648.00	  619.32	-1701.32	  449.80
     11.9700	  659.00	  632.15	-1703.15	  449.94
     12.0700	  680.00	  645.16	-1695.16	  450.08
     12.1700	  678.00	  653.55	-1705.55	  450.20
     12.2700	  653.00	  650.43	-1727.43	  450.33
     12.3700	  665.00	  633.67	-1698.67	  450.44
     12.4700	  603.00	  612.07	-1739.07	  450.55
     12.5700	  584.00	  594.48	-1740.48	  450.65
     12.6700	  591.00	  583.19	-1722.19	  450.74
     12.7700	  584.00	  576.93	-1722.93	  450.83
     12.8700	  598.00	  573.69	-1705.69	  450.91
     12.9700	  543.00	  571.94	-1758.94	  450.98
     13.0700	  550.00	  570.87	-1750.87	  451.05
     13.1700	  562.00	  570.15	-1738.15	  451.11
     13.2700	  552.00	  569.62	-1747.62	  451.17
     13.3700	  614.00	  569.22	-1685.22	  451.21
     13.4700	  548.00	  568.91	-1750.91	  451.26
     13.5700	  575.00	  568.66	-1723.66	  451.29
     13.6700	  535.00	  568.46	-1763.46	  451.32
     13.7700	  542.00	  568.30	-1756.30	  451.35
     13.8700	  566.00	  568.16	-1732.16	  451.36
     13.9700	  535.00	  568.04	-1763.04	  451.37
     14.0700	  538.00	  567.93	-1759.93	  451.38
     14.1700	  570.00	  567.83	-1727.83	  451.38
     14.2700	  594.00	  567.75	-1703.75	  451.37
     14.3700	  571.00	  567.66	-1726.66	  451.36
     14.4700	  530.00	  567.58	-1767.58	  451.34
     14.5700	  551.00	  567.50	-1746.50	  451.32
     14.6700	  527.00	  567.42	-1770.42	  451.29
     14.7700	  579.00	  567.38	-1718.38	  451.26
     14.8700	  531.00	  567.30	-1766.30	  451.22
     14.9700	  608.00	  567.22	-1689.22	  451.17
     15.0700	  533.00	  567.14	-1764.14	  451.12
     15.1700	  560.00	  567.05	-1737.05	  451.07
     15.2700	  546.00	  566.97	-1750.97	  451.01
     15.3700	  565.00	  566.88	-1731.88	  450.94
     15.4700	  549.00	  566.79	-1747.79	  450.87
     15.5700	  560.00	  566.69	-1736.69	  450.79
     15.6700	  585.00	  566.59	-1711.59	  450.71
     15.7700	  581.00	  566.49	-1715.49	  450.62
     15.8700	  510.00	  566.38	-1786.38	  450.53
     15.9700	  536.00	  566.28	-1760.28	  450.44
     16.0700	  556.00	  566.16	-1740.16	  450.34
     16.1700	  568.00	  566.05	-1728.05	  450.23
     16.2700	  592.00	  565.93	-1703.93	  450.12
     16.3700	  592.00	  565.80	-1703.80	  450.01
     16.4700	  609.00	  565.67	-1686.67	  449.89
     16.5700	  538.00	  565.54	-1757.54	  449.76
     16.6700	  565.00	  565.41	-1730.41	  449.64
     16.7700	  578.00	  565.27	-1717.27	  449.50
     16.8700	  543.00	  565.12	-1752.12	  449.37
     16.9700	  582.00	  564.98	-1712.98	  449.22
     17.0700	  577.00	  564.83	-1717.83	  449.08
     17.1700	  539.00	  564.67	-1755.67	  448.93
     17.2700	  571.00	  564.52	-1723.52	  448.78
     17.3700	  503.00	  564.35	-1791.35	  448.62
     17.4700	  577.00	  564.19	-1717.19	  448.46
     17.5700	  557.00	  564.02	-1737.02	  448.29
     17.6700	  579.00	  563.85	-1714.85	  448.12
     17.7700	  559.00	  563.67	-1734.67	  447.95
     17.8700	  560.00	  563.49	-1733.49	  447.77
     17.9700	  567.00	  563.31	-1726.31	  447.59
     18.0700	  522.00	  563.22	-1771.22	  447.40
     18.1700	  524.00	  563.04	-1769.04	  447.21
     18.2700	  561.00	  562.84	-1731.84	  447.02
     18.3700	  554.00	  562.65	-1738.65	  446.83
     18.4700	  553.00	  562.45	-1739.45	  446.63
     18.5700	  515.00	  562.25	-1777.25	  446.42
     18.6700	  560.00	  562.14	-1732.14	  446.22
     18.7700	  553.00	  561.93	-1738.93	  446.01
     18.8700	  586.00	  561.72	-1705.72	  445.79
     18.9700	  545.00	  561.51	-1746.51	  445.58
     19.0700	  550.00	  561.30	-1741.30	  445.36
     19.1700	  571.00	  561.08	-1720.08	  445.13
     19.2700	  537.00	  560.86	-1753.86	  444.91
     19.3700	  527.00	  560.64	-1763.64	  444.68
     19.4700	  537.00	  560.41	-1753.41	  444.44
     19.5700	  497.00	  560.18	-1793.18	  444.21
     19.6700	  585.00	  559.95	-1704.95	  443.97
     19.7700	  560.00	  559.72	-1729.72	  443.73
     19.8700	  572.00	  559.49	-1717.49	  443.49
     19.9700	  521.00	  559.25	-1768.25	  443.24
     20.0700	  566.00	  559.01	-1723.01	  442.99
     20.1700	  537.00	  558.77	-1751.77	  442.74
     20.2700	  599.00	  558.53	-1689.53	  442.48
     20.3700	  516.00	  558.32	-1772.32	  442.22
     20.4700	  557.00	  558.07	-1731.07	  441.96
     20.5700	  551.00	  557.82	-1736.82	  441.70
     20.6700	  544.00	  557.57	-1743.57	  441.43
     20.7700	  540.00	  557.32	-1747.32	  441.16
     20.8700	  588.00	  557.07	-1699.07	  440.89
     20.9700	  548.00	  556.81	-1738.81	  440.62
     21.0700	  574.00	  556.56	-1712.56	  440.34
     21.1700	  575.00	  556.30	-1711.30	  440.07
     21.2700	  505.00	  556.05	-1781.05	  439.78
     21.3700	  544.00	  555.79	-1741.79	  439.50
     21.4700	  594.00	  555.53	-1691.53	  439.22
     21.5700	  573.00	  555.28	-1712.28	  438.93
     21.6700	  532.00	  555.02	-1753.02	  438.64
     21.7700	  561.00	  554.76	-1723.76	  438.35
     21.8700	  542.00	  554.51	-1742.51	  438.06
     21.9700	  572.00	  554.21	-1712.21	  437.76
     22.0700	  566.00	  553.96	-1717.96	  437.46
     22.1700	  571.00	  553.71	-1712.71	  437.17
     22.2700	  569.00	  553.46	-1714.46	  436.86
     22.3700	  572.00	  553.22	-1711.22	  436.56
     22.4700	  539.00	  552.98	-1743.98	  436.26
     22.5700	  597.00	  552.75	-1685.75	  435.95
     22.6700	  555.00	  552.52	-1727.52	  435.64
     22.7700	  554.00	  552.30	-1728.30	  435.33
     22.8700	  554.00	  552.10	-1728.10	  435.02
     22.9700	  573.00	  552.05	-1709.05	  434.71
     23.0700	  530.00	  551.88	-1751.88	  434.39
     23.1700	  522.00	  551.73	-1759.73	  434.08
     23.2700	  593.00	  551.60	-1688.60	  433.76
     23.3700	  569.00	  551.52	-1712.52	  433.44
     23.4700	  551.00	  551.48	-1730.48	  433.12
     23.5700	  548.00	  551.51	-1733.51	  432.79
     23.6700	  562.00	  551.64	-1719.64	  432.47
     23.7700	  574.00	  551.92	-1707.93	  432.15
     23.8700	  575.00	  552.49	-1707.49	  431.82
     23.9700	  562.00	  553.55	-1721.55	  431.49
     24.0700	  529.00	  555.48	-1756.48	  431.16
     24.1700	  577.00	  558.82	-1711.82	  430.83
     24.2700	  581.00	  564.29	-1713.29	  430.50
     24.3700	  596.00	  572.55	-1706.55	  430.17
     24.4700	  628.00	  584.05	-1686.05	  429.84
     24.5700	  629.00	  598.31	-1699.31	  429.50
     24.6700	  618.00	  612.94	-1724.94	  429.17
     24.7700	  601.00	  622.85	-1751.85	  428.83
     24.8700	  634.00	  621.35	-1717.35	  428.49
     24.9700	  584.00	  606.99	-1752.99	  428.15
     25.0700	  609.00	  587.84	-1708.84	  427.81
     25.1700	  564.00	  571.66	-1737.66	  427.47
     25.2700	  592.00	  560.80	-1698.80	  427.13
     25.3700	  565.00	  554.48	-1719.48	  426.79
     25.4700	  572.00	  551.05	-1709.05	  426.45
     25.5700	  543.00	  549.12	-1736.12	  426.11
     25.6700	  543.00	  547.91	-1734.91	  425.76
     25.7700	  597.00	  547.06	-1680.06	  425.42
     25.8700	  646.00	  546.43	-1630.43	  425.07
     25.9700	  548.00	  545.95	-1727.95	  424.73
     26.0700	  551.00	  545.58	-1724.58	  424.38
     26.1700	  535.00	  545.30	-1740.30	  424.03
     26.2700	  558.00	  545.12	-1717.12	  423.68
     26.3700	  539.00	  545.03	-1736.03	  423.34
     26.4700	  574.00	  545.03	-1701.03	  422.99
     26.5700	  504.00	  545.13	-1771.13	  422.64
     26.6700	  553.00	  545.35	-1722.35	  422.29
     26.7700	  544.00	  545.71	-1731.71	  421.94
     26.8700	  530.00	  546.23	-1746.23	  421.59
     26.9700	  551.00	  546.98	-1725.98	  421.24
     27.0700	  552.00	  548.02	-1726.02	  420.89
     27.1700	  564.00	  549.47	-1715.47	  420.54
     27.2700	  602.00	  551.55	-1679.55	  420.18
     27.3700	  549.00	  554.72	-1735.72	  419.83
     27.4700	  605.00	  559.87	-1684.87	  419.48
     27.5700	  551.00	  568.60	-1747.60	  419.13
     27.6700	  584.00	  583.54	-1729.54	  418.78
     27.7700	  595.00	  608.22	-1743.22	  418.43
     27.8700	  595.00	  645.99	-1780.99	  418.07
     27.9700	  652.00	  697.71	-1775.71	  417.72
     28.0700	  759.00	  758.52	-1729.52	  417.37
     28.1700	  897.00	  814.70	-1647.70	  417.02
     28.2700	  953.00	  843.99	-1620.99	  416.66
     28.3700	  890.00	  829.28	-1669.28	  416.31
     28.4700	  838.00	  786.44	-1678.44	  415.96
     28.5700	  774.00	  751.78	-1707.78	  415.61
     28.6700	  708.00	  744.94	-1766.94	  415.26
     28.7700	  745.00	  763.92	-1748.92	  414.91
     28.8700	  794.00	  791.26	-1727.26	  414.55
     28.9700	  825.00	  800.51	-1705.51	  414.20
     29.0700	  757.00	  771.37	-1744.37	  413.85
     29.1700	  700.00	  713.21	-1743.21	  413.50
     29.2700	  667.00	  653.46	-1716.46	  413.15
     29.3700	  609.00	  607.93	-1728.93	  412.80
     29.4700	  550.00	  578.92	-1758.92	  412.45
     29.5700	  577.00	  562.51	-1715.51	  412.10
     29.6700	  577.00	  553.63	-1706.63	  411.75
     29.7700	  575.00	  548.62	-1703.62	  411.40
     29.8700	  579.00	  545.55	-1696.55	  411.05
     29.9700	  581.00	  543.61	-1692.61	  410.71
     30.0700	  562.00	  542.60	-1710.60	  410.36
     30.1700	  537.00	  542.53	-1735.53	  410.01
     30.2700	  563.00	  543.87	-1710.87	  409.67
     30.3700	  547.00	  547.48	-1730.48	  409.32
     30.4700	  602.00	  554.62	-1682.62	  408.98
     30.5700	  571.00	  566.62	-1725.62	  408.63
     30.6700	  564.00	  583.83	-1749.83	  408.29
     30.7700	  558.00	  604.34	-1776.34	  407.94
     30.8700	  605.00	  622.97	-1747.97	  407.60
     30.9700	  636.00	  631.48	-1725.48	  407.26
     31.0700	  590.00	  623.00	-1763.00	  406.92
     31.1700	  625.00	  601.12	-1706.12	  406.58
     31.2700	  562.00	  577.01	-1745.01	  406.23
     31.3700	  542.00	  557.81	-1745.81	  405.90
     31.4700	  548.00	  545.13	-1727.13	  405.56
     31.5700	  544.00	  537.76	-1723.76	  405.22
     31.6700	  534.00	  533.73	-1729.73	  404.88
     31.7700	  524.00	  531.47	-1737.47	  404.55
     31.8700	  569.00	  530.08	-1691.08	  404.21
     31.9700	  510.00	  529.15	-1749.15	  403.88
     32.0700	  540.00	  528.51	-1718.51	  403.54
     32.1700	  550.00	  528.08	-1708.08	  403.21
     32.2700	  518.00	  527.84	-1739.84	  402.88
     32.3700	  519.00	  527.79	-1738.79	  402.55
     32.4700	  539.00	  527.91	-1718.91	  402.22
     32.5700	  536.00	  528.25	-1722.25	  401.89
     32.6700	  537.00	  528.82	-1721.82	  401.56
     32.7700	  542.00	  529.68	-1717.68	  401.23
     32.8700	  554.00	  530.93	-1706.93	  400.91
     32.9700	  546.00	  532.68	-1716.68	  400.58
     33.0700	  514.00	  535.21	-1751.21	  400.26
     33.1700	  591.00	  539.02	-1678.02	  399.93
     33.2700	  603.00	  545.22	-1672.22	  399.61
     33.3700	  535.00	  555.99	-1750.99	  399.29
     33.4700	  586.00	  575.26	-1719.26	  398.97
     33.5700	  606.00	  608.84	-1732.84	  398.65
     33.6700	  646.00	  663.07	-1747.07	  398.34
     33.7700	  683.00	  740.52	-1787.52	  398.02
     33.8700	  810.00	  833.86	-1753.86	  397.70
     33.9700	 1002.00	  921.46	-1649.46	  397.39
     34.0700	 1045.00	  968.57	-1653.57	  397.08
     34.1700	  990.00	  944.55	-1684.55	  396.77
     34.2700	  901.00	  858.75	-1687.75	  396.46
     34.3700	  823.00	  755.48	-1662.48	  396.15
     34.4700	  653.00	  668.13	-1745.13	  395.84
     34.5700	  585.00	  607.45	-1752.45	  395.53
     34.6700	  561.00	  570.73	-1739.73	  395.23
     34.7700	  557.00	  550.34	-1723.34	  394.92
     34.8700	  564.00	  539.13	-1705.13	  394.62
     34.9700	  562.00	  532.46	-1700.46	  394.32
     35.0700	  545.00	  528.03	-1713.03	  394.02
     35.1700	  489.00	  524.77	-1765.77	  393.72
     35.2700	  549.00	  522.22	-1703.22	  393.43
     35.3700	  542.00	  520.15	-1708.15	  393.13
     35.4700	  529.00	  518.45	-1719.45	  392.84
     35.5700	  513.00	  517.01	-1734.01	  392.54
     35.6700	  516.00	  515.77	-1729.77	  392.25
     35.7700	  510.00	  514.70	-1734.70	  391.96
     35.8700	  509.00	  513.76	-1734.76	  391.67
     35.9700	  473.00	  512.93	-1769.93	  391.39
     36.0700	  532.00	  512.64	-1710.64	  391.10
     36.1700	  527.00	  511.97	-1714.97	  390.82
     36.2700	  470.00	  511.37	-1771.37	  390.53
     36.3700	  502.00	  510.83	-1738.83	  390.25
     36.4700	  510.00	  510.34	-1730.34	  389.97
     36.5700	  522.00	  509.91	-1717.91	  389.69
     36.6700	  498.00	  509.53	-1741.53	  389.42
     36.7700	  514.00	  509.22	-1725.22	  389.14
     36.8700	  509.00	  509.00	-1730.00	  388.87
     36.9700	  514.00	  508.94	-1724.94	  388.60
     37.0700	  510.00	  509.18	-1729.18	  388.33
     37.1700	  471.00	  509.89	-1768.89	  388.06
     37.2700	  506.00	  511.34	-1735.34	  387.79
     37.3700	  550.00	  513.69	-1693.69	  387.53
     37.4700	  474.00	  516.86	-1772.86	  387.26
     37.5700	  517.00	  520.31	-1733.31	  387.00
     37.6700	  503.00	  522.92	-1749.92	  386.74
     37.7700	  543.00	  523.40	-1710.40	  386.48
     37.8700	  532.00	  521.32	-1719.32	  386.22
     37.9700	  499.00	  517.72	-1748.72	  385.97
     38.0700	  537.00	  513.92	-1706.92	  385.71
     38.1700	  513.00	  510.58	-1727.58	  385.46
     38.2700	  513.00	  507.95	-1724.95	  385.21
     38.3700	  533.00	  506.05	-1703.05	  384.96
     38.4700	  485.00	  504.90	-1749.90	  384.71
     38.5700	  508.00	  504.00	-1726.00	  384.47
     38.6700	  564.00	  503.35	-1669.35	  384.22
     38.7700	  507.00	  502.76	-1725.76	  383.98
     38.8700	  506.00	  502.36	-1726.36	  383.74
     38.9700	  491.00	  502.02	-1741.02	  383.50
     39.0700	  469.00	  501.71	-1762.71	  383.27
     39.1700	  501.00	  501.42	-1730.42	  383.03
     39.2700	  532.00	  501.15	-1699.15	  382.80
     39.3700	  477.00	  500.90	-1753.90	  382.57
     39.4700	  503.00	  500.66	-1727.66	  382.34
     39.5700	  455.00	  500.35	-1775.35	  382.11
     39.6700	  537.00	  500.14	-1693.14	  381.88
     39.7700	  486.00	  499.94	-1743.94	  381.66
     39.8700	  504.00	  499.75	-1725.75	  381.44
     39.9700	  499.00	  499.57	-1730.57	  381.22
     40.0700	  481.00	  499.41	-1748.41	  381.00
     40.1700	  498.00	  499.26	-1731.26	  380.78
     40.2700	  480.00	  499.12	-1749.12	  380.56
     40.3700	  492.00	  498.99	-1736.99	  380.35
     40.4700	  468.00	  498.88	-1760.88	  380.14
     40.5700	  476.00	  498.80	-1752.80	  379.93
     40.6700	  488.00	  498.73	-1740.73	  379.72
     40.7700	  464.00	  498.68	-1764.68	  379.52
