MSG Master    CELL:    5.91886   5.91886  23.27579   90.0000   90.0000  120.0000   SPGR: P 63/m m c             TEMP:   1074.85
  1   1280     2.52000     0.00000    -0.12684     0.00000     0.00000    0
    99     0     2
       0.00000      10.00000
     125.00000     130.00000
 2Theta	Yobs	Ycal	Yobs-Ycal	Backg	Posr	(hkl)	K
      0.7700	    0.00	  548.32	-1746.25	  430.96
      0.8700	    0.00	  549.00	-1746.25	  431.63
      0.9700	   38.00	  549.66	-1746.25	  432.29
      1.0700	   48.00	  550.31	-1746.25	  432.94
      1.1700	   50.00	  550.96	-1746.25	  433.59
      1.2700	   50.00	  551.59	-1746.25	  434.22
      1.3700	   45.00	  552.21	-1746.25	  434.84
      1.4700	   99.00	  552.82	-1746.25	  435.45
      1.5700	  274.00	  553.43	-1746.25	  436.06
      1.6700	  509.00	  554.02	-1746.25	  436.65
      1.7700	  589.00	  554.60	-1746.25	  437.23
      1.8700	  631.00	  555.17	-1746.25	  437.81
      1.9700	  713.00	  555.74	-1746.25	  438.37
      2.0700	  771.00	  556.29	-1746.25	  438.93
      2.1700	  863.00	  556.84	-1746.25	  439.47
      2.2700	  747.00	  557.37	-1746.25	  440.01
      2.3700	  765.00	  557.90	-1746.25	  440.53
      2.4700	  738.00	  558.42	-1746.25	  441.05
      2.5700	  695.00	  558.92	-1746.25	  441.56
      2.6700	  682.00	  559.42	-1746.25	  442.05
      2.7700	  634.00	  559.91	-1746.25	  442.54
      2.8700	  645.00	  560.39	-1746.25	  443.02
      2.9700	  635.00	  560.86	-1746.25	  443.50
      3.0700	  592.00	  561.33	-1746.25	  443.96
      3.1700	  564.00	  561.78	-1746.25	  444.41
      3.2700	  590.00	  562.23	-1746.25	  444.86
      3.3700	  599.00	  562.66	-1746.25	  445.29
      3.4700	  704.00	  563.09	-1746.25	  445.72
      3.5700	  805.00	  563.51	-1746.25	  446.14
      3.6700	  849.00	  563.92	-1746.25	  446.55
      3.7700	  940.00	  564.32	-1746.25	  446.95
      3.8700	  968.00	  564.72	-1746.25	  447.35
      3.9700	  989.00	  565.10	-1746.25	  447.73
      4.0700	 1100.00	  565.48	-1746.25	  448.11
      4.1700	 1096.00	  565.85	-1746.25	  448.48
      4.2700	 1077.00	  566.21	-1746.25	  448.84
      4.3700	 1098.00	  566.56	-1746.25	  449.19
      4.4700	 1074.00	  566.91	-1746.25	  449.54
      4.5700	 1054.00	  567.24	-1746.25	  449.88
      4.6700	 1026.00	  567.57	-1746.25	  450.20
      4.7700	 1062.00	  567.89	-1746.25	  450.53
      4.8700	 1005.00	  568.21	-1746.25	  450.84
      4.9700	  923.00	  568.51	-1746.25	  451.15
      5.0700	  951.00	  568.81	-1746.25	  451.44
      5.1700	  986.00	  569.10	-1746.25	  451.73
      5.2700	  902.00	  569.39	-1746.25	  452.02
      5.3700	  918.00	  569.66	-1746.25	  452.29
      5.4700	  890.00	  569.93	-1746.25	  452.56
      5.5700	  866.00	  570.19	-1746.25	  452.82
      5.6700	  834.00	  570.44	-1746.25	  453.07
      5.7700	  864.00	  570.69	-1746.25	  453.32
      5.8700	  805.00	  570.93	-1746.25	  453.56
      5.9700	  848.00	  571.16	-1746.25	  453.79
      6.0700	  809.00	  571.39	-1746.25	  454.02
      6.1700	  741.00	  571.60	-1746.25	  454.24
      6.2700	  770.00	  571.81	-1746.25	  454.45
      6.3700	  756.00	  572.02	-1746.25	  454.65
      6.4700	  695.00	  572.22	-1746.25	  454.85
      6.5700	  746.00	  572.41	-1746.25	  455.04
      6.6700	  767.00	  572.59	-1746.25	  455.22
      6.7700	  716.00	  572.77	-1746.25	  455.40
      6.8700	  694.00	  572.94	-1746.25	  455.57
      6.9700	  717.00	  573.10	-1746.25	  455.73
      7.0700	  661.00	  573.26	-1746.25	  455.89
      7.1700	  677.00	  573.41	-1746.25	  456.04
      7.2700	  700.00	  573.55	-1746.25	  456.19
      7.3700	  693.00	  573.69	-1746.25	  456.32
      7.4700	  634.00	  573.82	-1746.25	  456.46
      7.5700	  637.00	  573.95	-1746.25	  456.58
      7.6700	  665.00	  574.07	-1746.25	  456.70
      7.7700	  621.00	  574.18	-1746.25	  456.82
      7.8700	  614.00	  574.29	-1746.25	  456.92
      7.9700	  662.00	  574.39	-1746.25	  457.02
      8.0700	  663.00	  574.49	-1746.25	  457.12
      8.1700	  604.00	  574.58	-1746.25	  457.21
      8.2700	  650.00	  574.66	-1746.25	  457.29
      8.3700	  603.00	  574.74	-1746.25	  457.37
      8.4700	  641.00	  574.81	-1746.25	  457.44
      8.5700	  625.00	  574.88	-1746.25	  457.51
      8.6700	  638.00	  574.94	-1746.25	  457.57
      8.7700	  616.00	  574.99	-1746.25	  457.62
      8.8700	  646.00	  575.04	-1746.25	  457.67
      8.9700	  640.00	  575.09	-1746.25	  457.72
      9.0700	  603.00	  575.12	-1746.25	  457.76
      9.1700	  605.00	  575.16	-1746.25	  457.79
      9.2700	  576.00	  575.19	-1746.25	  457.82
      9.3700	  600.00	  575.21	-1746.25	  457.84
      9.4700	  630.00	  575.23	-1746.25	  457.86
      9.5700	  611.00	  575.24	-1746.25	  457.87
      9.6700	  607.00	  575.24	-1746.25	  457.88
      9.7700	  597.00	  575.25	-1746.25	  457.88
      9.8700	  611.00	  575.24	-1746.25	  457.87
      9.9700	  631.00	  575.23	-1746.25	  457.87
     10.0700	  598.00	  576.04	-1724.29	  457.85
     10.1700	  608.00	  576.11	-1714.36	  457.84
     10.2700	  592.00	  576.20	-1730.45	  457.81
     10.3700	  575.00	  576.31	-1747.56	  457.78
     10.4700	  570.00	  576.48	-1752.73	  457.75
     10.5700	  587.00	  576.76	-1736.01	  457.71
     10.6700	  565.00	  577.25	-1758.50	  457.67
     10.7700	  576.00	  578.06	-1748.31	  457.63
     10.8700	  559.00	  579.24	-1766.49	  457.58
     10.9700	  595.00	  580.80	-1732.05	  457.52
     11.0700	  581.00	  582.71	-1747.96	  457.46
     11.1700	  576.00	  584.95	-1755.20	  457.40
     11.2700	  555.00	  587.56	-1778.81	  457.33
     11.3700	  622.00	  590.63	-1714.88	  457.25
     11.4700	  568.00	  594.28	-1772.53	  457.18
     11.5700	  588.00	  598.72	-1756.97	  457.09
     11.6700	  584.00	  604.30	-1766.55	  457.01
     11.7700	  645.00	  611.62	-1712.87	  456.92
     11.8700	  694.00	  621.57	-1673.82	  456.82
     11.9700	  680.00	  634.73	-1700.98	  456.72
     12.0700	  647.00	  649.40	-1748.65	  456.62
     12.1700	  663.00	  659.49	-1742.74	  456.52
     12.2700	  651.00	  655.64	-1750.89	  456.41
     12.3700	  652.00	  635.41	-1729.66	  456.29
     12.4700	  637.00	  611.12	-1720.37	  456.17
     12.5700	  569.00	  593.42	-1770.67	  456.05
     12.6700	  606.00	  583.75	-1724.00	  455.93
     12.7700	  604.00	  579.32	-1721.57	  455.80
     12.8700	  556.00	  577.28	-1767.53	  455.66
     12.9700	  572.00	  576.15	-1750.40	  455.53
     13.0700	  558.00	  575.38	-1763.63	  455.39
     13.1700	  548.00	  574.78	-1773.03	  455.24
     13.2700	  554.00	  574.30	-1766.55	  455.09
     13.3700	  517.00	  573.89	-1803.14	  454.94
     13.4700	  579.00	  573.53	-1740.78	  454.79
     13.5700	  544.00	  573.21	-1775.46	  454.63
     13.6700	  593.00	  572.92	-1726.17	  454.47
     13.7700	  535.00	  572.65	-1783.90	  454.31
     13.8700	  563.00	  572.39	-1755.64	  454.14
     13.9700	  557.00	  572.14	-1761.39	  453.97
     14.0700	  582.00	  571.91	-1736.16	  453.79
     14.1700	  573.00	  571.67	-1744.92	  453.62
     14.2700	  587.00	  571.45	-1730.70	  453.44
     14.3700	  558.00	  571.22	-1759.47	  453.25
     14.4700	  537.00	  571.00	-1780.25	  453.07
     14.5700	  589.00	  570.78	-1728.03	  452.88
     14.6700	  519.00	  570.56	-1797.81	  452.69
     14.7700	  578.00	  570.34	-1738.59	  452.49
     14.8700	  575.00	  570.11	-1741.36	  452.29
     14.9700	  563.00	  569.89	-1753.14	  452.09
     15.0700	  587.00	  569.67	-1728.92	  451.89
     15.1700	  586.00	  569.45	-1729.70	  451.68
     15.2700	  575.00	  569.23	-1740.48	  451.47
     15.3700	  518.00	  569.00	-1797.25	  451.26
     15.4700	  582.00	  568.77	-1733.02	  451.05
     15.5700	  616.00	  568.55	-1698.80	  450.83
     15.6700	  575.00	  568.32	-1739.57	  450.61
     15.7700	  555.00	  568.08	-1759.33	  450.39
     15.8700	  596.00	  567.85	-1718.10	  450.16
     15.9700	  548.00	  567.61	-1765.86	  449.93
     16.0700	  582.00	  567.41	-1731.66	  449.70
     16.1700	  560.00	  567.17	-1753.42	  449.47
     16.2700	  609.00	  566.93	-1704.18	  449.24
     16.3700	  598.00	  566.69	-1714.94	  449.00
     16.4700	  591.00	  566.44	-1721.69	  448.76
     16.5700	  540.00	  566.20	-1772.45	  448.52
     16.6700	  525.00	  565.95	-1787.20	  448.28
     16.7700	  580.00	  565.70	-1731.95	  448.03
     16.8700	  558.00	  565.45	-1753.70	  447.78
     16.9700	  517.00	  565.20	-1794.45	  447.53
     17.0700	  547.00	  564.94	-1764.19	  447.28
     17.1700	  590.00	  564.68	-1720.93	  447.03
     17.2700	  584.00	  564.43	-1726.68	  446.77
     17.3700	  565.00	  564.17	-1745.42	  446.51
     17.4700	  567.00	  563.90	-1743.16	  446.25
     17.5700	  524.00	  563.64	-1785.89	  445.99
     17.6700	  559.00	  563.38	-1750.63	  445.73
     17.7700	  537.00	  563.11	-1772.36	  445.46
     17.8700	  550.00	  562.84	-1759.09	  445.20
     17.9700	  555.00	  562.67	-1753.92	  444.93
     18.0700	  587.00	  562.40	-1721.65	  444.66
     18.1700	  527.00	  562.13	-1781.38	  444.38
     18.2700	  594.00	  561.86	-1714.11	  444.11
     18.3700	  544.00	  561.58	-1763.83	  443.83
     18.4700	  545.00	  561.31	-1762.56	  443.56
     18.5700	  565.00	  561.03	-1742.28	  443.28
     18.6700	  577.00	  560.75	-1730.00	  443.00
     18.7700	  570.00	  560.47	-1736.72	  442.72
     18.8700	  564.00	  560.28	-1742.53	  442.43
     18.9700	  586.00	  560.00	-1720.25	  442.15
     19.0700	  596.00	  559.72	-1709.97	  441.86
     19.1700	  546.00	  559.44	-1759.69	  441.57
     19.2700	  583.00	  559.16	-1722.41	  441.28
     19.3700	  539.00	  558.87	-1766.12	  440.99
     19.4700	  552.00	  558.59	-1752.84	  440.70
     19.5700	  561.00	  558.30	-1743.55	  440.41
     19.6700	  544.00	  558.02	-1760.27	  440.11
     19.7700	  576.00	  557.73	-1727.98	  439.82
     19.8700	  525.00	  557.44	-1778.69	  439.52
     19.9700	  595.00	  557.15	-1708.40	  439.22
     20.0700	  529.00	  556.86	-1774.11	  438.93
     20.1700	  530.00	  556.57	-1772.82	  438.63
     20.2700	  548.00	  556.28	-1754.53	  438.32
     20.3700	  561.00	  555.99	-1741.24	  438.02
     20.4700	  512.00	  555.70	-1789.95	  437.72
     20.5700	  569.00	  555.41	-1732.66	  437.41
     20.6700	  572.00	  555.09	-1729.34	  437.11
     20.7700	  554.00	  554.79	-1747.04	  436.80
     20.8700	  555.00	  554.54	-1745.79	  436.50
     20.9700	  552.00	  554.25	-1748.50	  436.19
     21.0700	  570.00	  553.96	-1730.21	  435.88
     21.1700	  543.00	  553.67	-1756.92	  435.57
     21.2700	  577.00	  553.38	-1722.63	  435.26
     21.3700	  543.00	  553.09	-1756.34	  434.95
     21.4700	  560.00	  552.80	-1739.05	  434.64
     21.5700	  553.00	  552.51	-1745.76	  434.33
     21.6700	  567.00	  552.23	-1731.48	  434.01
     21.7700	  572.00	  551.94	-1726.19	  433.70
     21.8700	  545.00	  551.66	-1752.91	  433.38
     21.9700	  526.00	  551.37	-1771.62	  433.07
     22.0700	  572.00	  551.09	-1725.34	  432.75
     22.1700	  554.00	  550.82	-1743.07	  432.44
     22.2700	  557.00	  550.54	-1739.79	  432.12
     22.3700	  566.00	  550.27	-1730.52	  431.80
     22.4700	  560.00	  550.01	-1736.26	  431.49
     22.5700	  544.00	  549.74	-1751.99	  431.17
     22.6700	  527.00	  549.49	-1768.74	  430.85
     22.7700	  554.00	  549.24	-1741.49	  430.53
     22.8700	  533.00	  549.00	-1762.25	  430.21
     22.9700	  522.00	  548.77	-1773.02	  429.89
     23.0700	  557.00	  548.56	-1737.81	  429.57
     23.1700	  548.00	  548.36	-1746.61	  429.25
     23.2700	  541.00	  548.18	-1753.43	  428.93
     23.3700	  535.00	  548.04	-1759.29	  428.61
     23.4700	  524.00	  547.92	-1770.17	  428.29
     23.5700	  532.00	  547.86	-1762.11	  427.97
     23.6700	  554.00	  548.00	-1740.25	  427.65
     23.7700	  566.00	  548.14	-1728.39	  427.33
     23.8700	  563.00	  548.50	-1731.75	  427.00
     23.9700	  521.00	  549.34	-1774.59	  426.68
     24.0700	  528.00	  551.08	-1769.33	  426.36
     24.1700	  555.00	  554.43	-1745.68	  426.04
     24.2700	  579.00	  560.22	-1727.47	  425.72
     24.3700	  584.00	  569.45	-1731.70	  425.39
     24.4700	  574.00	  583.11	-1755.36	  425.07
     24.5700	  608.00	  601.31	-1739.56	  424.75
     24.6700	  631.00	  620.99	-1736.24	  424.43
     24.7700	  596.00	  634.08	-1784.33	  424.11
     24.8700	  610.00	  630.16	-1766.41	  423.78
     24.9700	  601.00	  608.61	-1753.86	  423.46
     25.0700	  583.00	  583.13	-1746.38	  423.14
     25.1700	  560.00	  564.20	-1750.45	  422.82
     25.2700	  591.00	  553.50	-1708.75	  422.50
     25.3700	  589.00	  548.42	-1705.67	  422.18
     25.4700	  554.00	  546.08	-1738.33	  421.86
     25.5700	  517.00	  544.83	-1774.08	  421.54
     25.6700	  580.00	  544.02	-1710.27	  421.21
     25.7700	  547.00	  543.42	-1742.67	  420.89
     25.8700	  596.00	  542.97	-1693.22	  420.57
     25.9700	  534.00	  542.63	-1754.88	  420.25
     26.0700	  541.00	  542.38	-1747.63	  419.94
     26.1700	  564.00	  542.21	-1724.46	  419.62
     26.2700	  561.00	  542.11	-1727.36	  419.30
     26.3700	  558.00	  542.10	-1730.34	  418.98
     26.4700	  531.00	  542.16	-1757.41	  418.66
     26.5700	  555.00	  542.32	-1733.57	  418.34
     26.6700	  556.00	  542.59	-1732.84	  418.03
     26.7700	  518.00	  543.00	-1771.25	  417.71
     26.8700	  547.00	  543.57	-1742.82	  417.39
     26.9700	  560.00	  544.36	-1730.61	  417.08
     27.0700	  562.00	  545.45	-1729.70	  416.76
     27.1700	  539.00	  546.95	-1754.20	  416.45
     27.2700	  548.00	  549.12	-1747.37	  416.13
     27.3700	  509.00	  552.42	-1789.67	  415.82
     27.4700	  560.00	  557.80	-1744.05	  415.51
     27.5700	  589.00	  566.93	-1724.18	  415.19
     27.6700	  590.00	  582.44	-1738.69	  414.88
     27.7700	  584.00	  607.76	-1770.01	  414.57
     27.8700	  597.00	  645.87	-1795.12	  414.26
     27.9700	  645.00	  696.92	-1798.17	  413.95
     28.0700	  824.00	  755.19	-1677.44	  413.64
     28.1700	  897.00	  806.33	-1655.58	  413.33
     28.2700	  927.00	  828.80	-1648.05	  413.03
     28.3700	  861.00	  809.91	-1695.16	  412.72
     28.4700	  786.00	  770.40	-1730.65	  412.41
     28.5700	  716.00	  744.54	-1774.79	  412.11
     28.6700	  674.00	  747.97	-1820.22	  411.80
     28.7700	  774.00	  775.64	-1747.89	  411.50
     28.8700	  804.00	  807.06	-1749.31	  411.19
     28.9700	  827.00	  813.08	-1732.33	  410.89
     29.0700	  799.00	  775.07	-1722.32	  410.59
     29.1700	  721.00	  709.41	-1734.66	  410.29
     29.2700	  660.00	  646.49	-1732.74	  409.99
     29.3700	  599.00	  600.95	-1748.20	  409.69
     29.4700	  564.00	  573.36	-1755.61	  409.39
     29.5700	  607.00	  558.43	-1697.68	  409.09
     29.6700	  630.00	  550.56	-1666.81	  408.80
     29.7700	  550.00	  546.12	-1742.37	  408.50
     29.8700	  579.00	  543.37	-1710.62	  408.21
     29.9700	  566.00	  541.62	-1721.87	  407.91
     30.0700	  590.00	  540.71	-1696.96	  407.62
     30.1700	  594.00	  540.78	-1693.03	  407.33
     30.2700	  538.00	  542.37	-1750.62	  407.04
     30.3700	  583.00	  546.49	-1709.74	  406.75
     30.4700	  580.00	  554.74	-1720.99	  406.46
     30.5700	  544.00	  568.74	-1770.99	  406.17
     30.6700	  591.00	  588.93	-1744.18	  405.89
     30.7700	  618.00	  612.80	-1741.05	  405.60
     30.8700	  661.00	  633.58	-1718.83	  405.32
     30.9700	  604.00	  640.97	-1783.22	  405.03
     31.0700	  602.00	  627.85	-1772.10	  404.75
     31.1700	  600.00	  601.08	-1747.33	  404.47
     31.2700	  556.00	  574.12	-1764.37	  404.19
     31.3700	  569.00	  554.14	-1731.39	  403.91
     31.4700	  546.00	  541.93	-1742.18	  403.63
     31.5700	  571.00	  535.37	-1710.62	  403.36
     31.6700	  534.00	  531.98	-1744.23	  403.08
     31.7700	  537.00	  530.10	-1739.35	  402.81
     31.8700	  543.00	  528.91	-1732.16	  402.54
     31.9700	  535.00	  528.10	-1739.35	  402.26
     32.0700	  556.00	  527.51	-1717.76	  401.99
     32.1700	  541.00	  527.12	-1732.37	  401.72
     32.2700	  541.00	  526.88	-1732.13	  401.46
     32.3700	  505.00	  526.79	-1768.04	  401.19
     32.4700	  576.00	  526.86	-1697.11	  400.92
     32.5700	  562.00	  527.10	-1711.35	  400.66
     32.6700	  517.00	  527.54	-1756.79	  400.40
     32.7700	  572.00	  528.22	-1702.47	  400.13
     32.8700	  542.00	  529.21	-1733.46	  399.87
     32.9700	  547.00	  530.63	-1729.88	  399.61
     33.0700	  534.00	  532.70	-1744.95	  399.36
     33.1700	  521.00	  535.86	-1761.11	  399.10
     33.2700	  529.00	  541.18	-1758.43	  398.84
     33.3700	  558.00	  550.91	-1739.16	  398.59
     33.4700	  569.00	  569.36	-1746.61	  398.34
     33.5700	  592.00	  603.32	-1757.57	  398.09
     33.6700	  611.00	  660.49	-1795.74	  397.84
     33.7700	  753.00	  744.25	-1737.50	  397.59
     33.8700	  864.00	  845.36	-1727.61	  397.34
     33.9700	 1010.00	  936.77	-1673.02	  397.10
     34.0700	 1070.00	  977.03	-1653.28	  396.85
     34.1700	  991.00	  935.71	-1690.96	  396.61
     34.2700	  876.00	  834.12	-1704.37	  396.37
     34.3700	  809.00	  724.61	-1661.86	  396.13
     34.4700	  636.00	  639.52	-1749.77	  395.89
     34.5700	  535.00	  585.71	-1796.96	  395.65
     34.6700	  572.00	  556.37	-1730.62	  395.42
     34.7700	  557.00	  541.53	-1730.78	  395.18
     34.8700	  535.00	  533.76	-1745.01	  394.95
     34.9700	  516.00	  529.13	-1759.38	  394.72
     35.0700	  571.00	  525.93	-1701.18	  394.49
     35.1700	  533.00	  523.54	-1736.79	  394.26
     35.2700	  550.00	  521.64	-1717.89	  394.03
     35.3700	  506.00	  520.09	-1760.34	  393.81
     35.4700	  529.00	  518.81	-1736.06	  393.58
     35.5700	  522.00	  517.73	-1741.98	  393.36
     35.6700	  534.00	  516.80	-1729.05	  393.14
     35.7700	  476.00	  515.99	-1786.24	  392.92
     35.8700	  501.00	  515.28	-1760.53	  392.70
     35.9700	  481.00	  515.12	-1780.37	  392.49
     36.0700	  455.00	  514.56	-1805.81	  392.27
     36.1700	  491.00	  514.06	-1769.31	  392.06
     36.2700	  520.00	  513.61	-1739.86	  391.85
     36.3700	  512.00	  513.19	-1747.44	  391.64
     36.4700	  547.00	  512.82	-1712.07	  391.43
     36.5700	  482.00	  512.49	-1776.74	  391.22
     36.6700	  524.00	  512.20	-1734.45	  391.02
     36.7700	  508.00	  511.95	-1750.20	  390.82
     36.8700	  510.00	  511.77	-1748.02	  390.61
     36.9700	  547.00	  511.71	-1710.96	  390.41
     37.0700	  516.00	  511.90	-1742.15	  390.21
     37.1700	  534.00	  512.55	-1724.80	  390.02
     37.2700	  554.00	  513.98	-1706.23	  389.82
     37.3700	  512.00	  516.51	-1750.76	  389.63
     37.4700	  522.00	  520.13	-1744.38	  389.44
     37.5700	  542.00	  524.21	-1728.46	  389.24
     37.6700	  548.00	  527.50	-1725.75	  389.06
     37.7700	  538.00	  528.55	-1736.80	  388.87
     37.8700	  482.00	  527.09	-1791.34	  388.68
     37.9700	  473.00	  524.21	-1797.46	  388.50
     38.0700	  548.00	  520.85	-1719.10	  388.32
     38.1700	  536.00	  517.37	-1727.62	  388.13
     38.2700	  558.00	  514.16	-1702.41	  387.96
     38.3700	  500.00	  511.61	-1757.86	  387.78
     38.4700	  517.00	  509.80	-1739.05	  387.60
     38.5700	  505.00	  508.62	-1749.87	  387.43
     38.6700	  484.00	  507.88	-1770.13	  387.25
     38.7700	  470.00	  507.31	-1783.56	  387.08
     38.8700	  490.00	  506.97	-1763.22	  386.91
     38.9700	  477.00	  506.70	-1775.95	  386.75
     39.0700	  506.00	  506.46	-1746.71	  386.58
     39.1700	  486.00	  506.25	-1766.50	  386.42
     39.2700	  515.00	  505.97	-1737.22	  386.25
     39.3700	  479.00	  505.79	-1773.04	  386.09
     39.4700	  500.00	  505.76	-1752.01	  385.93
     39.5700	  501.00	  505.60	-1750.85	  385.78
     39.6700	  537.00	  505.46	-1714.71	  385.62
     39.7700	  503.00	  505.33	-1748.58	  385.47
     39.8700	  521.00	  505.20	-1730.45	  385.31
     39.9700	  489.00	  505.09	-1762.34	  385.16
     40.0700	  479.00	  504.99	-1772.24	  385.01
     40.1700	  505.00	  504.89	-1746.14	  384.87
     40.2700	  507.00	  504.81	-1744.06	  384.72
     40.3700	  530.00	  504.74	-1720.99	  384.58
     40.4700	  509.00	  504.68	-1741.93	  384.44
     40.5700	  475.00	  504.64	-1775.89	  384.30
     40.6700	  543.00	  504.61	-1707.86	  384.16
     40.7700	  522.00	  504.61	-1728.86	  384.02
