MSG Master    CELL:    5.91950   5.91950  23.27047   90.0000   90.0000  120.0000   SPGR: P 63/m m c             TEMP:   1074.85
  1   1280     2.52000     0.00000    -0.12377     0.00000     0.00000    0
    99     0     2
       0.00000      10.00000
     125.00000     130.00000
 2Theta	Yobs	Ycal	Yobs-Ycal	Backg	Posr	(hkl)	K
      0.7700	    0.00	  561.27	-1764.25	  442.13
      0.8700	    0.00	  561.82	-1764.25	  442.68
      0.9700	   40.00	  562.37	-1764.25	  443.22
      1.0700	   52.00	  562.90	-1764.25	  443.76
      1.1700	   42.00	  563.42	-1764.25	  444.28
      1.2700	   44.00	  563.94	-1764.25	  444.80
      1.3700	   49.00	  564.45	-1764.25	  445.30
      1.4700	   97.00	  564.94	-1764.25	  445.80
      1.5700	  331.00	  565.43	-1764.25	  446.29
      1.6700	  434.00	  565.91	-1764.25	  446.76
      1.7700	  583.00	  566.38	-1764.25	  447.23
      1.8700	  640.00	  566.84	-1764.25	  447.69
      1.9700	  722.00	  567.29	-1764.25	  448.14
      2.0700	  731.00	  567.73	-1764.25	  448.59
      2.1700	  752.00	  568.16	-1764.25	  449.02
      2.2700	  788.00	  568.59	-1764.25	  449.45
      2.3700	  764.00	  569.01	-1764.25	  449.86
      2.4700	  738.00	  569.41	-1764.25	  450.27
      2.5700	  674.00	  569.81	-1764.25	  450.67
      2.6700	  676.00	  570.20	-1764.25	  451.06
      2.7700	  658.00	  570.59	-1764.25	  451.44
      2.8700	  652.00	  570.96	-1764.25	  451.82
      2.9700	  628.00	  571.33	-1764.25	  452.18
      3.0700	  621.00	  571.68	-1764.25	  452.54
      3.1700	  599.00	  572.03	-1764.25	  452.89
      3.2700	  633.00	  572.38	-1764.25	  453.23
      3.3700	  674.00	  572.71	-1764.25	  453.57
      3.4700	  727.00	  573.03	-1764.25	  453.89
      3.5700	  826.00	  573.35	-1764.25	  454.21
      3.6700	  918.00	  573.66	-1764.25	  454.52
      3.7700	  923.00	  573.96	-1764.25	  454.82
      3.8700	  947.00	  574.26	-1764.25	  455.11
      3.9700	 1013.00	  574.55	-1764.25	  455.40
      4.0700	 1091.00	  574.82	-1764.25	  455.68
      4.1700	 1084.00	  575.10	-1764.25	  455.95
      4.2700	 1081.00	  575.36	-1764.25	  456.22
      4.3700	 1051.00	  575.62	-1764.25	  456.47
      4.4700	 1081.00	  575.87	-1764.25	  456.72
      4.5700	 1035.00	  576.11	-1764.25	  456.96
      4.6700	  994.00	  576.34	-1764.25	  457.20
      4.7700	 1038.00	  576.57	-1764.25	  457.43
      4.8700	 1077.00	  576.79	-1764.25	  457.65
      4.9700	  999.00	  577.00	-1764.25	  457.86
      5.0700	  914.00	  577.21	-1764.25	  458.07
      5.1700	  905.00	  577.41	-1764.25	  458.26
      5.2700	  855.00	  577.60	-1764.25	  458.46
      5.3700	  901.00	  577.79	-1764.25	  458.64
      5.4700	  842.00	  577.96	-1764.25	  458.82
      5.5700	  845.00	  578.14	-1764.25	  458.99
      5.6700	  876.00	  578.30	-1764.25	  459.16
      5.7700	  828.00	  578.46	-1764.25	  459.32
      5.8700	  798.00	  578.61	-1764.25	  459.47
      5.9700	  821.00	  578.76	-1764.25	  459.61
      6.0700	  811.00	  578.90	-1764.25	  459.75
      6.1700	  787.00	  579.03	-1764.25	  459.89
      6.2700	  795.00	  579.16	-1764.25	  460.01
      6.3700	  778.00	  579.28	-1764.25	  460.13
      6.4700	  782.00	  579.39	-1764.25	  460.25
      6.5700	  746.00	  579.50	-1764.25	  460.35
      6.6700	  733.00	  579.60	-1764.25	  460.46
      6.7700	  705.00	  579.69	-1764.25	  460.55
      6.8700	  783.00	  579.78	-1764.25	  460.64
      6.9700	  693.00	  579.87	-1764.25	  460.72
      7.0700	  722.00	  579.94	-1764.25	  460.80
      7.1700	  685.00	  580.02	-1764.25	  460.87
      7.2700	  648.00	  580.08	-1764.25	  460.94
      7.3700	  642.00	  580.14	-1764.25	  461.00
      7.4700	  641.00	  580.20	-1764.25	  461.05
      7.5700	  671.00	  580.24	-1764.25	  461.10
      7.6700	  635.00	  580.29	-1764.25	  461.14
      7.7700	  669.00	  580.32	-1764.25	  461.18
      7.8700	  646.00	  580.36	-1764.25	  461.21
      7.9700	  621.00	  580.38	-1764.25	  461.24
      8.0700	  594.00	  580.40	-1764.25	  461.26
      8.1700	  667.00	  580.42	-1764.25	  461.27
      8.2700	  628.00	  580.43	-1764.25	  461.28
      8.3700	  639.00	  580.43	-1764.25	  461.29
      8.4700	  650.00	  580.43	-1764.25	  461.29
      8.5700	  629.00	  580.43	-1764.25	  461.28
      8.6700	  662.00	  580.42	-1764.25	  461.27
      8.7700	  625.00	  580.40	-1764.25	  461.26
      8.8700	  636.00	  580.38	-1764.25	  461.24
      8.9700	  596.00	  580.36	-1764.25	  461.21
      9.0700	  597.00	  580.32	-1764.25	  461.18
      9.1700	  614.00	  580.29	-1764.25	  461.15
      9.2700	  603.00	  580.25	-1764.25	  461.11
      9.3700	  650.00	  580.20	-1764.25	  461.06
      9.4700	  649.00	  580.15	-1764.25	  461.01
      9.5700	  621.00	  580.10	-1764.25	  460.96
      9.6700	  614.00	  580.04	-1764.25	  460.90
      9.7700	  632.00	  579.98	-1764.25	  460.83
      9.8700	  656.00	  579.91	-1764.25	  460.77
      9.9700	  587.00	  579.84	-1764.25	  460.69
     10.0700	  601.00	  580.49	-1743.74	  460.62
     10.1700	  598.00	  580.48	-1746.73	  460.53
     10.2700	  595.00	  580.49	-1749.74	  460.45
     10.3700	  578.00	  580.52	-1766.77	  460.36
     10.4700	  612.00	  580.60	-1732.85	  460.26
     10.5700	  575.00	  580.78	-1770.03	  460.16
     10.6700	  599.00	  581.17	-1746.42	  460.06
     10.7700	  549.00	  581.88	-1797.13	  459.95
     10.8700	  622.00	  582.99	-1725.24	  459.84
     10.9700	  570.00	  584.49	-1778.74	  459.73
     11.0700	  584.00	  586.35	-1766.60	  459.61
     11.1700	  591.00	  588.54	-1761.79	  459.48
     11.2700	  603.00	  591.10	-1752.35	  459.36
     11.3700	  588.00	  594.12	-1770.37	  459.23
     11.4700	  608.00	  597.71	-1753.96	  459.09
     11.5700	  594.00	  602.10	-1772.35	  458.95
     11.6700	  556.00	  607.61	-1815.86	  458.81
     11.7700	  594.00	  614.87	-1785.12	  458.66
     11.8700	  661.00	  624.89	-1728.14	  458.52
     11.9700	  644.00	  638.58	-1758.83	  458.36
     12.0700	  676.00	  654.66	-1742.92	  458.20
     12.1700	  676.00	  666.70	-1754.95	  458.04
     12.2700	  683.00	  663.90	-1745.15	  457.88
     12.3700	  655.00	  642.39	-1751.64	  457.71
     12.4700	  654.00	  615.64	-1725.89	  457.54
     12.5700	  654.00	  596.29	-1706.54	  457.37
     12.6700	  618.00	  586.13	-1732.38	  457.19
     12.7700	  613.00	  581.72	-1732.97	  457.01
     12.8700	  595.00	  579.78	-1749.03	  456.83
     12.9700	  543.00	  578.70	-1799.95	  456.64
     13.0700	  550.00	  577.94	-1792.19	  456.45
     13.1700	  593.00	  577.34	-1748.59	  456.25
     13.2700	  600.00	  576.84	-1741.09	  456.06
     13.3700	  598.00	  576.41	-1742.66	  455.86
     13.4700	  547.00	  576.03	-1793.28	  455.66
     13.5700	  556.00	  575.68	-1783.93	  455.45
     13.6700	  576.00	  575.35	-1763.60	  455.24
     13.7700	  581.00	  575.04	-1758.29	  455.03
     13.8700	  561.00	  574.75	-1778.00	  454.82
     13.9700	  528.00	  574.46	-1810.71	  454.60
     14.0700	  590.00	  574.19	-1748.44	  454.38
     14.1700	  513.00	  573.91	-1825.16	  454.16
     14.2700	  625.00	  573.65	-1712.90	  453.93
     14.3700	  584.00	  573.38	-1753.63	  453.70
     14.4700	  581.00	  573.12	-1756.37	  453.47
     14.5700	  576.00	  572.86	-1761.11	  453.24
     14.6700	  573.00	  572.60	-1763.85	  453.00
     14.7700	  567.00	  572.34	-1769.59	  452.76
     14.8700	  540.00	  572.08	-1796.33	  452.52
     14.9700	  571.00	  571.81	-1765.06	  452.28
     15.0700	  587.00	  571.55	-1748.80	  452.03
     15.1700	  548.00	  571.29	-1787.54	  451.79
     15.2700	  563.00	  571.03	-1772.28	  451.54
     15.3700	  523.00	  570.76	-1812.01	  451.28
     15.4700	  535.00	  570.50	-1799.75	  451.03
     15.5700	  576.00	  570.23	-1758.48	  450.77
     15.6700	  541.00	  569.96	-1793.21	  450.51
     15.7700	  534.00	  569.69	-1799.94	  450.25
     15.8700	  557.00	  569.42	-1776.67	  449.99
     15.9700	  536.00	  569.15	-1797.40	  449.72
     16.0700	  579.00	  568.87	-1754.12	  449.45
     16.1700	  562.00	  568.60	-1770.85	  449.18
     16.2700	  595.00	  568.32	-1737.57	  448.91
     16.3700	  573.00	  568.07	-1759.32	  448.64
     16.4700	  566.00	  567.79	-1766.04	  448.36
     16.5700	  582.00	  567.51	-1749.76	  448.08
     16.6700	  567.00	  567.22	-1764.47	  447.81
     16.7700	  590.00	  566.94	-1741.19	  447.52
     16.8700	  606.00	  566.65	-1724.90	  447.24
     16.9700	  606.00	  566.37	-1724.62	  446.96
     17.0700	  544.00	  566.08	-1786.33	  446.67
     17.1700	  569.00	  565.79	-1761.04	  446.38
     17.2700	  573.00	  565.49	-1756.74	  446.09
     17.3700	  574.00	  565.20	-1755.45	  445.80
     17.4700	  546.00	  564.91	-1783.16	  445.51
     17.5700	  537.00	  564.61	-1791.86	  445.21
     17.6700	  547.00	  564.31	-1781.56	  444.92
     17.7700	  498.00	  564.01	-1830.26	  444.62
     17.8700	  528.00	  563.71	-1799.96	  444.32
     17.9700	  520.00	  563.41	-1807.66	  444.02
     18.0700	  549.00	  563.21	-1778.46	  443.72
     18.1700	  551.00	  562.91	-1776.16	  443.42
     18.2700	  575.00	  562.61	-1751.86	  443.11
     18.3700	  543.00	  562.30	-1783.55	  442.80
     18.4700	  541.00	  562.00	-1785.25	  442.50
     18.5700	  574.00	  561.69	-1751.94	  442.19
     18.6700	  578.00	  561.38	-1747.63	  441.88
     18.7700	  559.00	  561.08	-1766.33	  441.57
     18.8700	  551.00	  560.77	-1774.02	  441.26
     18.9700	  570.00	  560.54	-1754.79	  440.94
     19.0700	  561.00	  560.23	-1763.48	  440.63
     19.1700	  562.00	  559.92	-1762.17	  440.31
     19.2700	  523.00	  559.61	-1800.86	  440.00
     19.3700	  505.00	  559.30	-1818.55	  439.68
     19.4700	  529.00	  558.99	-1794.24	  439.36
     19.5700	  564.00	  558.67	-1758.92	  439.04
     19.6700	  582.00	  558.36	-1740.61	  438.72
     19.7700	  530.00	  558.05	-1792.30	  438.40
     19.8700	  557.00	  557.73	-1764.98	  438.08
     19.9700	  609.00	  557.42	-1712.67	  437.76
     20.0700	  533.00	  557.10	-1788.35	  437.43
     20.1700	  548.00	  556.79	-1773.04	  437.11
     20.2700	  558.00	  556.47	-1762.72	  436.78
     20.3700	  540.00	  556.13	-1780.38	  436.46
     20.4700	  562.00	  555.81	-1758.06	  436.13
     20.5700	  523.00	  555.50	-1796.75	  435.80
     20.6700	  570.00	  555.18	-1749.43	  435.47
     20.7700	  547.00	  554.86	-1772.11	  435.15
     20.8700	  545.00	  554.55	-1773.80	  434.82
     20.9700	  510.00	  554.27	-1808.52	  434.49
     21.0700	  578.00	  553.95	-1740.20	  434.16
     21.1700	  520.00	  553.64	-1797.89	  433.82
     21.2700	  579.00	  553.33	-1738.58	  433.49
     21.3700	  562.00	  553.02	-1755.27	  433.16
     21.4700	  551.00	  552.70	-1765.95	  432.83
     21.5700	  575.00	  552.39	-1741.64	  432.50
     21.6700	  556.00	  552.08	-1760.33	  432.16
     21.7700	  524.00	  551.77	-1792.02	  431.83
     21.8700	  526.00	  551.47	-1789.72	  431.49
     21.9700	  562.00	  551.16	-1753.41	  431.16
     22.0700	  568.00	  550.86	-1747.11	  430.82
     22.1700	  556.00	  550.56	-1758.81	  430.49
     22.2700	  558.00	  550.26	-1756.51	  430.15
     22.3700	  527.00	  549.97	-1787.22	  429.82
     22.4700	  528.00	  549.67	-1785.92	  429.48
     22.5700	  532.00	  549.39	-1781.64	  429.15
     22.6700	  558.00	  549.11	-1755.36	  428.81
     22.7700	  536.00	  548.83	-1777.08	  428.47
     22.8700	  550.00	  548.56	-1762.81	  428.14
     22.9700	  533.00	  548.31	-1779.56	  427.80
     23.0700	  559.00	  548.06	-1753.31	  427.47
     23.1700	  550.00	  547.83	-1762.08	  427.13
     23.2700	  560.00	  547.61	-1751.86	  426.79
     23.3700	  550.00	  547.42	-1761.67	  426.46
     23.4700	  563.00	  547.26	-1748.51	  426.12
     23.5700	  616.00	  547.14	-1695.39	  425.78
     23.6700	  585.00	  547.08	-1726.33	  425.45
     23.7700	  542.00	  547.12	-1769.37	  425.11
     23.8700	  540.00	  547.47	-1771.72	  424.77
     23.9700	  567.00	  548.10	-1745.35	  424.44
     24.0700	  550.00	  549.54	-1763.79	  424.10
     24.1700	  577.00	  552.47	-1739.72	  423.76
     24.2700	  586.00	  557.74	-1735.99	  423.43
     24.3700	  553.00	  566.32	-1777.57	  423.09
     24.4700	  618.00	  579.35	-1725.60	  422.76
     24.5700	  554.00	  597.41	-1807.66	  422.42
     24.6700	  641.00	  617.96	-1741.21	  422.09
     24.7700	  598.00	  632.90	-1799.15	  421.75
     24.8700	  631.00	  630.72	-1763.97	  421.42
     24.9700	  583.00	  609.22	-1790.47	  421.08
     25.0700	  605.00	  582.52	-1741.77	  420.75
     25.1700	  545.00	  562.66	-1781.91	  420.42
     25.2700	  589.00	  551.77	-1727.02	  420.08
     25.3700	  527.00	  546.86	-1784.11	  419.75
     25.4700	  585.00	  544.71	-1723.96	  419.42
     25.5700	  530.00	  543.59	-1777.84	  419.09
     25.6700	  557.00	  542.86	-1750.11	  418.75
     25.7700	  521.00	  542.31	-1785.56	  418.42
     25.8700	  586.00	  541.90	-1720.15	  418.09
     25.9700	  567.00	  541.58	-1738.83	  417.76
     26.0700	  541.00	  541.34	-1764.59	  417.43
     26.1700	  578.00	  541.17	-1727.42	  417.11
     26.2700	  551.00	  541.08	-1754.33	  416.78
     26.3700	  535.00	  541.06	-1770.31	  416.45
     26.4700	  546.00	  541.12	-1759.37	  416.12
     26.5700	  525.00	  541.27	-1780.52	  415.80
     26.6700	  628.00	  541.53	-1677.78	  415.47
     26.7700	  568.00	  541.92	-1738.17	  415.14
     26.8700	  558.00	  542.48	-1748.73	  414.82
     26.9700	  598.00	  543.25	-1709.50	  414.50
     27.0700	  534.00	  544.31	-1774.56	  414.17
     27.1700	  573.00	  545.79	-1737.04	  413.85
     27.2700	  555.00	  547.93	-1757.18	  413.53
     27.3700	  598.00	  551.21	-1717.46	  413.21
     27.4700	  575.00	  556.58	-1745.83	  412.89
     27.5700	  521.00	  565.72	-1808.97	  412.57
     27.6700	  534.00	  581.32	-1811.57	  412.25
     27.7700	  587.00	  606.85	-1784.10	  411.93
     27.8700	  612.00	  645.34	-1797.59	  411.61
     27.9700	  676.00	  696.96	-1785.21	  411.30
     28.0700	  793.00	  755.86	-1727.11	  410.98
     28.1700	  844.00	  807.35	-1727.60	  410.67
     28.2700	  982.00	  829.30	-1611.55	  410.35
     28.3700	  920.00	  808.58	-1652.83	  410.04
     28.4700	  801.00	  766.04	-1729.29	  409.73
     28.5700	  708.00	  736.44	-1792.69	  409.42
     28.6700	  681.00	  735.79	-1819.04	  409.11
     28.7700	  734.00	  759.56	-1789.81	  408.80
     28.8700	  753.00	  788.09	-1799.34	  408.49
     28.9700	  842.00	  793.41	-1715.66	  408.18
     29.0700	  773.00	  757.52	-1748.77	  407.88
     29.1700	  679.00	  695.69	-1780.94	  407.57
     29.2700	  641.00	  636.66	-1759.91	  407.27
     29.3700	  597.00	  594.18	-1761.43	  406.96
     29.4700	  603.00	  568.66	-1729.91	  406.66
     29.5700	  633.00	  554.98	-1686.23	  406.36
     29.6700	  603.00	  547.80	-1709.05	  406.06
     29.7700	  582.00	  543.75	-1726.00	  405.76
     29.8700	  608.00	  541.23	-1697.48	  405.46
     29.9700	  545.00	  539.62	-1758.87	  405.17
     30.0700	  571.00	  538.80	-1732.05	  404.87
     30.1700	  602.00	  538.90	-1701.15	  404.58
     30.2700	  556.00	  540.47	-1748.72	  404.28
     30.3700	  521.00	  544.57	-1787.82	  403.99
     30.4700	  597.00	  552.82	-1720.07	  403.70
     30.5700	  545.00	  567.00	-1786.25	  403.41
     30.6700	  539.00	  587.72	-1812.97	  403.12
     30.7700	  581.00	  612.51	-1795.76	  402.83
     30.8700	  622.00	  634.36	-1776.61	  402.55
     30.9700	  614.00	  642.41	-1792.66	  402.26
     31.0700	  649.00	  629.04	-1744.29	  401.98
     31.1700	  605.00	  601.24	-1760.49	  401.70
     31.2700	  567.00	  573.29	-1770.54	  401.42
     31.3700	  570.00	  552.72	-1746.97	  401.14
     31.4700	  569.00	  540.33	-1735.58	  400.86
     31.5700	  543.00	  533.79	-1755.04	  400.58
     31.6700	  506.00	  530.48	-1788.73	  400.30
     31.7700	  554.00	  528.65	-1738.90	  400.03
     31.8700	  529.00	  527.50	-1762.75	  399.75
     31.9700	  528.00	  526.70	-1762.95	  399.48
     32.0700	  560.00	  526.12	-1730.37	  399.21
     32.1700	  523.00	  525.73	-1766.98	  398.94
     32.2700	  553.00	  525.48	-1736.73	  398.67
     32.3700	  574.00	  525.39	-1715.64	  398.41
     32.4700	  541.00	  525.44	-1748.69	  398.14
     32.5700	  537.00	  525.65	-1752.90	  397.88
     32.6700	  563.00	  526.05	-1727.30	  397.61
     32.7700	  541.00	  526.69	-1749.94	  397.35
     32.8700	  588.00	  527.62	-1703.87	  397.09
     32.9700	  532.00	  528.95	-1761.20	  396.84
     33.0700	  550.00	  530.89	-1745.14	  396.58
     33.1700	  565.00	  533.86	-1733.11	  396.32
     33.2700	  542.00	  538.86	-1761.11	  396.07
     33.3700	  500.00	  548.13	-1812.38	  395.82
     33.4700	  529.00	  566.00	-1801.25	  395.57
     33.5700	  624.00	  599.68	-1739.93	  395.32
     33.6700	  611.00	  657.69	-1810.94	  395.07
     33.7700	  699.00	  744.44	-1809.69	  394.82
     33.8700	  883.00	  851.18	-1732.43	  394.58
     33.9700	 1046.00	  949.54	-1667.79	  394.33
     34.0700	 1075.00	  994.94	-1684.19	  394.09
     34.1700	 1051.00	  953.36	-1666.61	  393.85
     34.2700	  862.00	  846.09	-1748.34	  393.61
     34.3700	  755.00	  729.72	-1738.97	  393.37
     34.4700	  595.00	  639.86	-1809.11	  393.14
     34.5700	  574.00	  583.93	-1774.18	  392.90
     34.6700	  592.00	  554.15	-1726.40	  392.67
     34.7700	  546.00	  539.47	-1757.72	  392.44
     34.8700	  564.00	  531.95	-1732.20	  392.21
     34.9700	  557.00	  527.48	-1734.73	  391.98
     35.0700	  513.00	  524.40	-1775.65	  391.75
     35.1700	  507.00	  522.08	-1779.33	  391.53
     35.2700	  560.00	  520.24	-1724.49	  391.30
     35.3700	  454.00	  518.74	-1828.99	  391.08
     35.4700	  571.00	  517.52	-1710.77	  390.86
     35.5700	  473.00	  516.47	-1807.72	  390.64
     35.6700	  522.00	  515.58	-1757.83	  390.42
     35.7700	  511.00	  514.79	-1768.04	  390.21
     35.8700	  516.00	  514.11	-1762.36	  389.99
     35.9700	  516.00	  513.50	-1761.75	  389.78
     36.0700	  508.00	  513.44	-1769.69	  389.57
     36.1700	  531.00	  512.95	-1746.20	  389.36
     36.2700	  483.00	  512.51	-1793.76	  389.15
     36.3700	  488.00	  512.12	-1788.36	  388.95
     36.4700	  508.00	  511.76	-1768.01	  388.74
     36.5700	  507.00	  511.43	-1768.68	  388.54
     36.6700	  508.00	  511.15	-1767.40	  388.34
     36.7700	  503.00	  510.91	-1772.16	  388.14
     36.8700	  486.00	  510.74	-1788.99	  387.94
     36.9700	  507.00	  510.68	-1767.93	  387.75
     37.0700	  522.00	  510.86	-1753.11	  387.55
     37.1700	  547.00	  511.55	-1728.80	  387.36
     37.2700	  539.00	  513.13	-1738.38	  387.17
     37.3700	  512.00	  516.06	-1768.31	  386.98
     37.4700	  511.00	  520.42	-1773.67	  386.79
     37.5700	  509.00	  525.54	-1780.79	  386.61
     37.6700	  524.00	  529.82	-1770.07	  386.42
     37.7700	  516.00	  531.32	-1779.57	  386.24
     37.8700	  479.00	  529.44	-1814.69	  386.06
     37.9700	  496.00	  525.60	-1793.85	  385.88
     38.0700	  522.00	  521.30	-1763.55	  385.71
     38.1700	  501.00	  517.14	-1780.39	  385.53
     38.2700	  556.00	  513.55	-1721.80	  385.36
     38.3700	  507.00	  510.80	-1768.05	  385.18
     38.4700	  494.00	  508.91	-1779.16	  385.01
     38.5700	  510.00	  507.71	-1761.96	  384.84
     38.6700	  523.00	  506.98	-1748.23	  384.68
     38.7700	  482.00	  506.42	-1788.67	  384.51
     38.8700	  524.00	  506.09	-1746.34	  384.35
     38.9700	  537.00	  505.82	-1733.07	  384.19
     39.0700	  519.00	  505.59	-1750.84	  384.03
     39.1700	  502.00	  505.31	-1767.56	  383.87
     39.2700	  521.00	  505.12	-1748.37	  383.71
     39.3700	  492.00	  504.95	-1777.20	  383.56
     39.4700	  499.00	  504.79	-1770.04	  383.40
     39.5700	  543.00	  504.64	-1725.89	  383.25
     39.6700	  554.00	  504.49	-1714.74	  383.10
     39.7700	  510.00	  504.48	-1758.73	  382.96
     39.8700	  454.00	  504.36	-1814.61	  382.81
     39.9700	  496.00	  504.25	-1772.50	  382.67
     40.0700	  493.00	  504.15	-1775.40	  382.52
     40.1700	  498.00	  504.05	-1770.30	  382.38
     40.2700	  482.00	  503.97	-1786.22	  382.24
     40.3700	  531.00	  503.90	-1737.15	  382.11
     40.4700	  461.00	  503.84	-1807.09	  381.97
     40.5700	  479.00	  503.80	-1789.05	  381.84
     40.6700	  512.00	  503.77	-1756.02	  381.71
     40.7700	  520.00	  503.75	-1748.00	  381.57
