MSG Master    CELL:    5.91430   5.91430  23.24197   90.0000   90.0000  120.0000   SPGR: P 63/m m c             TEMP:    983.15
  1   1280     2.52000     0.00000    -0.12510     0.00000     0.00000    0
    99     0     2
       0.00000      10.00000
     125.00000     130.00000
 2Theta	Yobs	Ycal	Yobs-Ycal	Backg	Posr	(hkl)	K
      0.7700	    0.00	  514.29	-1829.75	  402.86
      0.8700	    0.00	  515.40	-1829.75	  403.96
      0.9700	   41.00	  516.49	-1829.75	  405.05
      1.0700	   36.00	  517.57	-1829.75	  406.13
      1.1700	   54.00	  518.63	-1829.75	  407.19
      1.2700	   50.00	  519.68	-1829.75	  408.24
      1.3700	   49.00	  520.72	-1829.75	  409.28
      1.4700	   93.00	  521.74	-1829.75	  410.30
      1.5700	  278.00	  522.75	-1829.75	  411.31
      1.6700	  430.00	  523.74	-1829.75	  412.31
      1.7700	  566.00	  524.72	-1829.75	  413.29
      1.8700	  643.00	  525.69	-1829.75	  414.26
      1.9700	  718.00	  526.65	-1829.75	  415.21
      2.0700	  782.00	  527.59	-1829.75	  416.15
      2.1700	  773.00	  528.52	-1829.75	  417.08
      2.2700	  742.00	  529.43	-1829.75	  418.00
      2.3700	  742.00	  530.34	-1829.75	  418.90
      2.4700	  743.00	  531.23	-1829.75	  419.79
      2.5700	  649.00	  532.10	-1829.75	  420.67
      2.6700	  642.00	  532.97	-1829.75	  421.53
      2.7700	  668.00	  533.82	-1829.75	  422.39
      2.8700	  638.00	  534.66	-1829.75	  423.23
      2.9700	  613.00	  535.49	-1829.75	  424.05
      3.0700	  591.00	  536.30	-1829.75	  424.87
      3.1700	  582.00	  537.11	-1829.75	  425.67
      3.2700	  561.00	  537.90	-1829.75	  426.46
      3.3700	  662.00	  538.67	-1829.75	  427.24
      3.4700	  722.00	  539.44	-1829.75	  428.01
      3.5700	  830.00	  540.20	-1829.75	  428.76
      3.6700	  788.00	  540.94	-1829.75	  429.50
      3.7700	  909.00	  541.67	-1829.75	  430.23
      3.8700	 1016.00	  542.39	-1829.75	  430.95
      3.9700	  987.00	  543.10	-1829.75	  431.66
      4.0700	 1063.00	  543.79	-1829.75	  432.36
      4.1700	 1091.00	  544.48	-1829.75	  433.04
      4.2700	 1116.00	  545.15	-1829.75	  433.72
      4.3700	 1063.00	  545.81	-1829.75	  434.38
      4.4700	 1139.00	  546.46	-1829.75	  435.03
      4.5700	 1049.00	  547.10	-1829.75	  435.67
      4.6700	  994.00	  547.73	-1829.75	  436.30
      4.7700	  959.00	  548.35	-1829.75	  436.92
      4.8700	  959.00	  548.96	-1829.75	  437.52
      4.9700	  950.00	  549.56	-1829.75	  438.12
      5.0700	  961.00	  550.14	-1829.75	  438.71
      5.1700	  933.00	  550.72	-1829.75	  439.28
      5.2700	  867.00	  551.28	-1829.75	  439.85
      5.3700	  845.00	  551.84	-1829.75	  440.40
      5.4700	  894.00	  552.38	-1829.75	  440.95
      5.5700	  851.00	  552.91	-1829.75	  441.48
      5.6700	  822.00	  553.44	-1829.75	  442.00
      5.7700	  818.00	  553.95	-1829.75	  442.52
      5.8700	  780.00	  554.45	-1829.75	  443.02
      5.9700	  775.00	  554.95	-1829.75	  443.51
      6.0700	  796.00	  555.43	-1829.75	  444.00
      6.1700	  796.00	  555.90	-1829.75	  444.47
      6.2700	  797.00	  556.37	-1829.75	  444.93
      6.3700	  777.00	  556.82	-1829.75	  445.39
      6.4700	  737.00	  557.27	-1829.75	  445.83
      6.5700	  737.00	  557.70	-1829.75	  446.27
      6.6700	  764.00	  558.13	-1829.75	  446.69
      6.7700	  693.00	  558.54	-1829.75	  447.11
      6.8700	  727.00	  558.95	-1829.75	  447.51
      6.9700	  641.00	  559.35	-1829.75	  447.91
      7.0700	  699.00	  559.73	-1829.75	  448.30
      7.1700	  696.00	  560.11	-1829.75	  448.68
      7.2700	  692.00	  560.48	-1829.75	  449.05
      7.3700	  680.00	  560.84	-1829.75	  449.41
      7.4700	  684.00	  561.20	-1829.75	  449.76
      7.5700	  647.00	  561.54	-1829.75	  450.10
      7.6700	  618.00	  561.87	-1829.75	  450.44
      7.7700	  635.00	  562.20	-1829.75	  450.77
      7.8700	  609.00	  562.52	-1829.75	  451.08
      7.9700	  660.00	  562.83	-1829.75	  451.39
      8.0700	  642.00	  563.13	-1829.75	  451.69
      8.1700	  665.00	  563.42	-1829.75	  451.98
      8.2700	  597.00	  563.70	-1829.75	  452.27
      8.3700	  617.00	  563.98	-1829.75	  452.54
      8.4700	  615.00	  564.24	-1829.75	  452.81
      8.5700	  575.00	  564.50	-1829.75	  453.07
      8.6700	  617.00	  564.75	-1829.75	  453.32
      8.7700	  642.00	  565.00	-1829.75	  453.56
      8.8700	  530.00	  565.23	-1829.75	  453.80
      8.9700	  616.00	  565.46	-1829.75	  454.03
      9.0700	  627.00	  565.68	-1829.75	  454.24
      9.1700	  565.00	  565.89	-1829.75	  454.46
      9.2700	  603.00	  566.10	-1829.75	  454.66
      9.3700	  616.00	  566.29	-1829.75	  454.86
      9.4700	  604.00	  566.48	-1829.75	  455.05
      9.5700	  572.00	  566.66	-1829.75	  455.23
      9.6700	  641.00	  566.84	-1829.75	  455.40
      9.7700	  589.00	  567.00	-1829.75	  455.57
      9.8700	  596.00	  567.16	-1829.75	  455.73
      9.9700	  602.00	  567.32	-1829.75	  455.88
     10.0700	  595.00	  568.16	-1802.91	  456.03
     10.1700	  610.00	  568.35	-1788.10	  456.16
     10.2700	  597.00	  568.55	-1801.30	  456.29
     10.3700	  587.00	  568.75	-1811.50	  456.42
     10.4700	  593.00	  568.98	-1805.73	  456.54
     10.5700	  578.00	  569.28	-1821.03	  456.65
     10.6700	  569.00	  569.72	-1830.47	  456.75
     10.7700	  572.00	  570.39	-1828.14	  456.85
     10.8700	  536.00	  571.36	-1865.11	  456.94
     10.9700	  578.00	  572.64	-1824.39	  457.02
     11.0700	  583.00	  574.19	-1820.94	  457.10
     11.1700	  575.00	  576.00	-1830.75	  457.17
     11.2700	  590.00	  578.09	-1817.84	  457.23
     11.3700	  608.00	  580.50	-1802.25	  457.29
     11.4700	  626.00	  583.35	-1787.10	  457.35
     11.5700	  588.00	  586.76	-1828.51	  457.39
     11.6700	  572.00	  591.00	-1848.75	  457.43
     11.7700	  570.00	  596.49	-1856.24	  457.46
     11.8700	  645.00	  604.03	-1788.78	  457.49
     11.9700	  645.00	  614.52	-1799.27	  457.51
     12.0700	  619.00	  627.51	-1838.26	  457.53
     12.1700	  678.00	  638.51	-1790.26	  457.54
     12.2700	  716.00	  638.75	-1752.50	  457.54
     12.3700	  608.00	  623.25	-1845.00	  457.54
     12.4700	  622.00	  601.60	-1809.35	  457.53
     12.5700	  589.00	  585.32	-1826.07	  457.52
     12.6700	  579.00	  576.80	-1827.55	  457.50
     12.7700	  587.00	  573.27	-1816.02	  457.48
     12.8700	  548.00	  571.86	-1853.61	  457.45
     12.9700	  521.00	  571.16	-1879.91	  457.41
     13.0700	  580.00	  570.70	-1820.45	  457.37
     13.1700	  523.00	  570.36	-1877.11	  457.33
     13.2700	  518.00	  570.09	-1881.84	  457.28
     13.3700	  564.00	  569.87	-1835.62	  457.22
     13.4700	  605.00	  569.68	-1794.43	  457.16
     13.5700	  565.00	  569.51	-1834.26	  457.09
     13.6700	  610.00	  569.35	-1789.10	  457.02
     13.7700	  544.00	  569.21	-1854.96	  456.95
     13.8700	  541.00	  569.07	-1857.82	  456.87
     13.9700	  551.00	  568.94	-1847.69	  456.78
     14.0700	  540.00	  568.80	-1858.55	  456.69
     14.1700	  535.00	  568.67	-1863.42	  456.59
     14.2700	  565.00	  568.55	-1833.30	  456.49
     14.3700	  593.00	  568.41	-1805.16	  456.39
     14.4700	  540.00	  568.28	-1858.03	  456.28
     14.5700	  535.00	  568.15	-1862.90	  456.17
     14.6700	  570.00	  568.01	-1827.76	  456.05
     14.7700	  527.00	  567.88	-1870.63	  455.93
     14.8700	  539.00	  567.74	-1858.49	  455.80
     14.9700	  560.00	  567.59	-1837.34	  455.67
     15.0700	  562.00	  567.45	-1835.20	  455.53
     15.1700	  540.00	  567.30	-1857.05	  455.39
     15.2700	  529.00	  567.14	-1867.89	  455.25
     15.3700	  602.00	  566.99	-1794.74	  455.10
     15.4700	  619.00	  566.83	-1777.58	  454.95
     15.5700	  546.00	  566.67	-1850.42	  454.79
     15.6700	  558.00	  566.50	-1838.25	  454.63
     15.7700	  559.00	  566.33	-1837.08	  454.47
     15.8700	  564.00	  566.16	-1831.91	  454.30
     15.9700	  596.00	  565.98	-1799.73	  454.13
     16.0700	  523.00	  565.80	-1872.55	  453.96
     16.1700	  594.00	  565.62	-1801.37	  453.78
     16.2700	  561.00	  565.43	-1834.18	  453.59
     16.3700	  535.00	  565.24	-1859.99	  453.41
     16.4700	  533.00	  565.05	-1861.80	  453.22
     16.5700	  546.00	  564.85	-1848.60	  453.02
     16.6700	  589.00	  564.68	-1805.43	  452.83
     16.7700	  492.00	  564.47	-1902.22	  452.63
     16.8700	  572.00	  564.27	-1822.02	  452.42
     16.9700	  566.00	  564.06	-1827.81	  452.22
     17.0700	  601.00	  563.85	-1792.60	  452.00
     17.1700	  547.00	  563.63	-1846.38	  451.79
     17.2700	  525.00	  563.42	-1868.17	  451.57
     17.3700	  560.00	  563.20	-1832.95	  451.35
     17.4700	  558.00	  562.97	-1834.72	  451.13
     17.5700	  576.00	  562.74	-1816.49	  450.90
     17.6700	  568.00	  562.52	-1824.27	  450.68
     17.7700	  586.00	  562.28	-1806.03	  450.44
     17.8700	  524.00	  562.15	-1867.90	  450.21
     17.9700	  565.00	  561.91	-1826.66	  449.97
     18.0700	  537.00	  561.67	-1854.43	  449.73
     18.1700	  486.00	  561.43	-1905.18	  449.49
     18.2700	  588.00	  561.19	-1802.94	  449.24
     18.3700	  530.00	  560.94	-1860.69	  448.99
     18.4700	  523.00	  560.69	-1867.44	  448.74
     18.5700	  571.00	  560.44	-1819.19	  448.48
     18.6700	  550.00	  560.19	-1839.94	  448.23
     18.7700	  576.00	  559.93	-1813.68	  447.97
     18.8700	  576.00	  559.67	-1813.42	  447.70
     18.9700	  553.00	  559.50	-1836.25	  447.44
     19.0700	  536.00	  559.24	-1852.99	  447.17
     19.1700	  576.00	  558.98	-1812.73	  446.90
     19.2700	  552.00	  558.71	-1836.46	  446.63
     19.3700	  561.00	  558.44	-1827.19	  446.36
     19.4700	  539.00	  558.18	-1848.93	  446.08
     19.5700	  531.00	  557.90	-1856.65	  445.80
     19.6700	  569.00	  557.63	-1818.38	  445.52
     19.7700	  576.00	  557.36	-1811.11	  445.24
     19.8700	  575.00	  557.08	-1811.83	  444.95
     19.9700	  561.00	  556.80	-1825.55	  444.67
     20.0700	  547.00	  556.52	-1839.27	  444.38
     20.1700	  571.00	  556.24	-1814.99	  444.09
     20.2700	  564.00	  555.94	-1821.69	  443.79
     20.3700	  529.00	  555.65	-1856.40	  443.50
     20.4700	  548.00	  555.37	-1837.12	  443.20
     20.5700	  518.00	  555.08	-1866.83	  442.90
     20.6700	  517.00	  554.79	-1867.54	  442.60
     20.7700	  602.00	  554.50	-1782.25	  442.30
     20.8700	  547.00	  554.21	-1836.96	  442.00
     20.9700	  535.00	  553.92	-1848.67	  441.69
     21.0700	  531.00	  553.67	-1852.42	  441.38
     21.1700	  598.00	  553.38	-1785.13	  441.08
     21.2700	  541.00	  553.09	-1841.84	  440.77
     21.3700	  532.00	  552.80	-1850.55	  440.45
     21.4700	  555.00	  552.50	-1827.25	  440.14
     21.5700	  556.00	  552.21	-1825.96	  439.83
     21.6700	  563.00	  551.92	-1818.67	  439.51
     21.7700	  576.00	  551.62	-1805.37	  439.19
     21.8700	  550.00	  551.33	-1831.08	  438.87
     21.9700	  538.00	  551.04	-1842.79	  438.55
     22.0700	  521.00	  550.75	-1859.50	  438.23
     22.1700	  526.00	  550.46	-1854.21	  437.91
     22.2700	  527.00	  550.17	-1852.92	  437.58
     22.3700	  555.00	  549.88	-1824.63	  437.26
     22.4700	  597.00	  549.60	-1782.35	  436.93
     22.5700	  541.00	  549.32	-1838.07	  436.60
     22.6700	  532.00	  549.04	-1846.79	  436.27
     22.7700	  595.00	  548.77	-1783.52	  435.94
     22.8700	  570.00	  548.50	-1808.25	  435.61
     22.9700	  570.00	  548.24	-1807.99	  435.28
     23.0700	  583.00	  547.99	-1794.74	  434.95
     23.1700	  611.00	  547.76	-1766.51	  434.62
     23.2700	  566.00	  547.53	-1811.28	  434.28
     23.3700	  576.00	  547.33	-1801.08	  433.95
     23.4700	  537.00	  547.14	-1839.89	  433.61
     23.5700	  551.00	  547.00	-1825.75	  433.27
     23.6700	  571.00	  546.90	-1805.65	  432.93
     23.7700	  560.00	  546.87	-1816.62	  432.60
     23.8700	  540.00	  546.99	-1836.74	  432.26
     23.9700	  538.00	  547.52	-1839.27	  431.92
     24.0700	  580.00	  548.59	-1798.34	  431.58
     24.1700	  551.00	  550.90	-1829.65	  431.23
     24.2700	  540.00	  555.31	-1845.06	  430.89
     24.3700	  575.00	  562.77	-1817.52	  430.55
     24.4700	  539.00	  574.44	-1865.19	  430.21
     24.5700	  626.00	  591.45	-1795.20	  429.86
     24.6700	  573.00	  612.70	-1869.45	  429.52
     24.7700	  647.00	  631.56	-1814.31	  429.18
     24.8700	  631.00	  635.90	-1834.65	  428.83
     24.9700	  572.00	  618.36	-1876.11	  428.49
     25.0700	  603.00	  590.13	-1816.88	  428.14
     25.1700	  641.00	  566.80	-1755.55	  427.80
     25.2700	  590.00	  553.33	-1793.08	  427.45
     25.3700	  594.00	  547.23	-1782.98	  427.10
     25.4700	  548.00	  544.70	-1826.45	  426.76
     25.5700	  530.00	  543.48	-1843.23	  426.41
     25.6700	  589.00	  542.72	-1783.47	  426.06
     25.7700	  582.00	  542.17	-1789.92	  425.72
     25.8700	  567.00	  541.75	-1804.50	  425.37
     25.9700	  543.00	  541.43	-1828.18	  425.02
     26.0700	  485.00	  541.19	-1885.94	  424.67
     26.1700	  532.00	  541.02	-1838.77	  424.33
     26.2700	  562.00	  540.92	-1808.67	  423.98
     26.3700	  556.00	  540.90	-1814.65	  423.63
     26.4700	  539.00	  540.96	-1831.71	  423.28
     26.5700	  523.00	  541.11	-1847.86	  422.94
     26.6700	  550.00	  541.37	-1821.12	  422.59
     26.7700	  535.00	  541.76	-1836.51	  422.24
     26.8700	  589.00	  542.31	-1783.06	  421.89
     26.9700	  566.00	  543.08	-1806.83	  421.55
     27.0700	  582.00	  544.14	-1791.89	  421.20
     27.1700	  553.00	  545.59	-1822.34	  420.85
     27.2700	  540.00	  547.68	-1837.43	  420.51
     27.3700	  544.00	  550.81	-1836.56	  420.16
     27.4700	  560.00	  555.83	-1825.58	  419.82
     27.5700	  587.00	  564.26	-1807.01	  419.47
     27.6700	  583.00	  578.55	-1825.30	  419.13
     27.7700	  598.00	  602.04	-1833.79	  418.78
     27.8700	  620.00	  637.93	-1847.68	  418.44
     27.9700	  641.00	  687.15	-1875.90	  418.09
     28.0700	  748.00	  745.43	-1827.18	  417.75
     28.1700	  873.00	  800.45	-1757.20	  417.40
     28.2700	  958.00	  831.63	-1703.38	  417.06
     28.3700	  951.00	  821.55	-1700.30	  416.72
     28.4700	  823.00	  782.45	-1789.20	  416.38
     28.5700	  696.00	  749.22	-1882.97	  416.04
     28.6700	  716.00	  743.20	-1856.95	  415.70
     28.7700	  708.00	  764.27	-1886.02	  415.36
     28.8700	  775.00	  795.75	-1850.50	  415.02
     28.9700	  786.00	  810.07	-1853.82	  414.68
     29.0700	  798.00	  783.26	-1815.01	  414.34
     29.1700	  778.00	  722.24	-1773.99	  414.00
     29.2700	  670.00	  657.34	-1817.09	  413.66
     29.3700	  579.00	  607.61	-1858.36	  413.33
     29.4700	  624.00	  576.28	-1782.03	  412.99
     29.5700	  591.00	  558.96	-1797.71	  412.66
     29.6700	  617.00	  549.84	-1762.59	  412.32
     29.7700	  583.00	  544.80	-1791.55	  411.99
     29.8700	  624.00	  541.73	-1747.48	  411.65
     29.9700	  594.00	  539.77	-1775.52	  411.32
     30.0700	  586.00	  538.66	-1782.41	  410.99
     30.1700	  602.00	  538.49	-1766.24	  410.66
     30.2700	  582.00	  539.72	-1787.47	  410.33
     30.3700	  599.00	  543.36	-1774.11	  410.00
     30.4700	  576.00	  551.05	-1804.80	  409.68
     30.5700	  587.00	  564.83	-1807.58	  409.35
     30.6700	  580.00	  585.95	-1835.70	  409.02
     30.7700	  615.00	  612.85	-1827.60	  408.70
     30.8700	  605.00	  639.24	-1863.99	  408.37
     30.9700	  609.00	  653.87	-1874.62	  408.05
     31.0700	  600.00	  645.81	-1875.56	  407.73
     31.1700	  581.00	  617.74	-1866.49	  407.41
     31.2700	  561.00	  585.32	-1854.07	  407.09
     31.3700	  568.00	  559.70	-1821.45	  406.77
     31.4700	  553.00	  543.44	-1820.19	  406.45
     31.5700	  560.00	  534.58	-1804.33	  406.13
     31.6700	  568.00	  530.06	-1791.81	  405.82
     31.7700	  544.00	  527.64	-1813.39	  405.50
     31.8700	  551.00	  526.15	-1804.90	  405.19
     31.9700	  507.00	  525.12	-1847.87	  404.88
     32.0700	  549.00	  524.36	-1805.11	  404.57
     32.1700	  562.00	  523.80	-1791.55	  404.26
     32.2700	  566.00	  523.41	-1787.16	  403.95
     32.3700	  561.00	  523.18	-1791.93	  403.64
     32.4700	  573.00	  523.09	-1779.84	  403.34
     32.5700	  528.00	  523.15	-1824.90	  403.03
     32.6700	  535.00	  523.40	-1818.15	  402.73
     32.7700	  546.00	  523.85	-1807.60	  402.42
     32.8700	  522.00	  524.57	-1832.32	  402.12
     32.9700	  519.00	  525.64	-1836.39	  401.82
     33.0700	  545.00	  527.21	-1811.96	  401.52
     33.1700	  542.00	  529.60	-1817.35	  401.23
     33.2700	  520.00	  533.52	-1843.27	  400.93
     33.3700	  578.00	  540.66	-1792.41	  400.64
     33.4700	  535.00	  554.48	-1849.23	  400.34
     33.5700	  625.00	  581.11	-1785.86	  400.05
     33.6700	  572.00	  628.95	-1886.70	  399.76
     33.7700	  698.00	  704.80	-1836.55	  399.47
     33.8700	  791.00	  805.55	-1844.30	  399.18
     33.9700	  960.00	  910.06	-1779.81	  398.90
     34.0700	 1121.00	  978.09	-1686.84	  398.61
     34.1700	 1063.00	  967.11	-1733.86	  398.33
     34.2700	  963.00	  876.89	-1743.64	  398.05
     34.3700	  758.00	  759.22	-1830.97	  397.77
     34.4700	  627.00	  659.64	-1862.39	  397.49
     34.5700	  601.00	  593.71	-1822.46	  397.21
     34.6700	  557.00	  557.15	-1829.90	  396.93
     34.7700	  564.00	  538.96	-1804.71	  396.66
     34.8700	  558.00	  529.91	-1801.66	  396.39
     34.9700	  505.00	  524.82	-1849.57	  396.11
     35.0700	  520.00	  521.44	-1831.19	  395.84
     35.1700	  534.00	  518.94	-1814.69	  395.58
     35.2700	  537.00	  516.97	-1809.72	  395.31
     35.3700	  504.00	  515.38	-1841.13	  395.04
     35.4700	  492.00	  514.05	-1851.80	  394.78
     35.5700	  525.00	  512.95	-1817.70	  394.52
     35.6700	  480.00	  511.98	-1861.73	  394.26
     35.7700	  503.00	  511.14	-1837.89	  394.00
     35.8700	  528.00	  510.90	-1812.65	  393.74
     35.9700	  483.00	  510.24	-1856.99	  393.49
     36.0700	  481.00	  509.65	-1858.40	  393.23
     36.1700	  456.00	  509.11	-1882.86	  392.98
     36.2700	  546.00	  508.62	-1792.37	  392.73
     36.3700	  471.00	  508.17	-1866.92	  392.48
     36.4700	  562.00	  507.75	-1775.50	  392.23
     36.5700	  525.00	  507.37	-1812.12	  391.99
     36.6700	  488.00	  507.02	-1848.77	  391.74
     36.7700	  503.00	  506.71	-1833.46	  391.50
     36.8700	  510.00	  506.44	-1826.19	  391.26
     36.9700	  547.00	  506.24	-1788.99	  391.02
     37.0700	  474.00	  506.17	-1861.92	  390.78
     37.1700	  462.00	  506.36	-1874.11	  390.55
     37.2700	  528.00	  507.07	-1808.82	  390.32
     37.3700	  490.00	  508.68	-1848.43	  390.08
     37.4700	  579.00	  511.51	-1762.26	  389.85
     37.5700	  498.00	  515.49	-1847.24	  389.63
     37.6700	  483.00	  519.85	-1866.60	  389.40
     37.7700	  512.00	  523.23	-1840.98	  389.17
     37.8700	  537.00	  524.45	-1817.20	  388.95
     37.9700	  476.00	  523.55	-1877.30	  388.73
     38.0700	  502.00	  521.20	-1848.95	  388.51
     38.1700	  514.00	  517.62	-1833.37	  388.29
     38.2700	  486.00	  513.28	-1857.03	  388.08
     38.3700	  516.00	  509.18	-1822.93	  387.86
     38.4700	  492.00	  506.01	-1843.76	  387.65
     38.5700	  468.00	  503.89	-1865.64	  387.44
     38.6700	  515.00	  502.61	-1817.36	  387.23
     38.7700	  488.00	  501.76	-1843.51	  387.03
     38.8700	  551.00	  501.27	-1780.02	  386.82
     38.9700	  505.00	  500.92	-1825.67	  386.62
     39.0700	  536.00	  500.62	-1794.37	  386.42
     39.1700	  499.00	  500.36	-1831.11	  386.22
     39.2700	  488.00	  500.03	-1841.78	  386.02
     39.3700	  468.00	  499.81	-1861.56	  385.83
     39.4700	  472.00	  499.60	-1857.35	  385.63
     39.5700	  483.00	  499.41	-1846.16	  385.44
     39.6700	  505.00	  499.22	-1823.97	  385.25
     39.7700	  513.00	  499.05	-1815.80	  385.06
     39.8700	  506.00	  498.88	-1822.63	  384.88
     39.9700	  457.00	  498.84	-1871.59	  384.69
     40.0700	  470.00	  498.69	-1858.44	  384.51
     40.1700	  479.00	  498.56	-1849.31	  384.33
     40.2700	  516.00	  498.44	-1812.19	  384.15
     40.3700	  515.00	  498.32	-1813.07	  383.97
     40.4700	  521.00	  498.22	-1806.97	  383.80
     40.5700	  477.00	  498.13	-1850.88	  383.63
     40.6700	  463.00	  498.06	-1864.81	  383.46
     40.7700	  492.00	  498.01	-1835.76	  383.29
