MSG Master    CELL:    5.91903   5.91903  23.27161   90.0000   90.0000  120.0000   SPGR: P 63/m m c             TEMP:   1074.85
  1   1280     2.52000     0.00000    -0.12997     0.00000     0.00000    0
    99     0     2
       0.00000      10.00000
     125.00000     130.00000
 2Theta	Yobs	Ycal	Yobs-Ycal	Backg	Posr	(hkl)	K
      0.7700	    0.00	  586.10	-1765.00	  466.79
      0.8700	    0.00	  586.40	-1765.00	  467.08
      0.9700	   43.00	  586.68	-1765.00	  467.37
      1.0700	   53.00	  586.96	-1765.00	  467.65
      1.1700	   48.00	  587.23	-1765.00	  467.92
      1.2700	   33.00	  587.50	-1765.00	  468.18
      1.3700	   58.00	  587.75	-1765.00	  468.44
      1.4700	   85.00	  588.00	-1765.00	  468.69
      1.5700	  273.00	  588.24	-1765.00	  468.93
      1.6700	  438.00	  588.48	-1765.00	  469.16
      1.7700	  569.00	  588.71	-1765.00	  469.39
      1.8700	  697.00	  588.93	-1765.00	  469.61
      1.9700	  729.00	  589.14	-1765.00	  469.82
      2.0700	  818.00	  589.34	-1765.00	  470.03
      2.1700	  787.00	  589.54	-1765.00	  470.23
      2.2700	  800.00	  589.74	-1765.00	  470.42
      2.3700	  753.00	  589.92	-1765.00	  470.61
      2.4700	  719.00	  590.10	-1765.00	  470.79
      2.5700	  697.00	  590.27	-1765.00	  470.96
      2.6700	  650.00	  590.44	-1765.00	  471.12
      2.7700	  660.00	  590.60	-1765.00	  471.28
      2.8700	  643.00	  590.75	-1765.00	  471.43
      2.9700	  649.00	  590.89	-1765.00	  471.58
      3.0700	  618.00	  591.03	-1765.00	  471.72
      3.1700	  652.00	  591.17	-1765.00	  471.85
      3.2700	  606.00	  591.29	-1765.00	  471.98
      3.3700	  663.00	  591.41	-1765.00	  472.10
      3.4700	  736.00	  591.53	-1765.00	  472.21
      3.5700	  847.00	  591.63	-1765.00	  472.32
      3.6700	  844.00	  591.73	-1765.00	  472.42
      3.7700	  908.00	  591.83	-1765.00	  472.52
      3.8700	  970.00	  591.92	-1765.00	  472.61
      3.9700	 1061.00	  592.00	-1765.00	  472.69
      4.0700	 1069.00	  592.08	-1765.00	  472.77
      4.1700	 1056.00	  592.15	-1765.00	  472.84
      4.2700	 1057.00	  592.22	-1765.00	  472.90
      4.3700	 1042.00	  592.28	-1765.00	  472.96
      4.4700	 1064.00	  592.33	-1765.00	  473.02
      4.5700	 1043.00	  592.38	-1765.00	  473.07
      4.6700	 1061.00	  592.42	-1765.00	  473.11
      4.7700	 1013.00	  592.46	-1765.00	  473.15
      4.8700	  966.00	  592.49	-1765.00	  473.18
      4.9700	  945.00	  592.52	-1765.00	  473.20
      5.0700	  961.00	  592.54	-1765.00	  473.22
      5.1700	  898.00	  592.55	-1765.00	  473.24
      5.2700	  938.00	  592.56	-1765.00	  473.25
      5.3700	  924.00	  592.57	-1765.00	  473.25
      5.4700	  880.00	  592.57	-1765.00	  473.25
      5.5700	  847.00	  592.56	-1765.00	  473.25
      5.6700	  866.00	  592.55	-1765.00	  473.24
      5.7700	  838.00	  592.53	-1765.00	  473.22
      5.8700	  773.00	  592.51	-1765.00	  473.20
      5.9700	  813.00	  592.49	-1765.00	  473.17
      6.0700	  724.00	  592.46	-1765.00	  473.14
      6.1700	  747.00	  592.42	-1765.00	  473.11
      6.2700	  768.00	  592.38	-1765.00	  473.06
      6.3700	  793.00	  592.33	-1765.00	  473.02
      6.4700	  760.00	  592.28	-1765.00	  472.97
      6.5700	  727.00	  592.23	-1765.00	  472.91
      6.6700	  770.00	  592.17	-1765.00	  472.85
      6.7700	  655.00	  592.10	-1765.00	  472.79
      6.8700	  711.00	  592.03	-1765.00	  472.72
      6.9700	  690.00	  591.96	-1765.00	  472.64
      7.0700	  696.00	  591.88	-1765.00	  472.57
      7.1700	  680.00	  591.80	-1765.00	  472.48
      7.2700	  723.00	  591.71	-1765.00	  472.39
      7.3700	  643.00	  591.62	-1765.00	  472.30
      7.4700	  688.00	  591.52	-1765.00	  472.21
      7.5700	  649.00	  591.42	-1765.00	  472.11
      7.6700	  676.00	  591.32	-1765.00	  472.00
      7.7700	  666.00	  591.21	-1765.00	  471.89
      7.8700	  682.00	  591.09	-1765.00	  471.78
      7.9700	  628.00	  590.98	-1765.00	  471.66
      8.0700	  667.00	  590.85	-1765.00	  471.54
      8.1700	  640.00	  590.73	-1765.00	  471.41
      8.2700	  638.00	  590.60	-1765.00	  471.29
      8.3700	  647.00	  590.47	-1765.00	  471.15
      8.4700	  624.00	  590.33	-1765.00	  471.01
      8.5700	  616.00	  590.19	-1765.00	  470.87
      8.6700	  616.00	  590.04	-1765.00	  470.73
      8.7700	  578.00	  589.89	-1765.00	  470.58
      8.8700	  614.00	  589.74	-1765.00	  470.43
      8.9700	  632.00	  589.58	-1765.00	  470.27
      9.0700	  632.00	  589.42	-1765.00	  470.11
      9.1700	  610.00	  589.26	-1765.00	  469.95
      9.2700	  593.00	  589.09	-1765.00	  469.78
      9.3700	  634.00	  588.92	-1765.00	  469.61
      9.4700	  650.00	  588.75	-1765.00	  469.43
      9.5700	  648.00	  588.57	-1765.00	  469.26
      9.6700	  603.00	  588.39	-1765.00	  469.07
      9.7700	  620.00	  588.20	-1765.00	  468.89
      9.8700	  594.00	  588.02	-1765.00	  468.70
      9.9700	  615.00	  587.82	-1765.00	  468.51
     10.0700	  561.00	  588.34	-1792.34	  468.32
     10.1700	  594.00	  588.22	-1759.22	  468.12
     10.2700	  582.00	  588.11	-1771.11	  467.92
     10.3700	  602.00	  588.03	-1751.03	  467.71
     10.4700	  622.00	  587.99	-1730.99	  467.50
     10.5700	  578.00	  588.07	-1775.07	  467.29
     10.6700	  627.00	  588.35	-1726.35	  467.08
     10.7700	  584.00	  588.95	-1769.95	  466.86
     10.8700	  569.00	  589.94	-1785.94	  466.64
     10.9700	  578.00	  591.30	-1778.30	  466.42
     11.0700	  610.00	  593.00	-1748.00	  466.20
     11.1700	  598.00	  595.02	-1762.02	  465.97
     11.2700	  586.00	  597.41	-1776.41	  465.74
     11.3700	  583.00	  600.25	-1782.25	  465.50
     11.4700	  629.00	  603.66	-1739.66	  465.27
     11.5700	  600.00	  607.84	-1772.84	  465.03
     11.6700	  621.00	  613.14	-1757.14	  464.78
     11.7700	  654.00	  620.19	-1731.19	  464.54
     11.8700	  657.00	  629.96	-1737.96	  464.29
     11.9700	  664.00	  643.30	-1744.30	  464.04
     12.0700	  718.00	  658.70	-1705.70	  463.79
     12.1700	  702.00	  669.57	-1732.57	  463.53
     12.2700	  728.00	  665.49	-1702.49	  463.28
     12.3700	  697.00	  643.80	-1711.80	  463.02
     12.4700	  663.00	  618.14	-1720.14	  462.75
     12.5700	  598.00	  600.01	-1767.01	  462.49
     12.6700	  608.00	  590.60	-1747.60	  462.22
     12.7700	  555.00	  586.49	-1796.49	  461.95
     12.8700	  560.00	  584.61	-1789.61	  461.68
     12.9700	  574.00	  583.50	-1774.50	  461.41
     13.0700	  594.00	  582.69	-1753.69	  461.13
     13.1700	  562.00	  582.03	-1785.03	  460.85
     13.2700	  571.00	  581.46	-1775.46	  460.57
     13.3700	  549.00	  580.96	-1796.96	  460.29
     13.4700	  574.00	  580.50	-1771.50	  460.01
     13.5700	  658.00	  580.08	-1687.08	  459.72
     13.6700	  514.00	  579.68	-1830.68	  459.43
     13.7700	  560.00	  579.30	-1784.30	  459.14
     13.8700	  608.00	  578.93	-1735.93	  458.85
     13.9700	  606.00	  578.57	-1737.57	  458.55
     14.0700	  573.00	  578.22	-1770.22	  458.26
     14.1700	  561.00	  577.87	-1781.87	  457.96
     14.2700	  581.00	  577.53	-1761.53	  457.66
     14.3700	  584.00	  577.19	-1758.19	  457.36
     14.4700	  580.00	  576.86	-1761.86	  457.05
     14.5700	  555.00	  576.53	-1786.53	  456.75
     14.6700	  561.00	  576.20	-1780.20	  456.44
     14.7700	  587.00	  575.87	-1753.87	  456.13
     14.8700	  603.00	  575.54	-1737.54	  455.82
     14.9700	  558.00	  575.21	-1782.21	  455.51
     15.0700	  580.00	  574.88	-1759.88	  455.20
     15.1700	  531.00	  574.55	-1808.55	  454.88
     15.2700	  528.00	  574.22	-1811.22	  454.57
     15.3700	  572.00	  573.89	-1766.89	  454.25
     15.4700	  560.00	  573.56	-1778.56	  453.93
     15.5700	  567.00	  573.23	-1771.23	  453.61
     15.6700	  557.00	  572.90	-1780.90	  453.29
     15.7700	  557.00	  572.57	-1780.57	  452.96
     15.8700	  556.00	  572.24	-1781.24	  452.64
     15.9700	  547.00	  571.91	-1789.91	  452.31
     16.0700	  561.00	  571.57	-1775.57	  451.99
     16.1700	  543.00	  571.24	-1793.24	  451.66
     16.2700	  589.00	  570.90	-1746.90	  451.33
     16.3700	  588.00	  570.59	-1747.59	  451.00
     16.4700	  595.00	  570.26	-1740.26	  450.67
     16.5700	  548.00	  569.92	-1786.92	  450.33
     16.6700	  551.00	  569.58	-1783.58	  450.00
     16.7700	  545.00	  569.24	-1789.24	  449.66
     16.8700	  551.00	  568.91	-1782.91	  449.33
     16.9700	  535.00	  568.57	-1798.57	  448.99
     17.0700	  590.00	  568.22	-1743.22	  448.65
     17.1700	  554.00	  567.88	-1778.88	  448.31
     17.2700	  563.00	  567.54	-1769.54	  447.97
     17.3700	  571.00	  567.20	-1761.20	  447.63
     17.4700	  554.00	  566.85	-1777.85	  447.29
     17.5700	  579.00	  566.51	-1752.51	  446.94
     17.6700	  569.00	  566.16	-1762.16	  446.60
     17.7700	  507.00	  565.82	-1823.82	  446.25
     17.8700	  537.00	  565.47	-1793.47	  445.91
     17.9700	  542.00	  565.13	-1788.13	  445.56
     18.0700	  565.00	  564.88	-1764.88	  445.22
     18.1700	  521.00	  564.54	-1808.54	  444.87
     18.2700	  558.00	  564.19	-1771.19	  444.52
     18.3700	  527.00	  563.84	-1801.84	  444.17
     18.4700	  573.00	  563.50	-1755.50	  443.82
     18.5700	  532.00	  563.15	-1796.15	  443.47
     18.6700	  555.00	  562.80	-1772.80	  443.12
     18.7700	  567.00	  562.45	-1760.45	  442.77
     18.8700	  557.00	  562.10	-1770.10	  442.42
     18.9700	  563.00	  561.84	-1763.84	  442.06
     19.0700	  568.00	  561.49	-1758.49	  441.71
     19.1700	  549.00	  561.14	-1777.14	  441.36
     19.2700	  509.00	  560.80	-1816.80	  441.00
     19.3700	  540.00	  560.45	-1785.45	  440.65
     19.4700	  526.00	  560.10	-1799.10	  440.29
     19.5700	  591.00	  559.75	-1733.75	  439.94
     19.6700	  573.00	  559.40	-1751.40	  439.58
     19.7700	  554.00	  559.06	-1770.06	  439.23
     19.8700	  557.00	  558.71	-1766.71	  438.87
     19.9700	  556.00	  558.36	-1767.36	  438.52
     20.0700	  529.00	  558.01	-1794.01	  438.16
     20.1700	  568.00	  557.66	-1754.66	  437.80
     20.2700	  565.00	  557.32	-1757.32	  437.45
     20.3700	  612.00	  556.94	-1709.94	  437.09
     20.4700	  523.00	  556.60	-1798.60	  436.73
     20.5700	  541.00	  556.25	-1780.25	  436.37
     20.6700	  569.00	  555.91	-1751.91	  436.02
     20.7700	  556.00	  555.56	-1764.56	  435.66
     20.8700	  570.00	  555.22	-1750.22	  435.30
     20.9700	  552.00	  554.91	-1767.91	  434.94
     21.0700	  596.00	  554.57	-1723.57	  434.58
     21.1700	  556.00	  554.23	-1763.23	  434.23
     21.2700	  557.00	  553.89	-1761.89	  433.87
     21.3700	  571.00	  553.55	-1747.55	  433.51
     21.4700	  582.00	  553.21	-1736.21	  433.15
     21.5700	  553.00	  552.88	-1764.88	  432.79
     21.6700	  523.00	  552.55	-1794.55	  432.44
     21.7700	  592.00	  552.21	-1725.21	  432.08
     21.8700	  585.00	  551.88	-1731.88	  431.72
     21.9700	  573.00	  551.56	-1743.56	  431.36
     22.0700	  559.00	  551.23	-1757.23	  431.01
     22.1700	  536.00	  550.91	-1779.91	  430.65
     22.2700	  570.00	  550.59	-1745.59	  430.29
     22.3700	  512.00	  550.28	-1803.28	  429.94
     22.4700	  543.00	  549.97	-1771.97	  429.58
     22.5700	  587.00	  549.66	-1727.66	  429.22
     22.6700	  521.00	  549.36	-1793.36	  428.87
     22.7700	  501.00	  549.07	-1813.07	  428.51
     22.8700	  541.00	  548.79	-1772.79	  428.16
     22.9700	  523.00	  548.51	-1790.51	  427.80
     23.0700	  572.00	  548.25	-1741.25	  427.45
     23.1700	  565.00	  548.01	-1748.01	  427.09
     23.2700	  567.00	  547.78	-1745.78	  426.74
     23.3700	  563.00	  547.58	-1749.58	  426.39
     23.4700	  559.00	  547.41	-1753.41	  426.03
     23.5700	  545.00	  547.28	-1767.28	  425.68
     23.6700	  558.00	  547.22	-1754.22	  425.33
     23.7700	  567.00	  547.26	-1745.26	  424.98
     23.8700	  558.00	  547.63	-1754.63	  424.62
     23.9700	  538.00	  548.30	-1775.30	  424.27
     24.0700	  586.00	  549.86	-1728.86	  423.92
     24.1700	  539.00	  552.98	-1778.98	  423.57
     24.2700	  550.00	  558.56	-1773.56	  423.22
     24.3700	  558.00	  567.60	-1774.60	  422.88
     24.4700	  577.00	  581.27	-1769.27	  422.53
     24.5700	  555.00	  600.03	-1810.03	  422.18
     24.6700	  640.00	  620.97	-1745.97	  421.83
     24.7700	  622.00	  635.40	-1778.40	  421.49
     24.8700	  598.00	  631.66	-1798.67	  421.14
     24.9700	  612.00	  608.74	-1761.74	  420.80
     25.0700	  625.00	  581.67	-1721.67	  420.45
     25.1700	  583.00	  562.03	-1744.03	  420.11
     25.2700	  542.00	  551.44	-1774.44	  419.77
     25.3700	  551.00	  546.70	-1760.70	  419.43
     25.4700	  600.00	  544.62	-1709.62	  419.09
     25.5700	  565.00	  543.51	-1743.51	  418.75
     25.6700	  535.00	  542.78	-1772.78	  418.41
     25.7700	  560.00	  542.23	-1747.23	  418.07
     25.8700	  562.00	  541.81	-1744.81	  417.73
     25.9700	  571.00	  541.49	-1735.49	  417.39
     26.0700	  554.00	  541.26	-1752.26	  417.06
     26.1700	  564.00	  541.10	-1742.10	  416.72
     26.2700	  582.00	  541.01	-1724.01	  416.39
     26.3700	  556.00	  541.00	-1750.00	  416.05
     26.4700	  540.00	  541.07	-1766.07	  415.72
     26.5700	  565.00	  541.24	-1741.24	  415.39
     26.6700	  541.00	  541.52	-1765.52	  415.06
     26.7700	  546.00	  541.94	-1760.94	  414.73
     26.8700	  514.00	  542.53	-1793.53	  414.40
     26.9700	  566.00	  543.35	-1742.35	  414.07
     27.0700	  533.00	  544.48	-1776.48	  413.74
     27.1700	  590.00	  546.04	-1721.04	  413.41
     27.2700	  580.00	  548.30	-1733.30	  413.09
     27.3700	  548.00	  551.78	-1768.78	  412.76
     27.4700	  571.00	  557.48	-1751.48	  412.44
     27.5700	  536.00	  567.22	-1796.22	  412.12
     27.6700	  561.00	  583.83	-1787.83	  411.80
     27.7700	  555.00	  610.99	-1820.99	  411.48
     27.8700	  650.00	  651.84	-1766.84	  411.16
     27.9700	  686.00	  706.41	-1785.41	  410.84
     28.0700	  803.00	  768.25	-1730.25	  410.52
     28.1700	  861.00	  821.56	-1725.56	  410.21
     28.2700	  980.00	  842.92	-1627.92	  409.89
     28.3700	  870.00	  819.49	-1714.49	  409.58
     28.4700	  848.00	  774.55	-1691.55	  409.27
     28.5700	  718.00	  744.29	-1791.29	  408.96
     28.6700	  702.00	  744.65	-1807.65	  408.65
     28.7700	  769.00	  770.13	-1766.13	  408.34
     28.8700	  811.00	  799.59	-1753.59	  408.03
     28.9700	  828.00	  803.67	-1740.67	  407.72
     29.0700	  754.00	  764.55	-1775.55	  407.42
     29.1700	  703.00	  699.56	-1761.56	  407.11
     29.2700	  624.00	  638.46	-1779.46	  406.81
     29.3700	  625.00	  594.93	-1734.93	  406.51
     29.4700	  589.00	  568.98	-1744.98	  406.21
     29.5700	  613.00	  555.12	-1707.12	  405.91
     29.6700	  594.00	  547.84	-1718.84	  405.61
     29.7700	  614.00	  543.70	-1694.70	  405.31
     29.8700	  551.00	  541.09	-1755.09	  405.02
     29.9700	  569.00	  539.39	-1735.39	  404.72
     30.0700	  554.00	  538.47	-1749.47	  404.43
     30.1700	  551.00	  538.45	-1752.45	  404.14
     30.2700	  573.00	  539.85	-1731.85	  403.85
     30.3700	  542.00	  543.66	-1766.66	  403.56
     30.4700	  594.00	  551.41	-1722.41	  403.27
     30.5700	  576.00	  564.73	-1753.73	  402.99
     30.6700	  542.00	  584.10	-1807.10	  402.70
     30.7700	  590.00	  607.09	-1782.09	  402.42
     30.8700	  584.00	  626.99	-1807.99	  402.14
     30.9700	  614.00	  633.63	-1784.64	  401.86
     31.0700	  594.00	  620.36	-1791.36	  401.58
     31.1700	  577.00	  594.26	-1782.26	  401.30
     31.2700	  565.00	  568.51	-1768.51	  401.02
     31.3700	  534.00	  549.75	-1780.75	  400.75
     31.4700	  511.00	  538.55	-1792.55	  400.47
     31.5700	  534.00	  532.66	-1763.66	  400.20
     31.6700	  544.00	  529.66	-1750.66	  399.93
     31.7700	  558.00	  527.99	-1734.99	  399.66
     31.8700	  523.00	  526.93	-1768.93	  399.39
     31.9700	  550.00	  526.18	-1741.18	  399.13
     32.0700	  554.00	  525.64	-1736.64	  398.86
     32.1700	  578.00	  525.27	-1712.27	  398.60
     32.2700	  523.00	  525.04	-1767.04	  398.33
     32.3700	  516.00	  524.95	-1773.95	  398.07
     32.4700	  546.00	  525.01	-1744.01	  397.81
     32.5700	  583.00	  525.21	-1707.21	  397.56
     32.6700	  598.00	  525.60	-1692.60	  397.30
     32.7700	  533.00	  526.21	-1758.21	  397.05
     32.8700	  553.00	  527.11	-1739.11	  396.79
     32.9700	  513.00	  528.41	-1780.41	  396.54
     33.0700	  572.00	  530.29	-1723.29	  396.29
     33.1700	  531.00	  533.19	-1767.19	  396.04
     33.2700	  517.00	  538.11	-1786.11	  395.80
     33.3700	  553.00	  547.25	-1759.25	  395.55
     33.4700	  545.00	  564.91	-1784.91	  395.31
     33.5700	  615.00	  598.13	-1748.13	  395.06
     33.6700	  577.00	  655.06	-1843.06	  394.82
     33.7700	  794.00	  739.56	-1710.56	  394.58
     33.8700	  885.00	  842.44	-1722.44	  394.35
     33.9700	  985.00	  935.51	-1715.51	  394.11
     34.0700	 1055.00	  975.59	-1685.59	  393.88
     34.1700	  984.00	  931.64	-1712.64	  393.64
     34.2700	  931.00	  826.96	-1660.96	  393.41
     34.3700	  776.00	  715.91	-1704.91	  393.18
     34.4700	  612.00	  631.24	-1784.24	  392.95
     34.5700	  575.00	  579.03	-1769.03	  392.73
     34.6700	  572.00	  551.43	-1744.43	  392.50
     34.7700	  562.00	  537.86	-1740.86	  392.28
     34.8700	  535.00	  530.87	-1760.87	  392.06
     34.9700	  522.00	  526.68	-1769.68	  391.84
     35.0700	  522.00	  523.78	-1766.78	  391.62
     35.1700	  524.00	  521.58	-1762.58	  391.40
     35.2700	  538.00	  519.84	-1746.84	  391.19
     35.3700	  572.00	  518.42	-1711.42	  390.98
     35.4700	  483.00	  517.26	-1799.26	  390.76
     35.5700	  530.00	  516.27	-1751.27	  390.55
     35.6700	  477.00	  515.41	-1803.41	  390.35
     35.7700	  513.00	  514.67	-1766.67	  390.14
     35.8700	  502.00	  514.01	-1777.01	  389.93
     35.9700	  558.00	  513.43	-1720.43	  389.73
     36.0700	  499.00	  513.39	-1779.39	  389.53
     36.1700	  493.00	  512.93	-1784.93	  389.33
     36.2700	  521.00	  512.51	-1756.51	  389.13
     36.3700	  504.00	  512.13	-1773.13	  388.93
     36.4700	  517.00	  511.79	-1759.79	  388.74
     36.5700	  489.00	  511.48	-1787.48	  388.54
     36.6700	  463.00	  511.21	-1813.21	  388.35
     36.7700	  498.00	  510.98	-1777.98	  388.16
     36.8700	  518.00	  510.81	-1757.81	  387.97
     36.9700	  487.00	  510.76	-1788.76	  387.79
     37.0700	  526.00	  510.96	-1749.96	  387.60
     37.1700	  527.00	  511.64	-1749.64	  387.42
     37.2700	  492.00	  513.21	-1786.21	  387.24
     37.3700	  536.00	  516.05	-1745.05	  387.06
     37.4700	  554.00	  520.20	-1731.20	  386.88
     37.5700	  517.00	  524.94	-1772.94	  386.70
     37.6700	  525.00	  528.69	-1768.69	  386.53
     37.7700	  523.00	  529.67	-1771.67	  386.36
     37.8700	  532.00	  527.51	-1760.51	  386.18
     37.9700	  523.00	  523.70	-1765.70	  386.02
     38.0700	  510.00	  519.64	-1774.64	  385.85
     38.1700	  504.00	  515.89	-1776.89	  385.68
     38.2700	  485.00	  512.74	-1792.74	  385.52
     38.3700	  475.00	  510.40	-1800.40	  385.35
     38.4700	  442.00	  508.81	-1831.81	  385.19
     38.5700	  483.00	  507.79	-1789.79	  385.03
     38.6700	  485.00	  507.07	-1787.07	  384.88
     38.7700	  500.00	  506.66	-1771.66	  384.72
     38.8700	  523.00	  506.37	-1748.37	  384.57
     38.9700	  503.00	  506.13	-1768.13	  384.41
     39.0700	  504.00	  505.92	-1766.92	  384.26
     39.1700	  520.00	  505.66	-1750.66	  384.11
     39.2700	  520.00	  505.48	-1750.48	  383.97
     39.3700	  473.00	  505.33	-1797.33	  383.82
     39.4700	  527.00	  505.18	-1743.18	  383.68
     39.5700	  510.00	  505.04	-1760.04	  383.54
     39.6700	  533.00	  504.91	-1736.91	  383.40
     39.7700	  501.00	  504.91	-1768.91	  383.26
     39.8700	  488.00	  504.80	-1781.80	  383.12
     39.9700	  481.00	  504.71	-1788.71	  382.98
     40.0700	  501.00	  504.61	-1768.61	  382.85
     40.1700	  487.00	  504.53	-1782.53	  382.72
     40.2700	  471.00	  504.46	-1798.46	  382.59
     40.3700	  496.00	  504.40	-1773.40	  382.46
     40.4700	  501.00	  504.36	-1768.36	  382.33
     40.5700	  487.00	  504.32	-1782.32	  382.21
     40.6700	  482.00	  504.30	-1787.30	  382.09
     40.7700	  528.00	  504.31	-1741.31	  381.97
