MSG Master    CELL:    5.90911   5.90911  23.22909   90.0000   90.0000  120.0000   SPGR: P 63/m m c             TEMP:    904.85
  1   1280     2.52000     0.00000    -0.12908     0.00000     0.00000    0
    98     0     2
       0.00000      10.00000
     125.00000     130.00000
 2Theta	Yobs	Ycal	Yobs-Ycal	Backg	Posr	(hkl)	K
      0.7700	    0.00	  472.00	-1736.92	  363.11
      0.8700	    1.00	  473.57	-1736.92	  364.67
      0.9700	   49.00	  475.12	-1736.92	  366.22
      1.0700	   47.00	  476.65	-1736.92	  367.76
      1.1700	   43.00	  478.17	-1736.92	  369.27
      1.2700	   42.00	  479.67	-1736.92	  370.77
      1.3700	   44.00	  481.15	-1736.92	  372.25
      1.4700	  104.00	  482.61	-1736.92	  373.71
      1.5700	  289.00	  484.06	-1736.92	  375.16
      1.6700	  429.00	  485.49	-1736.92	  376.59
      1.7700	  576.00	  486.90	-1736.92	  378.01
      1.8700	  640.00	  488.30	-1736.92	  379.40
      1.9700	  691.00	  489.68	-1736.92	  380.78
      2.0700	  813.00	  491.05	-1736.92	  382.15
      2.1700	  835.00	  492.39	-1736.92	  383.49
      2.2700	  762.00	  493.72	-1736.92	  384.83
      2.3700	  771.00	  495.04	-1736.92	  386.14
      2.4700	  688.00	  496.34	-1736.92	  387.44
      2.5700	  747.00	  497.62	-1736.92	  388.72
      2.6700	  652.00	  498.89	-1736.92	  389.99
      2.7700	  653.00	  500.14	-1736.92	  391.24
      2.8700	  670.00	  501.38	-1736.92	  392.48
      2.9700	  627.00	  502.60	-1736.92	  393.70
      3.0700	  591.00	  503.80	-1736.92	  394.91
      3.1700	  602.00	  504.99	-1736.92	  396.10
      3.2700	  642.00	  506.17	-1736.92	  397.27
      3.3700	  759.00	  507.33	-1736.92	  398.43
      3.4700	  849.00	  508.47	-1736.92	  399.58
      3.5700	  972.00	  509.60	-1736.92	  400.71
      3.6700	 1052.00	  510.72	-1736.92	  401.82
      3.7700	 1058.00	  511.82	-1736.92	  402.92
      3.8700	 1123.00	  512.90	-1736.92	  404.01
      3.9700	 1175.00	  513.98	-1736.92	  405.08
      4.0700	 1205.00	  515.03	-1736.92	  406.13
      4.1700	 1204.00	  516.08	-1736.92	  407.18
      4.2700	 1205.00	  517.10	-1736.92	  408.21
      4.3700	 1273.00	  518.12	-1736.92	  409.22
      4.4700	 1175.00	  519.12	-1736.92	  410.22
      4.5700	 1118.00	  520.10	-1736.92	  411.21
      4.6700	 1106.00	  521.08	-1736.92	  412.18
      4.7700	 1066.00	  522.03	-1736.92	  413.14
      4.8700	 1098.00	  522.98	-1736.92	  414.08
      4.9700	 1049.00	  523.91	-1736.92	  415.01
      5.0700	 1029.00	  524.83	-1736.92	  415.93
      5.1700	 1041.00	  525.73	-1736.92	  416.83
      5.2700	  985.00	  526.62	-1736.92	  417.73
      5.3700	  941.00	  527.50	-1736.92	  418.60
      5.4700	  899.00	  528.37	-1736.92	  419.47
      5.5700	  917.00	  529.22	-1736.92	  420.32
      5.6700	  930.00	  530.06	-1736.92	  421.16
      5.7700	  844.00	  530.88	-1736.92	  421.99
      5.8700	  823.00	  531.70	-1736.92	  422.80
      5.9700	  823.00	  532.50	-1736.92	  423.60
      6.0700	  796.00	  533.29	-1736.92	  424.39
      6.1700	  800.00	  534.06	-1736.92	  425.16
      6.2700	  867.00	  534.82	-1736.92	  425.93
      6.3700	  824.00	  535.58	-1736.92	  426.68
      6.4700	  774.00	  536.31	-1736.92	  427.42
      6.5700	  800.00	  537.04	-1736.92	  428.14
      6.6700	  746.00	  537.76	-1736.92	  428.86
      6.7700	  705.00	  538.46	-1736.92	  429.56
      6.8700	  783.00	  539.15	-1736.92	  430.25
      6.9700	  732.00	  539.83	-1736.92	  430.93
      7.0700	  722.00	  540.49	-1736.92	  431.60
      7.1700	  707.00	  541.15	-1736.92	  432.25
      7.2700	  688.00	  541.79	-1736.92	  432.90
      7.3700	  696.00	  542.43	-1736.92	  433.53
      7.4700	  676.00	  543.05	-1736.92	  434.15
      7.5700	  655.00	  543.66	-1736.92	  434.76
      7.6700	  661.00	  544.26	-1736.92	  435.36
      7.7700	  626.00	  544.85	-1736.92	  435.95
      7.8700	  644.00	  545.42	-1736.92	  436.52
      7.9700	  629.00	  545.99	-1736.92	  437.09
      8.0700	  615.00	  546.54	-1736.92	  437.64
      8.1700	  654.00	  547.09	-1736.92	  438.19
      8.2700	  641.00	  547.62	-1736.92	  438.72
      8.3700	  650.00	  548.14	-1736.92	  439.25
      8.4700	  602.00	  548.66	-1736.92	  439.76
      8.5700	  630.00	  549.16	-1736.92	  440.26
      8.6700	  586.00	  549.65	-1736.92	  440.75
      8.7700	  574.00	  550.13	-1736.92	  441.23
      8.8700	  640.00	  550.60	-1736.92	  441.70
      8.9700	  637.00	  551.06	-1736.92	  442.17
      9.0700	  568.00	  551.51	-1736.92	  442.62
      9.1700	  624.00	  551.96	-1736.92	  443.06
      9.2700	  616.00	  552.39	-1736.92	  443.49
      9.3700	  614.00	  552.81	-1736.92	  443.91
      9.4700	  577.00	  553.22	-1736.92	  444.32
      9.5700	  598.00	  553.62	-1736.92	  444.72
      9.6700	  577.00	  554.01	-1736.92	  445.12
      9.7700	  559.00	  554.40	-1736.92	  445.50
      9.8700	  562.00	  554.77	-1736.92	  445.87
      9.9700	  571.00	  555.13	-1736.92	  446.24
     10.0700	  581.00	  556.94	-1712.86	  446.59
     10.1700	  564.00	  557.44	-1730.35	  446.94
     10.2700	  581.00	  557.96	-1713.88	  447.27
     10.3700	  586.00	  558.53	-1709.44	  447.60
     10.4700	  569.00	  559.17	-1727.08	  447.92
     10.5700	  580.00	  559.94	-1716.86	  448.23
     10.6700	  601.00	  560.93	-1696.85	  448.53
     10.7700	  638.00	  562.23	-1661.15	  448.82
     10.8700	  604.00	  563.93	-1696.85	  449.11
     10.9700	  539.00	  566.04	-1763.96	  449.38
     11.0700	  600.00	  568.56	-1705.48	  449.65
     11.1700	  589.00	  571.49	-1719.41	  449.91
     11.2700	  594.00	  574.86	-1717.78	  450.16
     11.3700	  620.00	  578.76	-1695.67	  450.40
     11.4700	  556.00	  583.30	-1764.22	  450.63
     11.5700	  573.00	  588.72	-1752.63	  450.86
     11.6700	  621.00	  595.34	-1711.26	  451.07
     11.7700	  619.00	  603.67	-1721.59	  451.28
     11.8700	  640.00	  614.23	-1711.15	  451.48
     11.9700	  649.00	  626.98	-1714.90	  451.67
     12.0700	  656.00	  640.30	-1721.22	  451.86
     12.1700	  682.00	  649.87	-1704.78	  452.04
     12.2700	  649.00	  648.95	-1736.86	  452.21
     12.3700	  634.00	  634.02	-1736.93	  452.37
     12.4700	  614.00	  612.40	-1735.31	  452.52
     12.5700	  609.00	  593.72	-1721.63	  452.67
     12.6700	  585.00	  581.23	-1733.14	  452.81
     12.7700	  602.00	  574.09	-1709.01	  452.94
     12.8700	  581.00	  570.34	-1726.26	  453.07
     12.9700	  549.00	  568.34	-1756.26	  453.19
     13.0700	  528.00	  567.17	-1776.08	  453.30
     13.1700	  577.00	  566.39	-1726.31	  453.40
     13.2700	  540.00	  565.84	-1762.76	  453.50
     13.3700	  575.00	  565.44	-1727.36	  453.59
     13.4700	  577.00	  565.14	-1725.05	  453.67
     13.5700	  567.00	  564.90	-1734.82	  453.75
     13.6700	  554.00	  564.72	-1747.64	  453.82
     13.7700	  559.00	  564.58	-1742.50	  453.88
     13.8700	  528.00	  564.47	-1773.38	  453.94
     13.9700	  560.00	  564.37	-1741.29	  453.99
     14.0700	  570.00	  564.29	-1731.21	  454.03
     14.1700	  536.00	  564.23	-1765.14	  454.07
     14.2700	  486.00	  564.17	-1815.08	  454.10
     14.3700	  584.00	  564.11	-1717.03	  454.12
     14.4700	  552.00	  564.06	-1748.98	  454.14
     14.5700	  517.00	  564.01	-1783.93	  454.15
     14.6700	  560.00	  564.00	-1740.91	  454.16
     14.7700	  574.00	  563.95	-1726.87	  454.16
     14.8700	  569.00	  563.90	-1731.82	  454.15
     14.9700	  527.00	  563.85	-1773.77	  454.14
     15.0700	  530.00	  563.80	-1770.72	  454.13
     15.1700	  575.00	  563.75	-1725.67	  454.10
     15.2700	  613.00	  563.69	-1687.61	  454.07
     15.3700	  527.00	  563.63	-1773.55	  454.04
     15.4700	  509.00	  563.57	-1791.49	  454.00
     15.5700	  564.00	  563.50	-1736.42	  453.95
     15.6700	  569.00	  563.43	-1731.35	  453.90
     15.7700	  555.00	  563.36	-1745.28	  453.84
     15.8700	  556.00	  563.28	-1744.20	  453.78
     15.9700	  525.00	  563.20	-1775.12	  453.71
     16.0700	  520.00	  563.11	-1780.03	  453.64
     16.1700	  601.00	  563.02	-1698.94	  453.56
     16.2700	  575.00	  562.93	-1724.85	  453.48
     16.3700	  507.00	  562.83	-1792.75	  453.39
     16.4700	  563.00	  562.73	-1736.65	  453.30
     16.5700	  528.00	  562.62	-1771.54	  453.20
     16.6700	  542.00	  562.51	-1757.43	  453.10
     16.7700	  543.00	  562.40	-1756.31	  452.99
     16.8700	  561.00	  562.28	-1738.20	  452.88
     16.9700	  568.00	  562.15	-1731.07	  452.76
     17.0700	  531.00	  562.03	-1767.94	  452.64
     17.1700	  551.00	  561.89	-1747.81	  452.51
     17.2700	  568.00	  561.76	-1730.68	  452.38
     17.3700	  568.00	  561.62	-1730.54	  452.24
     17.4700	  556.00	  561.47	-1742.39	  452.10
     17.5700	  583.00	  561.42	-1715.34	  451.96
     17.6700	  562.00	  561.27	-1736.19	  451.81
     17.7700	  519.00	  561.11	-1779.03	  451.65
     17.8700	  539.00	  560.96	-1758.87	  451.50
     17.9700	  557.00	  560.79	-1740.71	  451.33
     18.0700	  551.00	  560.63	-1746.55	  451.17
     18.1700	  544.00	  560.46	-1753.38	  451.00
     18.2700	  579.00	  560.39	-1718.31	  450.82
     18.3700	  529.00	  560.22	-1768.13	  450.65
     18.4700	  559.00	  560.04	-1737.95	  450.46
     18.5700	  515.00	  559.86	-1781.77	  450.28
     18.6700	  566.00	  559.67	-1730.59	  450.09
     18.7700	  577.00	  559.48	-1719.40	  449.90
     18.8700	  542.00	  559.29	-1754.21	  449.70
     18.9700	  535.00	  559.09	-1761.01	  449.50
     19.0700	  523.00	  558.90	-1772.81	  449.29
     19.1700	  575.00	  558.69	-1720.61	  449.08
     19.2700	  537.00	  558.49	-1758.41	  448.87
     19.3700	  515.00	  558.28	-1780.20	  448.66
     19.4700	  555.00	  558.07	-1739.99	  448.44
     19.5700	  526.00	  557.86	-1768.77	  448.22
     19.6700	  526.00	  557.64	-1768.56	  447.99
     19.7700	  558.00	  557.42	-1736.34	  447.76
     19.8700	  509.00	  557.20	-1785.12	  447.53
     19.9700	  503.00	  556.97	-1790.89	  447.30
     20.0700	  539.00	  556.79	-1754.70	  447.06
     20.1700	  537.00	  556.56	-1756.48	  446.82
     20.2700	  547.00	  556.33	-1746.24	  446.57
     20.3700	  529.00	  556.09	-1764.01	  446.33
     20.4700	  517.00	  555.86	-1775.78	  446.07
     20.5700	  553.00	  555.62	-1739.54	  445.82
     20.6700	  566.00	  555.38	-1726.30	  445.57
     20.7700	  569.00	  555.14	-1723.06	  445.31
     20.8700	  587.00	  554.90	-1704.82	  445.05
     20.9700	  507.00	  554.66	-1784.57	  444.78
     21.0700	  548.00	  554.41	-1743.33	  444.51
     21.1700	  588.00	  554.16	-1703.08	  444.24
     21.2700	  550.00	  553.91	-1740.83	  443.97
     21.3700	  578.00	  553.67	-1712.58	  443.70
     21.4700	  517.00	  553.42	-1773.33	  443.42
     21.5700	  534.00	  553.17	-1756.08	  443.14
     21.6700	  530.00	  552.92	-1759.83	  442.86
     21.7700	  527.00	  552.67	-1762.59	  442.57
     21.8700	  559.00	  552.42	-1730.34	  442.29
     21.9700	  577.00	  552.17	-1712.09	  442.00
     22.0700	  528.00	  551.92	-1760.84	  441.70
     22.1700	  581.00	  551.64	-1707.55	  441.41
     22.2700	  541.00	  551.39	-1747.31	  441.12
     22.3700	  573.00	  551.15	-1715.07	  440.82
     22.4700	  558.00	  550.92	-1729.84	  440.52
     22.5700	  568.00	  550.69	-1719.61	  440.21
     22.6700	  537.00	  550.47	-1750.38	  439.91
     22.7700	  583.00	  550.41	-1704.32	  439.60
     22.8700	  523.00	  550.20	-1764.12	  439.30
     22.9700	  542.00	  550.01	-1744.93	  438.99
     23.0700	  591.00	  549.84	-1695.76	  438.67
     23.1700	  570.00	  549.68	-1716.60	  438.36
     23.2700	  522.00	  549.55	-1764.47	  438.05
     23.3700	  535.00	  549.46	-1751.37	  437.73
     23.4700	  537.00	  549.40	-1749.32	  437.41
     23.5700	  563.00	  549.41	-1723.33	  437.09
     23.6700	  587.00	  549.50	-1699.42	  436.77
     23.7700	  557.00	  549.72	-1729.64	  436.44
     23.8700	  553.00	  550.17	-1734.08	  436.12
     23.9700	  525.00	  551.00	-1762.92	  435.79
     24.0700	  560.00	  552.53	-1729.45	  435.46
     24.1700	  550.00	  555.21	-1742.13	  435.13
     24.2700	  592.00	  559.67	-1704.59	  434.80
     24.3700	  553.00	  566.58	-1750.49	  434.47
     24.4700	  586.00	  576.44	-1727.36	  434.14
     24.5700	  579.00	  589.19	-1747.10	  433.80
     24.6700	  628.00	  603.28	-1712.20	  433.47
     24.7700	  627.00	  614.90	-1724.81	  433.13
     24.8700	  613.00	  617.93	-1741.84	  432.79
     24.9700	  622.00	  608.28	-1723.20	  432.45
     25.0700	  652.00	  590.81	-1675.73	  432.11
     25.1700	  591.00	  574.00	-1719.92	  431.77
     25.2700	  592.00	  561.79	-1706.71	  431.42
     25.3700	  599.00	  554.27	-1692.19	  431.08
     25.4700	  593.00	  550.07	-1693.99	  430.74
     25.5700	  543.00	  547.75	-1741.66	  430.39
     25.6700	  529.00	  546.35	-1754.27	  430.04
     25.7700	  576.00	  545.42	-1706.33	  429.70
     25.8700	  575.00	  544.74	-1706.65	  429.35
     25.9700	  569.00	  544.22	-1712.14	  429.00
     26.0700	  562.00	  543.83	-1718.75	  428.65
     26.1700	  557.00	  543.54	-1723.46	  428.30
     26.2700	  579.00	  543.35	-1701.27	  427.95
     26.3700	  577.00	  543.25	-1703.17	  427.59
     26.4700	  574.00	  543.25	-1706.17	  427.24
     26.5700	  567.00	  543.34	-1713.26	  426.89
     26.6700	  552.00	  543.55	-1728.47	  426.53
     26.7700	  554.00	  543.90	-1726.81	  426.18
     26.8700	  567.00	  544.40	-1714.32	  425.82
     26.9700	  595.00	  545.12	-1687.04	  425.47
     27.0700	  549.00	  546.10	-1734.02	  425.11
     27.1700	  532.00	  547.46	-1752.38	  424.76
     27.2700	  596.00	  549.37	-1690.29	  424.40
     27.3700	  540.00	  552.20	-1749.11	  424.04
     27.4700	  580.00	  556.59	-1713.51	  423.69
     27.5700	  547.00	  563.76	-1753.68	  423.33
     27.6700	  595.00	  575.64	-1717.56	  422.97
     27.7700	  589.00	  594.93	-1742.85	  422.61
     27.8700	  547.00	  624.37	-1814.29	  422.25
     27.9700	  696.00	  665.09	-1706.01	  421.89
     28.0700	  669.00	  714.48	-1782.40	  421.54
     28.1700	  832.00	  763.97	-1668.89	  421.18
     28.2700	  871.00	  798.21	-1664.13	  420.82
     28.3700	  876.00	  801.44	-1662.36	  420.46
     28.4700	  830.00	  777.88	-1684.79	  420.10
     28.5700	  765.00	  754.87	-1726.78	  419.74
     28.6700	  724.00	  753.39	-1766.31	  419.38
     28.7700	  758.00	  775.77	-1754.69	  419.02
     28.8700	  805.00	  809.13	-1741.05	  418.66
     28.9700	  816.00	  829.62	-1750.54	  418.30
     29.0700	  817.00	  812.64	-1732.56	  417.94
     29.1700	  757.00	  757.41	-1737.33	  417.58
     29.2700	  707.00	  690.68	-1720.60	  417.23
     29.3700	  622.00	  634.68	-1749.60	  416.87
     29.4700	  638.00	  596.05	-1694.96	  416.51
     29.5700	  614.00	  572.63	-1695.55	  416.15
     29.6700	  608.00	  559.44	-1688.36	  415.79
     29.7700	  571.00	  552.03	-1717.95	  415.44
     29.8700	  563.00	  547.66	-1721.58	  415.08
     29.9700	  564.00	  544.91	-1717.82	  414.72
     30.0700	  558.00	  543.28	-1722.20	  414.37
     30.1700	  611.00	  542.73	-1668.65	  414.01
     30.2700	  608.00	  543.58	-1672.49	  413.65
     30.3700	  538.00	  546.53	-1745.44	  413.30
     30.4700	  567.00	  552.73	-1722.65	  412.94
     30.5700	  603.00	  563.51	-1697.43	  412.59
     30.6700	  587.00	  579.56	-1729.48	  412.23
     30.7700	  592.00	  599.75	-1744.67	  411.88
     30.8700	  596.00	  620.06	-1760.98	  411.53
     30.9700	  634.00	  633.18	-1736.10	  411.18
     31.0700	  606.00	  630.93	-1761.85	  410.82
     31.1700	  603.00	  612.54	-1746.46	  410.47
     31.2700	  590.00	  587.71	-1734.63	  410.12
     31.3700	  590.00	  565.69	-1712.61	  409.77
     31.4700	  582.00	  549.91	-1704.82	  409.42
     31.5700	  587.00	  540.05	-1689.97	  409.08
     31.6700	  552.00	  534.40	-1719.32	  408.73
     31.7700	  542.00	  531.22	-1726.13	  408.38
     31.8700	  602.00	  529.32	-1664.23	  408.03
     31.9700	  545.00	  528.08	-1720.00	  407.69
     32.0700	  554.00	  527.24	-1710.16	  407.34
     32.1700	  545.00	  526.67	-1718.59	  407.00
     32.2700	  540.00	  526.32	-1723.24	  406.66
     32.3700	  600.00	  526.17	-1663.09	  406.31
     32.4700	  547.00	  526.23	-1716.14	  405.97
     32.5700	  559.00	  526.50	-1704.42	  405.63
     32.6700	  520.00	  527.01	-1743.93	  405.29
     32.7700	  537.00	  527.82	-1727.74	  404.95
     32.8700	  592.00	  529.00	-1673.92	  404.62
     32.9700	  541.00	  530.67	-1726.59	  404.28
     33.0700	  530.00	  533.05	-1739.97	  403.94
     33.1700	  575.00	  536.56	-1698.48	  403.61
     33.2700	  556.00	  542.07	-1722.98	  403.28
     33.3700	  510.00	  551.30	-1778.22	  402.94
     33.4700	  575.00	  567.44	-1729.36	  402.61
     33.5700	  573.00	  595.44	-1759.36	  402.28
     33.6700	  615.00	  641.35	-1763.27	  401.95
     33.7700	  724.00	  709.33	-1722.25	  401.62
     33.8700	  752.00	  796.43	-1781.34	  401.30
     33.9700	  956.00	  887.52	-1668.44	  400.97
     34.0700	 1007.00	  953.74	-1683.66	  400.64
     34.1700	 1017.00	  960.79	-1680.71	  400.32
     34.2700	  986.00	  898.50	-1649.42	  400.00
     34.3700	  850.00	  800.03	-1686.95	  399.68
     34.4700	  748.00	  705.37	-1694.28	  399.36
     34.5700	  601.00	  633.43	-1769.35	  399.04
     34.6700	  618.00	  586.43	-1705.34	  398.72
     34.7700	  552.00	  558.78	-1743.70	  398.40
     34.8700	  539.00	  543.26	-1741.18	  398.09
     34.9700	  523.00	  534.30	-1748.22	  397.77
     35.0700	  561.00	  528.61	-1704.53	  397.46
     35.1700	  537.00	  524.59	-1724.51	  397.15
     35.2700	  519.00	  521.50	-1739.41	  396.84
     35.3700	  530.00	  519.05	-1725.97	  396.53
     35.4700	  507.00	  517.05	-1746.97	  396.22
     35.5700	  492.00	  515.37	-1760.29	  395.92
     35.6700	  554.00	  514.42	-1697.34	  395.61
     35.7700	  496.00	  513.19	-1754.11	  395.31
     35.8700	  468.00	  512.12	-1781.04	  395.01
     35.9700	  515.00	  511.18	-1733.10	  394.71
     36.0700	  510.00	  510.34	-1737.26	  394.41
     36.1700	  502.00	  509.59	-1744.50	  394.11
     36.2700	  583.00	  508.90	-1662.82	  393.82
     36.3700	  522.00	  508.29	-1723.21	  393.52
     36.4700	  499.00	  507.73	-1745.65	  393.23
     36.5700	  525.00	  507.24	-1719.15	  392.94
     36.6700	  496.00	  506.79	-1747.70	  392.65
     36.7700	  506.00	  506.40	-1737.31	  392.36
     36.8700	  521.00	  506.08	-1722.00	  392.07
     36.9700	  511.00	  505.89	-1731.80	  391.78
     37.0700	  500.00	  505.88	-1742.80	  391.50
     37.1700	  515.00	  506.22	-1728.14	  391.22
     37.2700	  506.00	  507.10	-1738.01	  390.94
     37.3700	  506.00	  508.71	-1739.63	  390.66
     37.4700	  489.00	  511.16	-1759.08	  390.38
     37.5700	  486.00	  514.18	-1765.10	  390.11
     37.6700	  526.00	  517.08	-1728.00	  389.83
     37.7700	  510.00	  518.74	-1745.66	  389.56
     37.8700	  527.00	  518.19	-1728.11	  389.29
     37.9700	  524.00	  515.62	-1728.54	  389.02
     38.0700	  487.00	  512.20	-1762.12	  388.75
     38.1700	  516.00	  508.85	-1729.77	  388.48
     38.2700	  511.00	  506.14	-1732.06	  388.22
     38.3700	  532.00	  503.90	-1708.82	  387.96
     38.4700	  510.00	  502.28	-1729.20	  387.70
     38.5700	  485.00	  501.15	-1753.07	  387.44
     38.6700	  480.00	  500.35	-1757.27	  387.18
     38.7700	  482.00	  499.76	-1754.67	  386.92
     38.8700	  458.00	  499.29	-1778.21	  386.67
     38.9700	  475.00	  498.90	-1760.81	  386.42
     39.0700	  506.00	  498.55	-1729.46	  386.16
     39.1700	  476.00	  498.14	-1759.06	  385.92
     39.2700	  489.00	  497.84	-1745.76	  385.67
     39.3700	  493.00	  497.57	-1741.48	  385.42
     39.4700	  496.00	  497.30	-1738.22	  385.18
     39.5700	  501.00	  497.06	-1732.97	  384.94
     39.6700	  519.00	  496.82	-1714.74	  384.70
     39.7700	  485.00	  496.59	-1748.51	  384.46
     39.8700	  483.00	  496.38	-1750.30	  384.22
     39.9700	  477.00	  496.08	-1756.00	  383.99
     40.0700	  448.00	  495.89	-1784.81	  383.75
     40.1700	  445.00	  495.71	-1787.63	  383.52
     40.2700	  528.00	  495.55	-1704.47	  383.29
     40.3700	  511.00	  495.40	-1721.31	  383.07
     40.4700	  481.00	  495.26	-1751.18	  382.84
     40.5700	  480.00	  495.14	-1752.06	  382.62
     40.6700	  446.00	  495.53	-1786.45	  382.39
     40.7700	  473.00	  495.46	-1759.38	  382.17
