MSG Master    CELL:    5.91890   5.91890  23.26914   90.0000   90.0000  120.0000   SPGR: P 63/m m c             TEMP:   1061.75
  1   1280     2.52000     0.00000    -0.12619     0.00000     0.00000    0
    99     0     2
       0.00000      10.00000
     125.00000     130.00000
 2Theta	Yobs	Ycal	Yobs-Ycal	Backg	Posr	(hkl)	K
      0.7700	    0.00	  544.79	-1774.25	  426.00
      0.8700	    0.00	  545.50	-1774.25	  426.71
      0.9700	   45.00	  546.19	-1774.25	  427.41
      1.0700	   38.00	  546.88	-1774.25	  428.10
      1.1700	   49.00	  547.56	-1774.25	  428.78
      1.2700	   44.00	  548.23	-1774.25	  429.44
      1.3700	   44.00	  548.89	-1774.25	  430.10
      1.4700	   99.00	  549.53	-1774.25	  430.75
      1.5700	  290.00	  550.17	-1774.25	  431.38
      1.6700	  445.00	  550.79	-1774.25	  432.01
      1.7700	  602.00	  551.41	-1774.25	  432.63
      1.8700	  619.00	  552.02	-1774.25	  433.23
      1.9700	  717.00	  552.61	-1774.25	  433.83
      2.0700	  743.00	  553.20	-1774.25	  434.41
      2.1700	  774.00	  553.78	-1774.25	  434.99
      2.2700	  721.00	  554.34	-1774.25	  435.56
      2.3700	  707.00	  554.90	-1774.25	  436.11
      2.4700	  718.00	  555.45	-1774.25	  436.66
      2.5700	  725.00	  555.98	-1774.25	  437.20
      2.6700	  632.00	  556.51	-1774.25	  437.73
      2.7700	  636.00	  557.03	-1774.25	  438.24
      2.8700	  619.00	  557.54	-1774.25	  438.75
      2.9700	  613.00	  558.04	-1774.25	  439.25
      3.0700	  584.00	  558.53	-1774.25	  439.74
      3.1700	  556.00	  559.01	-1774.25	  440.23
      3.2700	  634.00	  559.48	-1774.25	  440.70
      3.3700	  701.00	  559.95	-1774.25	  441.16
      3.4700	  748.00	  560.40	-1774.25	  441.62
      3.5700	  804.00	  560.85	-1774.25	  442.06
      3.6700	  850.00	  561.28	-1774.25	  442.50
      3.7700	  919.00	  561.71	-1774.25	  442.93
      3.8700	  925.00	  562.13	-1774.25	  443.35
      3.9700	  991.00	  562.54	-1774.25	  443.76
      4.0700	 1040.00	  562.94	-1774.25	  444.16
      4.1700	 1037.00	  563.34	-1774.25	  444.55
      4.2700	 1064.00	  563.72	-1774.25	  444.94
      4.3700	 1117.00	  564.10	-1774.25	  445.31
      4.4700	 1091.00	  564.47	-1774.25	  445.68
      4.5700	 1031.00	  564.83	-1774.25	  446.04
      4.6700	 1066.00	  565.18	-1774.25	  446.39
      4.7700	  957.00	  565.52	-1774.25	  446.74
      4.8700	 1003.00	  565.86	-1774.25	  447.07
      4.9700	  927.00	  566.19	-1774.25	  447.40
      5.0700	  941.00	  566.51	-1774.25	  447.72
      5.1700	  940.00	  566.82	-1774.25	  448.03
      5.2700	  900.00	  567.12	-1774.25	  448.33
      5.3700	  910.00	  567.42	-1774.25	  448.63
      5.4700	  876.00	  567.71	-1774.25	  448.92
      5.5700	  875.00	  567.99	-1774.25	  449.20
      5.6700	  836.00	  568.26	-1774.25	  449.47
      5.7700	  824.00	  568.52	-1774.25	  449.74
      5.8700	  844.00	  568.78	-1774.25	  450.00
      5.9700	  798.00	  569.03	-1774.25	  450.25
      6.0700	  796.00	  569.28	-1774.25	  450.49
      6.1700	  774.00	  569.51	-1774.25	  450.73
      6.2700	  800.00	  569.74	-1774.25	  450.96
      6.3700	  721.00	  569.96	-1774.25	  451.18
      6.4700	  779.00	  570.18	-1774.25	  451.39
      6.5700	  768.00	  570.39	-1774.25	  451.60
      6.6700	  756.00	  570.59	-1774.25	  451.80
      6.7700	  745.00	  570.78	-1774.25	  451.99
      6.8700	  736.00	  570.97	-1774.25	  452.18
      6.9700	  723.00	  571.15	-1774.25	  452.36
      7.0700	  706.00	  571.32	-1774.25	  452.53
      7.1700	  698.00	  571.49	-1774.25	  452.70
      7.2700	  711.00	  571.65	-1774.25	  452.86
      7.3700	  695.00	  571.80	-1774.25	  453.01
      7.4700	  685.00	  571.95	-1774.25	  453.16
      7.5700	  667.00	  572.09	-1774.25	  453.30
      7.6700	  658.00	  572.22	-1774.25	  453.43
      7.7700	  648.00	  572.35	-1774.25	  453.56
      7.8700	  684.00	  572.47	-1774.25	  453.68
      7.9700	  643.00	  572.58	-1774.25	  453.80
      8.0700	  622.00	  572.69	-1774.25	  453.91
      8.1700	  638.00	  572.79	-1774.25	  454.01
      8.2700	  689.00	  572.89	-1774.25	  454.11
      8.3700	  620.00	  572.98	-1774.25	  454.20
      8.4700	  596.00	  573.07	-1774.25	  454.28
      8.5700	  626.00	  573.14	-1774.25	  454.36
      8.6700	  618.00	  573.22	-1774.25	  454.43
      8.7700	  655.00	  573.28	-1774.25	  454.50
      8.8700	  672.00	  573.34	-1774.25	  454.56
      8.9700	  626.00	  573.40	-1774.25	  454.61
      9.0700	  619.00	  573.45	-1774.25	  454.66
      9.1700	  599.00	  573.49	-1774.25	  454.71
      9.2700	  618.00	  573.53	-1774.25	  454.75
      9.3700	  608.00	  573.56	-1774.25	  454.78
      9.4700	  634.00	  573.59	-1774.25	  454.81
      9.5700	  598.00	  573.61	-1774.25	  454.83
      9.6700	  604.00	  573.63	-1774.25	  454.84
      9.7700	  592.00	  573.64	-1774.25	  454.86
      9.8700	  598.00	  573.65	-1774.25	  454.86
      9.9700	  617.00	  573.65	-1774.25	  454.86
     10.0700	  579.00	  574.32	-1769.57	  454.86
     10.1700	  623.00	  574.38	-1725.63	  454.85
     10.2700	  593.00	  574.45	-1755.70	  454.83
     10.3700	  591.00	  574.54	-1757.79	  454.82
     10.4700	  576.00	  574.68	-1772.93	  454.79
     10.5700	  584.00	  574.91	-1765.16	  454.76
     10.6700	  584.00	  575.34	-1765.59	  454.73
     10.7700	  532.00	  576.07	-1818.32	  454.69
     10.8700	  586.00	  577.18	-1765.43	  454.64
     10.9700	  571.00	  578.66	-1781.91	  454.60
     11.0700	  620.00	  580.47	-1734.72	  454.54
     11.1700	  562.00	  582.59	-1794.84	  454.49
     11.2700	  597.00	  585.07	-1762.32	  454.42
     11.3700	  628.00	  587.97	-1734.22	  454.36
     11.4700	  597.00	  591.42	-1768.67	  454.29
     11.5700	  585.00	  595.61	-1784.86	  454.21
     11.6700	  632.00	  600.87	-1743.12	  454.13
     11.7700	  656.00	  607.79	-1726.04	  454.04
     11.8700	  659.00	  617.36	-1732.61	  453.96
     11.9700	  663.00	  630.49	-1741.74	  453.86
     12.0700	  646.00	  645.98	-1774.23	  453.77
     12.1700	  702.00	  657.55	-1729.80	  453.66
     12.2700	  660.00	  654.68	-1768.93	  453.56
     12.3700	  662.00	  633.86	-1746.11	  453.45
     12.4700	  583.00	  608.31	-1799.56	  453.34
     12.5700	  637.00	  590.10	-1727.35	  453.22
     12.6700	  570.00	  580.74	-1784.99	  453.10
     12.7700	  568.00	  576.78	-1783.03	  452.97
     12.8700	  599.00	  575.08	-1750.33	  452.84
     12.9700	  588.00	  574.15	-1760.40	  452.71
     13.0700	  537.00	  573.50	-1810.75	  452.57
     13.1700	  517.00	  572.99	-1830.24	  452.43
     13.2700	  570.00	  572.58	-1776.83	  452.29
     13.3700	  562.00	  572.22	-1784.47	  452.14
     13.4700	  548.00	  571.90	-1798.15	  451.99
     13.5700	  555.00	  571.62	-1790.87	  451.84
     13.6700	  554.00	  571.36	-1791.61	  451.68
     13.7700	  563.00	  571.11	-1782.36	  451.52
     13.8700	  607.00	  570.87	-1738.12	  451.35
     13.9700	  569.00	  570.64	-1775.89	  451.18
     14.0700	  552.00	  570.42	-1792.67	  451.01
     14.1700	  600.00	  570.20	-1744.45	  450.84
     14.2700	  583.00	  569.98	-1761.23	  450.66
     14.3700	  577.00	  569.77	-1767.02	  450.48
     14.4700	  532.00	  569.55	-1811.80	  450.29
     14.5700	  583.00	  569.34	-1760.59	  450.10
     14.6700	  535.00	  569.13	-1808.38	  449.91
     14.7700	  569.00	  568.91	-1774.16	  449.72
     14.8700	  553.00	  568.70	-1789.95	  449.52
     14.9700	  550.00	  568.48	-1792.73	  449.32
     15.0700	  558.00	  568.27	-1784.52	  449.12
     15.1700	  538.00	  568.05	-1804.30	  448.92
     15.2700	  578.00	  567.83	-1764.08	  448.71
     15.3700	  529.00	  567.61	-1812.86	  448.50
     15.4700	  536.00	  567.38	-1805.63	  448.28
     15.5700	  560.00	  567.16	-1781.41	  448.07
     15.6700	  544.00	  566.93	-1797.18	  447.85
     15.7700	  555.00	  566.70	-1785.95	  447.62
     15.8700	  607.00	  566.47	-1733.72	  447.40
     15.9700	  533.00	  566.23	-1807.48	  447.17
     16.0700	  539.00	  566.00	-1801.25	  446.94
     16.1700	  559.00	  565.76	-1781.01	  446.71
     16.2700	  580.00	  565.52	-1759.77	  446.48
     16.3700	  568.00	  565.28	-1771.53	  446.24
     16.4700	  570.00	  565.06	-1769.31	  446.00
     16.5700	  534.00	  564.82	-1805.07	  445.76
     16.6700	  604.00	  564.57	-1734.82	  445.51
     16.7700	  573.00	  564.32	-1765.57	  445.27
     16.8700	  538.00	  564.07	-1800.32	  445.02
     16.9700	  529.00	  563.82	-1809.07	  444.77
     17.0700	  547.00	  563.56	-1790.81	  444.52
     17.1700	  516.00	  563.30	-1821.55	  444.26
     17.2700	  563.00	  563.05	-1774.30	  444.00
     17.3700	  547.00	  562.78	-1790.03	  443.74
     17.4700	  548.00	  562.52	-1788.77	  443.48
     17.5700	  570.00	  562.26	-1766.51	  443.22
     17.6700	  555.00	  561.99	-1781.24	  442.96
     17.7700	  578.00	  561.72	-1757.97	  442.69
     17.8700	  553.00	  561.45	-1782.70	  442.42
     17.9700	  586.00	  561.28	-1749.53	  442.15
     18.0700	  539.00	  561.01	-1796.26	  441.88
     18.1700	  569.00	  560.74	-1765.99	  441.60
     18.2700	  560.00	  560.46	-1774.71	  441.33
     18.3700	  556.00	  560.19	-1778.44	  441.05
     18.4700	  542.00	  559.91	-1792.16	  440.77
     18.5700	  531.00	  559.63	-1802.88	  440.49
     18.6700	  552.00	  559.35	-1781.60	  440.20
     18.7700	  533.00	  559.07	-1800.32	  439.92
     18.8700	  528.00	  558.79	-1805.04	  439.63
     18.9700	  534.00	  558.59	-1798.84	  439.35
     19.0700	  555.00	  558.30	-1777.55	  439.06
     19.1700	  559.00	  558.02	-1773.27	  438.77
     19.2700	  538.00	  557.73	-1793.98	  438.48
     19.3700	  545.00	  557.45	-1786.70	  438.18
     19.4700	  551.00	  557.16	-1780.41	  437.89
     19.5700	  574.00	  556.87	-1757.12	  437.59
     19.6700	  554.00	  556.58	-1776.83	  437.30
     19.7700	  549.00	  556.29	-1781.54	  437.00
     19.8700	  579.00	  556.00	-1751.25	  436.70
     19.9700	  552.00	  555.70	-1777.95	  436.40
     20.0700	  587.00	  555.41	-1742.66	  436.10
     20.1700	  549.00	  555.12	-1780.37	  435.79
     20.2700	  546.00	  554.82	-1783.07	  435.49
     20.3700	  575.00	  554.50	-1753.75	  435.18
     20.4700	  555.00	  554.21	-1773.46	  434.88
     20.5700	  546.00	  553.91	-1782.16	  434.57
     20.6700	  493.00	  553.61	-1834.86	  434.26
     20.7700	  579.00	  553.32	-1748.57	  433.95
     20.8700	  545.00	  553.02	-1782.27	  433.64
     20.9700	  500.00	  552.76	-1827.01	  433.33
     21.0700	  531.00	  552.46	-1795.71	  433.02
     21.1700	  554.00	  552.17	-1772.42	  432.71
     21.2700	  570.00	  551.87	-1756.12	  432.39
     21.3700	  530.00	  551.58	-1795.83	  432.08
     21.4700	  540.00	  551.28	-1785.53	  431.76
     21.5700	  587.00	  550.99	-1738.24	  431.45
     21.6700	  531.00	  550.70	-1793.95	  431.13
     21.7700	  564.00	  550.40	-1760.65	  430.81
     21.8700	  605.00	  550.11	-1719.36	  430.49
     21.9700	  487.00	  549.82	-1837.07	  430.17
     22.0700	  551.00	  549.53	-1772.78	  429.86
     22.1700	  586.00	  549.25	-1737.50	  429.54
     22.2700	  522.00	  548.96	-1801.21	  429.21
     22.3700	  589.00	  548.68	-1733.93	  428.89
     22.4700	  523.00	  548.41	-1799.66	  428.57
     22.5700	  541.00	  548.13	-1781.38	  428.25
     22.6700	  552.00	  547.86	-1770.11	  427.93
     22.7700	  544.00	  547.60	-1777.85	  427.61
     22.8700	  565.00	  547.35	-1756.60	  427.28
     22.9700	  552.00	  547.10	-1769.35	  426.96
     23.0700	  543.00	  546.87	-1778.12	  426.63
     23.1700	  548.00	  546.64	-1772.89	  426.31
     23.2700	  537.00	  546.44	-1783.69	  425.99
     23.3700	  546.00	  546.26	-1774.51	  425.66
     23.4700	  569.00	  546.11	-1751.36	  425.34
     23.5700	  518.00	  545.99	-1802.24	  425.01
     23.6700	  563.00	  545.94	-1757.19	  424.68
     23.7700	  592.00	  545.98	-1728.23	  424.36
     23.8700	  539.00	  546.21	-1781.46	  424.03
     23.9700	  512.00	  546.97	-1809.22	  423.71
     24.0700	  539.00	  548.43	-1783.68	  423.38
     24.1700	  568.00	  551.40	-1757.65	  423.05
     24.2700	  586.00	  556.76	-1745.01	  422.73
     24.3700	  542.00	  565.51	-1797.76	  422.40
     24.4700	  568.00	  578.86	-1785.11	  422.07
     24.5700	  601.00	  597.47	-1770.72	  421.75
     24.6700	  591.00	  618.80	-1802.05	  421.42
     24.7700	  610.00	  634.34	-1798.59	  421.10
     24.8700	  583.00	  632.04	-1823.29	  420.77
     24.9700	  597.00	  609.64	-1786.89	  420.44
     25.0700	  641.00	  581.99	-1715.24	  420.12
     25.1700	  588.00	  561.63	-1747.88	  419.79
     25.2700	  553.00	  550.63	-1771.88	  419.47
     25.3700	  539.00	  545.77	-1781.02	  419.14
     25.4700	  550.00	  543.67	-1767.92	  418.81
     25.5700	  536.00	  542.58	-1780.83	  418.49
     25.6700	  555.00	  541.87	-1761.12	  418.16
     25.7700	  509.00	  541.34	-1806.59	  417.84
     25.8700	  603.00	  540.93	-1712.18	  417.51
     25.9700	  550.00	  540.62	-1764.87	  417.19
     26.0700	  613.00	  540.40	-1701.65	  416.87
     26.1700	  568.00	  540.24	-1746.49	  416.54
     26.2700	  559.00	  540.15	-1755.40	  416.22
     26.3700	  533.00	  540.14	-1781.39	  415.90
     26.4700	  520.00	  540.20	-1794.45	  415.58
     26.5700	  583.00	  540.36	-1731.61	  415.25
     26.6700	  535.00	  540.62	-1779.87	  414.93
     26.7700	  577.00	  541.01	-1738.26	  414.61
     26.8700	  571.00	  541.57	-1744.82	  414.29
     26.9700	  561.00	  542.34	-1755.59	  413.97
     27.0700	  570.00	  543.40	-1747.65	  413.65
     27.1700	  539.00	  544.87	-1780.12	  413.33
     27.2700	  573.00	  547.00	-1748.25	  413.01
     27.3700	  586.00	  550.25	-1738.50	  412.69
     27.4700	  577.00	  555.54	-1752.79	  412.38
     27.5700	  577.00	  564.54	-1761.79	  412.06
     27.6700	  590.00	  579.84	-1764.09	  411.74
     27.7700	  561.00	  604.80	-1818.05	  411.43
     27.8700	  588.00	  642.33	-1828.58	  411.11
     27.9700	  641.00	  692.57	-1825.82	  410.80
     28.0700	  736.00	  749.83	-1788.08	  410.49
     28.1700	  881.00	  799.98	-1693.23	  410.17
     28.2700	  948.00	  821.75	-1648.00	  409.86
     28.3700	  940.00	  802.51	-1636.76	  409.55
     28.4700	  793.00	  762.44	-1743.69	  409.24
     28.5700	  672.00	  735.23	-1837.48	  408.93
     28.6700	  715.00	  736.51	-1795.76	  408.62
     28.7700	  754.00	  761.74	-1781.99	  408.31
     28.8700	  806.00	  791.29	-1759.54	  408.00
     28.9700	  765.00	  797.10	-1806.35	  407.70
     29.0700	  784.00	  760.90	-1751.15	  407.39
     29.1700	  699.00	  698.16	-1773.41	  407.09
     29.2700	  640.00	  638.08	-1772.33	  406.78
     29.3700	  612.00	  594.75	-1757.00	  406.48
     29.4700	  587.00	  568.66	-1755.91	  406.18
     29.5700	  640.00	  554.65	-1688.90	  405.88
     29.6700	  606.00	  547.30	-1715.55	  405.58
     29.7700	  599.00	  543.15	-1718.40	  405.28
     29.8700	  571.00	  540.57	-1743.82	  404.98
     29.9700	  547.00	  538.92	-1766.17	  404.68
     30.0700	  549.00	  538.05	-1763.30	  404.38
     30.1700	  530.00	  538.13	-1782.38	  404.09
     30.2700	  536.00	  539.66	-1777.91	  403.79
     30.3700	  560.00	  543.72	-1757.97	  403.50
     30.4700	  569.00	  551.92	-1757.17	  403.21
     30.5700	  570.00	  566.05	-1770.30	  402.92
     30.6700	  597.00	  586.72	-1763.97	  402.63
     30.7700	  595.00	  611.50	-1790.75	  402.34
     30.8700	  591.00	  633.40	-1816.65	  402.05
     30.9700	  587.00	  641.55	-1828.80	  401.76
     31.0700	  617.00	  628.26	-1785.51	  401.48
     31.1700	  565.00	  600.48	-1809.73	  401.19
     31.2700	  572.00	  572.49	-1774.74	  400.91
     31.3700	  548.00	  551.88	-1778.13	  400.63
     31.4700	  535.00	  539.46	-1778.71	  400.34
     31.5700	  549.00	  532.91	-1758.16	  400.06
     31.6700	  532.00	  529.59	-1771.84	  399.79
     31.7700	  541.00	  527.75	-1761.00	  399.51
     31.8700	  508.00	  526.60	-1792.85	  399.23
     31.9700	  540.00	  525.79	-1760.04	  398.96
     32.0700	  559.00	  525.21	-1740.46	  398.68
     32.1700	  559.00	  524.80	-1740.05	  398.41
     32.2700	  545.00	  524.55	-1753.80	  398.14
     32.3700	  552.00	  524.44	-1746.69	  397.87
     32.4700	  533.00	  524.48	-1765.73	  397.60
     32.5700	  528.00	  524.68	-1770.93	  397.33
     32.6700	  520.00	  525.06	-1779.31	  397.07
     32.7700	  595.00	  525.68	-1704.93	  396.80
     32.8700	  540.00	  526.58	-1760.83	  396.54
     32.9700	  558.00	  527.89	-1744.14	  396.27
     33.0700	  551.00	  529.79	-1753.04	  396.01
     33.1700	  535.00	  532.70	-1771.95	  395.75
     33.2700	  580.00	  537.62	-1731.87	  395.50
     33.3700	  577.00	  546.71	-1743.96	  395.24
     33.4700	  536.00	  564.38	-1802.63	  394.98
     33.5700	  614.00	  597.73	-1757.98	  394.73
     33.6700	  635.00	  655.37	-1794.62	  394.48
     33.7700	  780.00	  741.85	-1736.10	  394.23
     33.8700	  842.00	  848.60	-1780.85	  393.98
     33.9700	 1061.00	  947.31	-1660.56	  393.73
     34.0700	 1085.00	  993.30	-1682.55	  393.48
     34.1700	  995.00	  952.19	-1731.44	  393.24
     34.2700	  844.00	  844.97	-1775.22	  392.99
     34.3700	  776.00	  728.40	-1726.65	  392.75
     34.4700	  659.00	  638.40	-1753.65	  392.51
     34.5700	  603.00	  582.47	-1753.72	  392.27
     34.6700	  620.00	  552.77	-1707.02	  392.03
     34.7700	  546.00	  538.19	-1766.44	  391.79
     34.8700	  553.00	  530.72	-1751.97	  391.56
     34.9700	  513.00	  526.30	-1787.55	  391.32
     35.0700	  563.00	  523.24	-1734.49	  391.09
     35.1700	  513.00	  520.93	-1782.18	  390.86
     35.2700	  512.00	  519.11	-1781.36	  390.63
     35.3700	  549.00	  517.62	-1742.87	  390.41
     35.4700	  520.00	  516.40	-1770.65	  390.18
     35.5700	  522.00	  515.36	-1767.61	  389.95
     35.6700	  560.00	  514.46	-1728.71	  389.73
     35.7700	  514.00	  513.68	-1773.93	  389.51
     35.8700	  521.00	  512.99	-1766.24	  389.29
     35.9700	  496.00	  512.87	-1791.12	  389.07
     36.0700	  511.00	  512.32	-1775.57	  388.86
     36.1700	  523.00	  511.83	-1763.08	  388.64
     36.2700	  506.00	  511.39	-1779.64	  388.43
     36.3700	  509.00	  510.98	-1776.23	  388.22
     36.4700	  483.00	  510.61	-1801.86	  388.01
     36.5700	  505.00	  510.28	-1779.53	  387.80
     36.6700	  536.00	  509.98	-1748.23	  387.59
     36.7700	  534.00	  509.73	-1749.98	  387.39
     36.8700	  544.00	  509.53	-1739.78	  387.18
     36.9700	  528.00	  509.43	-1755.68	  386.98
     37.0700	  514.00	  509.54	-1769.79	  386.78
     37.1700	  544.00	  510.08	-1740.33	  386.58
     37.2700	  539.00	  511.42	-1746.67	  386.38
     37.3700	  527.00	  513.94	-1761.19	  386.19
     37.4700	  516.00	  517.76	-1776.01	  386.00
     37.5700	  503.00	  522.32	-1793.57	  385.80
     37.6700	  564.00	  526.24	-1736.49	  385.61
     37.7700	  520.00	  527.85	-1782.10	  385.42
     37.8700	  556.00	  526.56	-1744.81	  385.24
     37.9700	  507.00	  523.53	-1790.78	  385.05
     38.0700	  500.00	  519.88	-1794.13	  384.87
     38.1700	  500.00	  516.08	-1790.33	  384.69
     38.2700	  507.00	  512.56	-1779.81	  384.51
     38.3700	  497.00	  509.75	-1787.00	  384.33
     38.4700	  481.00	  507.77	-1801.02	  384.15
     38.5700	  519.00	  506.51	-1761.76	  383.98
     38.6700	  497.00	  505.75	-1783.00	  383.80
     38.7700	  480.00	  505.17	-1799.42	  383.63
     38.8700	  525.00	  504.84	-1754.09	  383.46
     38.9700	  481.00	  504.57	-1797.82	  383.29
     39.0700	  509.00	  504.34	-1769.59	  383.13
     39.1700	  513.00	  504.05	-1765.30	  382.96
     39.2700	  478.00	  503.86	-1800.11	  382.80
     39.3700	  451.00	  503.68	-1826.93	  382.64
     39.4700	  497.00	  503.52	-1780.77	  382.48
     39.5700	  519.00	  503.36	-1758.61	  382.32
     39.6700	  524.00	  503.22	-1753.47	  382.16
     39.7700	  527.00	  503.08	-1750.33	  382.01
     39.8700	  515.00	  503.07	-1762.32	  381.86
     39.9700	  509.00	  502.96	-1768.21	  381.70
     40.0700	  508.00	  502.85	-1769.10	  381.56
     40.1700	  494.00	  502.76	-1783.01	  381.41
     40.2700	  538.00	  502.67	-1738.92	  381.26
     40.3700	  504.00	  502.60	-1772.85	  381.12
     40.4700	  454.00	  502.54	-1822.79	  380.98
     40.5700	  498.00	  502.49	-1778.74	  380.84
     40.6700	  492.00	  502.46	-1784.71	  380.70
     40.7700	  467.00	  502.45	-1809.70	  380.56
