MSG Master    CELL:    5.91937   5.91937  23.27377   90.0000   90.0000  120.0000   SPGR: P 63/m m c             TEMP:   1074.85
  1   1280     2.52000     0.00000    -0.12699     0.00000     0.00000    0
    99     0     2
       0.00000      10.00000
     125.00000     130.00000
 2Theta	Yobs	Ycal	Yobs-Ycal	Backg	Posr	(hkl)	K
      0.7700	    0.00	  548.13	-1733.50	  430.15
      0.8700	    0.00	  548.85	-1733.50	  430.87
      0.9700	   41.00	  549.57	-1733.50	  431.59
      1.0700	   41.00	  550.27	-1733.50	  432.29
      1.1700	   40.00	  550.96	-1733.50	  432.98
      1.2700	   50.00	  551.64	-1733.50	  433.66
      1.3700	   44.00	  552.31	-1733.50	  434.33
      1.4700	  100.00	  552.96	-1733.50	  434.99
      1.5700	  277.00	  553.61	-1733.50	  435.63
      1.6700	  457.00	  554.25	-1733.50	  436.27
      1.7700	  596.00	  554.88	-1733.50	  436.90
      1.8700	  653.00	  555.49	-1733.50	  437.51
      1.9700	  721.00	  556.10	-1733.50	  438.12
      2.0700	  778.00	  556.70	-1733.50	  438.72
      2.1700	  802.00	  557.28	-1733.50	  439.30
      2.2700	  747.00	  557.86	-1733.50	  439.88
      2.3700	  722.00	  558.42	-1733.50	  440.44
      2.4700	  679.00	  558.98	-1733.50	  441.00
      2.5700	  691.00	  559.53	-1733.50	  441.55
      2.6700	  726.00	  560.06	-1733.50	  442.08
      2.7700	  656.00	  560.59	-1733.50	  442.61
      2.8700	  631.00	  561.11	-1733.50	  443.13
      2.9700	  559.00	  561.61	-1733.50	  443.63
      3.0700	  615.00	  562.11	-1733.50	  444.13
      3.1700	  592.00	  562.60	-1733.50	  444.62
      3.2700	  636.00	  563.08	-1733.50	  445.10
      3.3700	  677.00	  563.55	-1733.50	  445.57
      3.4700	  761.00	  564.01	-1733.50	  446.03
      3.5700	  797.00	  564.46	-1733.50	  446.48
      3.6700	  891.00	  564.90	-1733.50	  446.93
      3.7700	  939.00	  565.34	-1733.50	  447.36
      3.8700	 1023.00	  565.76	-1733.50	  447.78
      3.9700	 1041.00	  566.18	-1733.50	  448.20
      4.0700	 1082.00	  566.58	-1733.50	  448.61
      4.1700	 1109.00	  566.98	-1733.50	  449.00
      4.2700	 1103.00	  567.37	-1733.50	  449.39
      4.3700	 1098.00	  567.75	-1733.50	  449.77
      4.4700	 1091.00	  568.13	-1733.50	  450.15
      4.5700	 1042.00	  568.49	-1733.50	  450.51
      4.6700	 1032.00	  568.84	-1733.50	  450.87
      4.7700	  953.00	  569.19	-1733.50	  451.21
      4.8700	  990.00	  569.53	-1733.50	  451.55
      4.9700	  923.00	  569.86	-1733.50	  451.88
      5.0700	  941.00	  570.18	-1733.50	  452.20
      5.1700	  931.00	  570.50	-1733.50	  452.52
      5.2700	  895.00	  570.80	-1733.50	  452.83
      5.3700	  866.00	  571.10	-1733.50	  453.12
      5.4700	  835.00	  571.39	-1733.50	  453.41
      5.5700	  915.00	  571.68	-1733.50	  453.70
      5.6700	  867.00	  571.95	-1733.50	  453.97
      5.7700	  879.00	  572.22	-1733.50	  454.24
      5.8700	  778.00	  572.48	-1733.50	  454.50
      5.9700	  775.00	  572.73	-1733.50	  454.75
      6.0700	  739.00	  572.97	-1733.50	  454.99
      6.1700	  743.00	  573.21	-1733.50	  455.23
      6.2700	  738.00	  573.44	-1733.50	  455.46
      6.3700	  772.00	  573.66	-1733.50	  455.68
      6.4700	  745.00	  573.88	-1733.50	  455.90
      6.5700	  731.00	  574.08	-1733.50	  456.11
      6.6700	  739.00	  574.28	-1733.50	  456.31
      6.7700	  765.00	  574.48	-1733.50	  456.50
      6.8700	  709.00	  574.66	-1733.50	  456.69
      6.9700	  722.00	  574.84	-1733.50	  456.86
      7.0700	  696.00	  575.02	-1733.50	  457.04
      7.1700	  714.00	  575.18	-1733.50	  457.20
      7.2700	  690.00	  575.34	-1733.50	  457.36
      7.3700	  657.00	  575.49	-1733.50	  457.51
      7.4700	  664.00	  575.64	-1733.50	  457.66
      7.5700	  632.00	  575.78	-1733.50	  457.80
      7.6700	  619.00	  575.91	-1733.50	  457.93
      7.7700	  662.00	  576.03	-1733.50	  458.06
      7.8700	  664.00	  576.15	-1733.50	  458.17
      7.9700	  639.00	  576.27	-1733.50	  458.29
      8.0700	  686.00	  576.37	-1733.50	  458.39
      8.1700	  645.00	  576.47	-1733.50	  458.49
      8.2700	  607.00	  576.57	-1733.50	  458.59
      8.3700	  626.00	  576.65	-1733.50	  458.68
      8.4700	  597.00	  576.74	-1733.50	  458.76
      8.5700	  608.00	  576.81	-1733.50	  458.83
      8.6700	  651.00	  576.88	-1733.50	  458.90
      8.7700	  657.00	  576.94	-1733.50	  458.97
      8.8700	  632.00	  577.00	-1733.50	  459.02
      8.9700	  591.00	  577.05	-1733.50	  459.08
      9.0700	  614.00	  577.10	-1733.50	  459.12
      9.1700	  563.00	  577.14	-1733.50	  459.16
      9.2700	  574.00	  577.18	-1733.50	  459.20
      9.3700	  654.00	  577.20	-1733.50	  459.23
      9.4700	  634.00	  577.23	-1733.50	  459.25
      9.5700	  574.00	  577.25	-1733.50	  459.27
      9.6700	  581.00	  577.26	-1733.50	  459.28
      9.7700	  627.00	  577.27	-1733.50	  459.29
      9.8700	  622.00	  577.27	-1733.50	  459.29
      9.9700	  578.00	  577.26	-1733.50	  459.28
     10.0700	  623.00	  578.16	-1688.66	  459.28
     10.1700	  545.00	  578.25	-1766.75	  459.26
     10.2700	  611.00	  578.35	-1700.85	  459.24
     10.3700	  588.00	  578.49	-1723.99	  459.22
     10.4700	  599.00	  578.69	-1713.19	  459.19
     10.5700	  596.00	  579.01	-1716.51	  459.15
     10.6700	  588.00	  579.55	-1725.05	  459.12
     10.7700	  572.00	  580.44	-1741.94	  459.07
     10.8700	  556.00	  581.73	-1759.23	  459.02
     10.9700	  576.00	  583.42	-1740.92	  458.97
     11.0700	  615.00	  585.48	-1703.98	  458.91
     11.1700	  591.00	  587.92	-1730.42	  458.85
     11.2700	  604.00	  590.75	-1720.25	  458.78
     11.3700	  623.00	  594.08	-1704.58	  458.71
     11.4700	  603.00	  598.04	-1728.54	  458.63
     11.5700	  580.00	  602.85	-1756.35	  458.55
     11.6700	  644.00	  608.88	-1698.38	  458.46
     11.7700	  601.00	  616.77	-1749.27	  458.37
     11.8700	  667.00	  627.44	-1693.94	  458.28
     11.9700	  615.00	  641.38	-1759.88	  458.18
     12.0700	  677.00	  656.75	-1713.25	  458.07
     12.1700	  732.00	  667.23	-1668.73	  457.97
     12.2700	  692.00	  663.23	-1704.73	  457.86
     12.3700	  645.00	  642.17	-1730.67	  457.74
     12.4700	  626.00	  616.65	-1724.15	  457.62
     12.5700	  597.00	  597.77	-1734.27	  457.50
     12.6700	  573.00	  587.21	-1747.71	  457.37
     12.7700	  526.00	  582.24	-1789.74	  457.24
     12.8700	  554.00	  579.92	-1759.42	  457.10
     12.9700	  524.00	  578.63	-1788.13	  456.96
     13.0700	  560.00	  577.76	-1751.26	  456.82
     13.1700	  621.00	  577.10	-1689.60	  456.67
     13.2700	  557.00	  576.57	-1753.07	  456.52
     13.3700	  586.00	  576.12	-1723.62	  456.37
     13.4700	  571.00	  575.73	-1738.23	  456.21
     13.5700	  570.00	  575.38	-1738.88	  456.05
     13.6700	  575.00	  575.06	-1733.56	  455.88
     13.7700	  588.00	  574.77	-1720.27	  455.71
     13.8700	  557.00	  574.49	-1750.99	  455.54
     13.9700	  559.00	  574.23	-1748.73	  455.36
     14.0700	  577.00	  573.98	-1730.48	  455.19
     14.1700	  620.00	  573.73	-1687.23	  455.00
     14.2700	  565.00	  573.49	-1741.99	  454.82
     14.3700	  569.00	  573.26	-1737.76	  454.63
     14.4700	  538.00	  573.02	-1768.52	  454.44
     14.5700	  571.00	  572.79	-1735.29	  454.24
     14.6700	  561.00	  572.56	-1745.06	  454.04
     14.7700	  566.00	  572.33	-1739.83	  453.84
     14.8700	  506.00	  572.10	-1799.60	  453.64
     14.9700	  515.00	  571.87	-1790.37	  453.43
     15.0700	  590.00	  571.64	-1715.14	  453.22
     15.1700	  574.00	  571.41	-1730.91	  453.01
     15.2700	  556.00	  571.18	-1748.68	  452.79
     15.3700	  556.00	  570.94	-1748.44	  452.57
     15.4700	  605.00	  570.71	-1699.21	  452.35
     15.5700	  601.00	  570.47	-1702.97	  452.13
     15.6700	  582.00	  570.23	-1721.73	  451.90
     15.7700	  605.00	  569.99	-1698.49	  451.67
     15.8700	  540.00	  569.75	-1763.25	  451.44
     15.9700	  527.00	  569.53	-1776.03	  451.20
     16.0700	  576.00	  569.29	-1726.79	  450.97
     16.1700	  606.00	  569.04	-1696.54	  450.73
     16.2700	  560.00	  568.79	-1742.29	  450.49
     16.3700	  583.00	  568.54	-1719.04	  450.24
     16.4700	  552.00	  568.29	-1749.79	  449.99
     16.5700	  562.00	  568.04	-1739.54	  449.74
     16.6700	  566.00	  567.78	-1735.28	  449.49
     16.7700	  566.00	  567.52	-1735.02	  449.24
     16.8700	  551.00	  567.26	-1749.76	  448.98
     16.9700	  574.00	  567.00	-1726.50	  448.72
     17.0700	  554.00	  566.73	-1746.23	  448.46
     17.1700	  557.00	  566.47	-1742.97	  448.20
     17.2700	  538.00	  566.20	-1761.70	  447.94
     17.3700	  583.00	  565.93	-1716.43	  447.67
     17.4700	  576.00	  565.66	-1723.16	  447.40
     17.5700	  551.00	  565.39	-1747.89	  447.13
     17.6700	  539.00	  565.11	-1759.61	  446.86
     17.7700	  551.00	  564.84	-1747.34	  446.58
     17.8700	  549.00	  564.56	-1749.06	  446.31
     17.9700	  569.00	  564.28	-1728.78	  446.03
     18.0700	  556.00	  564.10	-1741.60	  445.75
     18.1700	  559.00	  563.82	-1738.32	  445.47
     18.2700	  577.00	  563.54	-1720.04	  445.18
     18.3700	  569.00	  563.26	-1727.76	  444.90
     18.4700	  514.00	  562.97	-1782.47	  444.61
     18.5700	  600.00	  562.69	-1696.19	  444.32
     18.6700	  586.00	  562.40	-1709.90	  444.03
     18.7700	  580.00	  562.11	-1715.61	  443.74
     18.8700	  562.00	  561.90	-1733.40	  443.45
     18.9700	  553.00	  561.62	-1742.11	  443.15
     19.0700	  528.00	  561.32	-1766.82	  442.85
     19.1700	  524.00	  561.03	-1770.53	  442.56
     19.2700	  530.00	  560.74	-1764.24	  442.26
     19.3700	  556.00	  560.44	-1737.94	  441.96
     19.4700	  533.00	  560.15	-1760.65	  441.65
     19.5700	  573.00	  559.85	-1720.35	  441.35
     19.6700	  540.00	  559.56	-1753.06	  441.05
     19.7700	  525.00	  559.26	-1767.76	  440.74
     19.8700	  600.00	  558.96	-1692.46	  440.43
     19.9700	  547.00	  558.66	-1745.16	  440.13
     20.0700	  566.00	  558.36	-1725.86	  439.82
     20.1700	  559.00	  558.06	-1732.56	  439.51
     20.2700	  515.00	  557.76	-1776.26	  439.19
     20.3700	  556.00	  557.46	-1734.96	  438.88
     20.4700	  596.00	  557.16	-1694.66	  438.57
     20.5700	  533.00	  556.85	-1757.35	  438.25
     20.6700	  572.00	  556.55	-1718.05	  437.94
     20.7700	  564.00	  556.25	-1725.75	  437.62
     20.8700	  565.00	  555.95	-1724.45	  437.30
     20.9700	  558.00	  555.65	-1731.15	  436.99
     21.0700	  517.00	  555.35	-1771.85	  436.67
     21.1700	  587.00	  555.05	-1701.55	  436.35
     21.2700	  529.00	  554.75	-1759.25	  436.03
     21.3700	  553.00	  554.45	-1734.95	  435.70
     21.4700	  522.00	  554.15	-1765.65	  435.38
     21.5700	  548.00	  553.85	-1739.35	  435.06
     21.6700	  523.00	  553.55	-1764.05	  434.74
     21.7700	  569.00	  553.26	-1717.76	  434.41
     21.8700	  522.00	  552.96	-1764.46	  434.09
     21.9700	  599.00	  552.67	-1687.17	  433.76
     22.0700	  591.00	  552.38	-1694.88	  433.43
     22.1700	  573.00	  552.09	-1712.59	  433.11
     22.2700	  568.00	  551.81	-1717.31	  432.78
     22.3700	  510.00	  551.53	-1775.03	  432.45
     22.4700	  562.00	  551.25	-1722.75	  432.13
     22.5700	  555.00	  550.98	-1729.48	  431.80
     22.6700	  570.00	  550.72	-1714.22	  431.47
     22.7700	  534.00	  550.46	-1749.96	  431.14
     22.8700	  559.00	  550.21	-1724.71	  430.81
     22.9700	  541.00	  549.97	-1742.47	  430.48
     23.0700	  576.00	  549.75	-1707.25	  430.15
     23.1700	  512.00	  549.54	-1771.04	  429.82
     23.2700	  517.00	  549.35	-1765.85	  429.49
     23.3700	  547.00	  549.20	-1735.70	  429.15
     23.4700	  540.00	  549.07	-1742.57	  428.82
     23.5700	  605.00	  549.00	-1677.50	  428.49
     23.6700	  543.00	  549.14	-1739.64	  428.16
     23.7700	  542.00	  549.27	-1740.77	  427.83
     23.8700	  554.00	  549.62	-1729.12	  427.50
     23.9700	  560.00	  550.43	-1723.93	  427.16
     24.0700	  545.00	  552.11	-1740.61	  426.83
     24.1700	  529.00	  555.29	-1759.79	  426.50
     24.2700	  571.00	  560.79	-1723.29	  426.17
     24.3700	  603.00	  569.52	-1700.02	  425.84
     24.4700	  572.00	  582.35	-1743.85	  425.50
     24.5700	  575.00	  599.28	-1757.78	  425.17
     24.6700	  651.00	  617.47	-1699.97	  424.84
     24.7700	  609.00	  629.58	-1754.08	  424.51
     24.8700	  623.00	  626.17	-1736.67	  424.18
     24.9700	  627.00	  606.46	-1712.96	  423.84
     25.0700	  623.00	  582.80	-1693.30	  423.51
     25.1700	  594.00	  564.93	-1704.43	  423.18
     25.2700	  597.00	  554.57	-1691.07	  422.85
     25.3700	  552.00	  549.51	-1731.01	  422.52
     25.4700	  526.00	  547.13	-1754.63	  422.19
     25.5700	  565.00	  545.85	-1714.35	  421.86
     25.6700	  558.00	  545.02	-1720.52	  421.53
     25.7700	  588.00	  544.41	-1689.91	  421.20
     25.8700	  576.00	  543.96	-1701.46	  420.87
     25.9700	  555.00	  543.61	-1722.11	  420.54
     26.0700	  531.00	  543.36	-1745.86	  420.21
     26.1700	  563.00	  543.18	-1713.68	  419.88
     26.2700	  571.00	  543.09	-1705.59	  419.55
     26.3700	  541.00	  543.07	-1735.57	  419.23
     26.4700	  556.00	  543.15	-1720.65	  418.90
     26.5700	  602.00	  543.32	-1674.82	  418.57
     26.6700	  601.00	  543.60	-1676.10	  418.25
     26.7700	  581.00	  544.03	-1696.53	  417.92
     26.8700	  540.00	  544.63	-1738.13	  417.59
     26.9700	  586.00	  545.46	-1692.96	  417.27
     27.0700	  508.00	  546.61	-1772.11	  416.95
     27.1700	  569.00	  548.20	-1712.70	  416.62
     27.2700	  593.00	  550.48	-1690.98	  416.30
     27.3700	  620.00	  554.00	-1667.50	  415.98
     27.4700	  538.00	  559.75	-1755.25	  415.66
     27.5700	  524.00	  569.56	-1779.06	  415.33
     27.6700	  601.00	  586.32	-1718.82	  415.01
     27.7700	  592.00	  613.74	-1755.24	  414.69
     27.8700	  598.00	  655.03	-1790.53	  414.38
     27.9700	  681.00	  710.32	-1762.82	  414.06
     28.0700	  752.00	  773.15	-1754.65	  413.74
     28.1700	  932.00	  827.56	-1629.06	  413.42
     28.2700	  908.00	  849.73	-1675.23	  413.11
     28.3700	  902.00	  826.12	-1657.62	  412.79
     28.4700	  772.00	  779.77	-1741.27	  412.48
     28.5700	  728.00	  747.34	-1752.84	  412.16
     28.6700	  705.00	  745.15	-1773.65	  411.85
     28.7700	  765.00	  768.06	-1736.56	  411.54
     28.8700	  828.00	  795.61	-1701.11	  411.23
     28.9700	  783.00	  799.43	-1749.93	  410.92
     29.0700	  721.00	  762.05	-1774.55	  410.61
     29.1700	  759.00	  699.49	-1673.99	  410.30
     29.2700	  650.00	  640.20	-1723.70	  409.99
     29.3700	  605.00	  597.52	-1726.02	  409.69
     29.4700	  566.00	  571.75	-1739.25	  409.38
     29.5700	  593.00	  557.81	-1698.31	  409.08
     29.6700	  595.00	  550.44	-1688.94	  408.77
     29.7700	  594.00	  546.27	-1685.77	  408.47
     29.8700	  614.00	  543.68	-1663.18	  408.17
     29.9700	  561.00	  542.05	-1714.55	  407.87
     30.0700	  611.00	  541.25	-1663.75	  407.57
     30.1700	  557.00	  541.44	-1717.94	  407.27
     30.2700	  561.00	  543.20	-1715.70	  406.97
     30.3700	  561.00	  547.58	-1720.08	  406.68
     30.4700	  587.00	  556.22	-1702.72	  406.38
     30.5700	  630.00	  570.77	-1674.27	  406.09
     30.6700	  568.00	  591.61	-1757.11	  405.80
     30.7700	  617.00	  616.08	-1732.58	  405.50
     30.8700	  654.00	  637.17	-1716.67	  405.21
     30.9700	  598.00	  644.36	-1779.86	  404.92
     31.0700	  590.00	  630.56	-1774.06	  404.64
     31.1700	  587.00	  603.07	-1749.57	  404.35
     31.2700	  540.00	  575.59	-1769.09	  404.06
     31.3700	  587.00	  555.28	-1701.78	  403.78
     31.4700	  542.00	  542.87	-1734.37	  403.49
     31.5700	  563.00	  536.18	-1706.68	  403.21
     31.6700	  545.00	  532.73	-1721.23	  402.93
     31.7700	  502.00	  530.81	-1762.31	  402.65
     31.8700	  506.00	  529.60	-1757.10	  402.37
     31.9700	  562.00	  528.77	-1700.27	  402.10
     32.0700	  542.00	  528.18	-1719.68	  401.82
     32.1700	  561.00	  527.78	-1700.28	  401.55
     32.2700	  547.00	  527.55	-1714.05	  401.27
     32.3700	  547.00	  527.48	-1713.98	  401.00
     32.4700	  525.00	  527.57	-1736.07	  400.73
     32.5700	  553.00	  527.83	-1708.33	  400.46
     32.6700	  531.00	  528.30	-1730.80	  400.19
     32.7700	  532.00	  529.03	-1730.53	  399.93
     32.8700	  566.00	  530.08	-1697.58	  399.66
     32.9700	  513.00	  531.58	-1752.08	  399.40
     33.0700	  573.00	  533.76	-1694.26	  399.14
     33.1700	  544.00	  537.10	-1726.60	  398.88
     33.2700	  508.00	  542.70	-1768.20	  398.62
     33.3700	  569.00	  552.91	-1717.41	  398.36
     33.4700	  549.00	  572.16	-1756.66	  398.10
     33.5700	  622.00	  607.37	-1718.87	  397.85
     33.6700	  630.00	  666.25	-1769.75	  397.59
     33.7700	  731.00	  751.87	-1754.37	  397.34
     33.8700	  902.00	  854.55	-1686.05	  397.09
     33.9700	 1010.00	  946.64	-1670.14	  396.84
     34.0700	 1028.00	  986.31	-1691.81	  396.59
     34.1700	 1041.00	  943.37	-1635.87	  396.35
     34.2700	  919.00	  840.06	-1654.56	  396.10
     34.3700	  776.00	  729.16	-1686.66	  395.86
     34.4700	  650.00	  642.96	-1726.46	  395.62
     34.5700	  621.00	  588.26	-1700.76	  395.38
     34.6700	  564.00	  558.25	-1727.75	  395.14
     34.7700	  534.00	  542.97	-1742.47	  394.90
     34.8700	  575.00	  534.92	-1693.42	  394.66
     34.9700	  552.00	  530.11	-1711.61	  394.43
     35.0700	  541.00	  526.82	-1719.32	  394.20
     35.1700	  549.00	  524.32	-1708.82	  393.97
     35.2700	  486.00	  522.35	-1769.85	  393.74
     35.3700	  515.00	  520.75	-1739.25	  393.51
     35.4700	  518.00	  519.42	-1734.92	  393.28
     35.5700	  459.00	  518.30	-1792.80	  393.06
     35.6700	  516.00	  517.34	-1734.84	  392.84
     35.7700	  476.00	  516.50	-1774.00	  392.61
     35.8700	  497.00	  515.77	-1752.27	  392.39
     35.9700	  502.00	  515.12	-1746.62	  392.18
     36.0700	  472.00	  515.01	-1776.51	  391.96
     36.1700	  517.00	  514.49	-1730.99	  391.74
     36.2700	  518.00	  514.03	-1729.53	  391.53
     36.3700	  508.00	  513.61	-1739.11	  391.32
     36.4700	  528.00	  513.23	-1718.73	  391.11
     36.5700	  514.00	  512.89	-1732.39	  390.90
     36.6700	  511.00	  512.60	-1735.10	  390.70
     36.7700	  497.00	  512.36	-1748.86	  390.49
     36.8700	  523.00	  512.19	-1722.69	  390.29
     36.9700	  501.00	  512.16	-1744.66	  390.09
     37.0700	  468.00	  512.40	-1777.90	  389.89
     37.1700	  539.00	  513.15	-1707.65	  389.69
     37.2700	  516.00	  514.74	-1732.24	  389.49
     37.3700	  463.00	  517.51	-1788.01	  389.30
     37.4700	  527.00	  521.41	-1727.91	  389.10
     37.5700	  525.00	  525.77	-1734.27	  388.91
     37.6700	  534.00	  529.17	-1728.67	  388.72
     37.7700	  531.00	  530.06	-1732.56	  388.53
     37.8700	  530.00	  528.07	-1731.57	  388.35
     37.9700	  561.00	  524.55	-1697.05	  388.16
     38.0700	  511.00	  520.70	-1743.20	  387.98
     38.1700	  510.00	  517.03	-1740.53	  387.80
     38.2700	  477.00	  513.90	-1770.40	  387.62
     38.3700	  497.00	  511.53	-1748.03	  387.44
     38.4700	  528.00	  509.89	-1715.39	  387.26
     38.5700	  453.00	  508.83	-1789.33	  387.09
     38.6700	  495.00	  508.04	-1746.54	  386.92
     38.7700	  522.00	  507.59	-1719.09	  386.75
     38.8700	  474.00	  507.26	-1766.76	  386.58
     38.9700	  476.00	  506.99	-1764.49	  386.41
     39.0700	  520.00	  506.75	-1720.25	  386.25
     39.1700	  491.00	  506.54	-1749.04	  386.08
     39.2700	  525.00	  506.26	-1714.76	  385.92
     39.3700	  563.00	  506.21	-1676.71	  385.76
     39.4700	  537.00	  506.05	-1702.55	  385.60
     39.5700	  478.00	  505.90	-1761.40	  385.44
     39.6700	  504.00	  505.75	-1735.25	  385.29
     39.7700	  483.00	  505.62	-1756.12	  385.14
     39.8700	  496.00	  505.50	-1743.00	  384.98
     39.9700	  515.00	  505.39	-1723.89	  384.84
     40.0700	  487.00	  505.28	-1751.78	  384.69
     40.1700	  480.00	  505.19	-1758.69	  384.54
     40.2700	  522.00	  505.11	-1716.61	  384.40
     40.3700	  477.00	  505.04	-1761.54	  384.25
     40.4700	  486.00	  504.99	-1752.49	  384.11
     40.5700	  527.00	  504.95	-1711.45	  383.97
     40.6700	  488.00	  504.93	-1750.43	  383.84
     40.7700	  519.00	  504.92	-1719.42	  383.70
