MSG Master    CELL:    5.88306   5.88306  23.11977   90.0000   90.0000  120.0000   SPGR: P 63/m m c             TEMP:    565.75
  2   1280     2.52000     0.00000    -0.09060     0.00000     0.00000    0
    96    96     0     0     2
       0.00000      10.00000
     125.00000     130.00000
 2Theta	Yobs	Ycal	Yobs-Ycal	Backg	Posr	(hkl)	K
      0.7700	    0.00	  928.24	-1944.39	  795.03
      0.8700	    0.00	  925.31	-1944.39	  792.09
      0.9700	   48.00	  922.39	-1944.39	  789.18
      1.0700	   47.00	  919.49	-1944.39	  786.28
      1.1700	   45.00	  916.61	-1944.39	  783.40
      1.2700	   43.00	  913.74	-1944.39	  780.53
      1.3700	   53.00	  910.90	-1944.39	  777.68
      1.4700	  108.00	  908.07	-1944.39	  774.85
      1.5700	  310.00	  905.25	-1944.39	  772.04
      1.6700	  488.00	  902.46	-1944.39	  769.25
      1.7700	  576.00	  899.68	-1944.39	  766.47
      1.8700	  626.00	  896.92	-1944.39	  763.71
      1.9700	  745.00	  894.17	-1944.39	  760.96
      2.0700	  766.00	  891.45	-1944.39	  758.23
      2.1700	  782.00	  888.74	-1944.39	  755.52
      2.2700	  781.00	  886.04	-1944.39	  752.83
      2.3700	  730.00	  883.36	-1944.39	  750.15
      2.4700	  719.00	  880.70	-1944.39	  747.49
      2.5700	  694.00	  878.06	-1944.39	  744.85
      2.6700	  677.00	  875.43	-1944.39	  742.22
      2.7700	  700.00	  872.82	-1944.39	  739.61
      2.8700	  635.00	  870.23	-1944.39	  737.01
      2.9700	  626.00	  867.65	-1944.39	  734.44
      3.0700	  654.00	  865.08	-1944.39	  731.87
      3.1700	  619.00	  862.54	-1944.39	  729.33
      3.2700	  753.00	  860.01	-1944.39	  726.80
      3.3700	  925.00	  857.49	-1944.39	  724.28
      3.4700	 1078.00	  855.00	-1944.39	  721.78
      3.5700	 1185.00	  852.51	-1944.39	  719.30
      3.6700	 1335.00	  850.05	-1944.39	  716.83
      3.7700	 1412.00	  847.60	-1944.39	  714.38
      3.8700	 1444.00	  845.16	-1944.39	  711.95
      3.9700	 1610.00	  842.74	-1944.39	  709.53
      4.0700	 1590.00	  840.34	-1944.39	  707.13
      4.1700	 1640.00	  837.95	-1944.39	  704.74
      4.2700	 1719.00	  835.58	-1944.39	  702.36
      4.3700	 1701.00	  833.22	-1944.39	  700.01
      4.4700	 1613.00	  830.87	-1944.39	  697.66
      4.5700	 1552.00	  828.55	-1944.39	  695.34
      4.6700	 1518.00	  826.23	-1944.39	  693.02
      4.7700	 1502.00	  823.94	-1944.39	  690.73
      4.8700	 1485.00	  821.66	-1944.39	  688.44
      4.9700	 1344.00	  819.39	-1944.39	  686.18
      5.0700	 1352.00	  817.14	-1944.39	  683.92
      5.1700	 1314.00	  814.90	-1944.39	  681.69
      5.2700	 1231.00	  812.68	-1944.39	  679.46
      5.3700	 1257.00	  810.47	-1944.39	  677.25
      5.4700	 1172.00	  808.27	-1944.39	  675.06
      5.5700	 1172.00	  806.09	-1944.39	  672.88
      5.6700	 1196.00	  803.93	-1944.39	  670.72
      5.7700	 1132.00	  801.78	-1944.39	  668.57
      5.8700	 1083.00	  799.64	-1944.39	  666.43
      5.9700	 1081.00	  797.52	-1944.39	  664.31
      6.0700	 1069.00	  795.41	-1944.39	  662.20
      6.1700	 1011.00	  793.32	-1944.39	  660.11
      6.2700	 1021.00	  791.24	-1944.39	  658.03
      6.3700	 1045.00	  789.18	-1944.39	  655.97
      6.4700	  993.00	  787.13	-1944.39	  653.91
      6.5700	  954.00	  785.09	-1944.39	  651.88
      6.6700	  959.00	  783.07	-1944.39	  649.85
      6.7700	  928.00	  781.06	-1944.39	  647.85
      6.8700	  895.00	  779.06	-1944.39	  645.85
      6.9700	  971.00	  777.08	-1944.39	  643.87
      7.0700	  896.00	  775.11	-1944.39	  641.90
      7.1700	  904.00	  773.16	-1944.39	  639.94
      7.2700	  869.00	  771.21	-1944.39	  638.00
      7.3700	  858.00	  769.29	-1944.39	  636.07
      7.4700	  841.00	  767.37	-1944.39	  634.16
      7.5700	  834.00	  765.47	-1944.39	  632.26
      7.6700	  814.00	  763.58	-1944.39	  630.37
      7.7700	  811.00	  761.71	-1944.39	  628.50
      7.8700	  815.00	  759.85	-1944.39	  626.63
      7.9700	  817.00	  758.00	-1944.39	  624.79
      8.0700	  818.00	  756.16	-1944.39	  622.95
      8.1700	  763.00	  754.34	-1944.39	  621.13
      8.2700	  759.00	  752.53	-1944.39	  619.32
      8.3700	  807.00	  750.73	-1944.39	  617.52
      8.4700	  770.00	  748.95	-1944.39	  615.74
      8.5700	  800.00	  747.18	-1944.39	  613.96
      8.6700	  783.00	  745.42	-1944.39	  612.21
      8.7700	  703.00	  743.67	-1944.39	  610.46
      8.8700	  766.00	  741.94	-1944.39	  608.73
      8.9700	  725.00	  740.22	-1944.39	  607.00
      9.0700	  771.00	  738.51	-1944.39	  605.29
      9.1700	  753.00	  736.81	-1944.39	  603.60
      9.2700	  741.00	  735.13	-1944.39	  601.91
      9.3700	  707.00	  733.45	-1944.39	  600.24
      9.4700	  750.00	  731.79	-1944.39	  598.58
      9.5700	  735.00	  730.15	-1944.39	  596.93
      9.6700	  811.00	  728.51	-1944.39	  595.30
      9.7700	  742.00	  726.89	-1944.39	  593.67
      9.8700	  699.00	  725.27	-1944.39	  592.06
      9.9700	  735.00	  723.67	-1944.39	  590.46
     10.0700	  704.00	  724.19	-1964.58	  588.88
     10.1700	  762.00	  722.84	-1905.23	  587.30
     10.2700	  696.00	  721.55	-1969.94	  585.73
     10.3700	  728.00	  720.34	-1936.73	  584.18
     10.4700	  684.00	  719.22	-1979.61	  582.64
     10.5700	  684.00	  718.25	-1978.64	  581.11
     10.6700	  742.00	  717.49	-1919.87	  579.59
     10.7700	  741.00	  717.01	-1920.40	  578.09
     10.8700	  707.00	  716.91	-1954.30	  576.59
     10.9700	  744.00	  717.29	-1917.68	  575.11
     11.0700	  696.00	  718.18	-1966.56	  573.63
     11.1700	  742.00	  719.59	-1921.98	  572.17
     11.2700	  677.00	  721.55	-1988.94	  570.72
     11.3700	  729.00	  724.12	-1939.51	  569.28
     11.4700	  720.00	  727.38	-1951.77	  567.85
     11.5700	  708.00	  731.49	-1967.88	  566.44
     11.6700	  773.00	  736.70	-1908.09	  565.03
     11.7700	  763.00	  743.30	-1924.68	  563.63
     11.8700	  816.00	  751.56	-1879.95	  562.25
     11.9700	  809.00	  761.51	-1896.90	  560.88
     12.0700	  807.00	  772.49	-1909.88	  559.51
     12.1700	  845.00	  782.60	-1881.98	  558.16
     12.2700	  868.00	  788.17	-1864.55	  556.82
     12.3700	  837.00	  784.35	-1891.74	  555.49
     12.4700	  840.00	  769.32	-1873.71	  554.17
     12.5700	  719.00	  748.47	-1973.85	  552.86
     12.6700	  737.00	  728.90	-1936.29	  551.56
     12.7700	  713.00	  713.78	-1945.16	  550.27
     12.8700	  690.00	  703.09	-1957.47	  548.99
     12.9700	  690.00	  695.83	-1950.22	  547.72
     13.0700	  678.00	  690.84	-1957.22	  546.46
     13.1700	  676.00	  687.20	-1955.59	  545.21
     13.2700	  596.00	  684.34	-2032.73	  543.97
     13.3700	  671.00	  681.94	-1955.33	  542.74
     13.4700	  657.00	  679.83	-1967.22	  541.53
     13.5700	  649.00	  677.92	-1973.31	  540.32
     13.6700	  639.00	  676.16	-1981.55	  539.12
     13.7700	  671.00	  674.52	-1947.91	  537.93
     13.8700	  652.00	  672.96	-1965.35	  536.75
     13.9700	  678.00	  671.48	-1937.87	  535.58
     14.0700	  648.00	  670.06	-1966.44	  534.42
     14.1700	  701.00	  668.68	-1912.07	  533.27
     14.2700	  630.00	  667.35	-1981.74	  532.13
     14.3700	  639.00	  666.05	-1971.44	  531.00
     14.4700	  674.00	  664.78	-1935.17	  529.88
     14.5700	  663.00	  663.55	-1944.93	  528.77
     14.6700	  656.00	  662.33	-1950.72	  527.67
     14.7700	  651.00	  661.14	-1954.53	  526.57
     14.8700	  632.00	  659.97	-1972.36	  525.49
     14.9700	  613.00	  658.82	-1990.20	  524.41
     15.0700	  689.00	  657.68	-1913.07	  523.35
     15.1700	  679.00	  656.56	-1921.95	  522.29
     15.2700	  658.00	  655.46	-1941.84	  521.25
     15.3700	  648.00	  654.37	-1950.76	  520.21
     15.4700	  625.00	  653.29	-1972.68	  519.18
     15.5700	  613.00	  652.23	-1983.62	  518.16
     15.6700	  626.00	  651.18	-1969.57	  517.15
     15.7700	  626.00	  650.14	-1968.53	  516.14
     15.8700	  612.00	  649.12	-1981.50	  515.15
     15.9700	  673.00	  648.10	-1919.49	  514.17
     16.0700	  636.00	  647.10	-1955.49	  513.19
     16.1700	  680.00	  646.10	-1910.49	  512.22
     16.2700	  623.00	  645.12	-1966.51	  511.26
     16.3700	  655.00	  644.15	-1933.54	  510.31
     16.4700	  624.00	  643.19	-1963.58	  509.37
     16.5700	  661.00	  642.24	-1925.63	  508.44
     16.6700	  631.00	  641.30	-1954.68	  507.51
     16.7700	  623.00	  640.36	-1961.75	  506.60
     16.8700	  614.00	  639.44	-1969.83	  505.69
     16.9700	  662.00	  638.53	-1920.92	  504.79
     17.0700	  685.00	  637.62	-1897.01	  503.90
     17.1700	  644.00	  636.73	-1937.12	  503.01
     17.2700	  634.00	  635.84	-1946.23	  502.14
     17.3700	  681.00	  634.97	-1898.35	  501.27
     17.4700	  634.00	  634.10	-1944.48	  500.41
     17.5700	  665.00	  633.24	-1912.63	  499.56
     17.6700	  647.00	  632.39	-1929.77	  498.71
     17.7700	  610.00	  631.54	-1965.93	  497.88
     17.8700	  642.00	  630.71	-1933.10	  497.05
     17.9700	  663.00	  629.88	-1911.27	  496.23
     18.0700	  621.00	  629.07	-1952.45	  495.42
     18.1700	  612.00	  628.26	-1960.65	  494.62
     18.2700	  648.00	  627.46	-1923.84	  493.82
     18.3700	  669.00	  626.66	-1902.05	  493.03
     18.4700	  651.00	  625.88	-1919.27	  492.25
     18.5700	  637.00	  625.10	-1932.49	  491.48
     18.6700	  628.00	  624.33	-1940.72	  490.71
     18.7700	  620.00	  623.57	-1947.96	  489.95
     18.8700	  647.00	  622.82	-1920.21	  489.20
     18.9700	  613.00	  624.73	-1956.12	  488.46
     19.0700	  668.00	  624.05	-1900.44	  487.72
     19.1700	  604.00	  623.38	-1963.77	  486.99
     19.2700	  601.00	  622.72	-1966.10	  486.27
     19.3700	  618.00	  622.06	-1948.45	  485.55
     19.4700	  687.00	  621.42	-1878.81	  484.84
     19.5700	  620.00	  620.78	-1945.17	  484.14
     19.6700	  575.00	  620.16	-1989.55	  483.45
     19.7700	  661.00	  619.55	-1902.93	  482.76
     19.8700	  639.00	  618.94	-1924.33	  482.08
     19.9700	  601.00	  618.35	-1961.73	  481.41
     20.0700	  607.00	  617.76	-1955.15	  480.75
     20.1700	  589.00	  617.24	-1972.62	  480.09
     20.2700	  623.00	  616.67	-1938.06	  479.44
     20.3700	  609.00	  616.12	-1951.51	  478.79
     20.4700	  594.00	  615.58	-1965.97	  478.15
     20.5700	  593.00	  615.05	-1966.44	  477.52
     20.6700	  665.00	  614.53	-1893.91	  476.90
     20.7700	  627.00	  614.02	-1931.41	  476.28
     20.8700	  613.00	  613.52	-1944.91	  475.67
     20.9700	  608.00	  613.03	-1949.42	  475.06
     21.0700	  649.00	  612.56	-1907.95	  474.46
     21.1700	  598.00	  612.10	-1958.48	  473.87
     21.2700	  650.00	  611.65	-1906.03	  473.28
     21.3700	  617.00	  611.21	-1938.60	  472.70
     21.4700	  603.00	  610.79	-1952.17	  472.13
     21.5700	  579.00	  610.38	-1975.76	  471.56
     21.6700	  607.00	  609.98	-1947.37	  471.00
     21.7700	  589.00	  609.60	-1964.99	  470.45
     21.8700	  606.00	  609.23	-1947.62	  469.90
     21.9700	  589.00	  608.88	-1964.27	  469.36
     22.0700	  562.00	  608.55	-1990.94	  468.82
     22.1700	  624.00	  608.23	-1928.62	  468.29
     22.2700	  592.00	  607.94	-1960.33	  467.77
     22.3700	  667.00	  607.85	-1885.24	  467.25
     22.4700	  609.00	  607.60	-1942.99	  466.74
     22.5700	  609.00	  607.37	-1942.76	  466.23
     22.6700	  646.00	  607.17	-1905.56	  465.73
     22.7700	  652.00	  606.99	-1899.38	  465.24
     22.8700	  619.00	  606.84	-1932.23	  464.75
     22.9700	  591.00	  606.72	-1960.11	  464.26
     23.0700	  559.00	  606.64	-1992.03	  463.79
     23.1700	  611.00	  606.60	-1939.99	  463.32
     23.2700	  626.00	  606.61	-1924.99	  462.85
     23.3700	  589.00	  606.67	-1962.05	  462.39
     23.4700	  656.00	  606.79	-1895.18	  461.94
     23.5700	  602.00	  606.99	-1949.37	  461.49
     23.6700	  598.00	  607.28	-1953.67	  461.04
     23.7700	  610.00	  607.69	-1942.08	  460.60
     23.8700	  659.00	  608.28	-1893.67	  460.17
     23.9700	  611.00	  609.11	-1942.49	  459.74
     24.0700	  660.00	  610.31	-1894.70	  459.32
     24.1700	  624.00	  612.08	-1932.47	  458.90
     24.2700	  609.00	  614.68	-1950.06	  458.49
     24.3700	  636.00	  618.59	-1926.98	  458.09
     24.4700	  625.00	  624.20	-1943.58	  457.69
     24.5700	  668.00	  631.74	-1908.13	  457.29
     24.6700	  683.00	  641.12	-1902.50	  456.90
     24.7700	  678.00	  651.56	-1917.95	  456.51
     24.8700	  718.00	  661.34	-1887.73	  456.13
     24.9700	  730.00	  667.46	-1881.85	  455.76
     25.0700	  746.00	  666.64	-1865.03	  455.39
     25.1700	  681.00	  658.65	-1922.04	  455.02
     25.2700	  682.00	  647.62	-1910.01	  454.66
     25.3700	  615.00	  637.75	-1967.14	  454.30
     25.4700	  619.00	  630.57	-1955.96	  453.95
     25.5700	  611.00	  626.17	-1959.56	  453.60
     25.6700	  589.00	  624.00	-1979.39	  453.26
     25.7700	  611.00	  623.39	-1956.78	  452.93
     25.8700	  621.00	  623.85	-1947.23	  452.59
     25.9700	  615.00	  625.04	-1954.43	  452.27
     26.0700	  627.00	  626.81	-1944.20	  451.94
     26.1700	  642.00	  629.12	-1931.51	  451.62
     26.2700	  623.00	  631.96	-1953.35	  451.31
     26.3700	  673.00	  635.38	-1906.77	  451.00
     26.4700	  663.00	  639.46	-1920.85	  450.70
     26.5700	  637.00	  644.31	-1951.69	  450.40
     26.6700	  666.00	  650.07	-1928.45	  450.10
     26.7700	  650.00	  656.94	-1951.32	  449.81
     26.8700	  642.00	  665.18	-1967.57	  449.52
     26.9700	  645.00	  675.14	-1974.53	  449.24
     27.0700	  691.00	  687.32	-1940.71	  448.96
     27.1700	  674.00	  702.39	-1972.78	  448.69
     27.2700	  738.00	  721.37	-1927.75	  448.42
     27.3700	  684.00	  745.90	-2006.29	  448.15
     27.4700	  705.00	  779.16	-2018.55	  447.89
     27.5700	  729.00	  827.95	-2043.34	  447.63
     27.6700	  788.00	  906.95	-2063.33	  447.38
     27.7700	  807.00	 1045.25	-2182.64	  447.13
     27.8700	 1005.00	 1293.31	-2232.70	  446.88
     27.9700	 1269.00	 1724.59	-2399.98	  446.64
     28.0700	 1913.00	 2419.47	-2450.86	  446.40
     28.1700	 3191.00	 3418.88	-2172.27	  446.17
     28.2700	 4980.00	 4641.17	-1605.56	  445.94
     28.3700	 6540.00	 5787.76	-1192.15	  445.72
     28.4700	 7218.00	 6343.24	-1069.63	  445.49
     28.5700	 6403.00	 5896.52	-1437.91	  445.28
     28.6700	 4665.00	 4784.55	-2063.94	  445.06
     28.7700	 3514.00	 3791.16	-2221.55	  444.85
     28.8700	 3056.00	 3327.37	-2215.76	  444.65
     28.9700	 3462.00	 3367.81	-1850.20	  444.44
     29.0700	 3878.00	 3630.73	-1697.11	  444.24
     29.1700	 4014.00	 3736.17	-1666.55	  444.05
     29.2700	 3476.00	 3402.57	-1870.96	  443.85
     29.3700	 2728.00	 2720.29	-1936.68	  443.67
     29.4700	 1984.00	 2014.67	-1975.05	  443.48
     29.5700	 1366.00	 1478.24	-2056.62	  443.30
     29.6700	 1052.00	 1139.62	-2032.00	  443.12
     29.7700	  913.00	  950.28	-1981.67	  442.95
     29.8700	  861.00	  848.60	-1931.99	  442.78
     29.9700	  775.00	  790.67	-1960.06	  442.61
     30.0700	  782.00	  753.52	-1915.91	  442.44
     30.1700	  747.00	  727.23	-1924.62	  442.28
     30.2700	  681.00	  707.75	-1971.14	  442.13
     30.3700	  677.00	  693.41	-1960.80	  441.97
     30.4700	  683.00	  683.68	-1945.07	  441.82
     30.5700	  698.00	  678.90	-1925.29	  441.67
     30.6700	  680.00	  680.12	-1944.50	  441.53
     30.7700	  674.00	  688.60	-1958.99	  441.39
     30.8700	  671.00	  704.65	-1978.04	  441.25
     30.9700	  766.00	  726.07	-1904.46	  441.11
     31.0700	  754.00	  746.89	-1937.28	  440.98
     31.1700	  761.00	  757.24	-1940.63	  440.85
     31.2700	  750.00	  747.57	-1941.96	  440.72
     31.3700	  748.00	  719.54	-1915.93	  440.60
     31.4700	  747.00	  686.25	-1883.64	  440.48
     31.5700	  676.00	  657.96	-1926.35	  440.36
     31.6700	  629.00	  637.84	-1953.23	  440.25
     31.7700	  641.00	  625.04	-1928.43	  440.14
     31.8700	  641.00	  617.31	-1920.69	  440.03
     31.9700	  659.00	  612.53	-1897.92	  439.92
     32.0700	  647.00	  609.35	-1906.73	  439.82
     32.1700	  576.00	  607.05	-1975.44	  439.72
     32.2700	  602.00	  605.33	-1947.72	  439.62
     32.3700	  586.00	  604.04	-1962.43	  439.53
     32.4700	  632.00	  603.11	-1915.50	  439.43
     32.5700	  632.00	  602.52	-1914.91	  439.34
     32.6700	  644.00	  602.27	-1902.66	  439.26
     32.7700	  616.00	  602.36	-1930.75	  439.17
     32.8700	  580.00	  602.87	-1967.26	  439.09
     32.9700	  654.00	  603.80	-1894.18	  439.01
     33.0700	  577.00	  605.27	-1972.66	  438.94
     33.1700	  655.00	  607.47	-1896.86	  438.86
     33.2700	  607.00	  610.69	-1948.08	  438.79
     33.3700	  617.00	  615.53	-1942.92	  438.72
     33.4700	  653.00	  623.15	-1914.54	  438.66
     33.5700	  611.00	  635.76	-1969.15	  438.59
     33.6700	  669.00	  657.17	-1932.56	  438.53
     33.7700	  697.00	  692.91	-1940.30	  438.47
     33.8700	  797.00	  749.20	-1896.59	  438.41
     33.9700	  865.00	  829.60	-1908.98	  438.36
     34.0700	  936.00	  929.59	-1937.98	  438.31
     34.1700	 1149.00	 1031.78	-1827.17	  438.26
     34.2700	 1227.00	 1104.46	-1821.85	  438.21
     34.3700	 1267.00	 1110.95	-1788.34	  438.16
     34.4700	 1164.00	 1041.38	-1821.77	  438.12
     34.5700	  958.00	  931.41	-1917.80	  438.08
     34.6700	  820.00	  823.94	-1948.33	  438.04
     34.7700	  703.00	  740.02	-1981.40	  438.00
     34.8700	  750.00	  682.99	-1877.38	  437.97
     34.9700	  686.00	  647.85	-1906.24	  437.93
     35.0700	  697.00	  627.31	-1874.70	  437.90
     35.1700	  612.00	  615.20	-1947.59	  437.87
     35.2700	  661.00	  607.57	-1890.96	  437.85
     35.3700	  629.00	  602.31	-1917.70	  437.82
     35.4700	  638.00	  598.42	-1904.81	  437.80
     35.5700	  586.00	  595.40	-1953.79	  437.78
     35.6700	  591.00	  593.01	-1946.39	  437.76
     35.7700	  610.00	  591.07	-1925.46	  437.74
     35.8700	  618.00	  589.50	-1915.89	  437.73
     35.9700	  543.00	  588.22	-1989.61	  437.71
     36.0700	  612.00	  587.17	-1919.56	  437.70
     36.1700	  626.00	  586.31	-1904.70	  437.69
     36.2700	  573.00	  585.63	-1957.02	  437.68
     36.3700	  603.00	  585.10	-1926.48	  437.68
     36.4700	  625.00	  584.70	-1904.09	  437.67
     36.5700	  586.00	  584.44	-1942.83	  437.67
     36.6700	  612.00	  584.31	-1916.70	  437.67
     36.7700	  604.00	  584.33	-1924.72	  437.67
     36.8700	  580.00	  584.51	-1948.89	  437.67
     36.9700	  625.00	  584.87	-1904.26	  437.67
     37.0700	  593.00	  586.18	-1937.57	  437.68
     37.1700	  608.00	  587.15	-1923.53	  437.69
     37.2700	  576.00	  588.62	-1957.01	  437.69
     37.3700	  623.00	  590.86	-1912.24	  437.70
     37.4700	  561.00	  594.38	-1977.76	  437.71
     37.5700	  614.00	  599.95	-1930.34	  437.73
     37.6700	  586.00	  608.53	-1966.92	  437.74
     37.7700	  644.00	  621.45	-1921.84	  437.76
     37.8700	  644.00	  639.80	-1940.19	  437.78
     37.9700	  664.00	  663.69	-1944.07	  437.79
     38.0700	  702.00	  691.28	-1933.67	  437.81
     38.1700	  705.00	  716.54	-1955.93	  437.84
     38.2700	  714.00	  735.30	-1965.68	  437.86
     38.3700	  667.00	  737.26	-2014.65	  437.88
     38.4700	  737.00	  719.48	-1926.87	  437.91
     38.5700	  633.00	  689.65	-2001.04	  437.93
     38.6700	  645.00	  658.61	-1958.00	  437.96
     38.7700	  610.00	  632.72	-1967.11	  437.99
     38.8700	  602.00	  613.83	-1956.22	  438.02
     38.9700	  589.00	  601.33	-1956.72	  438.05
     39.0700	  621.00	  593.58	-1916.97	  438.09
     39.1700	  570.00	  588.89	-1963.28	  438.12
     39.2700	  615.00	  585.98	-1915.37	  438.16
     39.3700	  559.00	  584.07	-1969.45	  438.19
     39.4700	  585.00	  582.70	-1942.09	  438.23
     39.5700	  582.00	  580.74	-1943.13	  438.27
     39.6700	  568.00	  579.97	-1956.36	  438.31
     39.7700	  595.00	  579.36	-1928.75	  438.35
     39.8700	  609.00	  578.88	-1914.27	  438.39
     39.9700	  569.00	  578.51	-1953.89	  438.43
     40.0700	  585.00	  578.21	-1937.60	  438.48
     40.1700	  589.00	  577.98	-1933.37	  438.52
     40.2700	  576.00	  577.81	-1946.20	  438.57
     40.3700	  615.00	  577.69	-1907.08	  438.61
     40.4700	  584.00	  577.62	-1938.01	  438.66
     40.5700	  602.00	  577.58	-1919.97	  438.71
     40.6700	  601.00	  577.59	-1920.97	  438.76
     40.7700	  564.00	  578.15	-1958.54	  438.81
