MSG Master    CELL:    5.88494   5.88494  23.13194   90.0000   90.0000  120.0000   SPGR: P 63/m m c             TEMP:    590.15
  2   1280     2.52000     0.00000    -0.08930     0.00000     0.00000    0
    96    96     0     0     2
       0.00000      10.00000
     125.00000     130.00000
 2Theta	Yobs	Ycal	Yobs-Ycal	Backg	Posr	(hkl)	K
      0.7700	    0.00	  906.88	-1931.24	  776.84
      0.8700	    0.00	  904.10	-1931.24	  774.06
      0.9700	   47.00	  901.34	-1931.24	  771.29
      1.0700	   54.00	  898.59	-1931.24	  768.54
      1.1700	   46.00	  895.86	-1931.24	  765.81
      1.2700	   63.00	  893.14	-1931.24	  763.10
      1.3700	   47.00	  890.44	-1931.24	  760.40
      1.4700	   77.00	  887.76	-1931.24	  757.71
      1.5700	  280.00	  885.09	-1931.24	  755.05
      1.6700	  466.00	  882.44	-1931.24	  752.39
      1.7700	  540.00	  879.80	-1931.24	  749.76
      1.8700	  644.00	  877.18	-1931.24	  747.14
      1.9700	  747.00	  874.58	-1931.24	  744.53
      2.0700	  798.00	  871.99	-1931.24	  741.95
      2.1700	  762.00	  869.42	-1931.24	  739.37
      2.2700	  766.00	  866.86	-1931.24	  736.82
      2.3700	  794.00	  864.32	-1931.24	  734.27
      2.4700	  693.00	  861.79	-1931.24	  731.75
      2.5700	  670.00	  859.28	-1931.24	  729.24
      2.6700	  673.00	  856.78	-1931.24	  726.74
      2.7700	  666.00	  854.30	-1931.24	  724.26
      2.8700	  647.00	  851.84	-1931.24	  721.79
      2.9700	  648.00	  849.39	-1931.24	  719.34
      3.0700	  626.00	  846.95	-1931.24	  716.91
      3.1700	  610.00	  844.53	-1931.24	  714.49
      3.2700	  736.00	  842.13	-1931.24	  712.08
      3.3700	  888.00	  839.73	-1931.24	  709.69
      3.4700	 1112.00	  837.36	-1931.24	  707.31
      3.5700	 1163.00	  835.00	-1931.24	  704.95
      3.6700	 1255.00	  832.65	-1931.24	  702.61
      3.7700	 1483.00	  830.32	-1931.24	  700.28
      3.8700	 1540.00	  828.00	-1931.24	  697.96
      3.9700	 1578.00	  825.70	-1931.24	  695.65
      4.0700	 1624.00	  823.41	-1931.24	  693.37
      4.1700	 1749.00	  821.14	-1931.24	  691.09
      4.2700	 1678.00	  818.88	-1931.24	  688.83
      4.3700	 1579.00	  816.63	-1931.24	  686.59
      4.4700	 1578.00	  814.40	-1931.24	  684.36
      4.5700	 1600.00	  812.18	-1931.24	  682.14
      4.6700	 1525.00	  809.98	-1931.24	  679.94
      4.7700	 1403.00	  807.79	-1931.24	  677.75
      4.8700	 1436.00	  805.62	-1931.24	  675.57
      4.9700	 1435.00	  803.46	-1931.24	  673.41
      5.0700	 1387.00	  801.31	-1931.24	  671.26
      5.1700	 1287.00	  799.17	-1931.24	  669.13
      5.2700	 1261.00	  797.05	-1931.24	  667.01
      5.3700	 1197.00	  794.95	-1931.24	  664.90
      5.4700	 1184.00	  792.86	-1931.24	  662.81
      5.5700	 1165.00	  790.78	-1931.24	  660.73
      5.6700	 1121.00	  788.71	-1931.24	  658.67
      5.7700	 1144.00	  786.66	-1931.24	  656.62
      5.8700	 1044.00	  784.62	-1931.24	  654.58
      5.9700	 1017.00	  782.60	-1931.24	  652.55
      6.0700	 1031.00	  780.58	-1931.24	  650.54
      6.1700	  975.00	  778.59	-1931.24	  648.54
      6.2700	 1008.00	  776.60	-1931.24	  646.56
      6.3700	 1019.00	  774.63	-1931.24	  644.58
      6.4700	  987.00	  772.67	-1931.24	  642.62
      6.5700	  980.00	  770.72	-1931.24	  640.68
      6.6700	  997.00	  768.79	-1931.24	  638.74
      6.7700	  862.00	  766.87	-1931.24	  636.82
      6.8700	  907.00	  764.96	-1931.24	  634.92
      6.9700	  880.00	  763.07	-1931.24	  633.02
      7.0700	  926.00	  761.18	-1931.24	  631.14
      7.1700	  855.00	  759.31	-1931.24	  629.27
      7.2700	  884.00	  757.46	-1931.24	  627.41
      7.3700	  830.00	  755.61	-1931.24	  625.57
      7.4700	  836.00	  753.78	-1931.24	  623.74
      7.5700	  865.00	  751.96	-1931.24	  621.92
      7.6700	  838.00	  750.15	-1931.24	  620.11
      7.7700	  802.00	  748.36	-1931.24	  618.31
      7.8700	  786.00	  746.58	-1931.24	  616.53
      7.9700	  814.00	  744.81	-1931.24	  614.76
      8.0700	  794.00	  743.05	-1931.24	  613.00
      8.1700	  814.00	  741.30	-1931.24	  611.26
      8.2700	  816.00	  739.57	-1931.24	  609.52
      8.3700	  778.00	  737.85	-1931.24	  607.80
      8.4700	  744.00	  736.14	-1931.24	  606.09
      8.5700	  803.00	  734.44	-1931.24	  604.39
      8.6700	  735.00	  732.75	-1931.24	  602.71
      8.7700	  748.00	  731.08	-1931.24	  601.03
      8.8700	  758.00	  729.41	-1931.24	  599.37
      8.9700	  790.00	  727.76	-1931.24	  597.72
      9.0700	  727.00	  726.12	-1931.24	  596.08
      9.1700	  743.00	  724.50	-1931.24	  594.45
      9.2700	  747.00	  722.88	-1931.24	  592.84
      9.3700	  689.00	  721.28	-1931.24	  591.23
      9.4700	  763.00	  719.68	-1931.24	  589.64
      9.5700	  732.00	  718.10	-1931.24	  588.06
      9.6700	  746.00	  716.53	-1931.24	  586.49
      9.7700	  741.00	  714.97	-1931.24	  584.93
      9.8700	  719.00	  713.42	-1931.24	  583.38
      9.9700	  705.00	  711.89	-1931.24	  581.84
     10.0700	  724.00	  712.42	-1919.65	  580.32
     10.1700	  708.00	  711.13	-1934.37	  578.80
     10.2700	  680.00	  709.90	-1961.13	  577.30
     10.3700	  711.00	  708.74	-1928.97	  575.80
     10.4700	  686.00	  707.68	-1952.91	  574.32
     10.5700	  733.00	  706.76	-1905.00	  572.85
     10.6700	  696.00	  706.05	-1941.29	  571.39
     10.7700	  726.00	  705.63	-1910.87	  569.94
     10.8700	  721.00	  705.61	-1915.85	  568.50
     10.9700	  691.00	  706.06	-1946.29	  567.08
     11.0700	  674.00	  707.02	-1964.25	  565.66
     11.1700	  719.00	  708.51	-1920.74	  564.25
     11.2700	  749.00	  710.54	-1892.78	  562.86
     11.3700	  743.00	  713.18	-1901.42	  561.47
     11.4700	  699.00	  716.53	-1948.76	  560.09
     11.5700	  736.00	  720.73	-1915.97	  558.73
     11.6700	  758.00	  726.04	-1899.28	  557.37
     11.7700	  756.00	  732.78	-1908.02	  556.03
     11.8700	  755.00	  741.24	-1917.48	  554.70
     11.9700	  787.00	  751.45	-1895.69	  553.37
     12.0700	  842.00	  762.72	-1851.96	  552.06
     12.1700	  864.00	  773.04	-1840.28	  550.75
     12.2700	  804.00	  778.54	-1905.78	  549.46
     12.3700	  868.00	  774.18	-1837.42	  548.18
     12.4700	  760.00	  758.36	-1929.60	  546.90
     12.5700	  676.00	  737.02	-1992.25	  545.64
     12.6700	  728.00	  717.38	-1920.62	  544.38
     12.7700	  660.00	  702.40	-1973.64	  543.14
     12.8700	  685.00	  691.98	-1938.22	  541.90
     12.9700	  673.00	  685.01	-1943.25	  540.68
     13.0700	  640.00	  680.23	-1971.47	  539.46
     13.1700	  613.00	  676.75	-1994.99	  538.26
     13.2700	  644.00	  674.01	-1961.24	  537.06
     13.3700	  686.00	  671.69	-1916.93	  535.88
     13.4700	  629.00	  669.66	-1971.90	  534.70
     13.5700	  624.00	  667.82	-1975.06	  533.53
     13.6700	  673.00	  666.12	-1924.36	  532.37
     13.7700	  611.00	  664.53	-1984.77	  531.22
     13.8700	  679.00	  663.03	-1915.27	  530.08
     13.9700	  681.00	  661.60	-1911.83	  528.95
     14.0700	  673.00	  660.22	-1918.46	  527.83
     14.1700	  675.00	  658.89	-1915.13	  526.72
     14.2700	  644.00	  657.60	-1944.84	  525.62
     14.3700	  637.00	  656.35	-1950.58	  524.52
     14.4700	  678.00	  655.12	-1908.36	  523.44
     14.5700	  654.00	  653.92	-1931.16	  522.36
     14.6700	  646.00	  652.75	-1937.98	  521.29
     14.7700	  611.00	  651.59	-1971.83	  520.23
     14.8700	  654.00	  650.46	-1927.70	  519.18
     14.9700	  661.00	  649.34	-1919.58	  518.14
     15.0700	  600.00	  648.24	-1979.48	  517.11
     15.1700	  634.00	  647.16	-1944.39	  516.09
     15.2700	  637.00	  646.09	-1940.32	  515.07
     15.3700	  634.00	  645.03	-1942.27	  514.07
     15.4700	  641.00	  643.99	-1934.23	  513.07
     15.5700	  639.00	  642.96	-1935.20	  512.08
     15.6700	  617.00	  641.94	-1956.18	  511.10
     15.7700	  603.00	  640.93	-1969.17	  510.13
     15.8700	  616.00	  639.94	-1955.17	  509.16
     15.9700	  641.00	  638.95	-1929.19	  508.21
     16.0700	  631.00	  637.98	-1938.22	  507.26
     16.1700	  669.00	  637.02	-1899.25	  506.32
     16.2700	  620.00	  636.06	-1947.30	  505.39
     16.3700	  622.00	  635.12	-1944.36	  504.46
     16.4700	  621.00	  634.19	-1944.42	  503.55
     16.5700	  598.00	  633.26	-1966.50	  502.64
     16.6700	  604.00	  632.35	-1959.58	  501.74
     16.7700	  604.00	  631.44	-1958.68	  500.85
     16.8700	  594.00	  630.54	-1967.78	  499.97
     16.9700	  626.00	  629.66	-1934.89	  499.10
     17.0700	  661.00	  628.78	-1899.01	  498.23
     17.1700	  576.00	  627.91	-1983.14	  497.37
     17.2700	  641.00	  627.04	-1917.28	  496.52
     17.3700	  637.00	  626.19	-1920.43	  495.67
     17.4700	  635.00	  625.35	-1921.58	  494.84
     17.5700	  595.00	  624.51	-1960.75	  494.01
     17.6700	  637.00	  623.68	-1917.92	  493.19
     17.7700	  639.00	  622.86	-1915.10	  492.38
     17.8700	  627.00	  622.05	-1926.29	  491.57
     17.9700	  671.00	  621.25	-1881.48	  490.77
     18.0700	  659.00	  620.45	-1892.69	  489.98
     18.1700	  636.00	  619.66	-1914.90	  489.20
     18.2700	  612.00	  618.88	-1938.12	  488.42
     18.3700	  634.00	  618.11	-1915.35	  487.65
     18.4700	  610.00	  617.34	-1938.58	  486.89
     18.5700	  646.00	  616.59	-1901.82	  486.14
     18.6700	  623.00	  615.84	-1924.07	  485.39
     18.7700	  595.00	  615.10	-1951.33	  484.65
     18.8700	  666.00	  615.91	-1881.14	  483.92
     18.9700	  657.00	  616.11	-1890.34	  483.19
     19.0700	  575.00	  615.44	-1971.68	  482.47
     19.1700	  667.00	  614.78	-1879.02	  481.76
     19.2700	  569.00	  614.13	-1976.37	  481.06
     19.3700	  619.00	  613.49	-1925.73	  480.36
     19.4700	  616.00	  612.86	-1928.10	  479.67
     19.5700	  611.00	  612.24	-1932.47	  478.98
     19.6700	  634.00	  611.63	-1908.86	  478.31
     19.7700	  603.00	  611.02	-1939.26	  477.63
     19.8700	  622.00	  610.43	-1919.66	  476.97
     19.9700	  602.00	  609.84	-1939.08	  476.31
     20.0700	  644.00	  609.27	-1896.51	  475.66
     20.1700	  637.00	  608.76	-1902.99	  475.02
     20.2700	  568.00	  608.20	-1971.44	  474.38
     20.3700	  617.00	  607.66	-1921.89	  473.75
     20.4700	  598.00	  607.12	-1940.36	  473.13
     20.5700	  639.00	  606.60	-1898.84	  472.51
     20.6700	  566.00	  606.09	-1971.32	  471.90
     20.7700	  603.00	  605.58	-1933.82	  471.29
     20.8700	  618.00	  605.09	-1918.33	  470.69
     20.9700	  596.00	  604.61	-1939.85	  470.10
     21.0700	  614.00	  604.14	-1921.38	  469.51
     21.1700	  633.00	  603.68	-1901.92	  468.93
     21.2700	  611.00	  603.24	-1923.47	  468.36
     21.3700	  559.00	  602.80	-1975.04	  467.79
     21.4700	  615.00	  602.38	-1918.62	  467.23
     21.5700	  613.00	  601.97	-1920.21	  466.67
     21.6700	  572.00	  601.58	-1960.82	  466.12
     21.7700	  609.00	  601.20	-1923.43	  465.58
     21.8700	  570.00	  600.83	-1962.07	  465.04
     21.9700	  633.00	  600.48	-1898.72	  464.51
     22.0700	  577.00	  600.15	-1954.38	  463.98
     22.1700	  593.00	  599.83	-1938.07	  463.46
     22.2700	  565.00	  599.53	-1965.77	  462.95
     22.3700	  646.00	  599.25	-1884.49	  462.44
     22.4700	  642.00	  599.18	-1888.42	  461.94
     22.5700	  632.00	  598.94	-1898.18	  461.44
     22.6700	  613.00	  598.73	-1916.97	  460.95
     22.7700	  607.00	  598.55	-1922.78	  460.47
     22.8700	  607.00	  598.39	-1922.63	  459.98
     22.9700	  623.00	  598.26	-1906.50	  459.51
     23.0700	  607.00	  598.17	-1922.41	  459.04
     23.1700	  634.00	  598.12	-1895.36	  458.58
     23.2700	  605.00	  598.11	-1924.35	  458.12
     23.3700	  635.00	  598.16	-1894.39	  457.67
     23.4700	  619.00	  598.26	-1910.50	  457.22
     23.5700	  601.00	  598.45	-1928.68	  456.78
     23.6700	  615.00	  598.72	-1914.96	  456.34
     23.7700	  598.00	  599.12	-1932.36	  455.91
     23.8700	  610.00	  599.70	-1920.93	  455.48
     23.9700	  630.00	  600.52	-1901.75	  455.06
     24.0700	  620.00	  601.67	-1912.91	  454.65
     24.1700	  580.00	  603.48	-1954.72	  454.24
     24.2700	  615.00	  606.21	-1922.45	  453.83
     24.3700	  600.00	  610.27	-1941.51	  453.43
     24.4700	  632.00	  616.09	-1915.33	  453.04
     24.5700	  609.00	  623.92	-1946.16	  452.64
     24.6700	  654.00	  633.59	-1910.83	  452.26
     24.7700	  693.00	  644.25	-1882.49	  451.88
     24.8700	  678.00	  653.94	-1907.18	  451.50
     24.9700	  707.00	  659.45	-1883.68	  451.13
     25.0700	  739.00	  657.50	-1849.74	  450.77
     25.1700	  687.00	  648.49	-1892.73	  450.41
     25.2700	  703.00	  637.03	-1865.26	  450.05
     25.3700	  674.00	  627.10	-1884.34	  449.70
     25.4700	  609.00	  620.15	-1942.39	  449.35
     25.5700	  641.00	  615.96	-1906.19	  449.01
     25.6700	  631.00	  613.92	-1914.16	  448.67
     25.7700	  682.00	  613.37	-1862.61	  448.34
     25.8700	  640.00	  613.81	-1905.05	  448.01
     25.9700	  625.00	  614.93	-1921.17	  447.69
     26.0700	  654.00	  616.59	-1893.83	  447.37
     26.1700	  597.00	  618.75	-1952.98	  447.05
     26.2700	  649.00	  621.41	-1903.65	  446.74
     26.3700	  628.00	  624.63	-1927.86	  446.44
     26.4700	  640.00	  628.47	-1919.70	  446.14
     26.5700	  596.00	  633.04	-1968.27	  445.84
     26.6700	  665.00	  638.48	-1904.71	  445.55
     26.7700	  672.00	  644.97	-1904.21	  445.26
     26.8700	  625.00	  652.77	-1959.01	  444.97
     26.9700	  637.00	  662.23	-1956.46	  444.69
     27.0700	  632.00	  673.79	-1973.03	  444.42
     27.1700	  654.00	  688.13	-1965.37	  444.15
     27.2700	  702.00	  706.23	-1935.47	  443.88
     27.3700	  679.00	  729.72	-1981.96	  443.62
     27.4700	  718.00	  761.76	-1975.00	  443.36
     27.5700	  770.00	  809.10	-1970.34	  443.10
     27.6700	  770.00	  886.15	-2047.39	  442.85
     27.7700	  870.00	 1020.89	-2082.13	  442.60
     27.8700	  966.00	 1260.98	-2226.22	  442.36
     27.9700	 1263.00	 1674.14	-2342.38	  442.12
     28.0700	 1880.00	 2331.00	-2382.24	  441.89
     28.1700	 2942.00	 3260.28	-2249.51	  441.65
     28.2700	 4723.00	 4372.60	-1580.84	  441.43
     28.3700	 6118.00	 5381.29	-1194.53	  441.20
     28.4700	 6643.00	 5816.09	-1104.33	  440.98
     28.5700	 5794.00	 5343.91	-1481.15	  440.77
     28.6700	 4251.00	 4326.14	-2006.37	  440.55
     28.7700	 3236.00	 3456.84	-2152.07	  440.35
     28.8700	 2729.00	 3069.07	-2271.31	  440.14
     28.9700	 3083.00	 3118.45	-1966.69	  439.94
     29.0700	 3608.00	 3343.42	-1666.66	  439.74
     29.1700	 3727.00	 3403.82	-1608.06	  439.55
     29.2700	 3210.00	 3067.18	-1788.42	  439.36
     29.3700	 2395.00	 2443.15	-1979.39	  439.17
     29.4700	 1688.00	 1820.02	-2063.26	  438.98
     29.5700	 1208.00	 1354.35	-2077.59	  438.80
     29.6700	 1038.00	 1063.14	-1956.38	  438.63
     29.7700	  835.00	  900.74	-1996.97	  438.45
     29.8700	  833.00	  813.05	-1911.28	  438.28
     29.9700	  747.00	  762.51	-1946.75	  438.12
     30.0700	  798.00	  729.79	-1863.03	  437.95
     30.1700	  717.00	  706.55	-1920.79	  437.79
     30.2700	  708.00	  689.42	-1912.65	  437.64
     30.3700	  664.00	  677.04	-1944.28	  437.48
     30.4700	  687.00	  669.15	-1913.39	  437.33
     30.5700	  645.00	  666.32	-1952.56	  437.19
     30.6700	  680.00	  669.84	-1921.08	  437.04
     30.7700	  639.00	  681.13	-1973.36	  436.90
     30.8700	  741.00	  700.38	-1890.61	  436.76
     30.9700	  719.00	  724.87	-1937.11	  436.63
     31.0700	  824.00	  747.70	-1854.94	  436.50
     31.1700	  740.00	  757.83	-1949.07	  436.37
     31.2700	  787.00	  745.51	-1889.75	  436.24
     31.3700	  659.00	  714.24	-1986.48	  436.12
     31.4700	  723.00	  678.67	-1886.91	  436.00
     31.5700	  704.00	  649.14	-1876.38	  435.88
     31.6700	  639.00	  628.53	-1920.76	  435.77
     31.7700	  682.00	  615.61	-1864.85	  435.66
     31.8700	  656.00	  607.90	-1883.14	  435.55
     31.9700	  622.00	  603.18	-1912.42	  435.44
     32.0700	  616.00	  600.05	-1915.29	  435.34
     32.1700	  615.00	  597.80	-1914.04	  435.24
     32.2700	  585.00	  596.12	-1942.36	  435.14
     32.3700	  660.00	  594.87	-1866.11	  435.05
     32.4700	  560.00	  593.98	-1965.22	  434.96
     32.5700	  566.00	  593.43	-1958.66	  434.87
     32.6700	  568.00	  593.20	-1956.44	  434.78
     32.7700	  620.00	  593.32	-1904.56	  434.70
     32.8700	  643.00	  593.82	-1882.05	  434.62
     32.9700	  610.00	  594.79	-1916.02	  434.54
     33.0700	  588.00	  596.27	-1939.51	  434.46
     33.1700	  637.00	  598.48	-1892.72	  434.39
     33.2700	  638.00	  601.72	-1894.96	  434.32
     33.3700	  610.00	  606.61	-1927.84	  434.25
     33.4700	  599.00	  614.36	-1946.59	  434.19
     33.5700	  631.00	  627.28	-1927.51	  434.12
     33.6700	  662.00	  649.27	-1918.51	  434.06
     33.7700	  698.00	  685.93	-1919.17	  434.00
     33.8700	  768.00	  743.30	-1906.53	  433.95
     33.9700	  815.00	  824.26	-1940.50	  433.89
     34.0700	  916.00	  923.19	-1938.42	  433.84
     34.1700	 1082.00	 1021.33	-1870.56	  433.79
     34.2700	 1183.00	 1086.22	-1834.46	  433.74
     34.3700	 1154.00	 1083.03	-1860.27	  433.70
     34.4700	 1026.00	 1007.69	-1912.93	  433.65
     34.5700	  948.00	  898.73	-1881.97	  433.61
     34.6700	  772.00	  796.19	-1955.42	  433.57
     34.7700	  780.00	  717.89	-1869.13	  433.54
     34.8700	  665.00	  665.66	-1931.90	  433.50
     34.9700	  647.00	  633.91	-1918.14	  433.47
     35.0700	  687.00	  615.46	-1859.70	  433.44
     35.1700	  632.00	  604.56	-1903.79	  433.41
     35.2700	  670.00	  597.62	-1858.86	  433.39
     35.3700	  651.00	  592.79	-1873.03	  433.36
     35.4700	  529.00	  589.19	-1991.43	  433.34
     35.5700	  585.00	  586.39	-1932.63	  433.32
     35.6700	  594.00	  584.16	-1921.40	  433.30
     35.7700	  560.00	  582.37	-1953.60	  433.29
     35.8700	  582.00	  580.91	-1930.15	  433.27
     35.9700	  602.00	  579.72	-1908.95	  433.26
     36.0700	  581.00	  578.75	-1928.98	  433.25
     36.1700	  592.00	  577.96	-1917.20	  433.24
     36.2700	  566.00	  577.34	-1942.58	  433.23
     36.3700	  603.00	  576.86	-1905.10	  433.23
     36.4700	  561.00	  576.52	-1946.75	  433.22
     36.5700	  574.00	  576.30	-1933.54	  433.22
     36.6700	  543.00	  576.22	-1964.46	  433.22
     36.7700	  555.00	  576.28	-1952.52	  433.22
     36.8700	  594.00	  576.50	-1913.74	  433.23
     36.9700	  592.00	  577.41	-1916.65	  433.23
     37.0700	  591.00	  578.09	-1918.33	  433.24
     37.1700	  589.00	  579.30	-1921.54	  433.25
     37.2700	  567.00	  580.89	-1945.13	  433.26
     37.3700	  597.00	  583.34	-1917.57	  433.27
     37.4700	  619.00	  587.14	-1899.38	  433.28
     37.5700	  578.00	  593.12	-1946.36	  433.30
     37.6700	  596.00	  602.41	-1937.65	  433.31
     37.7700	  621.00	  616.33	-1926.57	  433.33
     37.8700	  653.00	  635.93	-1914.16	  433.35
     37.9700	  644.00	  661.12	-1948.36	  433.37
     38.0700	  638.00	  689.74	-1982.98	  433.39
     38.1700	  693.00	  716.69	-1954.93	  433.41
     38.2700	  694.00	  732.51	-1969.75	  433.44
     38.3700	  700.00	  731.46	-1962.70	  433.46
     38.4700	  655.00	  710.57	-1986.81	  433.49
     38.5700	  636.00	  679.05	-1974.29	  433.52
     38.6700	  592.00	  647.70	-1986.94	  433.55
     38.7700	  612.00	  622.24	-1941.48	  433.58
     38.8700	  598.00	  604.06	-1937.30	  433.61
     38.9700	  559.00	  592.24	-1964.48	  433.65
     39.0700	  603.00	  585.00	-1913.24	  433.68
     39.1700	  600.00	  580.65	-1911.89	  433.72
     39.2700	  609.00	  577.94	-1900.18	  433.76
     39.3700	  608.00	  576.13	-1899.37	  433.80
     39.4700	  573.00	  574.84	-1933.07	  433.84
     39.5700	  612.00	  573.86	-1893.10	  433.88
     39.6700	  622.00	  572.27	-1881.50	  433.92
     39.7700	  582.00	  571.68	-1920.92	  433.96
     39.8700	  584.00	  571.22	-1918.46	  434.01
     39.9700	  576.00	  570.86	-1926.10	  434.05
     40.0700	  583.00	  570.58	-1918.82	  434.10
     40.1700	  544.00	  570.37	-1957.61	  434.15
     40.2700	  535.00	  570.21	-1966.45	  434.19
     40.3700	  535.00	  570.10	-1966.34	  434.24
     40.4700	  591.00	  570.04	-1910.27	  434.29
     40.5700	  559.00	  570.01	-1942.25	  434.35
     40.6700	  584.00	  570.03	-1917.26	  434.40
     40.7700	  603.00	  570.59	-1898.83	  434.45
