MSG Master    CELL:    5.89910   5.89910  23.16989   90.0000   90.0000  120.0000   SPGR: P 63/m m c             TEMP:    767.15
  1   1280     2.52000     0.00000    -0.12576     0.00000     0.00000    0
    96     0     2
       0.00000      10.00000
     125.00000     130.00000
 2Theta	Yobs	Ycal	Yobs-Ycal	Backg	Posr	(hkl)	K
      0.7700	    0.00	  462.68	-1777.83	  349.41
      0.8700	    0.00	  465.17	-1777.83	  351.90
      0.9700	   37.00	  467.63	-1777.83	  354.36
      1.0700	   55.00	  470.06	-1777.83	  356.79
      1.1700	   46.00	  472.47	-1777.83	  359.20
      1.2700	   44.00	  474.85	-1777.83	  361.58
      1.3700	   39.00	  477.21	-1777.83	  363.94
      1.4700	   94.00	  479.55	-1777.83	  366.28
      1.5700	  276.00	  481.86	-1777.83	  368.58
      1.6700	  455.00	  484.14	-1777.83	  370.87
      1.7700	  572.00	  486.40	-1777.83	  373.13
      1.8700	  676.00	  488.64	-1777.83	  375.37
      1.9700	  707.00	  490.85	-1777.83	  377.58
      2.0700	  743.00	  493.04	-1777.83	  379.77
      2.1700	  803.00	  495.20	-1777.83	  381.93
      2.2700	  747.00	  497.35	-1777.83	  384.07
      2.3700	  731.00	  499.46	-1777.83	  386.19
      2.4700	  743.00	  501.56	-1777.83	  388.29
      2.5700	  709.00	  503.63	-1777.83	  390.36
      2.6700	  669.00	  505.68	-1777.83	  392.40
      2.7700	  660.00	  507.70	-1777.83	  394.43
      2.8700	  616.00	  509.70	-1777.83	  396.43
      2.9700	  642.00	  511.68	-1777.83	  398.41
      3.0700	  629.00	  513.64	-1777.83	  400.37
      3.1700	  598.00	  515.58	-1777.83	  402.30
      3.2700	  697.00	  517.49	-1777.83	  404.22
      3.3700	  883.00	  519.38	-1777.83	  406.11
      3.4700	  941.00	  521.25	-1777.83	  407.98
      3.5700	 1119.00	  523.09	-1777.83	  409.82
      3.6700	 1193.00	  524.92	-1777.83	  411.65
      3.7700	 1318.00	  526.72	-1777.83	  413.45
      3.8700	 1459.00	  528.51	-1777.83	  415.23
      3.9700	 1474.00	  530.27	-1777.83	  416.99
      4.0700	 1548.00	  532.01	-1777.83	  418.73
      4.1700	 1549.00	  533.73	-1777.83	  420.45
      4.2700	 1490.00	  535.42	-1777.83	  422.15
      4.3700	 1570.00	  537.10	-1777.83	  423.83
      4.4700	 1507.00	  538.76	-1777.83	  425.49
      4.5700	 1401.00	  540.39	-1777.83	  427.12
      4.6700	 1343.00	  542.01	-1777.83	  428.74
      4.7700	 1313.00	  543.60	-1777.83	  430.33
      4.8700	 1342.00	  545.18	-1777.83	  431.91
      4.9700	 1234.00	  546.74	-1777.83	  433.46
      5.0700	 1165.00	  548.27	-1777.83	  435.00
      5.1700	 1140.00	  549.79	-1777.83	  436.52
      5.2700	 1084.00	  551.28	-1777.83	  438.01
      5.3700	 1102.00	  552.76	-1777.83	  439.49
      5.4700	 1067.00	  554.22	-1777.83	  440.95
      5.5700	 1029.00	  555.66	-1777.83	  442.39
      5.6700	  970.00	  557.08	-1777.83	  443.81
      5.7700	 1047.00	  558.48	-1777.83	  445.21
      5.8700	 1007.00	  559.86	-1777.83	  446.59
      5.9700	  986.00	  561.22	-1777.83	  447.95
      6.0700	  967.00	  562.57	-1777.83	  449.30
      6.1700	  996.00	  563.89	-1777.83	  450.62
      6.2700	 1003.00	  565.20	-1777.83	  451.93
      6.3700	  902.00	  566.49	-1777.83	  453.22
      6.4700	  869.00	  567.76	-1777.83	  454.49
      6.5700	  846.00	  569.02	-1777.83	  455.75
      6.6700	  881.00	  570.25	-1777.83	  456.98
      6.7700	  850.00	  571.47	-1777.83	  458.20
      6.8700	  820.00	  572.67	-1777.83	  459.40
      6.9700	  830.00	  573.86	-1777.83	  460.59
      7.0700	  800.00	  575.02	-1777.83	  461.75
      7.1700	  790.00	  576.17	-1777.83	  462.90
      7.2700	  787.00	  577.30	-1777.83	  464.03
      7.3700	  764.00	  578.42	-1777.83	  465.15
      7.4700	  736.00	  579.52	-1777.83	  466.25
      7.5700	  772.00	  580.60	-1777.83	  467.33
      7.6700	  736.00	  581.66	-1777.83	  468.39
      7.7700	  734.00	  582.71	-1777.83	  469.44
      7.8700	  752.00	  583.74	-1777.83	  470.47
      7.9700	  783.00	  584.76	-1777.83	  471.49
      8.0700	  711.00	  585.76	-1777.83	  472.49
      8.1700	  759.00	  586.74	-1777.83	  473.47
      8.2700	  745.00	  587.71	-1777.83	  474.44
      8.3700	  714.00	  588.66	-1777.83	  475.39
      8.4700	  694.00	  589.60	-1777.83	  476.33
      8.5700	  711.00	  590.52	-1777.83	  477.25
      8.6700	  709.00	  591.43	-1777.83	  478.15
      8.7700	  717.00	  592.32	-1777.83	  479.04
      8.8700	  653.00	  593.19	-1777.83	  479.92
      8.9700	  721.00	  594.05	-1777.83	  480.78
      9.0700	  682.00	  594.89	-1777.83	  481.62
      9.1700	  685.00	  595.72	-1777.83	  482.45
      9.2700	  658.00	  596.54	-1777.83	  483.27
      9.3700	  687.00	  597.34	-1777.83	  484.07
      9.4700	  658.00	  598.12	-1777.83	  484.85
      9.5700	  667.00	  598.90	-1777.83	  485.62
      9.6700	  689.00	  599.65	-1777.83	  486.38
      9.7700	  693.00	  600.40	-1777.83	  487.12
      9.8700	  683.00	  601.12	-1777.83	  487.85
      9.9700	  698.00	  601.84	-1777.83	  488.57
     10.0700	  601.00	  604.47	-1781.29	  489.27
     10.1700	  706.00	  605.38	-1677.20	  489.95
     10.2700	  635.00	  606.32	-1749.15	  490.63
     10.3700	  643.00	  607.32	-1742.15	  491.29
     10.4700	  645.00	  608.42	-1741.24	  491.93
     10.5700	  644.00	  609.65	-1743.48	  492.57
     10.6700	  657.00	  611.11	-1731.94	  493.19
     10.7700	  673.00	  612.89	-1717.72	  493.79
     10.8700	  679.00	  615.09	-1713.91	  494.39
     10.9700	  659.00	  617.75	-1736.58	  494.97
     11.0700	  610.00	  620.90	-1788.72	  495.53
     11.1700	  662.00	  624.54	-1740.36	  496.09
     11.2700	  619.00	  628.70	-1787.52	  496.63
     11.3700	  696.00	  633.46	-1715.29	  497.16
     11.4700	  650.00	  638.96	-1766.78	  497.68
     11.5700	  633.00	  645.40	-1790.22	  498.18
     11.6700	  658.00	  653.08	-1772.91	  498.67
     11.7700	  630.00	  662.39	-1810.22	  499.15
     11.8700	  702.00	  673.63	-1749.46	  499.62
     11.9700	  687.00	  686.61	-1777.43	  500.08
     12.0700	  725.00	  699.99	-1752.81	  500.52
     12.1700	  766.00	  710.60	-1722.42	  500.96
     12.2700	  744.00	  713.17	-1747.00	  501.38
     12.3700	  752.00	  703.27	-1729.09	  501.79
     12.4700	  776.00	  683.95	-1685.78	  502.18
     12.5700	  659.00	  663.89	-1782.72	  502.57
     12.6700	  616.00	  648.27	-1810.10	  502.95
     12.7700	  655.00	  637.85	-1760.68	  503.31
     12.8700	  617.00	  631.55	-1792.37	  503.66
     12.9700	  651.00	  627.91	-1754.74	  504.01
     13.0700	  634.00	  625.81	-1769.64	  504.34
     13.1700	  561.00	  624.54	-1841.36	  504.66
     13.2700	  611.00	  623.71	-1790.54	  504.97
     13.3700	  646.00	  623.19	-1755.02	  505.27
     13.4700	  564.00	  622.82	-1836.65	  505.56
     13.5700	  596.00	  622.57	-1804.40	  505.83
     13.6700	  638.00	  622.42	-1762.24	  506.10
     13.7700	  644.00	  622.33	-1756.15	  506.36
     13.8700	  605.00	  622.28	-1795.11	  506.61
     13.9700	  555.00	  622.28	-1845.10	  506.84
     14.0700	  596.00	  622.30	-1804.13	  507.07
     14.1700	  645.00	  622.34	-1755.17	  507.29
     14.2700	  617.00	  622.40	-1783.22	  507.50
     14.3700	  589.00	  622.46	-1811.29	  507.69
     14.4700	  617.00	  622.54	-1783.36	  507.88
     14.5700	  594.00	  622.62	-1806.44	  508.06
     14.6700	  619.00	  622.70	-1781.52	  508.23
     14.7700	  652.00	  622.78	-1748.61	  508.39
     14.8700	  620.00	  622.86	-1780.69	  508.54
     14.9700	  598.00	  622.94	-1802.77	  508.68
     15.0700	  620.00	  623.02	-1780.84	  508.82
     15.1700	  599.00	  623.09	-1801.92	  508.94
     15.2700	  569.00	  623.16	-1831.99	  509.06
     15.3700	  606.00	  623.22	-1795.05	  509.16
     15.4700	  588.00	  623.28	-1813.11	  509.26
     15.5700	  593.00	  623.34	-1808.16	  509.35
     15.6700	  617.00	  623.39	-1784.21	  509.43
     15.7700	  582.00	  623.43	-1819.26	  509.50
     15.8700	  664.00	  623.47	-1737.29	  509.56
     15.9700	  566.00	  623.50	-1835.32	  509.62
     16.0700	  594.00	  623.52	-1807.35	  509.66
     16.1700	  598.00	  623.54	-1803.37	  509.70
     16.2700	  669.00	  623.55	-1732.38	  509.73
     16.3700	  599.00	  623.56	-1802.38	  509.75
     16.4700	  558.00	  623.56	-1843.38	  509.77
     16.5700	  567.00	  623.55	-1834.37	  509.78
     16.6700	  568.00	  623.53	-1833.36	  509.77
     16.7700	  643.00	  623.51	-1758.34	  509.77
     16.8700	  571.00	  623.48	-1830.31	  509.75
     16.9700	  626.00	  623.45	-1775.27	  509.72
     17.0700	  608.00	  623.41	-1793.23	  509.69
     17.1700	  547.00	  623.36	-1854.18	  509.65
     17.2700	  615.00	  623.30	-1786.13	  509.61
     17.3700	  602.00	  623.24	-1799.07	  509.55
     17.4700	  587.00	  623.18	-1814.00	  509.49
     17.5700	  647.00	  623.20	-1754.03	  509.43
     17.6700	  602.00	  623.13	-1798.95	  509.35
     17.7700	  569.00	  623.04	-1831.87	  509.27
     17.8700	  624.00	  622.95	-1776.78	  509.18
     17.9700	  598.00	  623.00	-1802.83	  509.09
     18.0700	  592.00	  622.90	-1808.73	  508.99
     18.1700	  589.00	  622.79	-1811.62	  508.88
     18.2700	  558.00	  622.68	-1842.51	  508.76
     18.3700	  595.00	  622.56	-1805.39	  508.64
     18.4700	  597.00	  622.44	-1803.26	  508.51
     18.5700	  589.00	  622.31	-1811.13	  508.38
     18.6700	  595.00	  622.17	-1805.00	  508.24
     18.7700	  598.00	  622.03	-1801.86	  508.09
     18.8700	  618.00	  621.88	-1781.71	  507.94
     18.9700	  611.00	  621.73	-1788.56	  507.78
     19.0700	  594.00	  621.57	-1805.40	  507.62
     19.1700	  586.00	  621.41	-1813.24	  507.45
     19.2700	  599.00	  621.24	-1800.07	  507.27
     19.3700	  578.00	  621.07	-1820.89	  507.09
     19.4700	  592.00	  620.94	-1806.76	  506.90
     19.5700	  590.00	  620.75	-1808.58	  506.71
     19.6700	  591.00	  620.57	-1807.39	  506.51
     19.7700	  603.00	  620.37	-1795.20	  506.31
     19.8700	  610.00	  620.18	-1788.00	  506.10
     19.9700	  569.00	  619.98	-1828.80	  505.88
     20.0700	  645.00	  619.77	-1752.60	  505.66
     20.1700	  604.00	  619.56	-1793.39	  505.44
     20.2700	  637.00	  619.35	-1760.17	  505.21
     20.3700	  603.00	  619.13	-1793.96	  504.97
     20.4700	  591.00	  618.91	-1805.73	  504.73
     20.5700	  594.00	  618.68	-1802.51	  504.49
     20.6700	  629.00	  618.45	-1767.28	  504.24
     20.7700	  592.00	  618.22	-1804.05	  503.98
     20.8700	  608.00	  617.98	-1787.81	  503.72
     20.9700	  603.00	  617.75	-1792.57	  503.46
     21.0700	  581.00	  617.50	-1814.33	  503.19
     21.1700	  584.00	  617.26	-1811.09	  502.91
     21.2700	  614.00	  617.01	-1780.84	  502.64
     21.3700	  568.00	  616.76	-1826.59	  502.35
     21.4700	  598.00	  616.51	-1796.34	  502.07
     21.5700	  610.00	  616.26	-1784.08	  501.78
     21.6700	  618.00	  616.00	-1775.83	  501.48
     21.7700	  605.00	  615.75	-1788.57	  501.18
     21.8700	  587.00	  615.49	-1806.32	  500.88
     21.9700	  633.00	  615.39	-1760.22	  500.57
     22.0700	  612.00	  615.14	-1780.97	  500.26
     22.1700	  582.00	  614.89	-1810.72	  499.94
     22.2700	  602.00	  614.64	-1790.47	  499.62
     22.3700	  627.00	  614.39	-1765.22	  499.30
     22.4700	  622.00	  614.15	-1769.98	  498.97
     22.5700	  636.00	  613.91	-1755.74	  498.64
     22.6700	  595.00	  613.68	-1796.51	  498.31
     22.7700	  598.00	  613.46	-1793.28	  497.97
     22.8700	  649.00	  613.25	-1742.07	  497.63
     22.9700	  608.00	  613.05	-1782.87	  497.29
     23.0700	  593.00	  612.87	-1797.69	  496.94
     23.1700	  619.00	  612.71	-1771.53	  496.59
     23.2700	  573.00	  612.57	-1817.40	  496.23
     23.3700	  588.00	  612.48	-1802.31	  495.87
     23.4700	  621.00	  612.43	-1769.26	  495.51
     23.5700	  603.00	  612.39	-1787.22	  495.15
     23.6700	  641.00	  612.50	-1749.33	  494.78
     23.7700	  636.00	  612.74	-1754.56	  494.41
     23.8700	  630.00	  613.18	-1761.00	  494.04
     23.9700	  590.00	  613.95	-1801.77	  493.66
     24.0700	  625.00	  615.26	-1768.09	  493.28
     24.1700	  624.00	  617.46	-1771.29	  492.90
     24.2700	  688.00	  621.01	-1710.84	  492.52
     24.3700	  585.00	  626.44	-1819.27	  492.13
     24.4700	  655.00	  634.16	-1756.99	  491.74
     24.5700	  673.00	  644.22	-1749.04	  491.35
     24.6700	  657.00	  655.88	-1776.70	  490.95
     24.7700	  732.00	  667.16	-1712.99	  490.55
     24.8700	  672.00	  674.45	-1780.27	  490.15
     24.9700	  683.00	  673.30	-1768.13	  489.75
     25.0700	  656.00	  662.75	-1784.58	  489.35
     25.1700	  675.00	  647.92	-1750.75	  488.94
     25.2700	  673.00	  634.35	-1739.18	  488.53
     25.3700	  648.00	  624.20	-1754.02	  488.12
     25.4700	  613.00	  617.44	-1782.26	  487.71
     25.5700	  608.00	  613.22	-1783.05	  487.29
     25.6700	  617.00	  610.64	-1771.47	  486.87
     25.7700	  646.00	  608.99	-1740.81	  486.45
     25.8700	  681.00	  607.86	-1704.68	  486.03
     25.9700	  657.00	  607.04	-1727.86	  485.61
     26.0700	  655.00	  606.42	-1729.25	  485.18
     26.1700	  669.00	  605.96	-1714.79	  484.76
     26.2700	  654.00	  605.64	-1729.46	  484.33
     26.3700	  676.00	  605.43	-1707.25	  483.90
     26.4700	  660.00	  605.34	-1723.16	  483.47
     26.5700	  650.00	  605.37	-1733.19	  483.03
     26.6700	  662.00	  605.53	-1721.36	  482.60
     26.7700	  657.00	  605.84	-1726.67	  482.16
     26.8700	  662.00	  606.33	-1722.16	  481.72
     26.9700	  688.00	  607.04	-1696.87	  481.28
     27.0700	  676.00	  608.03	-1709.85	  480.84
     27.1700	  663.00	  609.39	-1724.21	  480.40
     27.2700	  678.00	  611.27	-1711.09	  479.96
     27.3700	  660.00	  613.95	-1731.78	  479.51
     27.4700	  693.00	  617.98	-1702.81	  479.07
     27.5700	  688.00	  624.33	-1714.16	  478.62
     27.6700	  766.00	  634.68	-1646.51	  478.17
     27.7700	  688.00	  651.56	-1741.38	  477.72
     27.8700	  741.00	  678.02	-1714.84	  477.27
     27.9700	  766.00	  716.40	-1728.23	  476.82
     28.0700	  813.00	  766.30	-1731.13	  476.37
     28.1700	  899.00	  822.23	-1701.05	  475.91
     28.2700	  961.00	  871.82	-1688.65	  475.46
     28.3700	 1023.00	  897.34	-1652.17	  475.00
     28.4700	  920.00	  889.83	-1747.66	  474.55
     28.5700	  898.00	  868.53	-1748.36	  474.09
     28.6700	  887.00	  863.01	-1753.83	  473.63
     28.7700	  888.00	  885.57	-1775.40	  473.18
     28.8700	  863.00	  929.04	-1843.87	  472.72
     28.9700	  953.00	  970.95	-1795.78	  472.26
     29.0700	 1007.00	  979.44	-1750.27	  471.80
     29.1700	  951.00	  934.23	-1761.05	  471.34
     29.2700	  856.00	  853.16	-1774.99	  470.88
     29.3700	  851.00	  771.38	-1698.21	  470.42
     29.4700	  713.00	  707.84	-1772.67	  469.96
     29.5700	  709.00	  665.46	-1734.29	  469.49
     29.6700	  728.00	  639.92	-1689.75	  469.03
     29.7700	  727.00	  625.25	-1676.07	  468.57
     29.8700	  676.00	  616.70	-1718.53	  468.11
     29.9700	  714.00	  611.45	-1675.28	  467.64
     30.0700	  657.00	  608.15	-1728.98	  467.18
     30.1700	  715.00	  606.33	-1669.15	  466.72
     30.2700	  718.00	  606.02	-1665.85	  466.25
     30.3700	  657.00	  607.71	-1728.54	  465.79
     30.4700	  682.00	  612.30	-1708.12	  465.33
     30.5700	  667.00	  621.01	-1731.83	  464.86
     30.6700	  682.00	  634.86	-1730.69	  464.40
     30.7700	  667.00	  653.71	-1764.53	  463.93
     30.8700	  668.00	  675.15	-1784.98	  463.47
     30.9700	  673.00	  693.80	-1798.63	  463.01
     31.0700	  703.00	  701.59	-1776.42	  462.54
     31.1700	  728.00	  692.25	-1742.08	  462.08
     31.2700	  645.00	  669.50	-1802.32	  461.62
     31.3700	  641.00	  643.93	-1780.76	  461.16
     31.4700	  667.00	  622.63	-1733.46	  460.69
     31.5700	  635.00	  607.55	-1750.38	  460.23
     31.6700	  618.00	  597.95	-1757.77	  459.77
     31.7700	  623.00	  592.18	-1747.01	  459.31
     31.8700	  585.00	  588.72	-1781.55	  458.85
     31.9700	  614.00	  586.54	-1750.36	  458.39
     32.0700	  606.00	  585.06	-1756.88	  457.93
     32.1700	  609.00	  584.01	-1752.84	  457.47
     32.2700	  620.00	  583.28	-1741.11	  457.01
     32.3700	  582.00	  582.82	-1778.64	  456.55
     32.4700	  568.00	  582.59	-1792.42	  456.09
     32.5700	  565.00	  582.62	-1795.44	  455.63
     32.6700	  579.00	  582.90	-1781.73	  455.18
     32.7700	  563.00	  583.49	-1798.31	  454.72
     32.8700	  560.00	  584.44	-1802.26	  454.27
     32.9700	  575.00	  585.88	-1788.70	  453.81
     33.0700	  592.00	  587.93	-1773.75	  453.36
     33.1700	  635.00	  590.92	-1733.75	  452.91
     33.2700	  564.00	  595.45	-1809.28	  452.45
     33.3700	  593.00	  602.67	-1787.49	  452.00
     33.4700	  606.00	  614.63	-1786.45	  451.55
     33.5700	  599.00	  634.64	-1813.46	  451.10
     33.6700	  643.00	  667.10	-1801.93	  450.65
     33.7700	  706.00	  716.29	-1788.11	  450.20
     33.8700	  765.00	  783.32	-1796.14	  449.76
     33.9700	  847.00	  862.18	-1793.00	  449.31
     34.0700	 1012.00	  936.69	-1702.52	  448.87
     34.1700	 1097.00	  980.79	-1661.62	  448.42
     34.2700	 1061.00	  969.47	-1686.30	  447.98
     34.3700	  952.00	  904.75	-1730.57	  447.54
     34.4700	  855.00	  818.29	-1741.11	  447.10
     34.5700	  719.00	  738.90	-1797.72	  446.66
     34.6700	  686.00	  678.49	-1770.32	  446.22
     34.7700	  645.00	  637.77	-1770.60	  445.78
     34.8700	  662.00	  612.47	-1728.30	  445.35
     34.9700	  572.00	  597.31	-1803.13	  444.91
     35.0700	  584.00	  588.00	-1781.82	  444.48
     35.1700	  576.00	  581.85	-1783.68	  444.05
     35.2700	  572.00	  577.44	-1783.27	  443.62
     35.3700	  592.00	  574.03	-1759.85	  443.19
     35.4700	  531.00	  571.28	-1818.10	  442.76
     35.5700	  586.00	  569.47	-1761.29	  442.33
     35.6700	  559.00	  567.54	-1786.37	  441.90
     35.7700	  521.00	  565.89	-1822.72	  441.48
     35.8700	  563.00	  564.45	-1779.28	  441.06
     35.9700	  520.00	  563.18	-1821.00	  440.64
     36.0700	  574.00	  562.05	-1765.87	  440.22
     36.1700	  562.00	  561.03	-1776.86	  439.80
     36.2700	  513.00	  560.11	-1824.94	  439.38
     36.3700	  528.00	  559.28	-1809.10	  438.97
     36.4700	  567.00	  558.52	-1769.34	  438.55
     36.5700	  546.00	  557.83	-1789.65	  438.14
     36.6700	  477.00	  557.17	-1858.00	  437.73
     36.7700	  542.00	  556.62	-1792.44	  437.32
     36.8700	  554.00	  556.15	-1779.97	  436.91
     36.9700	  572.00	  555.78	-1761.61	  436.50
     37.0700	  514.00	  555.58	-1819.41	  436.10
     37.1700	  524.00	  555.63	-1809.46	  435.70
     37.2700	  546.00	  556.27	-1788.09	  435.30
     37.3700	  568.00	  557.27	-1767.10	  434.90
     37.4700	  543.00	  558.98	-1793.81	  434.50
     37.5700	  540.00	  561.42	-1799.24	  434.10
     37.6700	  555.00	  564.35	-1787.17	  433.71
     37.7700	  536.00	  567.15	-1808.98	  433.32
     37.8700	  541.00	  568.87	-1805.69	  432.93
     37.9700	  558.00	  568.63	-1788.45	  432.54
     38.0700	  573.00	  566.47	-1771.30	  432.15
     38.1700	  559.00	  563.25	-1782.08	  431.76
     38.2700	  539.00	  559.72	-1798.54	  431.38
     38.3700	  561.00	  556.31	-1773.14	  431.00
     38.4700	  535.00	  553.39	-1796.21	  430.62
     38.5700	  494.00	  551.09	-1834.91	  430.24
     38.6700	  571.00	  549.37	-1756.20	  429.87
     38.7700	  549.00	  548.11	-1776.94	  429.49
     38.8700	  586.00	  547.17	-1738.99	  429.12
     38.9700	  527.00	  546.42	-1797.25	  428.75
     39.0700	  517.00	  545.80	-1806.63	  428.38
     39.1700	  558.00	  545.26	-1765.09	  428.02
     39.2700	  528.00	  544.77	-1794.60	  427.65
     39.3700	  546.00	  544.32	-1776.14	  427.29
     39.4700	  519.00	  543.85	-1802.67	  426.93
     39.5700	  527.00	  543.44	-1794.27	  426.57
     39.6700	  566.00	  543.05	-1754.88	  426.21
     39.7700	  549.00	  542.68	-1771.51	  425.86
     39.8700	  471.00	  542.33	-1849.15	  425.51
     39.9700	  510.00	  541.99	-1809.81	  425.16
     40.0700	  538.00	  542.21	-1782.03	  424.81
     40.1700	  544.00	  541.90	-1775.73	  424.46
     40.2700	  519.00	  541.61	-1800.44	  424.12
     40.3700	  554.00	  541.33	-1765.16	  423.78
     40.4700	  545.00	  540.93	-1773.76	  423.44
     40.5700	  500.00	  540.69	-1818.52	  423.10
     40.6700	  489.00	  540.47	-1829.30	  422.76
     40.7700	  530.00	  540.27	-1788.09	  422.43
