MSG Master    CELL:    5.91930   5.91930  23.27491   90.0000   90.0000  120.0000   SPGR: P 63/m m c             TEMP:   1074.85
  1   1280     2.52000     0.00000    -0.12432     0.00000     0.00000    0
    99     0     2
       0.00000      10.00000
     125.00000     130.00000
 2Theta	Yobs	Ycal	Yobs-Ycal	Backg	Posr	(hkl)	K
      0.7700	    0.00	  561.60	-1749.25	  443.52
      0.8700	    0.00	  562.06	-1749.25	  443.98
      0.9700	   49.00	  562.51	-1749.25	  444.43
      1.0700	   30.00	  562.95	-1749.25	  444.87
      1.1700	   30.00	  563.38	-1749.25	  445.31
      1.2700	   45.00	  563.81	-1749.25	  445.74
      1.3700	   64.00	  564.23	-1749.25	  446.15
      1.4700	   94.00	  564.64	-1749.25	  446.56
      1.5700	  287.00	  565.04	-1749.25	  446.97
      1.6700	  436.00	  565.43	-1749.25	  447.36
      1.7700	  589.00	  565.82	-1749.25	  447.75
      1.8700	  638.00	  566.20	-1749.25	  448.12
      1.9700	  659.00	  566.57	-1749.25	  448.49
      2.0700	  774.00	  566.93	-1749.25	  448.86
      2.1700	  772.00	  567.29	-1749.25	  449.21
      2.2700	  724.00	  567.63	-1749.25	  449.56
      2.3700	  692.00	  567.97	-1749.25	  449.90
      2.4700	  735.00	  568.30	-1749.25	  450.23
      2.5700	  660.00	  568.63	-1749.25	  450.55
      2.6700	  684.00	  568.95	-1749.25	  450.87
      2.7700	  624.00	  569.26	-1749.25	  451.18
      2.8700	  670.00	  569.56	-1749.25	  451.48
      2.9700	  651.00	  569.85	-1749.25	  451.78
      3.0700	  636.00	  570.14	-1749.25	  452.07
      3.1700	  553.00	  570.42	-1749.25	  452.35
      3.2700	  581.00	  570.70	-1749.25	  452.62
      3.3700	  678.00	  570.96	-1749.25	  452.89
      3.4700	  699.00	  571.22	-1749.25	  453.15
      3.5700	  806.00	  571.48	-1749.25	  453.40
      3.6700	  872.00	  571.72	-1749.25	  453.65
      3.7700	  921.00	  571.96	-1749.25	  453.89
      3.8700	  923.00	  572.19	-1749.25	  454.12
      3.9700	 1024.00	  572.42	-1749.25	  454.35
      4.0700	 1011.00	  572.64	-1749.25	  454.56
      4.1700	 1048.00	  572.85	-1749.25	  454.78
      4.2700	 1093.00	  573.06	-1749.25	  454.98
      4.3700	 1073.00	  573.26	-1749.25	  455.18
      4.4700	 1063.00	  573.45	-1749.25	  455.38
      4.5700	 1049.00	  573.64	-1749.25	  455.56
      4.6700	 1036.00	  573.82	-1749.25	  455.74
      4.7700	 1018.00	  573.99	-1749.25	  455.92
      4.8700	  934.00	  574.16	-1749.25	  456.08
      4.9700	  953.00	  574.32	-1749.25	  456.25
      5.0700	  993.00	  574.48	-1749.25	  456.40
      5.1700	  922.00	  574.62	-1749.25	  456.55
      5.2700	  946.00	  574.77	-1749.25	  456.69
      5.3700	  932.00	  574.91	-1749.25	  456.83
      5.4700	  877.00	  575.04	-1749.25	  456.96
      5.5700	  837.00	  575.16	-1749.25	  457.09
      5.6700	  882.00	  575.28	-1749.25	  457.21
      5.7700	  845.00	  575.40	-1749.25	  457.32
      5.8700	  834.00	  575.50	-1749.25	  457.43
      5.9700	  768.00	  575.61	-1749.25	  457.53
      6.0700	  794.00	  575.70	-1749.25	  457.63
      6.1700	  772.00	  575.79	-1749.25	  457.72
      6.2700	  771.00	  575.88	-1749.25	  457.80
      6.3700	  716.00	  575.96	-1749.25	  457.88
      6.4700	  731.00	  576.03	-1749.25	  457.96
      6.5700	  724.00	  576.10	-1749.25	  458.03
      6.6700	  766.00	  576.17	-1749.25	  458.09
      6.7700	  757.00	  576.22	-1749.25	  458.15
      6.8700	  692.00	  576.28	-1749.25	  458.20
      6.9700	  666.00	  576.32	-1749.25	  458.25
      7.0700	  709.00	  576.37	-1749.25	  458.29
      7.1700	  653.00	  576.41	-1749.25	  458.33
      7.2700	  733.00	  576.44	-1749.25	  458.36
      7.3700	  694.00	  576.47	-1749.25	  458.39
      7.4700	  708.00	  576.49	-1749.25	  458.41
      7.5700	  673.00	  576.51	-1749.25	  458.43
      7.6700	  636.00	  576.52	-1749.25	  458.44
      7.7700	  661.00	  576.53	-1749.25	  458.45
      7.8700	  616.00	  576.53	-1749.25	  458.45
      7.9700	  655.00	  576.53	-1749.25	  458.45
      8.0700	  644.00	  576.52	-1749.25	  458.45
      8.1700	  678.00	  576.51	-1749.25	  458.43
      8.2700	  588.00	  576.49	-1749.25	  458.42
      8.3700	  617.00	  576.47	-1749.25	  458.40
      8.4700	  638.00	  576.45	-1749.25	  458.37
      8.5700	  619.00	  576.42	-1749.25	  458.34
      8.6700	  605.00	  576.38	-1749.25	  458.31
      8.7700	  603.00	  576.35	-1749.25	  458.27
      8.8700	  595.00	  576.30	-1749.25	  458.23
      8.9700	  612.00	  576.26	-1749.25	  458.18
      9.0700	  642.00	  576.20	-1749.25	  458.13
      9.1700	  591.00	  576.15	-1749.25	  458.07
      9.2700	  566.00	  576.09	-1749.25	  458.01
      9.3700	  553.00	  576.02	-1749.25	  457.95
      9.4700	  610.00	  575.96	-1749.25	  457.88
      9.5700	  600.00	  575.88	-1749.25	  457.81
      9.6700	  612.00	  575.81	-1749.25	  457.73
      9.7700	  614.00	  575.73	-1749.25	  457.65
      9.8700	  574.00	  575.64	-1749.25	  457.57
      9.9700	  581.00	  575.56	-1749.25	  457.48
     10.0700	  619.00	  576.30	-1706.55	  457.39
     10.1700	  564.00	  576.29	-1761.54	  457.29
     10.2700	  566.00	  576.30	-1759.55	  457.19
     10.3700	  539.00	  576.35	-1786.60	  457.09
     10.4700	  585.00	  576.44	-1740.69	  456.98
     10.5700	  630.00	  576.66	-1695.91	  456.87
     10.6700	  598.00	  577.09	-1728.34	  456.76
     10.7700	  588.00	  577.84	-1739.09	  456.64
     10.8700	  597.00	  579.00	-1731.25	  456.52
     10.9700	  601.00	  580.54	-1728.79	  456.39
     11.0700	  567.00	  582.45	-1764.70	  456.26
     11.1700	  605.00	  584.71	-1728.96	  456.13
     11.2700	  597.00	  587.36	-1739.61	  456.00
     11.3700	  559.00	  590.48	-1780.73	  455.86
     11.4700	  630.00	  594.20	-1713.45	  455.72
     11.5700	  592.00	  598.74	-1755.99	  455.57
     11.6700	  637.00	  604.45	-1716.70	  455.42
     11.7700	  603.00	  611.95	-1758.20	  455.27
     11.8700	  661.00	  622.19	-1710.44	  455.12
     11.9700	  640.00	  635.79	-1745.04	  454.96
     12.0700	  674.00	  651.12	-1726.37	  454.80
     12.1700	  693.00	  661.93	-1718.18	  454.63
     12.2700	  650.00	  658.40	-1757.65	  454.47
     12.3700	  608.00	  637.53	-1778.78	  454.30
     12.4700	  619.00	  611.97	-1742.22	  454.12
     12.5700	  596.00	  593.17	-1746.42	  453.95
     12.6700	  572.00	  582.85	-1760.10	  453.77
     12.7700	  556.00	  578.09	-1771.34	  453.59
     12.8700	  572.00	  575.90	-1753.15	  453.40
     12.9700	  620.00	  574.67	-1703.92	  453.21
     13.0700	  548.00	  573.81	-1775.06	  453.02
     13.1700	  592.00	  573.15	-1730.40	  452.83
     13.2700	  545.00	  572.60	-1776.85	  452.64
     13.3700	  591.00	  572.14	-1730.39	  452.44
     13.4700	  563.00	  571.73	-1757.98	  452.24
     13.5700	  564.00	  571.35	-1756.60	  452.03
     13.6700	  581.00	  571.01	-1739.26	  451.83
     13.7700	  556.00	  570.69	-1763.94	  451.62
     13.8700	  564.00	  570.39	-1755.64	  451.41
     13.9700	  544.00	  570.10	-1775.35	  451.20
     14.0700	  552.00	  569.81	-1767.06	  450.98
     14.1700	  526.00	  569.54	-1792.79	  450.76
     14.2700	  561.00	  569.27	-1757.52	  450.54
     14.3700	  546.00	  569.00	-1772.25	  450.32
     14.4700	  564.00	  568.74	-1753.99	  450.10
     14.5700	  575.00	  568.48	-1742.73	  449.87
     14.6700	  558.00	  568.22	-1759.47	  449.64
     14.7700	  563.00	  567.97	-1754.22	  449.41
     14.8700	  583.00	  567.71	-1733.96	  449.18
     14.9700	  529.00	  567.45	-1787.70	  448.94
     15.0700	  566.00	  567.20	-1750.45	  448.70
     15.1700	  548.00	  566.94	-1768.19	  448.46
     15.2700	  576.00	  566.68	-1739.93	  448.22
     15.3700	  555.00	  566.43	-1760.68	  447.98
     15.4700	  567.00	  566.17	-1748.42	  447.73
     15.5700	  571.00	  565.91	-1744.16	  447.49
     15.6700	  570.00	  565.65	-1744.90	  447.24
     15.7700	  547.00	  565.39	-1767.64	  446.99
     15.8700	  561.00	  565.13	-1753.38	  446.73
     15.9700	  563.00	  564.86	-1751.11	  446.48
     16.0700	  583.00	  564.63	-1730.88	  446.22
     16.1700	  583.00	  564.36	-1730.61	  445.96
     16.2700	  608.00	  564.10	-1705.35	  445.70
     16.3700	  549.00	  563.83	-1764.08	  445.44
     16.4700	  564.00	  563.56	-1748.81	  445.18
     16.5700	  589.00	  563.29	-1723.54	  444.92
     16.6700	  556.00	  563.02	-1756.27	  444.65
     16.7700	  577.00	  562.75	-1735.00	  444.38
     16.8700	  561.00	  562.48	-1750.73	  444.11
     16.9700	  527.00	  562.21	-1784.46	  443.84
     17.0700	  553.00	  561.93	-1758.18	  443.57
     17.1700	  539.00	  561.65	-1771.90	  443.30
     17.2700	  597.00	  561.38	-1713.63	  443.02
     17.3700	  509.00	  561.10	-1801.35	  442.75
     17.4700	  579.00	  560.82	-1731.07	  442.47
     17.5700	  574.00	  560.54	-1735.79	  442.19
     17.6700	  574.00	  560.26	-1735.51	  441.91
     17.7700	  531.00	  559.97	-1778.22	  441.63
     17.8700	  558.00	  559.69	-1750.94	  441.34
     17.9700	  537.00	  559.41	-1771.66	  441.06
     18.0700	  572.00	  559.22	-1736.47	  440.78
     18.1700	  541.00	  558.94	-1767.19	  440.49
     18.2700	  554.00	  558.65	-1753.90	  440.20
     18.3700	  543.00	  558.36	-1764.61	  439.91
     18.4700	  576.00	  558.08	-1731.33	  439.62
     18.5700	  555.00	  557.79	-1752.04	  439.33
     18.6700	  509.00	  557.50	-1797.75	  439.04
     18.7700	  599.00	  557.21	-1707.46	  438.75
     18.8700	  508.00	  557.01	-1798.26	  438.46
     18.9700	  525.00	  556.72	-1780.97	  438.16
     19.0700	  570.00	  556.43	-1735.68	  437.87
     19.1700	  541.00	  556.14	-1764.39	  437.57
     19.2700	  561.00	  555.84	-1744.09	  437.27
     19.3700	  559.00	  555.55	-1745.80	  436.98
     19.4700	  564.00	  555.26	-1740.51	  436.68
     19.5700	  528.00	  554.97	-1776.22	  436.38
     19.6700	  563.00	  554.68	-1740.93	  436.08
     19.7700	  572.00	  554.38	-1731.63	  435.78
     19.8700	  510.00	  554.09	-1793.34	  435.48
     19.9700	  555.00	  553.80	-1748.05	  435.17
     20.0700	  507.00	  553.50	-1795.75	  434.87
     20.1700	  562.00	  553.21	-1740.46	  434.57
     20.2700	  583.00	  552.92	-1719.17	  434.26
     20.3700	  513.00	  552.62	-1788.87	  433.96
     20.4700	  554.00	  552.33	-1747.58	  433.65
     20.5700	  574.00	  552.03	-1727.28	  433.35
     20.6700	  489.00	  551.71	-1811.96	  433.04
     20.7700	  541.00	  551.42	-1759.67	  432.73
     20.8700	  520.00	  551.16	-1780.41	  432.43
     20.9700	  539.00	  550.87	-1761.12	  432.12
     21.0700	  541.00	  550.57	-1758.82	  431.81
     21.1700	  533.00	  550.28	-1766.53	  431.50
     21.2700	  557.00	  550.00	-1742.25	  431.19
     21.3700	  521.00	  549.71	-1777.96	  430.88
     21.4700	  543.00	  549.42	-1755.67	  430.57
     21.5700	  523.00	  549.13	-1775.38	  430.26
     21.6700	  552.00	  548.85	-1746.10	  429.95
     21.7700	  551.00	  548.57	-1746.82	  429.64
     21.8700	  566.00	  548.29	-1731.54	  429.33
     21.9700	  584.00	  548.01	-1713.26	  429.02
     22.0700	  539.00	  547.73	-1757.98	  428.71
     22.1700	  574.00	  547.46	-1722.71	  428.40
     22.2700	  575.00	  547.19	-1721.44	  428.09
     22.3700	  522.00	  546.92	-1774.17	  427.77
     22.4700	  537.00	  546.66	-1758.91	  427.46
     22.5700	  570.00	  546.40	-1725.65	  427.15
     22.6700	  564.00	  546.15	-1731.40	  426.84
     22.7700	  493.00	  545.91	-1802.16	  426.53
     22.8700	  569.00	  545.68	-1725.93	  426.21
     22.9700	  586.00	  545.46	-1708.71	  425.90
     23.0700	  521.00	  545.25	-1773.50	  425.59
     23.1700	  551.00	  545.05	-1743.30	  425.28
     23.2700	  507.00	  544.88	-1787.13	  424.96
     23.3700	  563.00	  544.74	-1730.99	  424.65
     23.4700	  527.00	  544.63	-1766.88	  424.34
     23.5700	  558.00	  544.58	-1735.83	  424.03
     23.6700	  529.00	  544.59	-1764.84	  423.72
     23.7700	  556.00	  544.85	-1738.10	  423.40
     23.8700	  549.00	  545.21	-1745.46	  423.09
     23.9700	  527.00	  546.03	-1768.28	  422.78
     24.0700	  565.00	  547.73	-1731.98	  422.47
     24.1700	  558.00	  551.01	-1742.26	  422.16
     24.2700	  621.00	  556.71	-1684.96	  421.85
     24.3700	  602.00	  565.82	-1713.07	  421.54
     24.4700	  611.00	  579.33	-1717.58	  421.23
     24.5700	  573.00	  597.42	-1773.67	  420.92
     24.6700	  648.00	  617.17	-1718.42	  420.61
     24.7700	  639.00	  630.65	-1740.90	  420.30
     24.8700	  627.00	  627.33	-1749.58	  419.99
     24.9700	  603.00	  606.11	-1752.36	  419.68
     25.0700	  594.00	  580.54	-1735.79	  419.37
     25.1700	  561.00	  561.38	-1749.63	  419.06
     25.2700	  597.00	  550.52	-1702.77	  418.76
     25.3700	  516.00	  545.37	-1778.62	  418.45
     25.4700	  552.00	  543.01	-1740.26	  418.14
     25.5700	  578.00	  541.77	-1713.02	  417.84
     25.6700	  566.00	  540.97	-1724.22	  417.53
     25.7700	  508.00	  540.39	-1781.64	  417.23
     25.8700	  560.00	  539.95	-1729.20	  416.92
     25.9700	  536.00	  539.63	-1752.88	  416.62
     26.0700	  540.00	  539.39	-1748.64	  416.31
     26.1700	  551.00	  539.23	-1737.48	  416.01
     26.2700	  558.00	  539.15	-1730.40	  415.71
     26.3700	  580.00	  539.14	-1708.39	  415.40
     26.4700	  536.00	  539.22	-1752.47	  415.10
     26.5700	  548.00	  539.39	-1740.64	  414.80
     26.6700	  561.00	  539.67	-1727.92	  414.50
     26.7700	  547.00	  540.09	-1742.34	  414.20
     26.8700	  517.00	  540.67	-1772.92	  413.90
     26.9700	  542.00	  541.47	-1748.72	  413.60
     27.0700	  555.00	  542.56	-1736.81	  413.31
     27.1700	  539.00	  544.08	-1754.33	  413.01
     27.2700	  566.00	  546.25	-1729.50	  412.71
     27.3700	  586.00	  549.56	-1712.81	  412.42
     27.4700	  552.00	  554.95	-1752.20	  412.12
     27.5700	  570.00	  564.11	-1743.36	  411.83
     27.6700	  574.00	  579.70	-1754.95	  411.54
     27.7700	  554.00	  605.21	-1800.46	  411.24
     27.8700	  598.00	  643.65	-1794.90	  410.95
     27.9700	  626.00	  695.24	-1818.49	  410.66
     28.0700	  786.00	  754.18	-1717.43	  410.37
     28.1700	  886.00	  805.89	-1669.14	  410.08
     28.2700	  895.00	  828.37	-1682.62	  409.79
     28.3700	  927.00	  808.50	-1630.75	  409.50
     28.4700	  813.00	  767.06	-1703.31	  409.22
     28.5700	  703.00	  738.77	-1785.02	  408.93
     28.6700	  729.00	  739.60	-1759.85	  408.65
     28.7700	  704.00	  764.81	-1810.06	  408.36
     28.8700	  744.00	  794.42	-1799.67	  408.08
     28.9700	  783.00	  800.07	-1766.32	  407.80
     29.0700	  779.00	  763.48	-1733.73	  407.52
     29.1700	  746.00	  700.24	-1703.49	  407.24
     29.2700	  626.00	  639.62	-1762.87	  406.96
     29.3700	  627.00	  595.78	-1718.03	  406.68
     29.4700	  623.00	  569.26	-1695.51	  406.40
     29.5700	  614.00	  554.93	-1690.18	  406.12
     29.6700	  617.00	  547.38	-1679.63	  405.85
     29.7700	  589.00	  543.12	-1703.37	  405.57
     29.8700	  571.00	  540.46	-1718.71	  405.30
     29.9700	  560.00	  538.76	-1728.01	  405.03
     30.0700	  562.00	  537.85	-1725.10	  404.76
     30.1700	  560.00	  537.87	-1727.12	  404.49
     30.2700	  524.00	  539.29	-1764.54	  404.22
     30.3700	  558.00	  543.08	-1734.33	  403.95
     30.4700	  558.00	  550.70	-1741.95	  403.68
     30.5700	  549.00	  563.71	-1763.96	  403.42
     30.6700	  590.00	  582.53	-1741.78	  403.15
     30.7700	  571.00	  604.85	-1783.10	  402.89
     30.8700	  597.00	  624.35	-1776.60	  402.62
     30.9700	  597.00	  631.37	-1783.62	  402.36
     31.0700	  612.00	  619.24	-1756.49	  402.10
     31.1700	  589.00	  594.21	-1754.46	  401.84
     31.2700	  543.00	  568.97	-1775.22	  401.59
     31.3700	  554.00	  550.26	-1745.51	  401.33
     31.4700	  561.00	  538.84	-1727.09	  401.07
     31.5700	  512.00	  532.72	-1769.97	  400.82
     31.6700	  529.00	  529.57	-1749.82	  400.57
     31.7700	  551.00	  527.84	-1726.09	  400.31
     31.8700	  508.00	  526.75	-1768.00	  400.06
     31.9700	  558.00	  526.00	-1717.25	  399.81
     32.0700	  576.00	  525.48	-1698.73	  399.57
     32.1700	  538.00	  525.13	-1736.38	  399.32
     32.2700	  605.00	  524.93	-1669.18	  399.07
     32.3700	  550.00	  524.88	-1724.13	  398.83
     32.4700	  582.00	  524.98	-1692.23	  398.58
     32.5700	  586.00	  525.24	-1688.49	  398.34
     32.6700	  528.00	  525.70	-1746.95	  398.10
     32.7700	  563.00	  526.39	-1712.64	  397.86
     32.8700	  534.00	  527.39	-1742.64	  397.62
     32.9700	  548.00	  528.80	-1730.05	  397.39
     33.0700	  552.00	  530.85	-1728.10	  397.15
     33.1700	  597.00	  533.97	-1686.22	  396.92
     33.2700	  523.00	  539.19	-1765.44	  396.69
     33.3700	  555.00	  548.73	-1742.98	  396.45
     33.4700	  561.00	  566.84	-1755.09	  396.22
     33.5700	  609.00	  600.26	-1740.51	  396.00
     33.6700	  646.00	  656.68	-1759.93	  395.77
     33.7700	  772.00	  739.60	-1716.85	  395.54
     33.8700	  916.00	  840.09	-1673.34	  395.32
     33.9700	  967.00	  931.36	-1713.61	  395.10
     34.0700	 1012.00	  972.19	-1709.44	  394.87
     34.1700	 1007.00	  931.92	-1674.17	  394.65
     34.2700	  845.00	  831.20	-1735.45	  394.43
     34.3700	  782.00	  722.19	-1689.44	  394.22
     34.4700	  617.00	  637.42	-1769.67	  394.00
     34.5700	  593.00	  583.85	-1740.10	  393.79
     34.6700	  559.00	  554.70	-1744.95	  393.57
     34.7700	  533.00	  540.00	-1756.25	  393.36
     34.8700	  568.00	  532.34	-1713.59	  393.15
     34.9700	  510.00	  527.78	-1767.03	  392.94
     35.0700	  522.00	  524.66	-1751.91	  392.73
     35.1700	  515.00	  522.32	-1756.57	  392.53
     35.2700	  523.00	  520.46	-1746.71	  392.32
     35.3700	  515.00	  518.96	-1753.21	  392.12
     35.4700	  542.00	  517.71	-1724.96	  391.92
     35.5700	  509.00	  516.67	-1756.92	  391.72
     35.6700	  527.00	  515.77	-1738.02	  391.52
     35.7700	  538.00	  514.99	-1726.24	  391.32
     35.8700	  547.00	  514.31	-1716.56	  391.13
     35.9700	  513.00	  513.71	-1749.96	  390.93
     36.0700	  533.00	  513.65	-1729.90	  390.74
     36.1700	  536.00	  513.18	-1726.43	  390.55
     36.2700	  493.00	  512.75	-1769.00	  390.36
     36.3700	  479.00	  512.37	-1782.62	  390.17
     36.4700	  478.00	  512.03	-1783.28	  389.98
     36.5700	  488.00	  511.72	-1772.97	  389.80
     36.6700	  483.00	  511.46	-1777.71	  389.61
     36.7700	  517.00	  511.25	-1743.50	  389.43
     36.8700	  498.00	  511.11	-1762.36	  389.25
     36.9700	  521.00	  511.11	-1739.36	  389.07
     37.0700	  487.00	  511.39	-1773.64	  388.89
     37.1700	  542.00	  512.22	-1719.47	  388.72
     37.2700	  514.00	  513.99	-1749.24	  388.54
     37.3700	  501.00	  517.06	-1765.31	  388.37
     37.4700	  522.00	  521.40	-1748.65	  388.20
     37.5700	  533.00	  526.17	-1742.42	  388.03
     37.6700	  509.00	  529.72	-1769.97	  387.86
     37.7700	  525.00	  530.21	-1754.46	  387.69
     37.8700	  560.00	  527.35	-1716.60	  387.53
     37.9700	  486.00	  522.84	-1786.09	  387.36
     38.0700	  536.00	  518.38	-1731.63	  387.20
     38.1700	  513.00	  514.65	-1750.90	  387.04
     38.2700	  454.00	  511.85	-1807.10	  386.88
     38.3700	  524.00	  509.93	-1735.18	  386.72
     38.4700	  478.00	  508.67	-1779.92	  386.57
     38.5700	  529.00	  507.86	-1728.11	  386.41
     38.6700	  485.00	  507.24	-1771.49	  386.26
     38.7700	  496.00	  506.88	-1760.13	  386.11
     38.8700	  522.00	  506.61	-1733.86	  385.96
     38.9700	  533.00	  506.37	-1722.62	  385.81
     39.0700	  500.00	  506.17	-1755.42	  385.67
     39.1700	  483.00	  505.90	-1772.16	  385.52
     39.2700	  490.00	  505.74	-1764.99	  385.38
     39.3700	  451.00	  505.58	-1803.83	  385.24
     39.4700	  472.00	  505.44	-1782.69	  385.10
     39.5700	  515.00	  505.44	-1739.69	  384.96
     39.6700	  507.00	  505.32	-1747.57	  384.82
     39.7700	  497.00	  505.20	-1757.45	  384.69
     39.8700	  539.00	  505.10	-1715.35	  384.55
     39.9700	  496.00	  505.01	-1758.26	  384.42
     40.0700	  519.00	  504.92	-1735.17	  384.29
     40.1700	  505.00	  504.85	-1749.10	  384.16
     40.2700	  546.00	  504.78	-1708.03	  384.03
     40.3700	  474.00	  504.73	-1779.98	  383.91
     40.4700	  477.00	  504.69	-1776.94	  383.78
     40.5700	  500.00	  504.66	-1753.91	  383.66
     40.6700	  481.00	  504.65	-1772.90	  383.54
     40.7700	  501.00	  504.66	-1752.91	  383.42
