MSG Master    CELL:    5.89576   5.89576  23.16459   90.0000   90.0000  120.0000   SPGR: P 63/m m c             TEMP:    723.05
  2   1280     2.52000     0.00000    -0.11691     0.00000     0.00000    0
    96    96     0     0     2
       0.00000      10.00000
     125.00000     130.00000
 2Theta	Yobs	Ycal	Yobs-Ycal	Backg	Posr	(hkl)	K
      0.7700	    0.00	  551.47	-1811.25	  435.45
      0.8700	    0.00	  552.97	-1811.25	  436.96
      0.9700	   40.00	  554.46	-1811.25	  438.44
      1.0700	   43.00	  555.93	-1811.25	  439.91
      1.1700	   47.00	  557.38	-1811.25	  441.36
      1.2700	   46.00	  558.81	-1811.25	  442.80
      1.3700	   54.00	  560.23	-1811.25	  444.21
      1.4700	   92.00	  561.63	-1811.25	  445.61
      1.5700	  285.00	  563.01	-1811.25	  447.00
      1.6700	  473.00	  564.38	-1811.25	  448.36
      1.7700	  573.00	  565.73	-1811.25	  449.71
      1.8700	  667.00	  567.06	-1811.25	  451.05
      1.9700	  712.00	  568.38	-1811.25	  452.36
      2.0700	  752.00	  569.68	-1811.25	  453.66
      2.1700	  784.00	  570.96	-1811.25	  454.95
      2.2700	  792.00	  572.23	-1811.25	  456.21
      2.3700	  701.00	  573.48	-1811.25	  457.46
      2.4700	  716.00	  574.72	-1811.25	  458.70
      2.5700	  674.00	  575.94	-1811.25	  459.92
      2.6700	  649.00	  577.14	-1811.25	  461.12
      2.7700	  591.00	  578.33	-1811.25	  462.31
      2.8700	  632.00	  579.50	-1811.25	  463.48
      2.9700	  644.00	  580.66	-1811.25	  464.64
      3.0700	  609.00	  581.80	-1811.25	  465.78
      3.1700	  609.00	  582.93	-1811.25	  466.91
      3.2700	  723.00	  584.04	-1811.25	  468.02
      3.3700	  948.00	  585.13	-1811.25	  469.12
      3.4700	 1022.00	  586.22	-1811.25	  470.20
      3.5700	 1140.00	  587.28	-1811.25	  471.27
      3.6700	 1267.00	  588.33	-1811.25	  472.32
      3.7700	 1428.00	  589.37	-1811.25	  473.35
      3.8700	 1401.00	  590.39	-1811.25	  474.38
      3.9700	 1477.00	  591.40	-1811.25	  475.38
      4.0700	 1542.00	  592.39	-1811.25	  476.38
      4.1700	 1529.00	  593.37	-1811.25	  477.36
      4.2700	 1595.00	  594.34	-1811.25	  478.32
      4.3700	 1530.00	  595.29	-1811.25	  479.27
      4.4700	 1446.00	  596.22	-1811.25	  480.21
      4.5700	 1427.00	  597.15	-1811.25	  481.13
      4.6700	 1412.00	  598.06	-1811.25	  482.04
      4.7700	 1393.00	  598.95	-1811.25	  482.93
      4.8700	 1328.00	  599.83	-1811.25	  483.81
      4.9700	 1264.00	  600.70	-1811.25	  484.68
      5.0700	 1276.00	  601.55	-1811.25	  485.54
      5.1700	 1176.00	  602.39	-1811.25	  486.38
      5.2700	 1228.00	  603.22	-1811.25	  487.20
      5.3700	 1159.00	  604.04	-1811.25	  488.02
      5.4700	 1102.00	  604.84	-1811.25	  488.82
      5.5700	 1057.00	  605.63	-1811.25	  489.61
      5.6700	 1063.00	  606.40	-1811.25	  490.38
      5.7700	 1085.00	  607.16	-1811.25	  491.15
      5.8700	 1003.00	  607.91	-1811.25	  491.90
      5.9700	 1003.00	  608.65	-1811.25	  492.63
      6.0700	 1007.00	  609.37	-1811.25	  493.36
      6.1700	 1034.00	  610.09	-1811.25	  494.07
      6.2700	  914.00	  610.79	-1811.25	  494.77
      6.3700	  953.00	  611.47	-1811.25	  495.46
      6.4700	  897.00	  612.15	-1811.25	  496.13
      6.5700	  849.00	  612.81	-1811.25	  496.79
      6.6700	  876.00	  613.46	-1811.25	  497.44
      6.7700	  863.00	  614.10	-1811.25	  498.08
      6.8700	  882.00	  614.73	-1811.25	  498.71
      6.9700	  816.00	  615.34	-1811.25	  499.33
      7.0700	  860.00	  615.95	-1811.25	  499.93
      7.1700	  762.00	  616.54	-1811.25	  500.52
      7.2700	  790.00	  617.12	-1811.25	  501.10
      7.3700	  780.00	  617.69	-1811.25	  501.67
      7.4700	  823.00	  618.25	-1811.25	  502.23
      7.5700	  807.00	  618.79	-1811.25	  502.77
      7.6700	  738.00	  619.33	-1811.25	  503.31
      7.7700	  747.00	  619.85	-1811.25	  503.83
      7.8700	  749.00	  620.36	-1811.25	  504.35
      7.9700	  706.00	  620.86	-1811.25	  504.85
      8.0700	  793.00	  621.36	-1811.25	  505.34
      8.1700	  732.00	  621.84	-1811.25	  505.82
      8.2700	  803.00	  622.31	-1811.25	  506.29
      8.3700	  768.00	  622.76	-1811.25	  506.75
      8.4700	  731.00	  623.21	-1811.25	  507.20
      8.5700	  708.00	  623.65	-1811.25	  507.63
      8.6700	  706.00	  624.08	-1811.25	  508.06
      8.7700	  688.00	  624.49	-1811.25	  508.48
      8.8700	  711.00	  624.90	-1811.25	  508.88
      8.9700	  732.00	  625.30	-1811.25	  509.28
      9.0700	  692.00	  625.68	-1811.25	  509.67
      9.1700	  673.00	  626.06	-1811.25	  510.04
      9.2700	  669.00	  626.43	-1811.25	  510.41
      9.3700	  703.00	  626.79	-1811.25	  510.77
      9.4700	  694.00	  627.13	-1811.25	  511.12
      9.5700	  715.00	  627.47	-1811.25	  511.45
      9.6700	  634.00	  627.80	-1811.25	  511.78
      9.7700	  658.00	  628.12	-1811.25	  512.10
      9.8700	  734.00	  628.42	-1811.25	  512.41
      9.9700	  685.00	  628.72	-1811.25	  512.71
     10.0700	  692.00	  631.31	-1750.56	  513.00
     10.1700	  685.00	  631.85	-1758.10	  513.28
     10.2700	  705.00	  632.45	-1738.70	  513.55
     10.3700	  674.00	  633.11	-1770.36	  513.81
     10.4700	  692.00	  633.88	-1753.13	  514.07
     10.5700	  643.00	  634.80	-1803.05	  514.31
     10.6700	  659.00	  635.98	-1788.23	  514.55
     10.7700	  648.00	  637.49	-1800.74	  514.77
     10.8700	  624.00	  639.45	-1826.70	  514.99
     10.9700	  627.00	  641.91	-1826.16	  515.20
     11.0700	  673.00	  644.90	-1783.15	  515.40
     11.1700	  693.00	  648.43	-1766.68	  515.60
     11.2700	  680.00	  652.54	-1783.79	  515.78
     11.3700	  670.00	  657.31	-1798.56	  515.96
     11.4700	  648.00	  662.87	-1826.12	  516.12
     11.5700	  676.00	  669.44	-1804.69	  516.28
     11.6700	  670.00	  677.30	-1818.55	  516.44
     11.7700	  701.00	  686.81	-1797.06	  516.58
     11.8700	  704.00	  698.18	-1805.43	  516.71
     11.9700	  787.00	  711.17	-1735.42	  516.84
     12.0700	  739.00	  724.48	-1796.73	  516.96
     12.1700	  782.00	  735.15	-1764.40	  517.07
     12.2700	  772.00	  738.27	-1777.52	  517.18
     12.3700	  770.00	  729.31	-1770.56	  517.27
     12.4700	  728.00	  710.27	-1793.52	  517.36
     12.5700	  707.00	  689.24	-1793.49	  517.44
     12.6700	  688.00	  671.95	-1795.20	  517.52
     12.7700	  653.00	  659.75	-1818.00	  517.58
     12.8700	  651.00	  651.89	-1812.14	  517.64
     12.9700	  669.00	  647.01	-1789.26	  517.70
     13.0700	  642.00	  643.97	-1813.22	  517.74
     13.1700	  586.00	  641.98	-1867.23	  517.78
     13.2700	  631.00	  640.59	-1820.84	  517.81
     13.3700	  622.00	  639.56	-1828.81	  517.83
     13.4700	  562.00	  638.76	-1888.01	  517.85
     13.5700	  644.00	  638.12	-1805.37	  517.86
     13.6700	  639.00	  637.60	-1809.85	  517.86
     13.7700	  644.00	  637.17	-1804.42	  517.86
     13.8700	  637.00	  636.80	-1811.05	  517.85
     13.9700	  637.00	  636.48	-1810.73	  517.83
     14.0700	  591.00	  636.21	-1856.46	  517.81
     14.1700	  611.00	  635.96	-1836.21	  517.78
     14.2700	  614.00	  635.74	-1832.99	  517.74
     14.3700	  626.00	  635.54	-1820.79	  517.70
     14.4700	  622.00	  635.35	-1824.60	  517.65
     14.5700	  619.00	  635.17	-1827.42	  517.60
     14.6700	  618.00	  635.00	-1828.25	  517.53
     14.7700	  608.00	  634.83	-1838.08	  517.47
     14.8700	  608.00	  634.67	-1837.92	  517.39
     14.9700	  586.00	  634.52	-1859.77	  517.31
     15.0700	  610.00	  634.36	-1835.61	  517.23
     15.1700	  590.00	  634.21	-1855.46	  517.14
     15.2700	  629.00	  634.06	-1816.31	  517.04
     15.3700	  649.00	  633.90	-1796.15	  516.94
     15.4700	  579.00	  633.75	-1866.00	  516.83
     15.5700	  636.00	  633.59	-1808.84	  516.72
     15.6700	  609.00	  633.44	-1835.69	  516.60
     15.7700	  633.00	  633.28	-1811.53	  516.47
     15.8700	  634.00	  633.11	-1810.36	  516.34
     15.9700	  623.00	  632.95	-1821.20	  516.21
     16.0700	  592.00	  632.78	-1852.03	  516.06
     16.1700	  607.00	  632.61	-1836.86	  515.92
     16.2700	  647.00	  632.43	-1796.68	  515.77
     16.3700	  639.00	  632.26	-1804.51	  515.61
     16.4700	  629.00	  632.07	-1814.32	  515.45
     16.5700	  608.00	  631.89	-1835.14	  515.28
     16.6700	  622.00	  631.70	-1820.95	  515.11
     16.7700	  622.00	  631.51	-1820.76	  514.93
     16.8700	  598.00	  631.31	-1844.56	  514.75
     16.9700	  630.00	  631.11	-1812.36	  514.57
     17.0700	  601.00	  630.91	-1841.16	  514.38
     17.1700	  599.00	  630.70	-1842.95	  514.18
     17.2700	  611.00	  630.49	-1830.74	  513.98
     17.3700	  622.00	  630.28	-1819.53	  513.77
     17.4700	  603.00	  630.06	-1838.31	  513.56
     17.5700	  632.00	  629.84	-1809.09	  513.35
     17.6700	  630.00	  630.02	-1811.27	  513.13
     17.7700	  630.00	  629.80	-1811.05	  512.91
     17.8700	  596.00	  629.87	-1845.12	  512.68
     17.9700	  595.00	  629.65	-1845.90	  512.45
     18.0700	  598.00	  629.42	-1842.67	  512.22
     18.1700	  603.00	  629.19	-1837.44	  511.98
     18.2700	  620.00	  628.96	-1820.21	  511.73
     18.3700	  617.00	  628.72	-1822.97	  511.48
     18.4700	  603.00	  628.48	-1836.73	  511.23
     18.5700	  599.00	  628.24	-1840.49	  510.98
     18.6700	  620.00	  628.00	-1819.25	  510.72
     18.7700	  568.00	  627.75	-1871.00	  510.45
     18.8700	  599.00	  627.50	-1839.75	  510.18
     18.9700	  605.00	  627.24	-1833.49	  509.91
     19.0700	  603.00	  626.99	-1835.24	  509.64
     19.1700	  548.00	  626.73	-1889.98	  509.36
     19.2700	  598.00	  626.46	-1839.71	  509.08
     19.3700	  574.00	  626.26	-1863.51	  508.79
     19.4700	  613.00	  626.00	-1824.25	  508.50
     19.5700	  623.00	  625.73	-1813.98	  508.21
     19.6700	  621.00	  625.46	-1815.71	  507.91
     19.7700	  618.00	  625.19	-1818.44	  507.61
     19.8700	  638.00	  624.91	-1798.16	  507.31
     19.9700	  592.00	  624.64	-1843.89	  507.01
     20.0700	  606.00	  624.36	-1829.61	  506.70
     20.1700	  604.00	  624.08	-1831.33	  506.38
     20.2700	  627.00	  623.80	-1808.05	  506.07
     20.3700	  607.00	  623.52	-1827.77	  505.75
     20.4700	  609.00	  623.24	-1825.49	  505.43
     20.5700	  598.00	  622.95	-1836.20	  505.10
     20.6700	  627.00	  622.67	-1806.92	  504.78
     20.7700	  611.00	  622.38	-1822.63	  504.44
     20.8700	  595.00	  622.10	-1838.35	  504.11
     20.9700	  612.00	  621.81	-1821.06	  503.77
     21.0700	  588.00	  621.52	-1844.77	  503.44
     21.1700	  607.00	  621.24	-1825.49	  503.09
     21.2700	  614.00	  620.95	-1818.20	  502.75
     21.3700	  614.00	  620.67	-1817.92	  502.40
     21.4700	  580.00	  620.38	-1851.63	  502.05
     21.5700	  630.00	  620.10	-1801.35	  501.70
     21.6700	  623.00	  619.82	-1808.07	  501.35
     21.7700	  616.00	  619.71	-1814.96	  500.99
     21.8700	  591.00	  619.44	-1839.69	  500.63
     21.9700	  624.00	  619.17	-1806.42	  500.27
     22.0700	  619.00	  618.91	-1811.16	  499.90
     22.1700	  607.00	  618.65	-1822.90	  499.54
     22.2700	  620.00	  618.39	-1809.64	  499.17
     22.3700	  606.00	  618.14	-1823.39	  498.80
     22.4700	  598.00	  617.90	-1831.15	  498.42
     22.5700	  606.00	  617.67	-1822.92	  498.05
     22.6700	  603.00	  617.45	-1825.70	  497.67
     22.7700	  597.00	  617.25	-1831.50	  497.29
     22.8700	  668.00	  617.06	-1760.31	  496.91
     22.9700	  608.00	  616.88	-1820.13	  496.53
     23.0700	  627.00	  616.73	-1800.98	  496.14
     23.1700	  604.00	  616.61	-1823.86	  495.75
     23.2700	  650.00	  616.52	-1777.77	  495.36
     23.3700	  617.00	  616.47	-1810.72	  494.97
     23.4700	  643.00	  616.48	-1784.73	  494.58
     23.5700	  614.00	  616.56	-1813.81	  494.19
     23.6700	  625.00	  616.73	-1802.98	  493.79
     23.7700	  626.00	  616.97	-1802.22	  493.39
     23.8700	  625.00	  617.49	-1803.74	  492.99
     23.9700	  623.00	  618.33	-1806.58	  492.59
     24.0700	  661.00	  619.68	-1769.93	  492.19
     24.1700	  586.00	  621.84	-1847.09	  491.78
     24.2700	  633.00	  625.21	-1803.46	  491.38
     24.3700	  641.00	  630.24	-1800.49	  490.97
     24.4700	  607.00	  637.29	-1841.54	  490.56
     24.5700	  695.00	  646.35	-1762.60	  490.15
     24.6700	  700.00	  656.84	-1768.09	  489.74
     24.7700	  715.00	  667.16	-1763.41	  489.33
     24.8700	  673.00	  674.39	-1812.64	  488.92
     24.9700	  767.00	  674.78	-1719.03	  488.50
     25.0700	  735.00	  666.85	-1743.10	  488.08
     25.1700	  717.00	  654.28	-1748.53	  487.67
     25.2700	  668.00	  642.02	-1785.27	  487.25
     25.3700	  643.00	  632.47	-1800.72	  486.83
     25.4700	  650.00	  625.92	-1787.17	  486.41
     25.5700	  653.00	  621.80	-1780.05	  485.99
     25.6700	  628.00	  619.38	-1802.63	  485.57
     25.7700	  692.00	  618.01	-1737.26	  485.14
     25.8700	  609.00	  617.30	-1819.55	  484.72
     25.9700	  664.00	  617.00	-1764.25	  484.29
     26.0700	  680.00	  617.02	-1748.27	  483.87
     26.1700	  673.00	  617.29	-1755.54	  483.44
     26.2700	  673.00	  617.82	-1756.07	  483.01
     26.3700	  652.00	  618.59	-1777.84	  482.58
     26.4700	  722.00	  619.65	-1708.90	  482.15
     26.5700	  697.00	  621.01	-1735.26	  481.72
     26.6700	  656.00	  622.74	-1777.99	  481.29
     26.7700	  716.00	  624.91	-1720.16	  480.86
     26.8700	  682.00	  627.62	-1756.87	  480.43
     26.9700	  705.00	  631.02	-1737.27	  480.00
     27.0700	  710.00	  635.31	-1736.56	  479.57
     27.1700	  705.00	  640.79	-1747.04	  479.13
     27.2700	  700.00	  647.96	-1759.21	  478.70
     27.3700	  693.00	  657.76	-1776.01	  478.27
     27.4700	  709.00	  671.94	-1774.19	  477.83
     27.5700	  738.00	  693.85	-1767.10	  477.40
     27.6700	  735.00	  729.39	-1805.64	  476.96
     27.7700	  797.00	  787.90	-1802.15	  476.52
     27.8700	  896.00	  881.58	-1796.83	  476.09
     27.9700	  882.00	 1021.50	-1950.75	  475.65
     28.0700	 1122.00	 1209.52	-1898.77	  475.22
     28.1700	 1373.00	 1428.26	-1866.51	  474.78
     28.2700	 1697.00	 1631.89	-1746.14	  474.34
     28.3700	 1926.00	 1745.61	-1630.86	  473.90
     28.4700	 1817.00	 1706.33	-1700.58	  473.47
     28.5700	 1554.00	 1554.79	-1812.04	  473.03
     28.6700	 1334.00	 1409.96	-1887.21	  472.59
     28.7700	 1203.00	 1344.65	-1952.90	  472.16
     28.8700	 1274.00	 1361.38	-1898.63	  471.72
     28.9700	 1363.00	 1415.49	-1863.74	  471.28
     29.0700	 1416.00	 1435.52	-1830.77	  470.84
     29.1700	 1354.00	 1360.40	-1817.65	  470.41
     29.2700	 1260.00	 1201.15	-1752.40	  469.97
     29.3700	 1014.00	 1026.16	-1823.41	  469.53
     29.4700	  928.00	  883.13	-1766.39	  469.09
     29.5700	  837.00	  784.03	-1758.28	  468.66
     29.6700	  799.00	  722.37	-1734.62	  468.22
     29.7700	  759.00	  686.15	-1738.40	  467.78
     29.8700	  748.00	  664.76	-1728.01	  467.35
     29.9700	  781.00	  651.40	-1681.65	  466.91
     30.0700	  763.00	  642.55	-1690.80	  466.48
     30.1700	  699.00	  636.71	-1748.96	  466.04
     30.2700	  663.00	  633.47	-1781.72	  465.61
     30.3700	  720.00	  633.12	-1724.37	  465.17
     30.4700	  678.00	  636.57	-1769.82	  464.74
     30.5700	  691.00	  645.21	-1765.46	  464.30
     30.6700	  680.00	  660.39	-1791.64	  463.87
     30.7700	  684.00	  682.29	-1809.54	  463.44
     30.8700	  709.00	  708.59	-1810.84	  463.00
     30.9700	  714.00	  733.43	-1830.68	  462.57
     31.0700	  743.00	  747.22	-1815.47	  462.14
     31.1700	  731.00	  740.53	-1820.78	  461.71
     31.2700	  735.00	  714.36	-1790.61	  461.28
     31.3700	  675.00	  681.20	-1817.45	  460.85
     31.4700	  636.00	  651.75	-1827.00	  460.42
     31.5700	  673.00	  629.94	-1768.19	  459.99
     31.6700	  607.00	  615.50	-1819.75	  459.56
     31.7700	  688.00	  606.58	-1729.83	  459.13
     31.8700	  611.00	  601.15	-1801.40	  458.71
     31.9700	  621.00	  597.72	-1787.97	  458.28
     32.0700	  611.00	  595.40	-1795.65	  457.86
     32.1700	  567.00	  593.75	-1838.00	  457.43
     32.2700	  597.00	  592.55	-1806.80	  457.01
     32.3700	  625.00	  591.71	-1777.96	  456.58
     32.4700	  587.00	  591.20	-1815.45	  456.16
     32.5700	  612.00	  591.02	-1790.27	  455.74
     32.6700	  545.00	  591.13	-1857.38	  455.32
     32.7700	  610.00	  591.59	-1792.84	  454.90
     32.8700	  605.00	  592.46	-1798.71	  454.48
     32.9700	  635.00	  593.84	-1770.09	  454.06
     33.0700	  647.00	  595.89	-1760.14	  453.64
     33.1700	  586.00	  598.91	-1824.16	  453.23
     33.2700	  607.00	  603.48	-1807.73	  452.81
     33.3700	  614.00	  610.66	-1807.91	  452.40
     33.4700	  565.00	  622.38	-1868.63	  451.99
     33.5700	  639.00	  641.77	-1814.02	  451.57
     33.6700	  660.00	  673.08	-1824.33	  451.16
     33.7700	  700.00	  720.72	-1831.97	  450.75
     33.8700	  797.00	  786.68	-1800.93	  450.34
     33.9700	  886.00	  866.68	-1791.93	  449.93
     34.0700	  991.00	  946.82	-1767.07	  449.53
     34.1700	 1119.00	 1002.67	-1694.92	  449.12
     34.2700	 1072.00	 1006.61	-1745.86	  448.72
     34.3700	  979.00	  951.78	-1784.03	  448.31
     34.4700	  887.00	  865.01	-1789.26	  447.91
     34.5700	  728.00	  778.94	-1862.19	  447.51
     34.6700	  715.00	  710.02	-1806.27	  447.11
     34.7700	  668.00	  661.54	-1804.79	  446.71
     34.8700	  602.00	  630.30	-1839.55	  446.31
     34.9700	  677.00	  611.15	-1745.40	  445.92
     35.0700	  597.00	  599.38	-1813.63	  445.52
     35.1700	  628.00	  591.77	-1775.02	  445.13
     35.2700	  587.00	  586.43	-1810.68	  444.73
     35.3700	  521.00	  582.40	-1872.65	  444.34
     35.4700	  591.00	  579.20	-1799.45	  443.95
     35.5700	  535.00	  576.59	-1852.84	  443.56
     35.6700	  558.00	  574.88	-1828.13	  443.18
     35.7700	  543.00	  573.02	-1841.27	  442.79
     35.8700	  537.00	  571.43	-1845.68	  442.40
     35.9700	  545.00	  570.04	-1836.29	  442.02
     36.0700	  515.00	  568.82	-1865.07	  441.64
     36.1700	  519.00	  567.75	-1860.00	  441.26
     36.2700	  554.00	  566.79	-1824.04	  440.88
     36.3700	  592.00	  565.94	-1785.19	  440.50
     36.4700	  562.00	  565.18	-1814.43	  440.12
     36.5700	  577.00	  564.52	-1798.77	  439.75
     36.6700	  557.00	  563.95	-1818.20	  439.38
     36.7700	  567.00	  563.66	-1807.91	  439.00
     36.8700	  528.00	  563.26	-1846.51	  438.63
     36.9700	  567.00	  563.02	-1807.27	  438.26
     37.0700	  593.00	  562.99	-1781.24	  437.90
     37.1700	  552.00	  563.24	-1822.49	  437.53
     37.2700	  556.00	  563.94	-1819.19	  437.17
     37.3700	  560.00	  565.29	-1816.54	  436.80
     37.4700	  524.00	  567.53	-1854.78	  436.44
     37.5700	  584.00	  570.92	-1798.17	  436.08
     37.6700	  591.00	  575.56	-1795.81	  435.72
     37.7700	  587.00	  581.25	-1805.50	  435.37
     37.8700	  598.00	  587.34	-1800.59	  435.01
     37.9700	  564.00	  592.80	-1840.05	  434.66
     38.0700	  575.00	  596.59	-1832.84	  434.31
     38.1700	  544.00	  597.77	-1865.02	  433.95
     38.2700	  581.00	  595.31	-1825.56	  433.61
     38.3700	  581.00	  589.06	-1819.31	  433.26
     38.4700	  538.00	  580.92	-1854.17	  432.91
     38.5700	  572.00	  573.04	-1812.29	  432.57
     38.6700	  579.00	  566.58	-1798.83	  432.23
     38.7700	  549.00	  561.79	-1824.04	  431.89
     38.8700	  535.00	  558.46	-1834.71	  431.55
     38.9700	  507.00	  556.21	-1860.46	  431.21
     39.0700	  541.00	  554.68	-1824.93	  430.88
     39.1700	  575.00	  553.57	-1789.82	  430.54
     39.2700	  525.00	  552.71	-1838.96	  430.21
     39.3700	  501.00	  551.61	-1861.86	  429.88
     39.4700	  544.00	  551.00	-1818.25	  429.55
     39.5700	  544.00	  550.46	-1817.71	  429.22
     39.6700	  541.00	  549.97	-1820.22	  428.90
     39.7700	  555.00	  549.52	-1805.77	  428.57
     39.8700	  564.00	  549.11	-1796.36	  428.25
     39.9700	  522.00	  549.29	-1838.54	  427.93
     40.0700	  540.00	  548.95	-1820.20	  427.62
     40.1700	  539.00	  548.63	-1820.88	  427.30
     40.2700	  514.00	  548.33	-1845.58	  426.98
     40.3700	  527.00	  548.06	-1832.31	  426.67
     40.4700	  537.00	  547.52	-1821.77	  426.36
     40.5700	  513.00	  547.30	-1845.55	  426.05
     40.6700	  513.00	  547.10	-1845.35	  425.74
     40.7700	  559.00	  546.94	-1799.19	  425.44
