MSG Master    CELL:    5.91939   5.91939  23.27803   90.0000   90.0000  120.0000   SPGR: P 63/m m c             TEMP:   1074.95
  1   1280     2.52000     0.00000    -0.12126     0.00000     0.00000    0
    99     0     2
       0.00000      10.00000
     125.00000     130.00000
 2Theta	Yobs	Ycal	Yobs-Ycal	Backg	Posr	(hkl)	K
      0.7700	    0.00	  533.21	-1736.75	  414.95
      0.8700	    0.00	  534.08	-1736.75	  415.82
      0.9700	   37.00	  534.94	-1736.75	  416.68
      1.0700	   51.00	  535.79	-1736.75	  417.53
      1.1700	   33.00	  536.63	-1736.75	  418.37
      1.2700	   58.00	  537.45	-1736.75	  419.19
      1.3700	   55.00	  538.26	-1736.75	  420.00
      1.4700	   82.00	  539.06	-1736.75	  420.80
      1.5700	  287.00	  539.85	-1736.75	  421.59
      1.6700	  458.00	  540.63	-1736.75	  422.37
      1.7700	  566.00	  541.39	-1736.75	  423.13
      1.8700	  666.00	  542.15	-1736.75	  423.89
      1.9700	  723.00	  542.89	-1736.75	  424.63
      2.0700	  767.00	  543.63	-1736.75	  425.37
      2.1700	  782.00	  544.35	-1736.75	  426.09
      2.2700	  752.00	  545.06	-1736.75	  426.80
      2.3700	  801.00	  545.76	-1736.75	  427.50
      2.4700	  723.00	  546.45	-1736.75	  428.19
      2.5700	  719.00	  547.12	-1736.75	  428.86
      2.6700	  622.00	  547.79	-1736.75	  429.53
      2.7700	  694.00	  548.45	-1736.75	  430.19
      2.8700	  644.00	  549.09	-1736.75	  430.83
      2.9700	  596.00	  549.73	-1736.75	  431.47
      3.0700	  585.00	  550.35	-1736.75	  432.09
      3.1700	  601.00	  550.97	-1736.75	  432.71
      3.2700	  620.00	  551.57	-1736.75	  433.31
      3.3700	  699.00	  552.17	-1736.75	  433.91
      3.4700	  707.00	  552.75	-1736.75	  434.49
      3.5700	  787.00	  553.33	-1736.75	  435.07
      3.6700	  828.00	  553.89	-1736.75	  435.63
      3.7700	  873.00	  554.45	-1736.75	  436.19
      3.8700	  970.00	  554.99	-1736.75	  436.73
      3.9700	  996.00	  555.53	-1736.75	  437.27
      4.0700	 1050.00	  556.05	-1736.75	  437.79
      4.1700	 1055.00	  556.57	-1736.75	  438.31
      4.2700	 1072.00	  557.08	-1736.75	  438.82
      4.3700	 1060.00	  557.57	-1736.75	  439.31
      4.4700	 1056.00	  558.06	-1736.75	  439.80
      4.5700	 1004.00	  558.54	-1736.75	  440.28
      4.6700	 1052.00	  559.01	-1736.75	  440.75
      4.7700	  998.00	  559.47	-1736.75	  441.21
      4.8700	  973.00	  559.92	-1736.75	  441.66
      4.9700	 1002.00	  560.36	-1736.75	  442.10
      5.0700	  956.00	  560.79	-1736.75	  442.53
      5.1700	  929.00	  561.22	-1736.75	  442.96
      5.2700	  884.00	  561.63	-1736.75	  443.37
      5.3700	  942.00	  562.04	-1736.75	  443.78
      5.4700	  860.00	  562.43	-1736.75	  444.17
      5.5700	  882.00	  562.82	-1736.75	  444.56
      5.6700	  896.00	  563.20	-1736.75	  444.94
      5.7700	  829.00	  563.57	-1736.75	  445.31
      5.8700	  827.00	  563.94	-1736.75	  445.68
      5.9700	  811.00	  564.29	-1736.75	  446.03
      6.0700	  712.00	  564.64	-1736.75	  446.38
      6.1700	  765.00	  564.98	-1736.75	  446.72
      6.2700	  807.00	  565.31	-1736.75	  447.05
      6.3700	  762.00	  565.63	-1736.75	  447.37
      6.4700	  731.00	  565.94	-1736.75	  447.68
      6.5700	  729.00	  566.25	-1736.75	  447.99
      6.6700	  745.00	  566.55	-1736.75	  448.29
      6.7700	  668.00	  566.84	-1736.75	  448.58
      6.8700	  720.00	  567.12	-1736.75	  448.86
      6.9700	  710.00	  567.40	-1736.75	  449.14
      7.0700	  679.00	  567.66	-1736.75	  449.40
      7.1700	  706.00	  567.92	-1736.75	  449.66
      7.2700	  744.00	  568.18	-1736.75	  449.92
      7.3700	  652.00	  568.42	-1736.75	  450.16
      7.4700	  652.00	  568.66	-1736.75	  450.40
      7.5700	  698.00	  568.89	-1736.75	  450.63
      7.6700	  655.00	  569.11	-1736.75	  450.85
      7.7700	  661.00	  569.32	-1736.75	  451.06
      7.8700	  610.00	  569.53	-1736.75	  451.27
      7.9700	  616.00	  569.73	-1736.75	  451.47
      8.0700	  631.00	  569.93	-1736.75	  451.67
      8.1700	  651.00	  570.11	-1736.75	  451.85
      8.2700	  618.00	  570.29	-1736.75	  452.03
      8.3700	  629.00	  570.47	-1736.75	  452.21
      8.4700	  646.00	  570.63	-1736.75	  452.37
      8.5700	  627.00	  570.79	-1736.75	  452.53
      8.6700	  620.00	  570.95	-1736.75	  452.69
      8.7700	  586.00	  571.09	-1736.75	  452.83
      8.8700	  651.00	  571.23	-1736.75	  452.97
      8.9700	  631.00	  571.37	-1736.75	  453.10
      9.0700	  642.00	  571.49	-1736.75	  453.23
      9.1700	  607.00	  571.61	-1736.75	  453.35
      9.2700	  631.00	  571.73	-1736.75	  453.47
      9.3700	  589.00	  571.83	-1736.75	  453.57
      9.4700	  572.00	  571.94	-1736.75	  453.67
      9.5700	  612.00	  572.03	-1736.75	  453.77
      9.6700	  590.00	  572.12	-1736.75	  453.86
      9.7700	  616.00	  572.20	-1736.75	  453.94
      9.8700	  581.00	  572.28	-1736.75	  454.02
      9.9700	  592.00	  572.35	-1736.75	  454.09
     10.0700	  570.00	  573.21	-1739.96	  454.16
     10.1700	  575.00	  573.35	-1735.10	  454.22
     10.2700	  575.00	  573.51	-1735.26	  454.27
     10.3700	  600.00	  573.69	-1710.44	  454.32
     10.4700	  599.00	  573.93	-1711.68	  454.36
     10.5700	  580.00	  574.27	-1731.02	  454.40
     10.6700	  599.00	  574.82	-1712.57	  454.43
     10.7700	  616.00	  575.68	-1696.43	  454.45
     10.8700	  659.00	  576.92	-1654.67	  454.47
     10.9700	  604.00	  578.55	-1711.30	  454.49
     11.0700	  585.00	  580.52	-1732.27	  454.50
     11.1700	  583.00	  582.83	-1736.58	  454.50
     11.2700	  543.00	  585.51	-1779.26	  454.50
     11.3700	  618.00	  588.65	-1707.40	  454.49
     11.4700	  596.00	  592.36	-1733.11	  454.48
     11.5700	  652.00	  596.86	-1681.61	  454.46
     11.6700	  622.00	  602.48	-1717.23	  454.44
     11.7700	  612.00	  609.82	-1734.57	  454.42
     11.8700	  656.00	  619.82	-1700.57	  454.38
     11.9700	  660.00	  633.16	-1709.91	  454.35
     12.0700	  641.00	  648.34	-1744.09	  454.31
     12.1700	  647.00	  659.30	-1749.05	  454.26
     12.2700	  713.00	  656.31	-1680.06	  454.21
     12.3700	  634.00	  636.13	-1738.88	  454.15
     12.4700	  580.00	  611.12	-1767.87	  454.09
     12.5700	  618.00	  592.74	-1711.49	  454.03
     12.6700	  573.00	  582.75	-1746.50	  453.96
     12.7700	  612.00	  578.26	-1703.01	  453.88
     12.8700	  567.00	  576.26	-1746.01	  453.81
     12.9700	  515.00	  575.19	-1796.94	  453.72
     13.0700	  593.00	  574.47	-1718.22	  453.64
     13.1700	  585.00	  573.93	-1725.68	  453.55
     13.2700	  564.00	  573.51	-1746.26	  453.45
     13.3700	  528.00	  573.15	-1781.90	  453.35
     13.4700	  526.00	  572.85	-1783.60	  453.25
     13.5700	  565.00	  572.58	-1744.33	  453.14
     13.6700	  538.00	  572.34	-1771.09	  453.03
     13.7700	  538.00	  572.12	-1770.87	  452.91
     13.8700	  558.00	  571.91	-1750.66	  452.79
     13.9700	  563.00	  571.71	-1745.46	  452.67
     14.0700	  561.00	  571.52	-1747.27	  452.54
     14.1700	  579.00	  571.33	-1729.08	  452.41
     14.2700	  537.00	  571.15	-1770.90	  452.27
     14.3700	  517.00	  570.97	-1790.72	  452.13
     14.4700	  559.00	  570.79	-1748.54	  451.99
     14.5700	  578.00	  570.62	-1729.37	  451.84
     14.6700	  579.00	  570.44	-1728.19	  451.69
     14.7700	  584.00	  570.26	-1723.01	  451.54
     14.8700	  570.00	  570.08	-1736.83	  451.38
     14.9700	  533.00	  569.90	-1773.65	  451.22
     15.0700	  500.00	  569.72	-1806.47	  451.06
     15.1700	  553.00	  569.53	-1753.28	  450.89
     15.2700	  555.00	  569.35	-1751.10	  450.72
     15.3700	  557.00	  569.16	-1748.91	  450.54
     15.4700	  561.00	  568.97	-1744.72	  450.37
     15.5700	  584.00	  568.78	-1721.53	  450.19
     15.6700	  536.00	  568.59	-1769.34	  450.00
     15.7700	  568.00	  568.39	-1737.14	  449.81
     15.8700	  585.00	  568.19	-1719.94	  449.62
     15.9700	  607.00	  567.99	-1697.74	  449.43
     16.0700	  510.00	  567.79	-1794.54	  449.24
     16.1700	  581.00	  567.61	-1723.36	  449.04
     16.2700	  547.00	  567.40	-1757.15	  448.83
     16.3700	  567.00	  567.19	-1736.94	  448.63
     16.4700	  574.00	  566.98	-1729.73	  448.42
     16.5700	  544.00	  566.77	-1759.52	  448.21
     16.6700	  539.00	  566.55	-1764.30	  448.00
     16.7700	  558.00	  566.33	-1745.08	  447.78
     16.8700	  530.00	  566.11	-1772.86	  447.56
     16.9700	  563.00	  565.88	-1739.63	  447.34
     17.0700	  522.00	  565.66	-1780.41	  447.12
     17.1700	  589.00	  565.43	-1713.18	  446.89
     17.2700	  589.00	  565.20	-1712.95	  446.66
     17.3700	  593.00	  564.96	-1708.71	  446.43
     17.4700	  545.00	  564.73	-1756.48	  446.20
     17.5700	  573.00	  564.49	-1728.24	  445.96
     17.6700	  579.00	  564.25	-1722.00	  445.73
     17.7700	  556.00	  564.01	-1744.76	  445.48
     17.8700	  566.00	  563.77	-1734.52	  445.24
     17.9700	  559.00	  563.52	-1741.27	  445.00
     18.0700	  610.00	  563.37	-1690.12	  444.75
     18.1700	  549.00	  563.12	-1750.87	  444.50
     18.2700	  576.00	  562.87	-1723.62	  444.25
     18.3700	  563.00	  562.62	-1736.37	  443.99
     18.4700	  574.00	  562.37	-1725.12	  443.74
     18.5700	  556.00	  562.11	-1742.86	  443.48
     18.6700	  521.00	  561.85	-1777.60	  443.22
     18.7700	  592.00	  561.59	-1706.34	  442.96
     18.8700	  555.00	  561.42	-1743.17	  442.69
     18.9700	  548.00	  561.16	-1749.91	  442.43
     19.0700	  504.00	  560.89	-1793.64	  442.16
     19.1700	  554.00	  560.63	-1743.38	  441.89
     19.2700	  587.00	  560.37	-1710.12	  441.62
     19.3700	  559.00	  560.10	-1737.85	  441.35
     19.4700	  550.00	  559.83	-1746.58	  441.07
     19.5700	  525.00	  559.56	-1771.31	  440.79
     19.6700	  520.00	  559.29	-1776.04	  440.52
     19.7700	  553.00	  559.02	-1742.77	  440.24
     19.8700	  560.00	  558.75	-1735.50	  439.96
     19.9700	  538.00	  558.47	-1757.22	  439.67
     20.0700	  558.00	  558.20	-1736.95	  439.39
     20.1700	  559.00	  557.92	-1735.67	  439.10
     20.2700	  553.00	  557.64	-1741.39	  438.82
     20.3700	  544.00	  557.37	-1750.12	  438.53
     20.4700	  540.00	  557.05	-1753.80	  438.24
     20.5700	  570.00	  556.78	-1723.53	  437.95
     20.6700	  588.00	  556.50	-1705.25	  437.65
     20.7700	  562.00	  556.22	-1730.97	  437.36
     20.8700	  566.00	  555.98	-1726.73	  437.06
     20.9700	  571.00	  555.70	-1721.45	  436.77
     21.0700	  565.00	  555.42	-1727.17	  436.47
     21.1700	  555.00	  555.14	-1736.89	  436.17
     21.2700	  541.00	  554.86	-1750.61	  435.87
     21.3700	  530.00	  554.58	-1761.33	  435.57
     21.4700	  567.00	  554.30	-1724.05	  435.27
     21.5700	  551.00	  554.02	-1739.77	  434.97
     21.6700	  552.00	  553.74	-1738.49	  434.66
     21.7700	  533.00	  553.46	-1757.21	  434.36
     21.8700	  589.00	  553.19	-1700.94	  434.05
     21.9700	  496.00	  552.91	-1793.66	  433.74
     22.0700	  563.00	  552.64	-1726.39	  433.44
     22.1700	  543.00	  552.37	-1746.12	  433.13
     22.2700	  533.00	  552.10	-1755.85	  432.82
     22.3700	  602.00	  551.83	-1686.58	  432.51
     22.4700	  543.00	  551.57	-1745.32	  432.20
     22.5700	  549.00	  551.31	-1739.06	  431.89
     22.6700	  530.00	  551.06	-1757.81	  431.57
     22.7700	  581.00	  550.82	-1706.57	  431.26
     22.8700	  565.00	  550.58	-1722.33	  430.95
     22.9700	  586.00	  550.35	-1701.10	  430.63
     23.0700	  576.00	  550.14	-1710.89	  430.32
     23.1700	  547.00	  549.94	-1739.69	  430.00
     23.2700	  543.00	  549.76	-1743.51	  429.69
     23.3700	  534.00	  549.61	-1752.36	  429.37
     23.4700	  533.00	  549.49	-1753.24	  429.05
     23.5700	  545.00	  549.42	-1741.17	  428.73
     23.6700	  561.00	  549.42	-1725.17	  428.42
     23.7700	  589.00	  549.67	-1697.42	  428.10
     23.8700	  551.00	  550.00	-1735.75	  427.78
     23.9700	  564.00	  550.78	-1723.53	  427.46
     24.0700	  589.00	  552.44	-1700.19	  427.14
     24.1700	  580.00	  555.66	-1712.41	  426.82
     24.2700	  602.00	  561.30	-1696.05	  426.50
     24.3700	  615.00	  570.33	-1692.08	  426.18
     24.4700	  615.00	  583.81	-1705.56	  425.86
     24.5700	  596.00	  601.98	-1742.73	  425.54
     24.6700	  562.00	  621.99	-1796.74	  425.22
     24.7700	  672.00	  635.78	-1700.53	  424.90
     24.8700	  637.00	  632.60	-1732.35	  424.58
     24.9700	  571.00	  611.17	-1776.92	  424.26
     25.0700	  616.00	  585.27	-1706.02	  423.93
     25.1700	  576.00	  565.92	-1726.67	  423.61
     25.2700	  589.00	  555.02	-1702.77	  423.29
     25.3700	  595.00	  549.91	-1691.66	  422.97
     25.4700	  535.00	  547.59	-1749.34	  422.65
     25.5700	  539.00	  546.36	-1744.11	  422.33
     25.6700	  562.00	  545.56	-1720.31	  422.01
     25.7700	  575.00	  544.98	-1706.73	  421.68
     25.8700	  521.00	  544.53	-1760.28	  421.36
     25.9700	  511.00	  544.19	-1769.94	  421.04
     26.0700	  550.00	  543.94	-1730.69	  420.72
     26.1700	  553.00	  543.77	-1727.52	  420.40
     26.2700	  575.00	  543.67	-1705.42	  420.08
     26.3700	  529.00	  543.64	-1751.39	  419.76
     26.4700	  569.00	  543.70	-1711.45	  419.44
     26.5700	  501.00	  543.85	-1779.60	  419.12
     26.6700	  547.00	  544.11	-1733.86	  418.80
     26.7700	  570.00	  544.50	-1711.25	  418.48
     26.8700	  540.00	  545.05	-1741.80	  418.16
     26.9700	  530.00	  545.82	-1752.57	  417.84
     27.0700	  569.00	  546.88	-1714.63	  417.52
     27.1700	  543.00	  548.35	-1742.10	  417.21
     27.2700	  572.00	  550.47	-1715.22	  416.89
     27.3700	  580.00	  553.71	-1710.46	  416.57
     27.4700	  544.00	  558.97	-1751.72	  416.26
     27.5700	  557.00	  567.93	-1747.68	  415.94
     27.6700	  583.00	  583.20	-1736.95	  415.62
     27.7700	  571.00	  608.22	-1773.97	  415.31
     27.8700	  602.00	  646.00	-1780.75	  414.99
     27.9700	  689.00	  696.86	-1744.61	  414.68
     28.0700	  795.00	  755.23	-1696.98	  414.37
     28.1700	  842.00	  806.87	-1701.62	  414.05
     28.2700	  992.00	  830.05	-1574.80	  413.74
     28.3700	  887.00	  811.16	-1660.91	  413.43
     28.4700	  769.00	  769.88	-1737.63	  413.12
     28.5700	  700.00	  740.76	-1777.51	  412.81
     28.6700	  692.00	  740.22	-1784.97	  412.50
     28.7700	  751.00	  764.12	-1749.87	  412.19
     28.8700	  759.00	  793.13	-1770.88	  411.88
     28.9700	  805.00	  799.42	-1731.17	  411.57
     29.0700	  771.00	  764.42	-1730.17	  411.26
     29.1700	  687.00	  702.60	-1752.35	  410.96
     29.2700	  649.00	  642.84	-1730.59	  410.65
     29.3700	  635.00	  599.40	-1701.15	  410.35
     29.4700	  611.00	  573.05	-1698.80	  410.04
     29.5700	  589.00	  558.80	-1706.55	  409.74
     29.6700	  599.00	  551.32	-1689.07	  409.44
     29.7700	  611.00	  547.14	-1672.89	  409.14
     29.8700	  593.00	  544.57	-1688.32	  408.84
     29.9700	  565.00	  542.98	-1714.73	  408.54
     30.0700	  615.00	  542.23	-1663.98	  408.24
     30.1700	  585.00	  542.50	-1694.25	  407.94
     30.2700	  527.00	  544.38	-1754.13	  407.64
     30.3700	  564.00	  549.03	-1721.78	  407.35
     30.4700	  617.00	  558.19	-1677.94	  407.05
     30.5700	  523.00	  573.76	-1787.51	  406.76
     30.6700	  548.00	  596.33	-1785.08	  406.46
     30.7700	  596.00	  623.21	-1763.96	  406.17
     30.8700	  625.00	  646.93	-1758.68	  405.88
     30.9700	  615.00	  655.88	-1777.63	  405.59
     31.0700	  591.00	  641.82	-1787.57	  405.30
     31.1700	  574.00	  611.95	-1774.70	  405.01
     31.2700	  593.00	  581.58	-1725.33	  404.73
     31.3700	  586.00	  559.00	-1709.75	  404.44
     31.4700	  546.00	  545.22	-1735.97	  404.16
     31.5700	  549.00	  537.84	-1725.59	  403.87
     31.6700	  592.00	  534.06	-1678.81	  403.59
     31.7700	  566.00	  531.99	-1702.74	  403.31
     31.8700	  521.00	  530.69	-1746.44	  403.03
     31.9700	  529.00	  529.79	-1737.54	  402.75
     32.0700	  579.00	  529.15	-1686.90	  402.47
     32.1700	  538.00	  528.71	-1727.46	  402.20
     32.2700	  565.00	  528.44	-1700.19	  401.92
     32.3700	  539.00	  528.33	-1726.08	  401.65
     32.4700	  559.00	  528.38	-1706.12	  401.37
     32.5700	  544.00	  528.60	-1721.35	  401.10
     32.6700	  570.00	  529.03	-1695.78	  400.83
     32.7700	  554.00	  529.70	-1712.45	  400.56
     32.8700	  567.00	  530.69	-1700.44	  400.29
     32.9700	  546.00	  532.12	-1722.87	  400.03
     33.0700	  571.00	  534.18	-1699.93	  399.76
     33.1700	  596.00	  537.36	-1678.11	  399.50
     33.2700	  540.00	  542.68	-1739.43	  399.24
     33.3700	  601.00	  552.45	-1688.20	  398.97
     33.4700	  561.00	  571.04	-1746.79	  398.71
     33.5700	  598.00	  605.54	-1744.29	  398.46
     33.6700	  678.00	  664.13	-1722.88	  398.20
     33.7700	  770.00	  750.64	-1717.39	  397.94
     33.8700	  919.00	  856.04	-1673.79	  397.69
     33.9700	 1105.00	  952.43	-1584.18	  397.43
     34.0700	 1040.00	  996.51	-1693.26	  397.18
     34.1700	 1032.00	  955.41	-1660.16	  396.93
     34.2700	  823.00	  850.02	-1763.77	  396.68
     34.3700	  784.00	  735.29	-1688.04	  396.44
     34.4700	  655.00	  645.92	-1727.67	  396.19
     34.5700	  591.00	  589.46	-1735.21	  395.94
     34.6700	  566.00	  558.81	-1729.56	  395.70
     34.7700	  534.00	  543.40	-1746.15	  395.46
     34.8700	  570.00	  535.40	-1702.15	  395.22
     34.9700	  536.00	  530.64	-1731.39	  394.98
     35.0700	  529.00	  527.37	-1735.12	  394.74
     35.1700	  567.00	  524.90	-1694.65	  394.51
     35.2700	  476.00	  522.97	-1783.72	  394.27
     35.3700	  498.00	  521.39	-1760.14	  394.04
     35.4700	  520.00	  520.08	-1736.83	  393.81
     35.5700	  518.00	  518.97	-1737.72	  393.58
     35.6700	  513.00	  518.02	-1741.77	  393.35
     35.7700	  528.00	  517.20	-1725.95	  393.13
     35.8700	  512.00	  516.47	-1741.22	  392.90
     35.9700	  504.00	  516.31	-1749.06	  392.68
     36.0700	  557.00	  515.74	-1695.49	  392.46
     36.1700	  509.00	  515.23	-1742.98	  392.24
     36.2700	  482.00	  514.77	-1769.52	  392.02
     36.3700	  525.00	  514.36	-1726.11	  391.80
     36.4700	  510.00	  513.99	-1740.74	  391.58
     36.5700	  495.00	  513.66	-1755.41	  391.37
     36.6700	  531.00	  513.37	-1719.12	  391.16
     36.7700	  469.00	  513.14	-1780.89	  390.95
     36.8700	  565.00	  512.98	-1684.73	  390.74
     36.9700	  543.00	  512.97	-1706.72	  390.53
     37.0700	  516.00	  513.27	-1734.02	  390.33
     37.1700	  532.00	  514.14	-1718.89	  390.12
     37.2700	  497.00	  516.03	-1755.78	  389.92
     37.3700	  494.00	  519.34	-1762.09	  389.72
     37.4700	  516.00	  524.10	-1744.85	  389.52
     37.5700	  523.00	  529.49	-1743.24	  389.32
     37.6700	  517.00	  533.86	-1753.61	  389.13
     37.7700	  529.00	  535.28	-1743.03	  388.93
     37.8700	  561.00	  533.32	-1709.07	  388.74
     37.9700	  536.00	  529.49	-1730.24	  388.55
     38.0700	  508.00	  525.12	-1753.86	  388.36
     38.1700	  496.00	  520.68	-1761.43	  388.17
     38.2700	  533.00	  516.67	-1720.42	  387.99
     38.3700	  470.00	  513.52	-1780.27	  387.80
     38.4700	  525.00	  511.32	-1723.07	  387.62
     38.5700	  487.00	  509.90	-1759.65	  387.44
     38.6700	  478.00	  509.03	-1767.78	  387.26
     38.7700	  491.00	  508.38	-1754.13	  387.08
     38.8700	  538.00	  508.00	-1706.75	  386.91
     38.9700	  520.00	  507.69	-1724.44	  386.73
     39.0700	  517.00	  507.43	-1727.18	  386.56
     39.1700	  504.00	  507.12	-1739.87	  386.39
     39.2700	  519.00	  506.91	-1724.66	  386.22
     39.3700	  514.00	  506.71	-1729.46	  386.06
     39.4700	  495.00	  506.53	-1748.28	  385.89
     39.5700	  521.00	  506.49	-1722.24	  385.73
     39.6700	  483.00	  506.34	-1760.09	  385.57
     39.7700	  528.00	  506.20	-1714.95	  385.41
     39.8700	  503.00	  506.06	-1739.81	  385.25
     39.9700	  510.00	  505.94	-1732.69	  385.09
     40.0700	  498.00	  505.82	-1744.57	  384.94
     40.1700	  521.00	  505.72	-1721.47	  384.79
     40.2700	  497.00	  505.63	-1745.38	  384.63
     40.3700	  441.00	  505.55	-1801.30	  384.49
     40.4700	  480.00	  505.48	-1762.23	  384.34
     40.5700	  489.00	  505.43	-1753.18	  384.19
     40.6700	  503.00	  505.40	-1739.15	  384.05
     40.7700	  519.00	  505.38	-1723.13	  383.91
