MSG Master    CELL:    5.89787   5.89787  23.17338   90.0000   90.0000  120.0000   SPGR: P 63/m m c             TEMP:    752.15
  1   1280     2.52000     0.00000    -0.12152     0.00000     0.00000    0
    96     0     2
       0.00000      10.00000
     125.00000     130.00000
 2Theta	Yobs	Ycal	Yobs-Ycal	Backg	Posr	(hkl)	K
      0.7700	    0.00	  469.37	-1784.50	  354.32
      0.8700	    0.00	  471.88	-1784.50	  356.83
      0.9700	   41.00	  474.36	-1784.50	  359.31
      1.0700	   39.00	  476.82	-1784.50	  361.77
      1.1700	   32.00	  479.26	-1784.50	  364.21
      1.2700	   38.00	  481.67	-1784.50	  366.61
      1.3700	   47.00	  484.05	-1784.50	  369.00
      1.4700	  103.00	  486.41	-1784.50	  371.36
      1.5700	  316.00	  488.75	-1784.50	  373.70
      1.6700	  443.00	  491.06	-1784.50	  376.01
      1.7700	  571.00	  493.35	-1784.50	  378.30
      1.8700	  676.00	  495.61	-1784.50	  380.56
      1.9700	  739.00	  497.85	-1784.50	  382.80
      2.0700	  790.00	  500.07	-1784.50	  385.01
      2.1700	  789.00	  502.26	-1784.50	  387.21
      2.2700	  784.00	  504.43	-1784.50	  389.38
      2.3700	  765.00	  506.57	-1784.50	  391.52
      2.4700	  723.00	  508.70	-1784.50	  393.64
      2.5700	  693.00	  510.80	-1784.50	  395.74
      2.6700	  686.00	  512.87	-1784.50	  397.82
      2.7700	  685.00	  514.93	-1784.50	  399.87
      2.8700	  670.00	  516.96	-1784.50	  401.91
      2.9700	  631.00	  518.97	-1784.50	  403.91
      3.0700	  573.00	  520.95	-1784.50	  405.90
      3.1700	  609.00	  522.92	-1784.50	  407.87
      3.2700	  707.00	  524.86	-1784.50	  409.81
      3.3700	  900.00	  526.78	-1784.50	  411.73
      3.4700	  941.00	  528.68	-1784.50	  413.63
      3.5700	 1094.00	  530.55	-1784.50	  415.50
      3.6700	 1250.00	  532.41	-1784.50	  417.36
      3.7700	 1331.00	  534.24	-1784.50	  419.19
      3.8700	 1391.00	  536.06	-1784.50	  421.00
      3.9700	 1519.00	  537.85	-1784.50	  422.80
      4.0700	 1535.00	  539.62	-1784.50	  424.57
      4.1700	 1563.00	  541.37	-1784.50	  426.32
      4.2700	 1555.00	  543.10	-1784.50	  428.04
      4.3700	 1538.00	  544.80	-1784.50	  429.75
      4.4700	 1457.00	  546.49	-1784.50	  431.44
      4.5700	 1516.00	  548.16	-1784.50	  433.11
      4.6700	 1376.00	  549.81	-1784.50	  434.76
      4.7700	 1414.00	  551.43	-1784.50	  436.38
      4.8700	 1249.00	  553.04	-1784.50	  437.99
      4.9700	 1285.00	  554.63	-1784.50	  439.58
      5.0700	 1226.00	  556.20	-1784.50	  441.14
      5.1700	 1241.00	  557.74	-1784.50	  442.69
      5.2700	 1133.00	  559.27	-1784.50	  444.22
      5.3700	 1145.00	  560.78	-1784.50	  445.73
      5.4700	 1145.00	  562.27	-1784.50	  447.22
      5.5700	 1084.00	  563.74	-1784.50	  448.69
      5.6700	 1030.00	  565.19	-1784.50	  450.14
      5.7700	 1073.00	  566.63	-1784.50	  451.58
      5.8700	 1055.00	  568.04	-1784.50	  452.99
      5.9700	  979.00	  569.44	-1784.50	  454.39
      6.0700	  927.00	  570.81	-1784.50	  455.76
      6.1700	  899.00	  572.17	-1784.50	  457.12
      6.2700	  961.00	  573.51	-1784.50	  458.46
      6.3700	  957.00	  574.84	-1784.50	  459.78
      6.4700	  869.00	  576.14	-1784.50	  461.09
      6.5700	  910.00	  577.43	-1784.50	  462.38
      6.6700	  850.00	  578.70	-1784.50	  463.64
      6.7700	  858.00	  579.95	-1784.50	  464.90
      6.8700	  879.00	  581.18	-1784.50	  466.13
      6.9700	  847.00	  582.40	-1784.50	  467.35
      7.0700	  843.00	  583.60	-1784.50	  468.54
      7.1700	  794.00	  584.78	-1784.50	  469.73
      7.2700	  818.00	  585.94	-1784.50	  470.89
      7.3700	  777.00	  587.09	-1784.50	  472.04
      7.4700	  818.00	  588.22	-1784.50	  473.17
      7.5700	  768.00	  589.34	-1784.50	  474.28
      7.6700	  680.00	  590.43	-1784.50	  475.38
      7.7700	  759.00	  591.52	-1784.50	  476.46
      7.8700	  705.00	  592.58	-1784.50	  477.53
      7.9700	  736.00	  593.63	-1784.50	  478.58
      8.0700	  716.00	  594.66	-1784.50	  479.61
      8.1700	  687.00	  595.68	-1784.50	  480.63
      8.2700	  691.00	  596.68	-1784.50	  481.63
      8.3700	  693.00	  597.66	-1784.50	  482.61
      8.4700	  726.00	  598.63	-1784.50	  483.58
      8.5700	  691.00	  599.59	-1784.50	  484.53
      8.6700	  698.00	  600.52	-1784.50	  485.47
      8.7700	  711.00	  601.45	-1784.50	  486.40
      8.8700	  728.00	  602.35	-1784.50	  487.30
      8.9700	  679.00	  603.25	-1784.50	  488.20
      9.0700	  671.00	  604.12	-1784.50	  489.07
      9.1700	  669.00	  604.99	-1784.50	  489.94
      9.2700	  685.00	  605.83	-1784.50	  490.78
      9.3700	  728.00	  606.67	-1784.50	  491.62
      9.4700	  651.00	  607.49	-1784.50	  492.43
      9.5700	  718.00	  608.29	-1784.50	  493.24
      9.6700	  638.00	  609.08	-1784.50	  494.03
      9.7700	  670.00	  609.86	-1784.50	  494.80
      9.8700	  640.00	  610.62	-1784.50	  495.56
      9.9700	  658.00	  611.36	-1784.50	  496.31
     10.0700	  702.00	  614.03	-1696.53	  497.04
     10.1700	  659.00	  614.97	-1740.47	  497.76
     10.2700	  697.00	  615.95	-1703.45	  498.47
     10.3700	  634.00	  616.98	-1767.48	  499.16
     10.4700	  665.00	  618.10	-1737.60	  499.84
     10.5700	  687.00	  619.36	-1716.86	  500.50
     10.6700	  623.00	  620.85	-1782.35	  501.16
     10.7700	  637.00	  622.65	-1770.15	  501.79
     10.8700	  641.00	  624.85	-1768.35	  502.42
     10.9700	  639.00	  627.52	-1773.02	  503.03
     11.0700	  682.00	  630.66	-1733.16	  503.63
     11.1700	  659.00	  634.29	-1759.79	  504.22
     11.2700	  674.00	  638.45	-1748.95	  504.79
     11.3700	  627.00	  643.19	-1800.69	  505.35
     11.4700	  633.00	  648.65	-1800.15	  505.90
     11.5700	  703.00	  655.05	-1736.55	  506.44
     11.6700	  716.00	  662.66	-1731.16	  506.96
     11.7700	  721.00	  671.87	-1735.37	  507.47
     11.8700	  731.00	  682.95	-1736.45	  507.97
     11.9700	  721.00	  695.71	-1759.21	  508.46
     12.0700	  723.00	  708.89	-1770.39	  508.93
     12.1700	  757.00	  719.39	-1746.89	  509.40
     12.2700	  769.00	  722.16	-1737.66	  509.85
     12.3700	  751.00	  712.79	-1746.29	  510.29
     12.4700	  710.00	  694.04	-1768.54	  510.72
     12.5700	  705.00	  674.34	-1753.84	  511.14
     12.6700	  677.00	  658.87	-1766.37	  511.54
     12.7700	  658.00	  648.48	-1774.98	  511.94
     12.8700	  606.00	  642.15	-1820.65	  512.32
     12.9700	  568.00	  638.50	-1855.00	  512.69
     13.0700	  617.00	  636.39	-1803.89	  513.05
     13.1700	  601.00	  635.12	-1818.62	  513.40
     13.2700	  634.00	  634.31	-1784.81	  513.74
     13.3700	  605.00	  633.82	-1813.32	  514.07
     13.4700	  620.00	  633.47	-1797.97	  514.39
     13.5700	  594.00	  633.25	-1823.75	  514.70
     13.6700	  651.00	  633.11	-1766.61	  514.99
     13.7700	  630.00	  633.05	-1787.55	  515.28
     13.8700	  590.00	  633.03	-1827.53	  515.56
     13.9700	  649.00	  633.05	-1768.55	  515.82
     14.0700	  617.00	  633.10	-1800.60	  516.08
     14.1700	  599.00	  633.17	-1818.67	  516.32
     14.2700	  618.00	  633.26	-1799.76	  516.56
     14.3700	  623.00	  633.35	-1794.85	  516.79
     14.4700	  609.00	  633.45	-1808.95	  517.00
     14.5700	  628.00	  633.56	-1790.06	  517.21
     14.6700	  636.00	  633.67	-1782.17	  517.41
     14.7700	  616.00	  633.77	-1802.27	  517.60
     14.8700	  622.00	  633.88	-1796.38	  517.77
     14.9700	  599.00	  633.99	-1819.49	  517.94
     15.0700	  661.00	  634.09	-1757.59	  518.10
     15.1700	  628.00	  634.19	-1790.69	  518.25
     15.2700	  623.00	  634.29	-1795.79	  518.40
     15.3700	  595.00	  634.38	-1823.88	  518.53
     15.4700	  620.00	  634.47	-1798.97	  518.65
     15.5700	  613.00	  634.55	-1806.05	  518.77
     15.6700	  638.00	  634.62	-1781.12	  518.87
     15.7700	  601.00	  634.69	-1818.19	  518.97
     15.8700	  612.00	  634.75	-1807.25	  519.06
     15.9700	  621.00	  634.81	-1798.31	  519.14
     16.0700	  617.00	  634.86	-1802.36	  519.21
     16.1700	  602.00	  634.90	-1817.40	  519.28
     16.2700	  556.00	  634.94	-1863.44	  519.33
     16.3700	  604.00	  634.97	-1815.47	  519.38
     16.4700	  610.00	  634.99	-1809.49	  519.42
     16.5700	  599.00	  635.01	-1820.51	  519.45
     16.6700	  609.00	  635.02	-1810.52	  519.48
     16.7700	  602.00	  635.02	-1817.52	  519.49
     16.8700	  602.00	  635.02	-1817.52	  519.50
     16.9700	  647.00	  635.01	-1772.51	  519.50
     17.0700	  587.00	  634.99	-1832.49	  519.49
     17.1700	  595.00	  634.97	-1824.47	  519.48
     17.2700	  584.00	  634.94	-1835.44	  519.45
     17.3700	  591.00	  635.03	-1828.53	  519.42
     17.4700	  609.00	  634.99	-1810.49	  519.39
     17.5700	  653.00	  634.94	-1766.44	  519.34
     17.6700	  606.00	  634.88	-1813.38	  519.29
     17.7700	  620.00	  634.97	-1799.47	  519.23
     17.8700	  596.00	  634.91	-1823.41	  519.17
     17.9700	  623.00	  634.84	-1796.34	  519.09
     18.0700	  647.00	  634.76	-1772.26	  519.02
     18.1700	  605.00	  634.68	-1814.18	  518.93
     18.2700	  606.00	  634.59	-1813.09	  518.84
     18.3700	  626.00	  634.49	-1792.99	  518.74
     18.4700	  623.00	  634.39	-1795.89	  518.63
     18.5700	  608.00	  634.28	-1810.78	  518.52
     18.6700	  569.00	  634.17	-1849.67	  518.40
     18.7700	  578.00	  634.05	-1840.55	  518.27
     18.8700	  606.00	  633.92	-1812.42	  518.14
     18.9700	  653.00	  633.79	-1765.29	  518.00
     19.0700	  643.00	  633.66	-1775.16	  517.86
     19.1700	  621.00	  633.52	-1797.02	  517.71
     19.2700	  587.00	  633.37	-1830.87	  517.55
     19.3700	  569.00	  633.26	-1848.76	  517.39
     19.4700	  569.00	  633.11	-1848.61	  517.22
     19.5700	  632.00	  632.95	-1785.45	  517.05
     19.6700	  605.00	  632.78	-1812.28	  516.87
     19.7700	  615.00	  632.61	-1802.11	  516.69
     19.8700	  567.00	  632.43	-1849.93	  516.49
     19.9700	  626.00	  632.25	-1790.75	  516.30
     20.0700	  600.00	  632.07	-1816.57	  516.10
     20.1700	  574.00	  631.88	-1842.38	  515.89
     20.2700	  602.00	  631.69	-1814.19	  515.68
     20.3700	  626.00	  631.49	-1789.99	  515.46
     20.4700	  600.00	  631.29	-1815.79	  515.24
     20.5700	  623.00	  631.08	-1792.58	  515.01
     20.6700	  621.00	  630.87	-1794.37	  514.78
     20.7700	  649.00	  630.66	-1766.16	  514.54
     20.8700	  604.00	  630.44	-1810.94	  514.29
     20.9700	  615.00	  630.22	-1799.72	  514.05
     21.0700	  607.00	  630.00	-1807.50	  513.79
     21.1700	  603.00	  629.78	-1811.28	  513.54
     21.2700	  660.00	  629.55	-1754.05	  513.27
     21.3700	  609.00	  629.32	-1804.82	  513.01
     21.4700	  631.00	  629.09	-1782.59	  512.74
     21.5700	  614.00	  628.85	-1799.35	  512.46
     21.6700	  598.00	  628.62	-1815.12	  512.18
     21.7700	  559.00	  628.38	-1853.88	  511.90
     21.8700	  602.00	  628.15	-1810.65	  511.61
     21.9700	  610.00	  628.07	-1802.57	  511.31
     22.0700	  602.00	  627.84	-1810.34	  511.02
     22.1700	  582.00	  627.60	-1830.10	  510.71
     22.2700	  640.00	  627.38	-1771.88	  510.41
     22.3700	  613.00	  627.15	-1798.65	  510.10
     22.4700	  625.00	  626.93	-1786.43	  509.79
     22.5700	  614.00	  626.71	-1797.21	  509.47
     22.6700	  556.00	  626.50	-1855.00	  509.15
     22.7700	  639.00	  626.30	-1771.80	  508.82
     22.8700	  614.00	  626.12	-1796.62	  508.49
     22.9700	  618.00	  625.94	-1792.44	  508.16
     23.0700	  600.00	  625.79	-1810.29	  507.82
     23.1700	  633.00	  625.66	-1777.16	  507.48
     23.2700	  646.00	  625.56	-1764.06	  507.14
     23.3700	  611.00	  625.50	-1799.00	  506.79
     23.4700	  657.00	  625.43	-1752.93	  506.44
     23.5700	  610.00	  625.49	-1799.99	  506.09
     23.6700	  608.00	  625.64	-1802.14	  505.73
     23.7700	  670.00	  625.94	-1740.44	  505.37
     23.8700	  611.00	  626.45	-1799.95	  505.01
     23.9700	  637.00	  627.31	-1774.81	  504.65
     24.0700	  631.00	  628.75	-1782.25	  504.28
     24.1700	  635.00	  631.12	-1780.62	  503.90
     24.2700	  628.00	  634.91	-1791.41	  503.53
     24.3700	  637.00	  640.68	-1788.18	  503.15
     24.4700	  676.00	  648.84	-1757.34	  502.77
     24.5700	  689.00	  659.43	-1754.93	  502.39
     24.6700	  634.00	  671.68	-1822.18	  502.00
     24.7700	  700.00	  683.54	-1768.04	  501.61
     24.8700	  711.00	  691.25	-1764.75	  501.22
     24.9700	  737.00	  690.18	-1737.68	  500.82
     25.0700	  696.00	  679.28	-1767.78	  500.43
     25.1700	  751.00	  663.83	-1697.33	  500.03
     25.2700	  646.00	  649.61	-1788.11	  499.62
     25.3700	  689.00	  638.94	-1734.44	  499.22
     25.4700	  647.00	  631.80	-1769.30	  498.81
     25.5700	  672.00	  627.35	-1739.85	  498.40
     25.6700	  659.00	  624.64	-1750.14	  497.99
     25.7700	  627.00	  622.92	-1780.42	  497.58
     25.8700	  721.00	  621.77	-1685.27	  497.16
     25.9700	  631.00	  620.96	-1774.46	  496.74
     26.0700	  669.00	  620.37	-1735.87	  496.33
     26.1700	  678.00	  619.96	-1726.46	  495.90
     26.2700	  676.00	  619.69	-1728.19	  495.48
     26.3700	  635.00	  619.56	-1769.06	  495.05
     26.4700	  661.00	  619.57	-1743.07	  494.63
     26.5700	  717.00	  619.72	-1687.22	  494.20
     26.6700	  687.00	  620.02	-1717.52	  493.76
     26.7700	  726.00	  620.50	-1679.00	  493.33
     26.8700	  645.00	  621.19	-1760.69	  492.90
     26.9700	  703.00	  622.15	-1703.65	  492.46
     27.0700	  715.00	  623.45	-1692.95	  492.02
     27.1700	  670.00	  625.19	-1739.69	  491.58
     27.2700	  716.00	  627.57	-1696.07	  491.14
     27.3700	  704.00	  630.93	-1711.43	  490.70
     27.4700	  757.00	  635.90	-1663.40	  490.26
     27.5700	  727.00	  643.67	-1701.17	  489.81
     27.6700	  745.00	  656.26	-1695.76	  489.36
     27.7700	  745.00	  676.70	-1716.20	  488.92
     27.8700	  744.00	  708.74	-1749.24	  488.47
     27.9700	  832.00	  755.36	-1707.86	  488.02
     28.0700	  841.00	  816.28	-1759.78	  487.56
     28.1700	  910.00	  885.16	-1759.66	  487.11
     28.2700	 1053.00	  947.26	-1678.76	  486.66
     28.3700	 1047.00	  980.44	-1717.94	  486.20
     28.4700	 1060.00	  970.46	-1694.96	  485.75
     28.5700	 1009.00	  936.53	-1712.03	  485.29
     28.6700	  899.00	  915.08	-1800.58	  484.83
     28.7700	  930.00	  924.16	-1778.66	  484.37
     28.8700	  986.00	  959.00	-1757.50	  483.91
     28.9700	  946.00	  997.75	-1836.25	  483.45
     29.0700	  978.00	 1008.01	-1814.51	  482.99
     29.1700	  988.00	  966.09	-1762.59	  482.53
     29.2700	  930.00	  885.39	-1739.89	  482.07
     29.3700	  873.00	  800.93	-1712.43	  481.60
     29.4700	  775.00	  733.66	-1743.16	  481.14
     29.5700	  793.00	  687.81	-1679.31	  480.67
     29.6700	  706.00	  659.61	-1738.11	  480.21
     29.7700	  789.00	  643.17	-1638.67	  479.74
     29.8700	  776.00	  633.53	-1642.03	  479.28
     29.9700	  723.00	  627.60	-1689.10	  478.81
     30.0700	  768.00	  623.87	-1640.37	  478.34
     30.1700	  726.00	  621.75	-1680.25	  477.88
     30.2700	  721.00	  621.23	-1684.73	  477.41
     30.3700	  691.00	  622.77	-1716.27	  476.94
     30.4700	  708.00	  627.26	-1703.76	  476.47
     30.5700	  644.00	  635.93	-1776.43	  476.00
     30.6700	  723.00	  649.86	-1711.36	  475.53
     30.7700	  727.00	  669.00	-1726.50	  475.07
     30.8700	  690.00	  691.09	-1785.59	  474.60
     30.9700	  749.00	  710.86	-1746.36	  474.13
     31.0700	  719.00	  720.20	-1785.70	  473.66
     31.1700	  724.00	  712.16	-1772.66	  473.19
     31.2700	  674.00	  689.50	-1800.00	  472.72
     31.3700	  684.00	  662.90	-1763.40	  472.25
     31.4700	  654.00	  640.20	-1770.70	  471.78
     31.5700	  634.00	  623.82	-1774.32	  471.31
     31.6700	  604.00	  613.22	-1793.72	  470.84
     31.7700	  655.00	  606.77	-1736.27	  470.37
     31.8700	  579.00	  602.88	-1808.38	  469.91
     31.9700	  607.00	  600.42	-1777.92	  469.44
     32.0700	  620.00	  598.76	-1763.26	  468.97
     32.1700	  622.00	  597.59	-1760.09	  468.50
     32.2700	  620.00	  596.75	-1761.25	  468.03
     32.3700	  632.00	  596.19	-1748.69	  467.57
     32.4700	  588.00	  595.89	-1792.39	  467.10
     32.5700	  607.00	  595.84	-1773.34	  466.63
     32.6700	  595.00	  596.06	-1785.56	  466.17
     32.7700	  606.00	  596.57	-1775.07	  465.70
     32.8700	  655.00	  597.48	-1726.98	  465.24
     32.9700	  589.00	  598.82	-1794.32	  464.77
     33.0700	  612.00	  600.77	-1773.27	  464.31
     33.1700	  609.00	  603.65	-1779.15	  463.84
     33.2700	  624.00	  608.00	-1768.50	  463.38
     33.3700	  587.00	  614.91	-1812.41	  462.92
     33.4700	  591.00	  626.31	-1819.81	  462.46
     33.5700	  620.00	  645.32	-1809.82	  462.00
     33.6700	  605.00	  676.09	-1855.59	  461.54
     33.7700	  706.00	  722.73	-1801.23	  461.08
     33.8700	  807.00	  786.57	-1764.07	  460.62
     33.9700	  905.00	  862.37	-1741.87	  460.16
     34.0700	  966.00	  935.34	-1753.84	  459.70
     34.1700	 1015.00	  981.03	-1750.53	  459.25
     34.2700	 1068.00	  974.63	-1691.13	  458.79
     34.3700	 1012.00	  915.39	-1687.89	  458.34
     34.4700	  851.00	  832.37	-1765.87	  457.88
     34.5700	  744.00	  754.32	-1794.82	  457.43
     34.6700	  740.00	  693.93	-1738.43	  456.98
     34.7700	  661.00	  652.60	-1776.10	  456.53
     34.8700	  633.00	  626.59	-1778.09	  456.08
     34.9700	  573.00	  610.86	-1822.36	  455.63
     35.0700	  568.00	  601.19	-1817.69	  455.18
     35.1700	  627.00	  594.85	-1752.35	  454.74
     35.2700	  596.00	  590.30	-1778.80	  454.29
     35.3700	  563.00	  586.81	-1808.31	  453.85
     35.4700	  552.00	  584.49	-1816.99	  453.40
     35.5700	  551.00	  582.16	-1815.66	  452.96
     35.6700	  546.00	  580.20	-1818.70	  452.52
     35.7700	  531.00	  578.51	-1832.01	  452.08
     35.8700	  599.00	  577.04	-1762.54	  451.64
     35.9700	  535.00	  575.74	-1825.24	  451.20
     36.0700	  574.00	  574.59	-1785.09	  450.77
     36.1700	  566.00	  573.55	-1792.05	  450.33
     36.2700	  534.00	  572.61	-1823.11	  449.90
     36.3700	  552.00	  571.76	-1804.26	  449.47
     36.4700	  549.00	  570.98	-1806.48	  449.04
     36.5700	  529.00	  570.24	-1825.74	  448.61
     36.6700	  558.00	  569.61	-1796.11	  448.18
     36.7700	  551.00	  569.05	-1802.55	  447.75
     36.8700	  578.00	  568.57	-1775.07	  447.33
     36.9700	  541.00	  568.22	-1811.72	  446.90
     37.0700	  588.00	  568.05	-1764.55	  446.48
     37.1700	  516.00	  568.34	-1836.84	  446.06
     37.2700	  524.00	  568.89	-1829.39	  445.64
     37.3700	  535.00	  570.05	-1819.55	  445.22
     37.4700	  548.00	  571.97	-1808.47	  444.81
     37.5700	  545.00	  574.66	-1814.16	  444.39
     37.6700	  573.00	  577.84	-1789.34	  443.98
     37.7700	  564.00	  580.79	-1801.29	  443.57
     37.8700	  620.00	  582.45	-1746.95	  443.16
     37.9700	  565.00	  581.89	-1801.39	  442.75
     38.0700	  579.00	  579.24	-1784.74	  442.34
     38.1700	  528.00	  575.54	-1832.04	  441.94
     38.2700	  549.00	  571.68	-1807.18	  441.54
     38.3700	  561.00	  568.14	-1791.64	  441.13
     38.4700	  531.00	  565.20	-1818.70	  440.73
     38.5700	  561.00	  562.93	-1786.43	  440.34
     38.6700	  600.00	  561.25	-1745.75	  439.94
     38.7700	  567.00	  560.06	-1777.56	  439.54
     38.8700	  541.00	  559.11	-1802.61	  439.15
     38.9700	  560.00	  558.35	-1782.85	  438.76
     39.0700	  567.00	  557.71	-1775.21	  438.37
     39.1700	  519.00	  557.15	-1822.65	  437.98
     39.2700	  506.00	  556.63	-1835.13	  437.60
     39.3700	  506.00	  556.14	-1834.64	  437.21
     39.4700	  544.00	  555.69	-1796.19	  436.83
     39.5700	  529.00	  555.13	-1810.63	  436.45
     39.6700	  549.00	  554.71	-1790.21	  436.07
     39.7700	  559.00	  554.31	-1779.81	  435.70
     39.8700	  536.00	  553.93	-1802.43	  435.32
     39.9700	  528.00	  553.56	-1810.06	  434.95
     40.0700	  484.00	  553.76	-1854.26	  434.58
     40.1700	  548.00	  553.42	-1789.92	  434.21
     40.2700	  542.00	  553.10	-1795.60	  433.84
     40.3700	  534.00	  552.79	-1803.29	  433.48
     40.4700	  553.00	  552.35	-1783.85	  433.11
     40.5700	  535.00	  552.08	-1801.58	  432.75
     40.6700	  527.00	  551.82	-1809.32	  432.39
     40.7700	  514.00	  551.58	-1822.08	  432.04
