MSG Master    CELL:    5.91930   5.91930  23.27472   90.0000   90.0000  120.0000   SPGR: P 63/m m c             TEMP:   1074.85
  1   1280     2.52000     0.00000    -0.12307     0.00000     0.00000    0
    99     0     2
       0.00000      10.00000
     125.00000     130.00000
 2Theta	Yobs	Ycal	Yobs-Ycal	Backg	Posr	(hkl)	K
      0.7700	    0.00	  548.81	-1763.25	  430.50
      0.8700	    0.00	  549.59	-1763.25	  431.27
      0.9700	   30.00	  550.35	-1763.25	  432.04
      1.0700	   52.00	  551.10	-1763.25	  432.79
      1.1700	   35.00	  551.85	-1763.25	  433.53
      1.2700	   50.00	  552.58	-1763.25	  434.26
      1.3700	   47.00	  553.29	-1763.25	  434.98
      1.4700	   98.00	  554.00	-1763.25	  435.69
      1.5700	  293.00	  554.70	-1763.25	  436.39
      1.6700	  443.00	  555.38	-1763.25	  437.07
      1.7700	  594.00	  556.06	-1763.25	  437.75
      1.8700	  661.00	  556.72	-1763.25	  438.41
      1.9700	  709.00	  557.37	-1763.25	  439.06
      2.0700	  771.00	  558.01	-1763.25	  439.70
      2.1700	  818.00	  558.64	-1763.25	  440.33
      2.2700	  782.00	  559.26	-1763.25	  440.95
      2.3700	  738.00	  559.87	-1763.25	  441.56
      2.4700	  713.00	  560.47	-1763.25	  442.16
      2.5700	  697.00	  561.06	-1763.25	  442.75
      2.6700	  660.00	  561.64	-1763.25	  443.33
      2.7700	  671.00	  562.20	-1763.25	  443.89
      2.8700	  669.00	  562.76	-1763.25	  444.45
      2.9700	  636.00	  563.31	-1763.25	  445.00
      3.0700	  635.00	  563.85	-1763.25	  445.54
      3.1700	  599.00	  564.37	-1763.25	  446.06
      3.2700	  637.00	  564.89	-1763.25	  446.58
      3.3700	  659.00	  565.40	-1763.25	  447.09
      3.4700	  734.00	  565.89	-1763.25	  447.58
      3.5700	  786.00	  566.38	-1763.25	  448.07
      3.6700	  827.00	  566.86	-1763.25	  448.55
      3.7700	 1017.00	  567.33	-1763.25	  449.02
      3.8700	  971.00	  567.79	-1763.25	  449.48
      3.9700	 1037.00	  568.24	-1763.25	  449.92
      4.0700	 1083.00	  568.68	-1763.25	  450.36
      4.1700	 1100.00	  569.11	-1763.25	  450.80
      4.2700	 1122.00	  569.53	-1763.25	  451.22
      4.3700	 1067.00	  569.94	-1763.25	  451.63
      4.4700	 1088.00	  570.34	-1763.25	  452.03
      4.5700	 1085.00	  570.74	-1763.25	  452.43
      4.6700	 1043.00	  571.12	-1763.25	  452.81
      4.7700	 1010.00	  571.50	-1763.25	  453.19
      4.8700	 1001.00	  571.87	-1763.25	  453.55
      4.9700	 1011.00	  572.22	-1763.25	  453.91
      5.0700	  931.00	  572.57	-1763.25	  454.26
      5.1700	  892.00	  572.92	-1763.25	  454.60
      5.2700	  861.00	  573.25	-1763.25	  454.94
      5.3700	  907.00	  573.57	-1763.25	  455.26
      5.4700	  897.00	  573.89	-1763.25	  455.58
      5.5700	  840.00	  574.20	-1763.25	  455.89
      5.6700	  869.00	  574.50	-1763.25	  456.18
      5.7700	  858.00	  574.79	-1763.25	  456.48
      5.8700	  871.00	  575.07	-1763.25	  456.76
      5.9700	  852.00	  575.34	-1763.25	  457.03
      6.0700	  819.00	  575.61	-1763.25	  457.30
      6.1700	  811.00	  575.87	-1763.25	  457.56
      6.2700	  762.00	  576.12	-1763.25	  457.81
      6.3700	  745.00	  576.36	-1763.25	  458.05
      6.4700	  761.00	  576.60	-1763.25	  458.29
      6.5700	  746.00	  576.83	-1763.25	  458.52
      6.6700	  732.00	  577.05	-1763.25	  458.74
      6.7700	  704.00	  577.26	-1763.25	  458.95
      6.8700	  688.00	  577.46	-1763.25	  459.15
      6.9700	  761.00	  577.66	-1763.25	  459.35
      7.0700	  726.00	  577.85	-1763.25	  459.54
      7.1700	  670.00	  578.03	-1763.25	  459.72
      7.2700	  701.00	  578.21	-1763.25	  459.90
      7.3700	  635.00	  578.38	-1763.25	  460.07
      7.4700	  644.00	  578.54	-1763.25	  460.23
      7.5700	  636.00	  578.69	-1763.25	  460.38
      7.6700	  637.00	  578.84	-1763.25	  460.53
      7.7700	  637.00	  578.98	-1763.25	  460.67
      7.8700	  662.00	  579.12	-1763.25	  460.80
      7.9700	  607.00	  579.24	-1763.25	  460.93
      8.0700	  643.00	  579.36	-1763.25	  461.05
      8.1700	  675.00	  579.47	-1763.25	  461.16
      8.2700	  624.00	  579.58	-1763.25	  461.27
      8.3700	  653.00	  579.68	-1763.25	  461.37
      8.4700	  612.00	  579.77	-1763.25	  461.46
      8.5700	  653.00	  579.86	-1763.25	  461.55
      8.6700	  593.00	  579.94	-1763.25	  461.63
      8.7700	  666.00	  580.02	-1763.25	  461.71
      8.8700	  588.00	  580.08	-1763.25	  461.77
      8.9700	  611.00	  580.15	-1763.25	  461.83
      9.0700	  638.00	  580.20	-1763.25	  461.89
      9.1700	  617.00	  580.25	-1763.25	  461.94
      9.2700	  607.00	  580.29	-1763.25	  461.98
      9.3700	  536.00	  580.33	-1763.25	  462.02
      9.4700	  650.00	  580.36	-1763.25	  462.05
      9.5700	  592.00	  580.39	-1763.25	  462.08
      9.6700	  637.00	  580.41	-1763.25	  462.10
      9.7700	  559.00	  580.42	-1763.25	  462.11
      9.8700	  621.00	  580.43	-1763.25	  462.12
      9.9700	  631.00	  580.43	-1763.25	  462.12
     10.0700	  635.00	  581.15	-1709.40	  462.12
     10.1700	  553.00	  581.22	-1791.47	  462.11
     10.2700	  619.00	  581.30	-1725.55	  462.09
     10.3700	  575.00	  581.40	-1769.65	  462.07
     10.4700	  585.00	  581.55	-1759.80	  462.05
     10.5700	  632.00	  581.80	-1713.05	  462.02
     10.6700	  572.00	  582.23	-1773.48	  461.98
     10.7700	  589.00	  582.97	-1757.22	  461.94
     10.8700	  594.00	  584.06	-1753.31	  461.90
     10.9700	  597.00	  585.52	-1751.77	  461.85
     11.0700	  628.00	  587.30	-1722.55	  461.79
     11.1700	  585.00	  589.39	-1767.64	  461.73
     11.2700	  597.00	  591.83	-1758.08	  461.66
     11.3700	  631.00	  594.69	-1726.94	  461.59
     11.4700	  575.00	  598.10	-1786.35	  461.51
     11.5700	  637.00	  602.23	-1728.48	  461.43
     11.6700	  617.00	  607.42	-1753.67	  461.35
     11.7700	  579.00	  614.23	-1798.48	  461.26
     11.8700	  632.00	  623.55	-1754.80	  461.16
     11.9700	  648.00	  636.11	-1751.36	  461.06
     12.0700	  672.00	  650.57	-1741.82	  460.96
     12.1700	  700.00	  661.09	-1724.34	  460.85
     12.2700	  697.00	  658.22	-1724.47	  460.74
     12.3700	  652.00	  638.83	-1750.08	  460.62
     12.4700	  623.00	  614.88	-1755.13	  460.50
     12.5700	  581.00	  597.43	-1779.68	  460.37
     12.6700	  682.00	  588.07	-1669.32	  460.24
     12.7700	  569.00	  583.91	-1778.16	  460.11
     12.8700	  576.00	  582.05	-1769.30	  459.97
     12.9700	  602.00	  581.02	-1742.27	  459.82
     13.0700	  582.00	  580.31	-1761.56	  459.68
     13.1700	  592.00	  579.76	-1751.01	  459.53
     13.2700	  543.00	  579.31	-1799.56	  459.37
     13.3700	  569.00	  578.92	-1773.17	  459.21
     13.4700	  599.00	  578.58	-1742.83	  459.05
     13.5700	  553.00	  578.27	-1788.52	  458.88
     13.6700	  549.00	  577.98	-1792.23	  458.71
     13.7700	  587.00	  577.71	-1753.96	  458.54
     13.8700	  554.00	  577.46	-1786.71	  458.36
     13.9700	  536.00	  577.21	-1804.46	  458.18
     14.0700	  542.00	  576.97	-1798.22	  457.99
     14.1700	  566.00	  576.73	-1773.98	  457.81
     14.2700	  570.00	  576.49	-1769.74	  457.61
     14.3700	  550.00	  576.26	-1789.51	  457.42
     14.4700	  545.00	  576.03	-1794.28	  457.22
     14.5700	  574.00	  575.80	-1765.05	  457.02
     14.6700	  542.00	  575.57	-1796.82	  456.81
     14.7700	  547.00	  575.34	-1791.59	  456.60
     14.8700	  559.00	  575.11	-1779.36	  456.39
     14.9700	  581.00	  574.88	-1757.13	  456.18
     15.0700	  567.00	  574.64	-1770.89	  455.96
     15.1700	  577.00	  574.41	-1760.66	  455.73
     15.2700	  593.00	  574.17	-1744.42	  455.51
     15.3700	  556.00	  573.93	-1781.18	  455.28
     15.4700	  588.00	  573.69	-1748.94	  455.05
     15.5700	  556.00	  573.44	-1780.69	  454.82
     15.6700	  552.00	  573.20	-1784.45	  454.58
     15.7700	  560.00	  572.95	-1776.20	  454.34
     15.8700	  586.00	  572.70	-1749.95	  454.10
     15.9700	  566.00	  572.45	-1769.70	  453.86
     16.0700	  573.00	  572.19	-1762.44	  453.61
     16.1700	  572.00	  571.94	-1763.19	  453.36
     16.2700	  507.00	  571.71	-1827.96	  453.10
     16.3700	  567.00	  571.45	-1767.70	  452.85
     16.4700	  547.00	  571.18	-1787.43	  452.59
     16.5700	  575.00	  570.92	-1759.17	  452.33
     16.6700	  609.00	  570.65	-1724.90	  452.07
     16.7700	  540.00	  570.38	-1793.63	  451.80
     16.8700	  606.00	  570.11	-1727.36	  451.53
     16.9700	  592.00	  569.84	-1741.09	  451.26
     17.0700	  568.00	  569.56	-1764.81	  450.99
     17.1700	  599.00	  569.29	-1733.54	  450.71
     17.2700	  601.00	  569.01	-1731.26	  450.44
     17.3700	  542.00	  568.73	-1789.98	  450.16
     17.4700	  568.00	  568.44	-1763.69	  449.88
     17.5700	  574.00	  568.16	-1757.41	  449.59
     17.6700	  563.00	  567.87	-1768.12	  449.31
     17.7700	  499.00	  567.58	-1831.83	  449.02
     17.8700	  528.00	  567.29	-1802.54	  448.73
     17.9700	  580.00	  567.10	-1750.35	  448.44
     18.0700	  538.00	  566.81	-1792.06	  448.14
     18.1700	  562.00	  566.51	-1767.76	  447.85
     18.2700	  565.00	  566.22	-1764.47	  447.55
     18.3700	  562.00	  565.92	-1767.17	  447.25
     18.4700	  566.00	  565.62	-1762.87	  446.95
     18.5700	  503.00	  565.32	-1825.57	  446.64
     18.6700	  589.00	  565.02	-1739.27	  446.34
     18.7700	  566.00	  564.72	-1761.97	  446.03
     18.8700	  552.00	  564.49	-1775.74	  445.72
     18.9700	  542.00	  564.19	-1785.44	  445.41
     19.0700	  552.00	  563.88	-1775.13	  445.10
     19.1700	  541.00	  563.57	-1785.82	  444.79
     19.2700	  548.00	  563.26	-1778.51	  444.48
     19.3700	  608.00	  562.96	-1718.21	  444.16
     19.4700	  559.00	  562.64	-1766.89	  443.84
     19.5700	  555.00	  562.33	-1770.58	  443.52
     19.6700	  560.00	  562.02	-1765.27	  443.20
     19.7700	  575.00	  561.71	-1749.96	  442.88
     19.8700	  535.00	  561.39	-1789.64	  442.56
     19.9700	  548.00	  561.08	-1776.33	  442.23
     20.0700	  555.00	  560.76	-1769.01	  441.91
     20.1700	  551.00	  560.44	-1772.69	  441.58
     20.2700	  564.00	  560.12	-1759.37	  441.25
     20.3700	  576.00	  559.81	-1747.06	  440.93
     20.4700	  559.00	  559.49	-1763.74	  440.60
     20.5700	  513.00	  559.14	-1809.39	  440.26
     20.6700	  548.00	  558.82	-1774.07	  439.93
     20.7700	  520.00	  558.50	-1801.75	  439.60
     20.8700	  535.00	  558.18	-1786.43	  439.26
     20.9700	  546.00	  557.90	-1775.15	  438.93
     21.0700	  527.00	  557.58	-1793.83	  438.59
     21.1700	  537.00	  557.26	-1783.51	  438.26
     21.2700	  533.00	  556.94	-1787.19	  437.92
     21.3700	  543.00	  556.62	-1776.87	  437.58
     21.4700	  561.00	  556.30	-1758.55	  437.24
     21.5700	  564.00	  555.99	-1755.24	  436.90
     21.6700	  544.00	  555.67	-1774.92	  436.56
     21.7700	  560.00	  555.35	-1758.60	  436.22
     21.8700	  550.00	  555.04	-1768.29	  435.87
     21.9700	  553.00	  554.73	-1764.98	  435.53
     22.0700	  517.00	  554.42	-1800.67	  435.19
     22.1700	  557.00	  554.11	-1760.36	  434.84
     22.2700	  609.00	  553.80	-1708.05	  434.50
     22.3700	  561.00	  553.50	-1755.75	  434.15
     22.4700	  562.00	  553.20	-1754.45	  433.80
     22.5700	  566.00	  552.91	-1750.16	  433.46
     22.6700	  592.00	  552.62	-1723.87	  433.11
     22.7700	  564.00	  552.34	-1751.59	  432.76
     22.8700	  568.00	  552.06	-1747.31	  432.41
     22.9700	  539.00	  551.80	-1776.05	  432.07
     23.0700	  555.00	  551.55	-1759.80	  431.72
     23.1700	  603.00	  551.31	-1711.56	  431.37
     23.2700	  564.00	  551.09	-1750.34	  431.02
     23.3700	  594.00	  550.90	-1720.15	  430.67
     23.4700	  519.00	  550.74	-1794.99	  430.32
     23.5700	  522.00	  550.63	-1791.88	  429.97
     23.6700	  562.00	  550.58	-1751.83	  429.62
     23.7700	  550.00	  550.77	-1764.02	  429.27
     23.8700	  563.00	  551.03	-1751.28	  428.92
     23.9700	  589.00	  551.73	-1725.98	  428.57
     24.0700	  572.00	  553.28	-1744.53	  428.22
     24.1700	  541.00	  556.36	-1778.61	  427.86
     24.2700	  574.00	  561.84	-1751.09	  427.51
     24.3700	  581.00	  570.68	-1752.93	  427.16
     24.4700	  560.00	  583.97	-1787.22	  426.81
     24.5700	  576.00	  602.06	-1789.31	  426.46
     24.6700	  653.00	  622.18	-1732.43	  426.11
     24.7700	  608.00	  636.25	-1791.50	  425.76
     24.8700	  613.00	  633.27	-1783.52	  425.41
     24.9700	  616.00	  611.75	-1759.00	  425.06
     25.0700	  614.00	  585.61	-1734.86	  424.71
     25.1700	  582.00	  566.18	-1747.43	  424.36
     25.2700	  524.00	  555.35	-1794.60	  424.01
     25.3700	  528.00	  550.34	-1785.59	  423.66
     25.4700	  554.00	  548.08	-1757.33	  423.31
     25.5700	  534.00	  546.88	-1776.13	  422.96
     25.6700	  576.00	  546.09	-1733.34	  422.61
     25.7700	  620.00	  545.50	-1688.75	  422.26
     25.8700	  575.00	  545.05	-1733.30	  421.91
     25.9700	  549.00	  544.70	-1758.95	  421.56
     26.0700	  522.00	  544.44	-1785.69	  421.21
     26.1700	  548.00	  544.25	-1759.50	  420.87
     26.2700	  575.00	  544.13	-1732.38	  420.52
     26.3700	  539.00	  544.09	-1768.34	  420.17
     26.4700	  551.00	  544.14	-1756.39	  419.83
     26.5700	  571.00	  544.27	-1736.52	  419.48
     26.6700	  551.00	  544.52	-1756.77	  419.14
     26.7700	  527.00	  544.90	-1781.15	  418.79
     26.8700	  526.00	  545.45	-1782.70	  418.45
     26.9700	  578.00	  546.22	-1731.47	  418.10
     27.0700	  552.00	  547.29	-1758.54	  417.76
     27.1700	  500.00	  548.77	-1812.02	  417.42
     27.2700	  569.00	  550.93	-1745.18	  417.08
     27.3700	  542.00	  554.24	-1775.49	  416.73
     27.4700	  592.00	  559.65	-1730.90	  416.39
     27.5700	  541.00	  568.84	-1791.09	  416.05
     27.6700	  596.00	  584.51	-1751.76	  415.72
     27.7700	  607.00	  610.10	-1766.35	  415.38
     27.8700	  608.00	  648.63	-1803.88	  415.04
     27.9700	  669.00	  700.27	-1794.52	  414.70
     28.0700	  760.00	  759.24	-1762.49	  414.37
     28.1700	  926.00	  810.99	-1648.24	  414.03
     28.2700	  924.00	  833.54	-1672.79	  413.70
     28.3700	  952.00	  813.38	-1624.63	  413.36
     28.4700	  826.00	  770.65	-1707.90	  413.03
     28.5700	  705.00	  739.96	-1798.21	  412.70
     28.6700	  676.00	  737.57	-1824.82	  412.36
     28.7700	  729.00	  759.38	-1793.63	  412.03
     28.8700	  858.00	  786.42	-1691.67	  411.71
     28.9700	  802.00	  791.56	-1752.81	  411.38
     29.0700	  762.00	  756.96	-1758.21	  411.05
     29.1700	  702.00	  696.85	-1758.10	  410.72
     29.2700	  657.00	  639.00	-1745.25	  410.40
     29.3700	  593.00	  597.02	-1767.27	  410.07
     29.4700	  556.00	  571.54	-1778.79	  409.75
     29.5700	  571.00	  557.71	-1749.96	  409.43
     29.6700	  615.00	  550.40	-1698.65	  409.10
     29.7700	  646.00	  546.26	-1663.51	  408.78
     29.8700	  599.00	  543.68	-1707.93	  408.46
     29.9700	  619.00	  542.04	-1686.29	  408.14
     30.0700	  582.00	  541.18	-1722.43	  407.83
     30.1700	  559.00	  541.27	-1745.52	  407.51
     30.2700	  562.00	  542.83	-1744.08	  407.20
     30.3700	  569.00	  546.88	-1741.13	  406.88
     30.4700	  536.00	  555.03	-1782.28	  406.57
     30.5700	  581.00	  568.96	-1751.21	  406.26
     30.6700	  570.00	  589.20	-1782.45	  405.95
     30.7700	  610.00	  613.33	-1766.58	  405.64
     30.8700	  572.00	  634.57	-1825.82	  405.33
     30.9700	  639.00	  642.45	-1766.70	  405.02
     31.0700	  621.00	  629.57	-1771.82	  404.72
     31.1700	  603.00	  602.60	-1762.85	  404.41
     31.2700	  581.00	  575.23	-1757.48	  404.11
     31.3700	  528.00	  554.94	-1790.19	  403.81
     31.4700	  529.00	  542.57	-1776.82	  403.51
     31.5700	  520.00	  535.95	-1779.20	  403.21
     31.6700	  551.00	  532.54	-1744.79	  402.91
     31.7700	  548.00	  530.66	-1745.91	  402.61
     31.8700	  545.00	  529.47	-1747.72	  402.32
     31.9700	  543.00	  528.64	-1748.89	  402.02
     32.0700	  550.00	  528.04	-1741.29	  401.73
     32.1700	  577.00	  527.63	-1713.88	  401.44
     32.2700	  557.00	  527.37	-1733.62	  401.15
     32.3700	  540.00	  527.27	-1750.52	  400.86
     32.4700	  564.00	  527.31	-1726.56	  400.57
     32.5700	  547.00	  527.53	-1743.78	  400.29
     32.6700	  550.00	  527.94	-1741.19	  400.00
     32.7700	  584.00	  528.60	-1707.85	  399.72
     32.8700	  555.00	  529.56	-1737.81	  399.44
     32.9700	  548.00	  530.94	-1746.19	  399.16
     33.0700	  524.00	  532.95	-1772.20	  398.88
     33.1700	  539.00	  536.04	-1760.29	  398.60
     33.2700	  550.00	  541.23	-1754.48	  398.33
     33.3700	  603.00	  550.78	-1711.03	  398.05
     33.4700	  560.00	  569.07	-1772.32	  397.78
     33.5700	  632.00	  603.08	-1734.33	  397.51
     33.6700	  619.00	  661.13	-1805.38	  397.24
     33.7700	  780.00	  747.20	-1730.45	  396.97
     33.8700	  919.00	  852.46	-1696.71	  396.71
     33.9700	 1008.00	  949.08	-1704.33	  396.44
     34.0700	 1033.00	  993.64	-1723.89	  396.18
     34.1700	 1014.00	  952.91	-1702.16	  395.92
     34.2700	  936.00	  847.60	-1674.85	  395.66
     34.3700	  706.00	  732.85	-1790.10	  395.40
     34.4700	  658.00	  643.58	-1748.83	  395.14
     34.5700	  623.00	  587.37	-1727.62	  394.89
     34.6700	  574.00	  556.98	-1746.23	  394.63
     34.7700	  535.00	  541.78	-1770.03	  394.38
     34.8700	  533.00	  533.91	-1764.16	  394.13
     34.9700	  535.00	  529.23	-1757.48	  393.88
     35.0700	  539.00	  526.00	-1750.25	  393.64
     35.1700	  505.00	  523.57	-1781.82	  393.39
     35.2700	  518.00	  521.66	-1766.91	  393.15
     35.3700	  497.00	  520.09	-1786.34	  392.91
     35.4700	  518.00	  518.79	-1764.04	  392.67
     35.5700	  491.00	  517.69	-1789.94	  392.43
     35.6700	  558.00	  516.74	-1721.99	  392.19
     35.7700	  527.00	  515.92	-1752.17	  391.95
     35.8700	  521.00	  515.19	-1757.44	  391.72
     35.9700	  539.00	  515.02	-1739.27	  391.49
     36.0700	  533.00	  514.45	-1744.70	  391.26
     36.1700	  521.00	  513.93	-1756.18	  391.03
     36.2700	  500.00	  513.46	-1776.71	  390.80
     36.3700	  519.00	  513.03	-1757.28	  390.58
     36.4700	  561.00	  512.64	-1714.89	  390.36
     36.5700	  457.00	  512.29	-1818.54	  390.13
     36.6700	  504.00	  511.98	-1771.23	  389.92
     36.7700	  523.00	  511.72	-1751.97	  389.70
     36.8700	  512.00	  511.52	-1762.77	  389.48
     36.9700	  518.00	  511.45	-1756.70	  389.27
     37.0700	  519.00	  511.62	-1755.87	  389.05
     37.1700	  486.00	  512.28	-1789.53	  388.84
     37.2700	  525.00	  513.80	-1752.05	  388.64
     37.3700	  510.00	  516.56	-1769.81	  388.43
     37.4700	  519.00	  520.56	-1764.81	  388.22
     37.5700	  497.00	  525.12	-1791.37	  388.02
     37.6700	  546.00	  528.70	-1745.95	  387.82
     37.7700	  563.00	  529.60	-1729.85	  387.62
     37.8700	  531.00	  527.41	-1759.66	  387.42
     37.9700	  545.00	  523.60	-1741.85	  387.22
     38.0700	  458.00	  519.56	-1824.81	  387.03
     38.1700	  499.00	  515.87	-1780.12	  386.84
     38.2700	  494.00	  512.80	-1782.05	  386.65
     38.3700	  518.00	  510.52	-1755.77	  386.46
     38.4700	  547.00	  508.96	-1725.21	  386.27
     38.5700	  510.00	  507.95	-1761.20	  386.08
     38.6700	  539.00	  507.30	-1731.55	  385.90
     38.7700	  546.00	  506.77	-1724.02	  385.72
     38.8700	  501.00	  506.45	-1768.70	  385.54
     38.9700	  507.00	  506.18	-1762.43	  385.36
     39.0700	  497.00	  505.94	-1772.19	  385.19
     39.1700	  525.00	  505.73	-1743.98	  385.01
     39.2700	  476.00	  505.45	-1792.70	  384.84
     39.3700	  467.00	  505.27	-1801.52	  384.67
     39.4700	  516.00	  505.09	-1752.34	  384.50
     39.5700	  528.00	  504.93	-1740.18	  384.33
     39.6700	  481.00	  504.90	-1787.15	  384.17
     39.7700	  461.00	  504.76	-1807.01	  384.01
     39.8700	  501.00	  504.63	-1766.88	  383.85
     39.9700	  532.00	  504.51	-1735.76	  383.69
     40.0700	  506.00	  504.39	-1761.64	  383.53
     40.1700	  519.00	  504.29	-1748.54	  383.37
     40.2700	  496.00	  504.20	-1771.45	  383.22
     40.3700	  464.00	  504.12	-1803.37	  383.07
     40.4700	  495.00	  504.05	-1772.30	  382.92
     40.5700	  515.00	  504.00	-1752.25	  382.77
     40.6700	  490.00	  503.97	-1777.22	  382.63
     40.7700	  501.00	  503.95	-1766.20	  382.48
