MSG Master    CELL:    5.89861   5.89861  23.17369   90.0000   90.0000  120.0000   SPGR: P 63/m m c             TEMP:    762.15
  1   1280     2.52000     0.00000    -0.12434     0.00000     0.00000    0
    96     0     2
       0.00000      10.00000
     125.00000     130.00000
 2Theta	Yobs	Ycal	Yobs-Ycal	Backg	Posr	(hkl)	K
      0.7700	    0.00	  473.73	-1772.69	  360.54
      0.8700	    0.00	  476.09	-1772.69	  362.90
      0.9700	   53.00	  478.43	-1772.69	  365.24
      1.0700	   42.00	  480.74	-1772.69	  367.55
      1.1700	   46.00	  483.03	-1772.69	  369.84
      1.2700	   40.00	  485.29	-1772.69	  372.10
      1.3700	   44.00	  487.54	-1772.69	  374.34
      1.4700	   98.00	  489.75	-1772.69	  376.56
      1.5700	  283.00	  491.95	-1772.69	  378.76
      1.6700	  446.00	  494.12	-1772.69	  380.93
      1.7700	  554.00	  496.27	-1772.69	  383.08
      1.8700	  674.00	  498.39	-1772.69	  385.20
      1.9700	  681.00	  500.49	-1772.69	  387.30
      2.0700	  768.00	  502.57	-1772.69	  389.38
      2.1700	  769.00	  504.63	-1772.69	  391.44
      2.2700	  789.00	  506.66	-1772.69	  393.47
      2.3700	  706.00	  508.67	-1772.69	  395.48
      2.4700	  680.00	  510.66	-1772.69	  397.47
      2.5700	  669.00	  512.63	-1772.69	  399.44
      2.6700	  648.00	  514.58	-1772.69	  401.39
      2.7700	  638.00	  516.50	-1772.69	  403.31
      2.8700	  648.00	  518.40	-1772.69	  405.21
      2.9700	  623.00	  520.28	-1772.69	  407.09
      3.0700	  598.00	  522.14	-1772.69	  408.95
      3.1700	  585.00	  523.98	-1772.69	  410.79
      3.2700	  724.00	  525.80	-1772.69	  412.61
      3.3700	  842.00	  527.59	-1772.69	  414.40
      3.4700	 1038.00	  529.37	-1772.69	  416.18
      3.5700	 1130.00	  531.12	-1772.69	  417.93
      3.6700	 1214.00	  532.85	-1772.69	  419.66
      3.7700	 1318.00	  534.57	-1772.69	  421.38
      3.8700	 1400.00	  536.26	-1772.69	  423.07
      3.9700	 1433.00	  537.93	-1772.69	  424.74
      4.0700	 1606.00	  539.58	-1772.69	  426.39
      4.1700	 1580.00	  541.22	-1772.69	  428.02
      4.2700	 1555.00	  542.83	-1772.69	  429.64
      4.3700	 1519.00	  544.42	-1772.69	  431.23
      4.4700	 1535.00	  545.99	-1772.69	  432.80
      4.5700	 1445.00	  547.55	-1772.69	  434.36
      4.6700	 1400.00	  549.08	-1772.69	  435.89
      4.7700	 1372.00	  550.60	-1772.69	  437.41
      4.8700	 1246.00	  552.09	-1772.69	  438.90
      4.9700	 1265.00	  553.57	-1772.69	  440.38
      5.0700	 1231.00	  555.03	-1772.69	  441.84
      5.1700	 1202.00	  556.47	-1772.69	  443.27
      5.2700	 1227.00	  557.89	-1772.69	  444.70
      5.3700	 1144.00	  559.29	-1772.69	  446.10
      5.4700	 1061.00	  560.67	-1772.69	  447.48
      5.5700	 1117.00	  562.04	-1772.69	  448.85
      5.6700	  985.00	  563.38	-1772.69	  450.19
      5.7700	  954.00	  564.71	-1772.69	  451.52
      5.8700	 1014.00	  566.02	-1772.69	  452.83
      5.9700	  983.00	  567.32	-1772.69	  454.13
      6.0700	  997.00	  568.59	-1772.69	  455.40
      6.1700	  885.00	  569.85	-1772.69	  456.66
      6.2700	  885.00	  571.09	-1772.69	  457.90
      6.3700	  905.00	  572.32	-1772.69	  459.13
      6.4700	  874.00	  573.52	-1772.69	  460.33
      6.5700	  887.00	  574.71	-1772.69	  461.52
      6.6700	  862.00	  575.88	-1772.69	  462.69
      6.7700	  832.00	  577.04	-1772.69	  463.85
      6.8700	  816.00	  578.18	-1772.69	  464.99
      6.9700	  813.00	  579.30	-1772.69	  466.11
      7.0700	  832.00	  580.41	-1772.69	  467.22
      7.1700	  820.00	  581.50	-1772.69	  468.31
      7.2700	  860.00	  582.57	-1772.69	  469.38
      7.3700	  786.00	  583.63	-1772.69	  470.44
      7.4700	  829.00	  584.67	-1772.69	  471.48
      7.5700	  762.00	  585.69	-1772.69	  472.50
      7.6700	  736.00	  586.70	-1772.69	  473.51
      7.7700	  781.00	  587.69	-1772.69	  474.50
      7.8700	  763.00	  588.67	-1772.69	  475.48
      7.9700	  762.00	  589.63	-1772.69	  476.44
      8.0700	  675.00	  590.58	-1772.69	  477.39
      8.1700	  720.00	  591.51	-1772.69	  478.32
      8.2700	  688.00	  592.43	-1772.69	  479.24
      8.3700	  711.00	  593.33	-1772.69	  480.14
      8.4700	  769.00	  594.22	-1772.69	  481.03
      8.5700	  693.00	  595.09	-1772.69	  481.90
      8.6700	  759.00	  595.94	-1772.69	  482.75
      8.7700	  749.00	  596.79	-1772.69	  483.60
      8.8700	  684.00	  597.61	-1772.69	  484.42
      8.9700	  684.00	  598.43	-1772.69	  485.24
      9.0700	  688.00	  599.23	-1772.69	  486.04
      9.1700	  627.00	  600.01	-1772.69	  486.82
      9.2700	  705.00	  600.78	-1772.69	  487.59
      9.3700	  669.00	  601.54	-1772.69	  488.35
      9.4700	  712.00	  602.28	-1772.69	  489.09
      9.5700	  677.00	  603.01	-1772.69	  489.82
      9.6700	  662.00	  603.72	-1772.69	  490.53
      9.7700	  647.00	  604.43	-1772.69	  491.24
      9.8700	  681.00	  605.11	-1772.69	  491.92
      9.9700	  649.00	  605.79	-1772.69	  492.60
     10.0700	  689.00	  608.28	-1691.97	  493.26
     10.1700	  676.00	  609.14	-1705.83	  493.91
     10.2700	  692.00	  610.04	-1690.73	  494.54
     10.3700	  665.00	  610.98	-1718.67	  495.17
     10.4700	  643.00	  612.01	-1741.70	  495.77
     10.5700	  670.00	  613.18	-1715.87	  496.37
     10.6700	  646.00	  614.56	-1741.25	  496.96
     10.7700	  654.00	  616.24	-1734.93	  497.53
     10.8700	  682.00	  618.31	-1709.00	  498.09
     10.9700	  634.00	  620.82	-1759.51	  498.63
     11.0700	  681.00	  623.79	-1715.48	  499.17
     11.1700	  675.00	  627.21	-1724.90	  499.69
     11.2700	  645.00	  631.14	-1758.83	  500.20
     11.3700	  611.00	  635.62	-1797.31	  500.70
     11.4700	  648.00	  640.80	-1765.49	  501.18
     11.5700	  657.00	  646.86	-1762.55	  501.66
     11.6700	  672.00	  654.10	-1754.79	  502.12
     11.7700	  690.00	  662.87	-1745.55	  502.57
     11.8700	  683.00	  673.43	-1763.12	  503.01
     11.9700	  716.00	  685.60	-1742.29	  503.44
     12.0700	  701.00	  698.12	-1769.81	  503.85
     12.1700	  767.00	  708.02	-1713.71	  504.26
     12.2700	  777.00	  710.39	-1706.08	  504.65
     12.3700	  753.00	  701.10	-1720.78	  505.04
     12.4700	  682.00	  683.01	-1773.70	  505.41
     12.5700	  706.00	  664.23	-1730.91	  505.77
     12.6700	  694.00	  649.57	-1728.26	  506.12
     12.7700	  654.00	  639.77	-1758.46	  506.46
     12.8700	  662.00	  633.82	-1744.51	  506.79
     12.9700	  614.00	  630.38	-1789.07	  507.11
     13.0700	  625.00	  628.39	-1776.07	  507.42
     13.1700	  649.00	  627.17	-1750.86	  507.71
     13.2700	  602.00	  626.38	-1797.07	  508.00
     13.3700	  549.00	  625.89	-1849.58	  508.28
     13.4700	  585.00	  625.53	-1813.22	  508.55
     13.5700	  641.00	  625.29	-1756.98	  508.80
     13.6700	  619.00	  625.13	-1778.82	  509.05
     13.7700	  578.00	  625.04	-1819.73	  509.29
     13.8700	  641.00	  625.00	-1756.69	  509.52
     13.9700	  613.00	  624.98	-1784.67	  509.74
     14.0700	  606.00	  625.00	-1791.69	  509.94
     14.1700	  640.00	  625.03	-1757.72	  510.14
     14.2700	  606.00	  625.08	-1791.77	  510.33
     14.3700	  606.00	  625.13	-1791.82	  510.51
     14.4700	  607.00	  625.20	-1790.89	  510.69
     14.5700	  548.00	  625.27	-1849.95	  510.85
     14.6700	  569.00	  625.33	-1829.02	  511.00
     14.7700	  619.00	  625.40	-1779.09	  511.15
     14.8700	  599.00	  625.47	-1799.16	  511.28
     14.9700	  555.00	  625.54	-1843.23	  511.41
     15.0700	  605.00	  625.61	-1793.30	  511.53
     15.1700	  604.00	  625.67	-1794.36	  511.64
     15.2700	  622.00	  625.73	-1776.41	  511.74
     15.3700	  574.00	  625.78	-1824.47	  511.83
     15.4700	  568.00	  625.83	-1830.52	  511.91
     15.5700	  622.00	  625.87	-1776.56	  511.99
     15.6700	  567.00	  625.91	-1831.60	  512.06
     15.7700	  589.00	  625.94	-1809.63	  512.12
     15.8700	  579.00	  625.97	-1819.66	  512.17
     15.9700	  570.00	  625.99	-1828.68	  512.21
     16.0700	  560.00	  626.00	-1838.69	  512.25
     16.1700	  621.00	  626.01	-1777.70	  512.27
     16.2700	  551.00	  626.01	-1847.70	  512.29
     16.3700	  663.00	  626.01	-1735.70	  512.30
     16.4700	  610.00	  626.00	-1788.69	  512.31
     16.5700	  627.00	  625.98	-1771.67	  512.31
     16.6700	  623.00	  625.96	-1775.65	  512.30
     16.7700	  567.00	  625.93	-1831.62	  512.28
     16.8700	  631.00	  625.89	-1767.58	  512.25
     16.9700	  602.00	  625.85	-1796.54	  512.22
     17.0700	  621.00	  625.80	-1777.49	  512.18
     17.1700	  603.00	  625.75	-1795.44	  512.13
     17.2700	  596.00	  625.69	-1802.38	  512.08
     17.3700	  581.00	  625.74	-1817.43	  512.02
     17.4700	  613.00	  625.67	-1785.36	  511.95
     17.5700	  567.00	  625.59	-1831.28	  511.88
     17.6700	  594.00	  625.50	-1804.19	  511.80
     17.7700	  695.00	  625.56	-1703.25	  511.71
     17.8700	  601.00	  625.46	-1797.15	  511.62
     17.9700	  546.00	  625.36	-1852.05	  511.52
     18.0700	  570.00	  625.26	-1827.95	  511.41
     18.1700	  624.00	  625.15	-1773.84	  511.30
     18.2700	  578.00	  625.03	-1819.72	  511.18
     18.3700	  585.00	  624.91	-1812.60	  511.05
     18.4700	  593.00	  624.78	-1804.47	  510.92
     18.5700	  654.00	  624.65	-1743.34	  510.78
     18.6700	  606.00	  624.51	-1791.20	  510.64
     18.7700	  599.00	  624.37	-1798.06	  510.49
     18.8700	  619.00	  624.22	-1777.91	  510.33
     18.9700	  588.00	  624.06	-1808.75	  510.17
     19.0700	  668.00	  623.90	-1728.59	  510.00
     19.1700	  590.00	  623.74	-1806.43	  509.83
     19.2700	  625.00	  623.57	-1771.26	  509.65
     19.3700	  622.00	  623.44	-1774.13	  509.47
     19.4700	  574.00	  623.26	-1821.95	  509.28
     19.5700	  582.00	  623.08	-1813.77	  509.08
     19.6700	  624.00	  622.89	-1771.58	  508.88
     19.7700	  569.00	  622.70	-1826.39	  508.67
     19.8700	  581.00	  622.50	-1814.19	  508.46
     19.9700	  605.00	  622.30	-1789.99	  508.25
     20.0700	  619.00	  622.10	-1775.79	  508.03
     20.1700	  604.00	  621.89	-1790.58	  507.80
     20.2700	  596.00	  621.68	-1798.37	  507.57
     20.3700	  618.00	  621.46	-1776.15	  507.33
     20.4700	  593.00	  621.24	-1800.93	  507.09
     20.5700	  600.00	  621.02	-1793.71	  506.85
     20.6700	  594.00	  620.79	-1799.48	  506.60
     20.7700	  591.00	  620.56	-1802.25	  506.34
     20.8700	  563.00	  620.33	-1830.02	  506.08
     20.9700	  607.00	  620.09	-1785.78	  505.82
     21.0700	  596.00	  619.85	-1796.54	  505.55
     21.1700	  600.00	  619.61	-1792.30	  505.28
     21.2700	  553.00	  619.37	-1839.06	  505.00
     21.3700	  596.00	  619.12	-1795.81	  504.72
     21.4700	  573.00	  618.87	-1818.56	  504.44
     21.5700	  580.00	  618.62	-1811.31	  504.15
     21.6700	  613.00	  618.38	-1778.06	  503.85
     21.7700	  572.00	  618.13	-1818.81	  503.55
     21.8700	  602.00	  617.87	-1788.56	  503.25
     21.9700	  644.00	  617.78	-1746.47	  502.95
     22.0700	  576.00	  617.54	-1814.23	  502.64
     22.1700	  579.00	  617.29	-1810.98	  502.32
     22.2700	  543.00	  617.05	-1846.74	  502.01
     22.3700	  606.00	  616.81	-1783.50	  501.69
     22.4700	  587.00	  616.58	-1802.27	  501.36
     22.5700	  583.00	  616.35	-1806.04	  501.03
     22.6700	  603.00	  616.13	-1785.82	  500.70
     22.7700	  617.00	  615.91	-1771.60	  500.37
     22.8700	  586.00	  615.71	-1802.40	  500.03
     22.9700	  587.00	  615.53	-1801.22	  499.69
     23.0700	  662.00	  615.36	-1726.05	  499.34
     23.1700	  633.00	  615.22	-1754.91	  498.99
     23.2700	  603.00	  615.11	-1784.80	  498.64
     23.3700	  588.00	  615.03	-1799.72	  498.29
     23.4700	  641.00	  614.96	-1746.65	  497.93
     23.5700	  605.00	  615.00	-1782.69	  497.57
     23.6700	  625.00	  615.15	-1762.83	  497.21
     23.7700	  664.00	  615.43	-1724.11	  496.84
     23.8700	  567.00	  615.92	-1821.61	  496.47
     23.9700	  631.00	  616.78	-1758.47	  496.10
     24.0700	  582.00	  618.21	-1808.90	  495.72
     24.1700	  593.00	  620.58	-1800.27	  495.35
     24.2700	  591.00	  624.39	-1806.07	  494.97
     24.3700	  618.00	  630.17	-1784.86	  494.58
     24.4700	  654.00	  638.35	-1757.04	  494.20
     24.5700	  672.00	  648.96	-1749.65	  493.81
     24.6700	  701.00	  661.19	-1732.88	  493.42
     24.7700	  709.00	  672.94	-1736.63	  493.02
     24.8700	  689.00	  680.41	-1764.10	  492.63
     24.9700	  767.00	  679.00	-1684.68	  492.23
     25.0700	  699.00	  667.85	-1741.53	  491.83
     25.1700	  681.00	  652.38	-1744.07	  491.43
     25.2700	  749.00	  638.29	-1661.98	  491.03
     25.3700	  673.00	  627.77	-1727.46	  490.62
     25.4700	  645.00	  620.78	-1748.47	  490.21
     25.5700	  638.00	  616.43	-1751.12	  489.80
     25.6700	  682.00	  613.77	-1704.46	  489.39
     25.7700	  668.00	  612.08	-1716.77	  488.97
     25.8700	  656.00	  610.94	-1727.63	  488.56
     25.9700	  738.00	  610.12	-1644.81	  488.14
     26.0700	  643.00	  609.52	-1739.21	  487.72
     26.1700	  683.00	  609.09	-1698.78	  487.30
     26.2700	  671.00	  608.80	-1710.49	  486.87
     26.3700	  674.00	  608.64	-1707.33	  486.45
     26.4700	  670.00	  608.61	-1711.30	  486.02
     26.5700	  705.00	  608.72	-1676.41	  485.59
     26.6700	  683.00	  608.97	-1698.66	  485.16
     26.7700	  630.00	  609.39	-1752.08	  484.73
     26.8700	  634.00	  610.01	-1748.70	  484.30
     26.9700	  692.00	  610.88	-1691.57	  483.86
     27.0700	  636.00	  612.07	-1748.76	  483.43
     27.1700	  732.00	  613.68	-1654.37	  482.99
     27.2700	  694.00	  615.89	-1694.58	  482.55
     27.3700	  736.00	  619.03	-1655.72	  482.11
     27.4700	  735.00	  623.71	-1661.40	  481.67
     27.5700	  678.00	  631.05	-1725.74	  481.23
     27.6700	  696.00	  642.93	-1719.62	  480.79
     27.7700	  700.00	  662.18	-1734.87	  480.34
     27.8700	  695.00	  692.21	-1769.90	  479.90
     27.9700	  767.00	  735.59	-1741.28	  479.45
     28.0700	  828.00	  791.79	-1736.48	  479.00
     28.1700	  914.00	  854.65	-1713.34	  478.55
     28.2700	  992.00	  910.34	-1691.02	  478.11
     28.3700	  978.00	  938.73	-1733.42	  477.66
     28.4700	 1040.00	  928.40	-1661.09	  477.20
     28.5700	  990.00	  898.84	-1681.53	  476.75
     28.6700	  922.00	  882.80	-1733.49	  476.30
     28.7700	  859.00	  895.23	-1808.92	  475.85
     28.8700	  903.00	  930.43	-1800.12	  475.39
     28.9700	  949.00	  967.04	-1790.73	  474.94
     29.0700	 1015.00	  974.48	-1732.17	  474.49
     29.1700	  966.00	  932.02	-1738.71	  474.03
     29.2700	  886.00	  854.66	-1741.35	  473.57
     29.3700	  806.00	  775.43	-1742.12	  473.12
     29.4700	  702.00	  713.04	-1783.72	  472.66
     29.5700	  721.00	  670.80	-1722.49	  472.20
     29.6700	  692.00	  644.93	-1725.62	  471.75
     29.7700	  767.00	  629.88	-1635.57	  471.29
     29.8700	  722.00	  621.05	-1671.74	  470.83
     29.9700	  715.00	  615.64	-1673.33	  470.37
     30.0700	  700.00	  612.28	-1684.96	  469.91
     30.1700	  710.00	  610.45	-1673.14	  469.46
     30.2700	  707.00	  610.23	-1675.91	  469.00
     30.3700	  707.00	  612.09	-1677.78	  468.54
     30.4700	  688.00	  616.98	-1701.66	  468.08
     30.5700	  689.00	  626.15	-1709.84	  467.62
     30.6700	  659.00	  640.67	-1754.35	  467.16
     30.7700	  703.00	  660.37	-1730.06	  466.70
     30.8700	  705.00	  682.83	-1750.52	  466.24
     30.9700	  731.00	  702.51	-1744.20	  465.78
     31.0700	  695.00	  711.11	-1788.80	  465.32
     31.1700	  695.00	  701.96	-1779.65	  464.86
     31.2700	  740.00	  678.53	-1711.22	  464.40
     31.3700	  659.00	  651.75	-1765.44	  463.95
     31.4700	  658.00	  629.19	-1743.88	  463.49
     31.5700	  706.00	  613.04	-1679.73	  463.03
     31.6700	  592.00	  602.65	-1783.34	  462.57
     31.7700	  660.00	  596.36	-1709.05	  462.11
     31.8700	  628.00	  592.57	-1737.26	  461.66
     31.9700	  586.00	  590.18	-1776.87	  461.20
     32.0700	  566.00	  588.57	-1795.26	  460.74
     32.1700	  630.00	  587.43	-1730.12	  460.29
     32.2700	  622.00	  586.63	-1737.32	  459.83
     32.3700	  596.00	  586.12	-1762.81	  459.38
     32.4700	  554.00	  585.85	-1804.54	  458.92
     32.5700	  629.00	  585.84	-1729.53	  458.47
     32.6700	  604.00	  586.11	-1754.79	  458.02
     32.7700	  616.00	  586.67	-1743.36	  457.56
     32.8700	  613.00	  587.61	-1747.30	  457.11
     32.9700	  611.00	  589.05	-1750.74	  456.66
     33.0700	  577.00	  591.10	-1786.79	  456.21
     33.1700	  608.00	  594.10	-1758.78	  455.76
     33.2700	  613.00	  598.64	-1758.33	  455.31
     33.3700	  644.00	  605.85	-1734.54	  454.86
     33.4700	  613.00	  617.77	-1777.46	  454.41
     33.5700	  605.00	  637.60	-1805.29	  453.96
     33.6700	  680.00	  669.63	-1762.32	  453.52
     33.7700	  687.00	  717.96	-1803.65	  453.07
     33.8700	  779.00	  783.65	-1777.34	  452.63
     33.9700	  880.00	  860.93	-1753.62	  452.18
     34.0700	  948.00	  934.17	-1758.86	  451.74
     34.1700	 1060.00	  978.11	-1690.80	  451.30
     34.2700	 1049.00	  968.22	-1691.91	  450.86
     34.3700	  990.00	  905.77	-1688.46	  450.42
     34.4700	  866.00	  821.17	-1727.86	  449.98
     34.5700	  730.00	  742.84	-1785.53	  449.54
     34.6700	  688.00	  682.77	-1767.45	  449.11
     34.7700	  655.00	  641.93	-1759.62	  448.67
     34.8700	  633.00	  616.35	-1756.04	  448.23
     34.9700	  643.00	  600.91	-1730.60	  447.80
     35.0700	  607.00	  591.40	-1757.09	  447.37
     35.1700	  562.00	  585.13	-1795.82	  446.94
     35.2700	  564.00	  580.64	-1789.33	  446.51
     35.3700	  546.00	  577.17	-1803.86	  446.08
     35.4700	  584.00	  574.87	-1763.56	  445.65
     35.5700	  549.00	  572.57	-1796.26	  445.23
     35.6700	  543.00	  570.62	-1800.31	  444.80
     35.7700	  569.00	  568.94	-1772.63	  444.38
     35.8700	  541.00	  567.49	-1799.18	  443.96
     35.9700	  551.00	  566.20	-1787.89	  443.53
     36.0700	  570.00	  565.06	-1767.75	  443.11
     36.1700	  530.00	  564.03	-1806.72	  442.70
     36.2700	  536.00	  563.10	-1799.79	  442.28
     36.3700	  497.00	  562.26	-1837.95	  441.86
     36.4700	  566.00	  561.46	-1768.14	  441.45
     36.5700	  539.00	  560.76	-1794.45	  441.04
     36.6700	  548.00	  560.13	-1784.82	  440.63
     36.7700	  569.00	  559.57	-1763.25	  440.22
     36.8700	  501.00	  559.09	-1830.78	  439.81
     36.9700	  545.00	  558.72	-1786.41	  439.40
     37.0700	  536.00	  558.51	-1795.20	  439.00
     37.1700	  528.00	  558.73	-1803.42	  438.59
     37.2700	  556.00	  559.16	-1775.85	  438.19
     37.3700	  553.00	  560.13	-1779.82	  437.79
     37.4700	  502.00	  561.77	-1832.46	  437.39
     37.5700	  571.00	  564.12	-1765.81	  437.00
     37.6700	  558.00	  566.91	-1781.60	  436.60
     37.7700	  578.00	  569.57	-1764.26	  436.21
     37.8700	  572.00	  571.17	-1771.85	  435.82
     37.9700	  574.00	  570.90	-1769.59	  435.42
     38.0700	  554.00	  568.85	-1787.54	  435.04
     38.1700	  518.00	  565.81	-1820.49	  434.65
     38.2700	  569.00	  562.44	-1766.13	  434.26
     38.3700	  529.00	  559.15	-1802.84	  433.88
     38.4700	  544.00	  556.28	-1784.97	  433.50
     38.5700	  497.00	  554.01	-1829.70	  433.12
     38.6700	  546.00	  552.30	-1778.99	  432.74
     38.7700	  535.00	  551.03	-1788.72	  432.36
     38.8700	  568.00	  550.08	-1754.77	  431.99
     38.9700	  510.00	  549.33	-1812.02	  431.62
     39.0700	  570.00	  548.71	-1751.40	  431.25
     39.1700	  560.00	  548.22	-1760.91	  430.88
     39.2700	  482.00	  547.73	-1838.42	  430.51
     39.3700	  560.00	  547.27	-1759.96	  430.14
     39.4700	  518.00	  546.84	-1801.53	  429.78
     39.5700	  530.00	  546.32	-1789.01	  429.42
     39.6700	  528.00	  545.94	-1790.63	  429.06
     39.7700	  532.00	  545.57	-1786.26	  428.70
     39.8700	  552.00	  545.21	-1765.90	  428.35
     39.9700	  544.00	  545.43	-1774.12	  427.99
     40.0700	  541.00	  545.11	-1776.80	  427.64
     40.1700	  524.00	  544.81	-1793.50	  427.29
     40.2700	  507.00	  544.52	-1810.21	  426.94
     40.3700	  545.00	  544.25	-1771.94	  426.60
     40.4700	  531.00	  544.00	-1785.68	  426.25
     40.5700	  519.00	  543.62	-1797.31	  425.91
     40.6700	  528.00	  543.41	-1788.10	  425.57
     40.7700	  477.00	  543.21	-1838.90	  425.23
