MSG Master    CELL:    5.88582   5.88582  23.13124   90.0000   90.0000  120.0000   SPGR: P 63/m m c             TEMP:    605.05
  2   1280     2.52000     0.00000    -0.09660     0.00000     0.00000    0
    96    96     0     0     2
       0.00000      10.00000
     125.00000     130.00000
 2Theta	Yobs	Ycal	Yobs-Ycal	Backg	Posr	(hkl)	K
      0.7700	    0.00	  807.13	-1923.48	  677.75
      0.8700	    0.00	  805.58	-1923.48	  676.19
      0.9700	   50.00	  804.03	-1923.48	  674.64
      1.0700	   38.00	  802.48	-1923.48	  673.10
      1.1700	   53.00	  800.95	-1923.48	  671.56
      1.2700	   48.00	  799.42	-1923.48	  670.03
      1.3700	   51.00	  797.89	-1923.48	  668.51
      1.4700	   97.00	  796.38	-1923.48	  666.99
      1.5700	  273.00	  794.86	-1923.48	  665.48
      1.6700	  435.00	  793.36	-1923.48	  663.98
      1.7700	  605.00	  791.86	-1923.48	  662.48
      1.8700	  677.00	  790.37	-1923.48	  660.98
      1.9700	  734.00	  788.88	-1923.48	  659.50
      2.0700	  802.00	  787.40	-1923.48	  658.02
      2.1700	  766.00	  785.93	-1923.48	  656.54
      2.2700	  781.00	  784.46	-1923.48	  655.08
      2.3700	  793.00	  783.00	-1923.48	  653.61
      2.4700	  751.00	  781.54	-1923.48	  652.16
      2.5700	  708.00	  780.09	-1923.48	  650.71
      2.6700	  713.00	  778.65	-1923.48	  649.27
      2.7700	  648.00	  777.21	-1923.48	  647.83
      2.8700	  607.00	  775.78	-1923.48	  646.40
      2.9700	  609.00	  774.36	-1923.48	  644.98
      3.0700	  613.00	  772.94	-1923.48	  643.56
      3.1700	  634.00	  771.53	-1923.48	  642.15
      3.2700	  689.00	  770.12	-1923.48	  640.74
      3.3700	  900.00	  768.72	-1923.48	  639.34
      3.4700	 1021.00	  767.33	-1923.48	  637.95
      3.5700	 1188.00	  765.94	-1923.48	  636.56
      3.6700	 1336.00	  764.56	-1923.48	  635.18
      3.7700	 1405.00	  763.18	-1923.48	  633.80
      3.8700	 1519.00	  761.81	-1923.48	  632.43
      3.9700	 1539.00	  760.45	-1923.48	  631.07
      4.0700	 1628.00	  759.09	-1923.48	  629.71
      4.1700	 1642.00	  757.74	-1923.48	  628.36
      4.2700	 1694.00	  756.40	-1923.48	  627.01
      4.3700	 1698.00	  755.06	-1923.48	  625.67
      4.4700	 1564.00	  753.72	-1923.48	  624.34
      4.5700	 1498.00	  752.39	-1923.48	  623.01
      4.6700	 1487.00	  751.07	-1923.48	  621.69
      4.7700	 1369.00	  749.76	-1923.48	  620.37
      4.8700	 1409.00	  748.45	-1923.48	  619.06
      4.9700	 1384.00	  747.14	-1923.48	  617.76
      5.0700	 1299.00	  745.84	-1923.48	  616.46
      5.1700	 1338.00	  744.55	-1923.48	  615.17
      5.2700	 1236.00	  743.26	-1923.48	  613.88
      5.3700	 1188.00	  741.98	-1923.48	  612.60
      5.4700	 1220.00	  740.71	-1923.48	  611.33
      5.5700	 1130.00	  739.44	-1923.48	  610.06
      5.6700	 1180.00	  738.18	-1923.48	  608.79
      5.7700	 1138.00	  736.92	-1923.48	  607.54
      5.8700	 1080.00	  735.67	-1923.48	  606.28
      5.9700	 1068.00	  734.42	-1923.48	  605.04
      6.0700	 1104.00	  733.18	-1923.48	  603.80
      6.1700	 1028.00	  731.95	-1923.48	  602.56
      6.2700	 1000.00	  730.72	-1923.48	  601.34
      6.3700	  968.00	  729.50	-1923.48	  600.11
      6.4700	  996.00	  728.28	-1923.48	  598.90
      6.5700	 1028.00	  727.07	-1923.48	  597.68
      6.6700	  939.00	  725.86	-1923.48	  596.48
      6.7700	  851.00	  724.66	-1923.48	  595.28
      6.8700	  882.00	  723.47	-1923.48	  594.08
      6.9700	  882.00	  722.28	-1923.48	  592.89
      7.0700	  832.00	  721.09	-1923.48	  591.71
      7.1700	  833.00	  719.92	-1923.48	  590.53
      7.2700	  830.00	  718.75	-1923.48	  589.36
      7.3700	  899.00	  717.58	-1923.48	  588.20
      7.4700	  811.00	  716.42	-1923.48	  587.03
      7.5700	  838.00	  715.26	-1923.48	  585.88
      7.6700	  826.00	  714.11	-1923.48	  584.73
      7.7700	  816.00	  712.97	-1923.48	  583.59
      7.8700	  751.00	  711.83	-1923.48	  582.45
      7.9700	  819.00	  710.70	-1923.48	  581.31
      8.0700	  785.00	  709.57	-1923.48	  580.19
      8.1700	  779.00	  708.45	-1923.48	  579.06
      8.2700	  764.00	  707.33	-1923.48	  577.95
      8.3700	  702.00	  706.22	-1923.48	  576.84
      8.4700	  754.00	  705.11	-1923.48	  575.73
      8.5700	  773.00	  704.01	-1923.48	  574.63
      8.6700	  783.00	  702.92	-1923.48	  573.54
      8.7700	  706.00	  701.83	-1923.48	  572.45
      8.8700	  735.00	  700.75	-1923.48	  571.36
      8.9700	  722.00	  699.67	-1923.48	  570.28
      9.0700	  771.00	  698.59	-1923.48	  569.21
      9.1700	  766.00	  697.53	-1923.48	  568.14
      9.2700	  724.00	  696.46	-1923.48	  567.08
      9.3700	  734.00	  695.41	-1923.48	  566.02
      9.4700	  722.00	  694.35	-1923.48	  564.97
      9.5700	  768.00	  693.31	-1923.48	  563.92
      9.6700	  757.00	  692.27	-1923.48	  562.88
      9.7700	  691.00	  691.23	-1923.48	  561.85
      9.8700	  719.00	  690.20	-1923.48	  560.82
      9.9700	  698.00	  689.17	-1923.48	  559.79
     10.0700	  700.00	  690.35	-1913.83	  558.77
     10.1700	  650.00	  689.58	-1963.06	  557.75
     10.2700	  697.00	  688.86	-1915.34	  556.74
     10.3700	  723.00	  688.22	-1888.69	  555.74
     10.4700	  717.00	  687.67	-1894.15	  554.74
     10.5700	  723.00	  687.28	-1887.76	  553.75
     10.6700	  694.00	  687.10	-1916.57	  552.76
     10.7700	  658.00	  687.21	-1952.69	  551.77
     10.8700	  666.00	  687.73	-1945.21	  550.80
     10.9700	  722.00	  688.72	-1890.20	  549.82
     11.0700	  714.00	  690.23	-1899.70	  548.85
     11.1700	  682.00	  692.26	-1933.74	  547.89
     11.2700	  745.00	  694.86	-1873.33	  546.93
     11.3700	  667.00	  698.06	-1954.54	  545.98
     11.4700	  683.00	  701.99	-1942.47	  545.03
     11.5700	  735.00	  706.81	-1895.29	  544.09
     11.6700	  731.00	  712.76	-1905.23	  543.15
     11.7700	  753.00	  720.14	-1890.62	  542.22
     11.8700	  757.00	  729.21	-1895.68	  541.29
     11.9700	  786.00	  739.90	-1877.38	  540.36
     12.0700	  823.00	  751.41	-1851.89	  539.45
     12.1700	  794.00	  761.63	-1891.11	  538.53
     12.2700	  807.00	  766.69	-1883.17	  537.62
     12.3700	  773.00	  761.83	-1912.31	  536.72
     12.4700	  748.00	  746.06	-1921.54	  535.82
     12.5700	  757.00	  725.39	-1891.87	  534.93
     12.6700	  740.00	  706.60	-1890.08	  534.04
     12.7700	  648.00	  692.26	-1967.74	  533.16
     12.8700	  675.00	  682.29	-1930.76	  532.28
     12.9700	  663.00	  675.61	-1936.09	  531.41
     13.0700	  626.00	  671.10	-1968.58	  530.54
     13.1700	  649.00	  667.89	-1942.37	  529.67
     13.2700	  594.00	  665.42	-1994.90	  528.81
     13.3700	  656.00	  663.40	-1930.88	  527.96
     13.4700	  653.00	  661.65	-1932.13	  527.11
     13.5700	  643.00	  660.11	-1940.59	  526.26
     13.6700	  622.00	  658.70	-1960.18	  525.42
     13.7700	  613.00	  657.41	-1967.89	  524.59
     13.8700	  650.00	  656.20	-1929.67	  523.76
     13.9700	  662.00	  655.05	-1916.53	  522.93
     14.0700	  693.00	  653.96	-1884.44	  522.11
     14.1700	  682.00	  652.92	-1894.40	  521.29
     14.2700	  649.00	  651.91	-1926.39	  520.48
     14.3700	  655.00	  650.93	-1919.41	  519.68
     14.4700	  659.00	  649.98	-1914.46	  518.87
     14.5700	  677.00	  649.05	-1895.53	  518.08
     14.6700	  660.00	  648.15	-1911.63	  517.28
     14.7700	  607.00	  647.26	-1963.74	  516.49
     14.8700	  648.00	  646.39	-1921.86	  515.71
     14.9700	  607.00	  645.53	-1962.01	  514.93
     15.0700	  585.00	  644.68	-1983.16	  514.16
     15.1700	  646.00	  643.85	-1921.32	  513.39
     15.2700	  610.00	  643.02	-1956.50	  512.62
     15.3700	  606.00	  642.21	-1959.69	  511.86
     15.4700	  657.00	  641.40	-1907.88	  511.10
     15.5700	  600.00	  640.61	-1964.09	  510.35
     15.6700	  657.00	  639.82	-1906.30	  509.60
     15.7700	  591.00	  639.04	-1971.52	  508.86
     15.8700	  647.00	  638.27	-1914.75	  508.12
     15.9700	  645.00	  637.51	-1915.99	  507.39
     16.0700	  643.00	  636.75	-1917.23	  506.66
     16.1700	  622.00	  636.00	-1937.48	  505.93
     16.2700	  653.00	  635.25	-1905.73	  505.21
     16.3700	  607.00	  634.52	-1950.99	  504.50
     16.4700	  633.00	  633.78	-1924.26	  503.78
     16.5700	  599.00	  633.06	-1957.54	  503.08
     16.6700	  629.00	  632.34	-1926.82	  502.37
     16.7700	  669.00	  631.62	-1886.10	  501.67
     16.8700	  639.00	  630.91	-1915.39	  500.98
     16.9700	  643.00	  630.21	-1910.69	  500.29
     17.0700	  606.00	  629.51	-1946.99	  499.60
     17.1700	  657.00	  628.82	-1895.30	  498.92
     17.2700	  629.00	  628.13	-1922.61	  498.25
     17.3700	  605.00	  627.45	-1945.93	  497.57
     17.4700	  591.00	  626.77	-1959.25	  496.90
     17.5700	  612.00	  626.10	-1937.57	  496.24
     17.6700	  620.00	  625.43	-1928.91	  495.58
     17.7700	  619.00	  624.76	-1929.24	  494.92
     17.8700	  625.00	  624.11	-1922.58	  494.27
     17.9700	  610.00	  623.45	-1936.93	  493.62
     18.0700	  633.00	  622.80	-1913.28	  492.98
     18.1700	  608.00	  622.16	-1937.64	  492.34
     18.2700	  581.00	  621.52	-1964.00	  491.71
     18.3700	  596.00	  620.88	-1948.36	  491.08
     18.4700	  602.00	  620.25	-1941.73	  490.45
     18.5700	  596.00	  619.63	-1947.11	  489.83
     18.6700	  612.00	  619.01	-1930.49	  489.21
     18.7700	  601.00	  618.39	-1940.87	  488.59
     18.8700	  608.00	  620.09	-1935.57	  487.98
     18.9700	  620.00	  619.53	-1923.01	  487.38
     19.0700	  614.00	  618.98	-1928.46	  486.78
     19.1700	  640.00	  618.43	-1901.91	  486.18
     19.2700	  647.00	  617.89	-1894.37	  485.58
     19.3700	  633.00	  617.36	-1907.84	  484.99
     19.4700	  619.00	  616.83	-1921.31	  484.41
     19.5700	  635.00	  616.31	-1904.79	  483.83
     19.6700	  602.00	  615.79	-1937.27	  483.25
     19.7700	  568.00	  615.28	-1970.76	  482.67
     19.8700	  593.00	  614.78	-1945.26	  482.10
     19.9700	  636.00	  614.28	-1901.76	  481.54
     20.0700	  613.00	  613.83	-1924.31	  480.97
     20.1700	  630.00	  613.34	-1906.82	  480.42
     20.2700	  626.00	  612.87	-1910.35	  479.86
     20.3700	  618.00	  612.40	-1917.88	  479.31
     20.4700	  576.00	  611.94	-1959.42	  478.76
     20.5700	  613.00	  611.49	-1921.97	  478.22
     20.6700	  610.00	  611.04	-1924.52	  477.68
     20.7700	  597.00	  610.61	-1937.09	  477.15
     20.8700	  614.00	  610.18	-1919.66	  476.62
     20.9700	  603.00	  609.76	-1930.24	  476.09
     21.0700	  625.00	  609.35	-1907.83	  475.56
     21.1700	  572.00	  608.95	-1960.42	  475.04
     21.2700	  624.00	  608.55	-1908.03	  474.53
     21.3700	  597.00	  608.17	-1934.65	  474.01
     21.4700	  601.00	  607.80	-1930.28	  473.51
     21.5700	  627.00	  607.43	-1903.91	  473.00
     21.6700	  615.00	  607.08	-1915.56	  472.50
     21.7700	  641.00	  606.74	-1889.22	  472.00
     21.8700	  613.00	  606.42	-1916.89	  471.51
     21.9700	  649.00	  606.10	-1880.58	  471.02
     22.0700	  598.00	  605.80	-1931.28	  470.53
     22.1700	  647.00	  605.51	-1881.99	  470.05
     22.2700	  604.00	  605.43	-1924.91	  469.57
     22.3700	  638.00	  605.18	-1890.66	  469.09
     22.4700	  614.00	  604.94	-1914.42	  468.62
     22.5700	  641.00	  604.73	-1887.21	  468.15
     22.6700	  653.00	  604.54	-1875.02	  467.69
     22.7700	  625.00	  604.37	-1902.85	  467.22
     22.8700	  602.00	  604.23	-1925.71	  466.77
     22.9700	  582.00	  604.12	-1945.60	  466.31
     23.0700	  581.00	  604.04	-1946.52	  465.86
     23.1700	  606.00	  604.00	-1921.48	  465.41
     23.2700	  586.00	  604.01	-1941.49	  464.97
     23.3700	  630.00	  604.07	-1897.55	  464.53
     23.4700	  606.00	  604.19	-1921.67	  464.09
     23.5700	  572.00	  604.38	-1955.86	  463.66
     23.6700	  653.00	  604.67	-1875.15	  463.23
     23.7700	  621.00	  605.09	-1907.57	  462.80
     23.8700	  593.00	  605.70	-1936.18	  462.38
     23.9700	  623.00	  606.57	-1907.05	  461.96
     24.0700	  606.00	  607.84	-1925.32	  461.54
     24.1700	  621.00	  609.75	-1912.23	  461.13
     24.2700	  645.00	  612.61	-1891.08	  460.72
     24.3700	  656.00	  616.77	-1884.25	  460.31
     24.4700	  709.00	  622.74	-1837.22	  459.91
     24.5700	  636.00	  630.67	-1918.15	  459.51
     24.6700	  650.00	  640.30	-1913.78	  459.11
     24.7700	  662.00	  650.73	-1912.20	  458.72
     24.8700	  680.00	  659.95	-1903.43	  458.33
     24.9700	  713.00	  664.80	-1875.28	  457.94
     25.0700	  694.00	  662.31	-1891.79	  457.56
     25.1700	  727.00	  653.19	-1849.67	  457.18
     25.2700	  636.00	  641.99	-1929.47	  456.80
     25.3700	  718.00	  632.29	-1837.77	  456.43
     25.4700	  655.00	  625.38	-1893.86	  456.06
     25.5700	  615.00	  621.16	-1929.63	  455.69
     25.6700	  663.00	  619.01	-1879.49	  455.33
     25.7700	  668.00	  618.32	-1873.79	  454.97
     25.8700	  666.00	  618.59	-1876.07	  454.61
     25.9700	  654.00	  619.55	-1889.03	  454.26
     26.0700	  632.00	  621.04	-1912.52	  453.90
     26.1700	  601.00	  623.03	-1945.51	  453.56
     26.2700	  659.00	  625.51	-1889.99	  453.21
     26.3700	  554.00	  628.52	-1998.00	  452.87
     26.4700	  601.00	  632.14	-1954.62	  452.53
     26.5700	  654.00	  636.46	-1905.94	  452.19
     26.6700	  685.00	  641.63	-1880.11	  451.86
     26.7700	  635.00	  647.82	-1936.30	  451.53
     26.8700	  644.00	  655.28	-1934.76	  451.20
     26.9700	  672.00	  664.33	-1915.81	  450.88
     27.0700	  685.00	  675.44	-1913.92	  450.56
     27.1700	  669.00	  689.25	-1943.73	  450.24
     27.2700	  668.00	  706.74	-1962.21	  449.93
     27.3700	  781.00	  729.54	-1872.02	  449.61
     27.4700	  700.00	  760.89	-1984.37	  449.30
     27.5700	  803.00	  807.74	-1928.21	  449.00
     27.6700	  776.00	  884.76	-2032.24	  448.69
     27.7700	  823.00	 1020.10	-2120.58	  448.39
     27.8700	  991.00	 1260.81	-2193.29	  448.10
     27.9700	 1260.00	 1671.91	-2335.39	  447.80
     28.0700	 1925.00	 2317.69	-2316.17	  447.51
     28.1700	 3043.00	 3216.47	-2096.95	  447.22
     28.2700	 4533.00	 4266.31	-1656.79	  446.94
     28.3700	 5793.00	 5174.95	-1305.43	  446.65
     28.4700	 6137.00	 5493.18	-1279.66	  446.37
     28.5700	 5435.00	 4963.85	-1452.33	  446.09
     28.6700	 3993.00	 4003.10	-1933.58	  445.82
     28.7700	 2933.00	 3242.85	-2233.33	  445.55
     28.8700	 2661.00	 2946.33	-2208.80	  445.28
     28.9700	 2932.00	 3038.60	-2030.08	  445.01
     29.0700	 3543.00	 3256.75	-1637.23	  444.75
     29.1700	 3582.00	 3278.92	-1620.39	  444.49
     29.2700	 2998.00	 2913.98	-1839.46	  444.23
     29.3700	 2236.00	 2304.22	-1991.70	  443.97
     29.4700	 1605.00	 1720.00	-2038.48	  443.72
     29.5700	 1138.00	 1292.39	-2077.87	  443.47
     29.6700	  994.00	 1028.04	-1957.52	  443.22
     29.7700	  858.00	  881.01	-1946.49	  442.98
     29.8700	  794.00	  801.00	-1930.48	  442.73
     29.9700	  786.00	  754.19	-1891.67	  442.49
     30.0700	  758.00	  723.40	-1888.87	  442.26
     30.1700	  680.00	  701.22	-1944.70	  442.02
     30.2700	  680.00	  684.62	-1928.10	  441.79
     30.3700	  702.00	  672.27	-1893.75	  441.56
     30.4700	  662.00	  663.75	-1925.22	  441.33
     30.5700	  678.00	  659.26	-1904.74	  441.11
     30.6700	  642.00	  659.53	-1941.00	  440.89
     30.7700	  690.00	  665.27	-1898.75	  440.67
     30.8700	  662.00	  676.33	-1937.81	  440.45
     30.9700	  719.00	  690.60	-1895.08	  440.24
     31.0700	  713.00	  703.27	-1913.75	  440.02
     31.1700	  741.00	  707.08	-1889.56	  439.81
     31.2700	  728.00	  696.37	-1891.85	  439.61
     31.3700	  700.00	  674.52	-1898.00	  439.40
     31.4700	  689.00	  650.96	-1885.44	  439.20
     31.5700	  640.00	  631.72	-1915.20	  439.00
     31.6700	  658.00	  618.25	-1883.72	  438.80
     31.7700	  662.00	  609.63	-1871.11	  438.61
     31.8700	  646.00	  604.29	-1881.77	  438.42
     31.9700	  584.00	  600.85	-1940.33	  438.23
     32.0700	  645.00	  598.47	-1876.95	  438.04
     32.1700	  636.00	  596.69	-1884.17	  437.85
     32.2700	  626.00	  595.34	-1892.82	  437.67
     32.3700	  587.00	  594.33	-1930.81	  437.49
     32.4700	  616.00	  593.62	-1901.10	  437.31
     32.5700	  585.00	  593.20	-1931.68	  437.13
     32.6700	  601.00	  593.07	-1915.55	  436.96
     32.7700	  601.00	  593.29	-1915.77	  436.79
     32.8700	  591.00	  593.85	-1926.32	  436.62
     32.9700	  650.00	  594.83	-1868.31	  436.45
     33.0700	  586.00	  596.36	-1933.84	  436.29
     33.1700	  615.00	  598.61	-1907.09	  436.12
     33.2700	  601.00	  601.93	-1924.41	  435.96
     33.3700	  609.00	  606.98	-1921.46	  435.80
     33.4700	  620.00	  615.02	-1918.50	  435.65
     33.5700	  691.00	  628.43	-1860.91	  435.49
     33.6700	  638.00	  651.09	-1936.57	  435.34
     33.7700	  679.00	  688.34	-1932.82	  435.19
     33.8700	  728.00	  745.56	-1941.04	  435.04
     33.9700	  817.00	  824.61	-1931.09	  434.90
     34.0700	  987.00	  918.83	-1855.31	  434.75
     34.1700	 1077.00	 1009.15	-1855.63	  434.61
     34.2700	 1153.00	 1064.27	-1834.75	  434.47
     34.3700	 1146.00	 1053.20	-1830.68	  434.34
     34.4700	 1045.00	  977.00	-1855.48	  434.20
     34.5700	  869.00	  873.73	-1928.21	  434.07
     34.6700	  808.00	  778.80	-1894.28	  433.94
     34.7700	  719.00	  706.94	-1911.42	  433.81
     34.8700	  719.00	  659.03	-1863.51	  433.68
     34.9700	  645.00	  629.75	-1908.22	  433.56
     35.0700	  646.00	  612.53	-1890.01	  433.43
     35.1700	  635.00	  602.19	-1890.67	  433.31
     35.2700	  669.00	  595.51	-1849.99	  433.19
     35.3700	  558.00	  590.80	-1956.28	  433.07
     35.4700	  598.00	  587.24	-1912.72	  432.96
     35.5700	  601.00	  584.46	-1906.94	  432.84
     35.6700	  579.00	  582.22	-1926.70	  432.73
     35.7700	  540.00	  580.39	-1963.87	  432.62
     35.8700	  577.00	  578.89	-1925.37	  432.52
     35.9700	  595.00	  577.64	-1906.12	  432.41
     36.0700	  585.00	  576.61	-1915.09	  432.31
     36.1700	  589.00	  575.76	-1910.24	  432.20
     36.2700	  560.00	  575.07	-1938.54	  432.10
     36.3700	  601.00	  574.51	-1896.99	  432.00
     36.4700	  563.00	  574.09	-1934.57	  431.91
     36.5700	  608.00	  573.79	-1889.27	  431.81
     36.6700	  578.00	  573.62	-1919.10	  431.72
     36.7700	  574.00	  573.59	-1923.07	  431.63
     36.8700	  580.00	  573.93	-1917.41	  431.54
     36.9700	  503.00	  574.74	-1995.22	  431.45
     37.0700	  595.00	  575.34	-1903.81	  431.36
     37.1700	  581.00	  576.30	-1918.78	  431.28
     37.2700	  598.00	  577.81	-1903.29	  431.20
     37.3700	  605.00	  580.19	-1898.67	  431.11
     37.4700	  605.00	  583.92	-1902.40	  431.04
     37.5700	  569.00	  589.77	-1944.25	  430.96
     37.6700	  613.00	  598.79	-1909.27	  430.88
     37.7700	  584.00	  612.11	-1951.59	  430.81
     37.8700	  610.00	  630.50	-1943.98	  430.73
     37.9700	  614.00	  653.66	-1963.13	  430.66
     38.0700	  659.00	  679.17	-1943.65	  430.59
     38.1700	  687.00	  702.35	-1938.83	  430.53
     38.2700	  712.00	  714.59	-1926.07	  430.46
     38.3700	  699.00	  711.38	-1935.86	  430.39
     38.4700	  638.00	  691.11	-1976.59	  430.33
     38.5700	  657.00	  662.47	-1928.95	  430.27
     38.6700	  638.00	  634.64	-1920.12	  430.21
     38.7700	  573.00	  612.22	-1962.70	  430.15
     38.8700	  580.00	  596.21	-1939.68	  430.09
     38.9700	  560.00	  585.72	-1949.19	  430.04
     39.0700	  542.00	  579.21	-1960.69	  429.98
     39.1700	  583.00	  575.21	-1915.69	  429.93
     39.2700	  580.00	  572.66	-1916.14	  429.88
     39.3700	  559.00	  570.92	-1935.39	  429.83
     39.4700	  556.00	  569.64	-1937.12	  429.78
     39.5700	  596.00	  568.65	-1896.13	  429.73
     39.6700	  578.00	  567.05	-1912.53	  429.69
     39.7700	  610.00	  566.43	-1879.91	  429.65
     39.8700	  571.00	  565.92	-1918.40	  429.60
     39.9700	  541.00	  565.51	-1947.98	  429.56
     40.0700	  537.00	  565.17	-1951.65	  429.52
     40.1700	  578.00	  564.89	-1910.37	  429.48
     40.2700	  555.00	  564.67	-1933.15	  429.45
     40.3700	  564.00	  564.49	-1923.97	  429.41
     40.4700	  531.00	  564.36	-1956.84	  429.38
     40.5700	  545.00	  564.27	-1942.75	  429.34
     40.6700	  571.00	  564.74	-1917.22	  429.31
     40.7700	  549.00	  564.73	-1939.21	  429.28
