MSG Master    CELL:    5.90786   5.90786  23.21806   90.0000   90.0000  120.0000   SPGR: P 63/m m c             TEMP:    884.95
  1   1280     2.52000     0.00000    -0.12501     0.00000     0.00000    0
    98     0     2
       0.00000      10.00000
     125.00000     130.00000
 2Theta	Yobs	Ycal	Yobs-Ycal	Backg	Posr	(hkl)	K
      0.7700	    0.00	  477.42	-1729.62	  368.69
      0.8700	    0.00	  478.87	-1729.62	  370.14
      0.9700	   35.00	  480.30	-1729.62	  371.57
      1.0700	   36.00	  481.71	-1729.62	  372.98
      1.1700	   46.00	  483.11	-1729.62	  374.38
      1.2700	   44.00	  484.49	-1729.62	  375.76
      1.3700	   51.00	  485.86	-1729.62	  377.13
      1.4700	   89.00	  487.21	-1729.62	  378.48
      1.5700	  272.00	  488.55	-1729.62	  379.81
      1.6700	  464.00	  489.87	-1729.62	  381.13
      1.7700	  591.00	  491.17	-1729.62	  382.44
      1.8700	  662.00	  492.46	-1729.62	  383.73
      1.9700	  710.00	  493.73	-1729.62	  385.00
      2.0700	  754.00	  494.99	-1729.62	  386.26
      2.1700	  797.00	  496.23	-1729.62	  387.50
      2.2700	  755.00	  497.46	-1729.62	  388.73
      2.3700	  675.00	  498.67	-1729.62	  389.94
      2.4700	  687.00	  499.87	-1729.62	  391.14
      2.5700	  668.00	  501.05	-1729.62	  392.32
      2.6700	  677.00	  502.22	-1729.62	  393.49
      2.7700	  616.00	  503.37	-1729.62	  394.64
      2.8700	  603.00	  504.51	-1729.62	  395.78
      2.9700	  595.00	  505.63	-1729.62	  396.90
      3.0700	  609.00	  506.74	-1729.62	  398.01
      3.1700	  592.00	  507.84	-1729.62	  399.11
      3.2700	  652.00	  508.92	-1729.62	  400.19
      3.3700	  813.00	  509.99	-1729.62	  401.26
      3.4700	  865.00	  511.04	-1729.62	  402.31
      3.5700	 1006.00	  512.08	-1729.62	  403.35
      3.6700	 1097.00	  513.11	-1729.62	  404.38
      3.7700	 1076.00	  514.12	-1729.62	  405.39
      3.8700	 1183.00	  515.12	-1729.62	  406.39
      3.9700	 1127.00	  516.11	-1729.62	  407.37
      4.0700	 1228.00	  517.08	-1729.62	  408.34
      4.1700	 1279.00	  518.04	-1729.62	  409.30
      4.2700	 1295.00	  518.98	-1729.62	  410.25
      4.3700	 1243.00	  519.91	-1729.62	  411.18
      4.4700	 1207.00	  520.83	-1729.62	  412.10
      4.5700	 1163.00	  521.74	-1729.62	  413.01
      4.6700	 1198.00	  522.63	-1729.62	  413.90
      4.7700	 1099.00	  523.51	-1729.62	  414.78
      4.8700	 1033.00	  524.38	-1729.62	  415.65
      4.9700	 1050.00	  525.23	-1729.62	  416.50
      5.0700	 1038.00	  526.08	-1729.62	  417.34
      5.1700	 1007.00	  526.91	-1729.62	  418.17
      5.2700	 1005.00	  527.72	-1729.62	  418.99
      5.3700	  961.00	  528.53	-1729.62	  419.80
      5.4700	  936.00	  529.32	-1729.62	  420.59
      5.5700	 1012.00	  530.10	-1729.62	  421.37
      5.6700	  861.00	  530.87	-1729.62	  422.14
      5.7700	  906.00	  531.63	-1729.62	  422.90
      5.8700	  824.00	  532.38	-1729.62	  423.64
      5.9700	  828.00	  533.11	-1729.62	  424.38
      6.0700	  833.00	  533.83	-1729.62	  425.10
      6.1700	  819.00	  534.54	-1729.62	  425.81
      6.2700	  799.00	  535.24	-1729.62	  426.51
      6.3700	  804.00	  535.93	-1729.62	  427.20
      6.4700	  762.00	  536.60	-1729.62	  427.87
      6.5700	  735.00	  537.27	-1729.62	  428.54
      6.6700	  775.00	  537.92	-1729.62	  429.19
      6.7700	  763.00	  538.57	-1729.62	  429.83
      6.8700	  731.00	  539.20	-1729.62	  430.46
      6.9700	  720.00	  539.82	-1729.62	  431.09
      7.0700	  713.00	  540.43	-1729.62	  431.69
      7.1700	  730.00	  541.03	-1729.62	  432.29
      7.2700	  722.00	  541.61	-1729.62	  432.88
      7.3700	  713.00	  542.19	-1729.62	  433.46
      7.4700	  694.00	  542.76	-1729.62	  434.03
      7.5700	  658.00	  543.32	-1729.62	  434.58
      7.6700	  590.00	  543.86	-1729.62	  435.13
      7.7700	  678.00	  544.40	-1729.62	  435.66
      7.8700	  669.00	  544.92	-1729.62	  436.19
      7.9700	  672.00	  545.44	-1729.62	  436.71
      8.0700	  643.00	  545.94	-1729.62	  437.21
      8.1700	  622.00	  546.44	-1729.62	  437.71
      8.2700	  671.00	  546.92	-1729.62	  438.19
      8.3700	  634.00	  547.40	-1729.62	  438.67
      8.4700	  652.00	  547.87	-1729.62	  439.13
      8.5700	  615.00	  548.32	-1729.62	  439.59
      8.6700	  626.00	  548.77	-1729.62	  440.04
      8.7700	  624.00	  549.21	-1729.62	  440.47
      8.8700	  623.00	  549.63	-1729.62	  440.90
      8.9700	  598.00	  550.05	-1729.62	  441.32
      9.0700	  634.00	  550.46	-1729.62	  441.73
      9.1700	  592.00	  550.86	-1729.62	  442.13
      9.2700	  560.00	  551.25	-1729.62	  442.52
      9.3700	  616.00	  551.63	-1729.62	  442.90
      9.4700	  603.00	  552.00	-1729.62	  443.27
      9.5700	  601.00	  552.37	-1729.62	  443.64
      9.6700	  567.00	  552.72	-1729.62	  443.99
      9.7700	  599.00	  553.07	-1729.62	  444.34
      9.8700	  562.00	  553.41	-1729.62	  444.67
      9.9700	  649.00	  553.73	-1729.62	  445.00
     10.0700	  647.00	  555.59	-1638.21	  445.32
     10.1700	  626.00	  556.06	-1659.68	  445.63
     10.2700	  558.00	  556.55	-1728.17	  445.93
     10.3700	  562.00	  557.09	-1724.71	  446.23
     10.4700	  577.00	  557.70	-1710.32	  446.52
     10.5700	  603.00	  558.44	-1685.06	  446.79
     10.6700	  604.00	  559.38	-1685.00	  447.06
     10.7700	  565.00	  560.61	-1725.23	  447.32
     10.8700	  590.00	  562.21	-1701.83	  447.58
     10.9700	  580.00	  564.22	-1713.84	  447.82
     11.0700	  606.00	  566.62	-1690.24	  448.06
     11.1700	  596.00	  569.42	-1703.04	  448.29
     11.2700	  560.00	  572.64	-1742.26	  448.51
     11.3700	  578.00	  576.37	-1727.99	  448.73
     11.4700	  555.00	  580.73	-1755.35	  448.93
     11.5700	  580.00	  585.90	-1735.52	  449.13
     11.6700	  577.00	  592.21	-1744.83	  449.32
     11.7700	  604.00	  600.08	-1725.70	  449.51
     11.8700	  633.00	  609.94	-1706.56	  449.69
     11.9700	  663.00	  621.72	-1688.34	  449.85
     12.0700	  675.00	  634.01	-1688.63	  450.02
     12.1700	  668.00	  643.15	-1704.77	  450.17
     12.2700	  684.00	  643.27	-1688.89	  450.32
     12.3700	  641.00	  630.69	-1719.31	  450.46
     12.4700	  596.00	  611.00	-1744.62	  450.60
     12.5700	  565.00	  593.10	-1757.72	  450.72
     12.6700	  605.00	  580.58	-1705.20	  450.84
     12.7700	  531.00	  573.07	-1771.69	  450.96
     12.8700	  562.00	  568.94	-1736.56	  451.06
     12.9700	  544.00	  566.68	-1752.30	  451.16
     13.0700	  570.00	  565.36	-1724.97	  451.26
     13.1700	  536.00	  564.49	-1758.10	  451.34
     13.2700	  617.00	  563.87	-1676.49	  451.42
     13.3700	  564.00	  563.41	-1729.03	  451.50
     13.4700	  595.00	  563.07	-1697.68	  451.57
     13.5700	  507.00	  562.80	-1785.42	  451.63
     13.6700	  524.00	  562.58	-1768.20	  451.68
     13.7700	  549.00	  562.41	-1743.03	  451.73
     13.8700	  534.00	  562.27	-1757.89	  451.78
     13.9700	  575.00	  562.15	-1716.77	  451.81
     14.0700	  542.00	  562.05	-1749.67	  451.84
     14.1700	  560.00	  561.97	-1731.59	  451.87
     14.2700	  578.00	  561.89	-1713.51	  451.89
     14.3700	  559.00	  561.85	-1732.47	  451.90
     14.4700	  514.00	  561.78	-1777.40	  451.91
     14.5700	  524.00	  561.72	-1767.34	  451.91
     14.6700	  553.00	  561.66	-1738.28	  451.91
     14.7700	  570.00	  561.60	-1721.22	  451.90
     14.8700	  524.00	  561.54	-1767.16	  451.88
     14.9700	  541.00	  561.48	-1750.10	  451.86
     15.0700	  562.00	  561.42	-1729.04	  451.84
     15.1700	  589.00	  561.36	-1701.98	  451.81
     15.2700	  536.00	  561.29	-1754.91	  451.77
     15.3700	  561.00	  561.23	-1729.85	  451.73
     15.4700	  544.00	  561.16	-1746.78	  451.68
     15.5700	  561.00	  561.08	-1729.70	  451.63
     15.6700	  519.00	  561.01	-1771.63	  451.57
     15.7700	  540.00	  560.93	-1750.55	  451.51
     15.8700	  543.00	  560.84	-1747.46	  451.44
     15.9700	  517.00	  560.76	-1773.38	  451.37
     16.0700	  539.00	  560.67	-1751.29	  451.30
     16.1700	  533.00	  560.57	-1757.19	  451.21
     16.2700	  572.00	  560.47	-1718.09	  451.13
     16.3700	  516.00	  560.37	-1773.99	  451.04
     16.4700	  592.00	  560.27	-1697.89	  450.94
     16.5700	  594.00	  560.16	-1695.78	  450.84
     16.6700	  564.00	  560.05	-1725.67	  450.74
     16.7700	  509.00	  559.93	-1780.55	  450.63
     16.8700	  554.00	  559.81	-1735.43	  450.52
     16.9700	  510.00	  559.68	-1779.30	  450.40
     17.0700	  579.00	  559.56	-1710.18	  450.28
     17.1700	  526.00	  559.42	-1763.04	  450.15
     17.2700	  500.00	  559.29	-1788.91	  450.02
     17.3700	  608.00	  559.15	-1680.77	  449.88
     17.4700	  519.00	  559.10	-1769.72	  449.74
     17.5700	  511.00	  558.96	-1777.58	  449.60
     17.6700	  548.00	  558.81	-1740.43	  449.45
     17.7700	  544.00	  558.66	-1744.28	  449.30
     17.8700	  537.00	  558.50	-1751.12	  449.15
     17.9700	  593.00	  558.34	-1694.96	  448.99
     18.0700	  556.00	  558.18	-1731.80	  448.83
     18.1700	  442.00	  558.12	-1845.74	  448.66
     18.2700	  533.00	  557.95	-1754.57	  448.49
     18.3700	  567.00	  557.78	-1720.40	  448.32
     18.4700	  590.00	  557.61	-1697.23	  448.14
     18.5700	  569.00	  557.43	-1718.05	  447.96
     18.6700	  552.00	  557.25	-1734.87	  447.77
     18.7700	  526.00	  557.07	-1760.69	  447.59
     18.8700	  578.00	  556.88	-1708.50	  447.39
     18.9700	  594.00	  556.69	-1692.31	  447.20
     19.0700	  540.00	  556.50	-1746.12	  447.00
     19.1700	  543.00	  556.30	-1742.92	  446.80
     19.2700	  556.00	  556.11	-1729.73	  446.60
     19.3700	  527.00	  555.91	-1758.53	  446.39
     19.4700	  540.00	  555.70	-1745.32	  446.18
     19.5700	  533.00	  555.50	-1752.12	  445.96
     19.6700	  536.00	  555.29	-1748.91	  445.74
     19.7700	  546.00	  555.08	-1738.70	  445.52
     19.8700	  532.00	  554.90	-1752.52	  445.30
     19.9700	  568.00	  554.69	-1716.31	  445.07
     20.0700	  568.00	  554.47	-1716.09	  444.85
     20.1700	  537.00	  554.25	-1746.87	  444.61
     20.2700	  558.00	  554.03	-1725.65	  444.38
     20.3700	  523.00	  553.81	-1760.43	  444.14
     20.4700	  566.00	  553.58	-1717.20	  443.90
     20.5700	  566.00	  553.36	-1716.98	  443.66
     20.6700	  515.00	  553.13	-1767.75	  443.41
     20.7700	  530.00	  552.90	-1752.52	  443.16
     20.8700	  533.00	  552.67	-1749.29	  442.91
     20.9700	  566.00	  552.44	-1716.06	  442.66
     21.0700	  561.00	  552.20	-1720.82	  442.40
     21.1700	  578.00	  551.97	-1703.59	  442.15
     21.2700	  549.00	  551.73	-1732.35	  441.89
     21.3700	  575.00	  551.50	-1706.12	  441.62
     21.4700	  539.00	  551.26	-1741.88	  441.36
     21.5700	  525.00	  551.02	-1755.64	  441.09
     21.6700	  589.00	  550.79	-1691.41	  440.82
     21.7700	  586.00	  550.55	-1694.17	  440.55
     21.8700	  562.00	  550.31	-1717.93	  440.27
     21.9700	  563.00	  550.08	-1716.70	  440.00
     22.0700	  596.00	  549.85	-1683.47	  439.72
     22.1700	  582.00	  549.62	-1697.24	  439.44
     22.2700	  535.00	  549.39	-1744.01	  439.16
     22.3700	  554.00	  549.16	-1724.78	  438.87
     22.4700	  522.00	  548.90	-1756.52	  438.59
     22.5700	  542.00	  548.84	-1736.46	  438.30
     22.6700	  550.00	  548.64	-1728.26	  438.01
     22.7700	  535.00	  548.44	-1743.06	  437.72
     22.8700	  545.00	  548.25	-1732.87	  437.42
     22.9700	  542.00	  548.08	-1735.70	  437.13
     23.0700	  580.00	  547.92	-1697.54	  436.83
     23.1700	  556.00	  547.78	-1721.40	  436.53
     23.2700	  550.00	  547.67	-1727.29	  436.23
     23.3700	  562.00	  547.59	-1715.21	  435.93
     23.4700	  535.00	  547.55	-1742.17	  435.63
     23.5700	  543.00	  547.57	-1734.19	  435.32
     23.6700	  543.00	  547.67	-1734.29	  435.02
     23.7700	  553.00	  547.89	-1724.51	  434.71
     23.8700	  545.00	  548.33	-1732.95	  434.40
     23.9700	  560.00	  549.11	-1718.73	  434.09
     24.0700	  536.00	  550.51	-1744.13	  433.78
     24.1700	  595.00	  552.94	-1687.55	  433.47
     24.2700	  572.00	  556.92	-1714.54	  433.15
     24.3700	  512.00	  563.08	-1780.70	  432.84
     24.4700	  608.00	  571.84	-1693.46	  432.52
     24.5700	  568.00	  583.14	-1744.76	  432.20
     24.6700	  606.00	  595.79	-1719.41	  431.88
     24.7700	  617.00	  606.71	-1719.33	  431.56
     24.8700	  661.00	  610.82	-1679.44	  431.24
     24.9700	  600.00	  603.93	-1733.55	  430.92
     25.0700	  585.00	  588.97	-1733.59	  430.60
     25.1700	  634.00	  573.42	-1669.04	  430.27
     25.2700	  578.00	  561.50	-1713.12	  429.95
     25.3700	  583.00	  553.77	-1700.39	  429.62
     25.4700	  540.00	  549.26	-1738.88	  429.29
     25.5700	  613.00	  546.72	-1663.34	  428.97
     25.6700	  538.00	  545.21	-1736.83	  428.64
     25.7700	  536.00	  544.22	-1737.84	  428.31
     25.8700	  527.00	  543.52	-1746.14	  427.98
     25.9700	  498.00	  543.00	-1774.62	  427.65
     26.0700	  531.00	  542.62	-1741.24	  427.32
     26.1700	  564.00	  542.35	-1707.97	  426.98
     26.2700	  561.00	  542.18	-1710.80	  426.65
     26.3700	  572.00	  542.10	-1699.72	  426.32
     26.4700	  555.00	  542.12	-1716.74	  425.98
     26.5700	  571.00	  542.25	-1700.87	  425.65
     26.6700	  583.00	  542.49	-1689.11	  425.31
     26.7700	  614.00	  542.88	-1658.50	  424.98
     26.8700	  617.00	  543.43	-1656.05	  424.64
     26.9700	  572.00	  544.19	-1701.81	  424.31
     27.0700	  601.00	  545.24	-1673.86	  423.97
     27.1700	  583.00	  546.66	-1693.28	  423.63
     27.2700	  557.00	  548.65	-1721.27	  423.30
     27.3700	  546.00	  551.55	-1735.17	  422.96
     27.4700	  546.00	  556.03	-1739.64	  422.62
     27.5700	  501.00	  563.25	-1791.87	  422.28
     27.6700	  579.00	  575.16	-1725.78	  421.94
     27.7700	  618.00	  594.46	-1706.08	  421.60
     27.8700	  592.00	  623.95	-1761.57	  421.26
     27.9700	  619.00	  664.98	-1775.60	  420.93
     28.0700	  678.00	  715.22	-1766.84	  420.59
     28.1700	  778.00	  766.51	-1718.12	  420.25
     28.2700	  914.00	  803.71	-1619.33	  419.91
     28.3700	  906.00	  809.96	-1633.58	  419.57
     28.4700	  841.00	  786.39	-1675.01	  419.23
     28.5700	  781.00	  759.28	-1707.90	  418.89
     28.6700	  662.00	  751.50	-1819.11	  418.55
     28.7700	  738.00	  767.45	-1759.07	  418.21
     28.8700	  787.00	  796.36	-1738.98	  417.87
     28.9700	  813.00	  816.57	-1733.19	  417.53
     29.0700	  843.00	  804.18	-1690.80	  417.19
     29.1700	  712.00	  754.91	-1772.53	  416.85
     29.2700	  674.00	  691.84	-1747.46	  416.51
     29.3700	  627.00	  637.08	-1739.70	  416.18
     29.4700	  627.00	  598.24	-1700.86	  415.84
     29.5700	  599.00	  574.07	-1704.69	  415.50
     29.6700	  573.00	  560.22	-1716.84	  415.16
     29.7700	  599.00	  552.35	-1682.97	  414.82
     29.8700	  569.00	  547.69	-1708.31	  414.49
     29.9700	  555.00	  544.78	-1719.40	  414.15
     30.0700	  560.00	  543.05	-1712.67	  413.81
     30.1700	  576.00	  542.39	-1696.01	  413.47
     30.2700	  566.00	  543.06	-1706.68	  413.14
     30.3700	  594.00	  545.68	-1681.30	  412.80
     30.4700	  557.00	  551.29	-1723.91	  412.47
     30.5700	  551.00	  561.10	-1739.72	  412.13
     30.6700	  587.00	  575.79	-1718.41	  411.80
     30.7700	  626.00	  594.50	-1698.12	  411.47
     30.8700	  614.00	  613.78	-1729.40	  411.13
     30.9700	  585.00	  627.22	-1771.84	  410.80
     31.0700	  654.00	  627.07	-1702.69	  410.47
     31.1700	  586.00	  611.39	-1755.01	  410.14
     31.2700	  581.00	  588.32	-1736.94	  409.81
     31.3700	  553.00	  566.95	-1743.57	  409.47
     31.4700	  567.00	  551.12	-1713.73	  409.15
     31.5700	  563.00	  540.92	-1707.54	  408.82
     31.6700	  571.00	  534.94	-1693.56	  408.49
     31.7700	  494.00	  531.53	-1767.15	  408.16
     31.8700	  564.00	  529.51	-1695.13	  407.83
     31.9700	  616.00	  528.23	-1641.85	  407.51
     32.0700	  517.00	  527.38	-1740.00	  407.18
     32.1700	  522.00	  526.81	-1734.43	  406.86
     32.2700	  520.00	  526.47	-1736.09	  406.53
     32.3700	  551.00	  526.35	-1704.97	  406.21
     32.4700	  553.00	  526.43	-1703.05	  405.89
     32.5700	  544.00	  526.73	-1712.35	  405.57
     32.6700	  539.00	  527.29	-1717.91	  405.25
     32.7700	  486.00	  528.14	-1771.76	  404.93
     32.8700	  620.00	  529.36	-1638.98	  404.61
     32.9700	  571.00	  531.08	-1689.70	  404.29
     33.0700	  585.00	  533.51	-1678.13	  403.97
     33.1700	  592.00	  537.05	-1674.67	  403.66
     33.2700	  562.00	  542.51	-1710.13	  403.34
     33.3700	  512.00	  551.51	-1769.13	  403.03
     33.4700	  593.00	  566.96	-1703.58	  402.71
     33.5700	  561.00	  593.39	-1762.01	  402.40
     33.6700	  606.00	  636.41	-1760.03	  402.09
     33.7700	  731.00	  700.17	-1698.79	  401.78
     33.8700	  795.00	  782.68	-1717.30	  401.47
     33.9700	  904.00	  871.14	-1696.76	  401.16
     34.0700	 1000.00	  939.86	-1669.48	  400.86
     34.1700	  999.00	  956.05	-1686.67	  400.55
     34.2700	  939.00	  904.88	-1695.50	  400.24
     34.3700	  890.00	  812.83	-1652.45	  399.94
     34.4700	  703.00	  719.27	-1745.89	  399.64
     34.5700	  654.00	  645.35	-1720.97	  399.34
     34.6700	  568.00	  595.26	-1756.87	  399.04
     34.7700	  560.00	  564.77	-1734.39	  398.74
     34.8700	  583.00	  547.27	-1693.89	  398.44
     34.9700	  571.00	  537.11	-1695.73	  398.14
     35.0700	  559.00	  530.75	-1701.37	  397.85
     35.1700	  539.00	  526.34	-1716.96	  397.55
     35.2700	  541.00	  523.02	-1711.64	  397.26
     35.3700	  579.00	  520.40	-1671.02	  396.97
     35.4700	  546.00	  518.26	-1701.88	  396.68
     35.5700	  527.00	  516.93	-1719.55	  396.39
     35.6700	  516.00	  515.43	-1729.05	  396.10
     35.7700	  492.00	  514.15	-1751.77	  395.82
     35.8700	  497.00	  513.03	-1745.65	  395.53
     35.9700	  511.00	  512.05	-1730.67	  395.25
     36.0700	  510.00	  511.18	-1730.80	  394.96
     36.1700	  527.00	  510.40	-1713.02	  394.68
     36.2700	  528.00	  509.72	-1711.34	  394.40
     36.3700	  524.00	  509.09	-1714.71	  394.12
     36.4700	  505.00	  508.52	-1733.14	  393.85
     36.5700	  497.00	  508.00	-1740.62	  393.57
     36.6700	  489.00	  507.54	-1748.16	  393.30
     36.7700	  499.00	  507.14	-1737.76	  393.02
     36.8700	  510.00	  506.82	-1726.44	  392.75
     36.9700	  497.00	  506.59	-1739.21	  392.48
     37.0700	  506.00	  506.54	-1730.16	  392.21
     37.1700	  469.00	  506.77	-1767.39	  391.95
     37.2700	  514.00	  507.44	-1723.06	  391.68
     37.3700	  547.00	  508.74	-1691.36	  391.42
     37.4700	  509.00	  510.73	-1731.35	  391.15
     37.5700	  484.00	  513.28	-1758.90	  390.89
     37.6700	  536.00	  515.85	-1709.47	  390.63
     37.7700	  533.00	  517.53	-1714.15	  390.38
     37.8700	  494.00	  517.39	-1753.01	  390.12
     37.9700	  476.00	  515.34	-1768.96	  389.86
     38.0700	  535.00	  512.47	-1707.09	  389.61
     38.1700	  476.00	  509.39	-1763.01	  389.36
     38.2700	  502.00	  506.71	-1734.33	  389.11
     38.3700	  502.00	  504.62	-1732.24	  388.86
     38.4700	  469.00	  503.10	-1763.72	  388.61
     38.5700	  516.00	  502.03	-1715.65	  388.37
     38.6700	  497.00	  501.27	-1733.89	  388.12
     38.7700	  474.00	  500.71	-1756.33	  387.88
     38.8700	  498.00	  500.26	-1731.88	  387.64
     38.9700	  481.00	  499.88	-1748.50	  387.40
     39.0700	  552.00	  499.55	-1677.17	  387.16
     39.1700	  469.00	  499.24	-1759.86	  386.92
     39.2700	  499.00	  498.87	-1729.49	  386.69
     39.3700	  518.00	  498.60	-1710.22	  386.46
     39.4700	  506.00	  498.36	-1721.98	  386.23
     39.5700	  512.00	  498.12	-1715.74	  386.00
     39.6700	  494.00	  497.90	-1733.52	  385.77
     39.7700	  484.00	  497.69	-1743.31	  385.54
     39.8700	  509.00	  497.49	-1718.11	  385.32
     39.9700	  496.00	  497.30	-1730.92	  385.09
     40.0700	  498.00	  497.13	-1728.75	  384.87
     40.1700	  483.00	  496.87	-1743.49	  384.65
     40.2700	  524.00	  496.72	-1702.34	  384.43
     40.3700	  490.00	  496.59	-1736.21	  384.22
     40.4700	  479.00	  496.47	-1747.09	  384.00
     40.5700	  526.00	  496.88	-1700.50	  383.79
     40.6700	  470.00	  496.80	-1756.42	  383.58
     40.7700	  495.00	  496.75	-1731.36	  383.37
