MSG Master    CELL:    5.87549   5.87549  23.07289   90.0000   90.0000  120.0000   SPGR: P 63/m m c             TEMP:    441.35
  2   1280     2.52000     0.00000    -0.08732     0.00000     0.00000    0
    95    95     0     0     2
       0.00000      10.00000
     125.00000     130.00000
 2Theta	Yobs	Ycal	Yobs-Ycal	Backg	Posr	(hkl)	K
      0.7700	    0.00	 1006.26	-2340.75	  863.70
      0.8700	    0.00	 1002.85	-2340.75	  860.29
      0.9700	   55.00	  999.47	-2340.75	  856.91
      1.0700	   48.00	  996.11	-2340.75	  853.54
      1.1700	   43.00	  992.76	-2340.75	  850.20
      1.2700	   46.00	  989.44	-2340.75	  846.88
      1.3700	   33.00	  986.14	-2340.75	  843.58
      1.4700	   91.00	  982.86	-2340.75	  840.30
      1.5700	  287.00	  979.60	-2340.75	  837.04
      1.6700	  477.00	  976.37	-2340.75	  833.80
      1.7700	  596.00	  973.15	-2340.75	  830.59
      1.8700	  634.00	  969.95	-2340.75	  827.39
      1.9700	  760.00	  966.78	-2340.75	  824.21
      2.0700	  732.00	  963.62	-2340.75	  821.06
      2.1700	  778.00	  960.48	-2340.75	  817.92
      2.2700	  815.00	  957.37	-2340.75	  814.81
      2.3700	  767.00	  954.27	-2340.75	  811.71
      2.4700	  752.00	  951.20	-2340.75	  808.64
      2.5700	  654.00	  948.14	-2340.75	  805.58
      2.6700	  670.00	  945.11	-2340.75	  802.55
      2.7700	  664.00	  942.09	-2340.75	  799.53
      2.8700	  672.00	  939.10	-2340.75	  796.54
      2.9700	  613.00	  936.12	-2340.75	  793.56
      3.0700	  630.00	  933.17	-2340.75	  790.61
      3.1700	  679.00	  930.23	-2340.75	  787.67
      3.2700	  744.00	  927.31	-2340.75	  784.75
      3.3700	  925.00	  924.42	-2340.75	  781.85
      3.4700	 1028.00	  921.54	-2340.75	  778.97
      3.5700	 1208.00	  918.68	-2340.75	  776.11
      3.6700	 1344.00	  915.84	-2340.75	  773.27
      3.7700	 1426.00	  913.01	-2340.75	  770.45
      3.8700	 1518.00	  910.21	-2340.75	  767.65
      3.9700	 1606.00	  907.43	-2340.75	  764.87
      4.0700	 1660.00	  904.66	-2340.75	  762.10
      4.1700	 1601.00	  901.92	-2340.75	  759.35
      4.2700	 1675.00	  899.19	-2340.75	  756.63
      4.3700	 1740.00	  896.48	-2340.75	  753.92
      4.4700	 1597.00	  893.79	-2340.75	  751.23
      4.5700	 1658.00	  891.12	-2340.75	  748.55
      4.6700	 1481.00	  888.46	-2340.75	  745.90
      4.7700	 1497.00	  885.82	-2340.75	  743.26
      4.8700	 1449.00	  883.21	-2340.75	  740.64
      4.9700	 1468.00	  880.61	-2340.75	  738.04
      5.0700	 1472.00	  878.02	-2340.75	  735.46
      5.1700	 1245.00	  875.46	-2340.75	  732.90
      5.2700	 1299.00	  872.91	-2340.75	  730.35
      5.3700	 1261.00	  870.38	-2340.75	  727.82
      5.4700	 1259.00	  867.87	-2340.75	  725.31
      5.5700	 1213.00	  865.38	-2340.75	  722.82
      5.6700	 1195.00	  862.90	-2340.75	  720.34
      5.7700	 1125.00	  860.44	-2340.75	  717.88
      5.8700	 1143.00	  858.00	-2340.75	  715.44
      5.9700	 1096.00	  855.58	-2340.75	  713.02
      6.0700	 1099.00	  853.17	-2340.75	  710.61
      6.1700	 1086.00	  850.78	-2340.75	  708.22
      6.2700	 1039.00	  848.41	-2340.75	  705.84
      6.3700	 1019.00	  846.05	-2340.75	  703.49
      6.4700	 1068.00	  843.71	-2340.75	  701.15
      6.5700	 1025.00	  841.39	-2340.75	  698.83
      6.6700	 1051.00	  839.08	-2340.75	  696.52
      6.7700	 1020.00	  836.79	-2340.75	  694.23
      6.8700	  974.00	  834.52	-2340.75	  691.96
      6.9700	  973.00	  832.26	-2340.75	  689.70
      7.0700	  967.00	  830.02	-2340.75	  687.46
      7.1700	  931.00	  827.80	-2340.75	  685.24
      7.2700	  997.00	  825.59	-2340.75	  683.03
      7.3700	  929.00	  823.40	-2340.75	  680.84
      7.4700	  888.00	  821.22	-2340.75	  678.66
      7.5700	  888.00	  819.06	-2340.75	  676.50
      7.6700	  876.00	  816.92	-2340.75	  674.36
      7.7700	  863.00	  814.79	-2340.75	  672.23
      7.8700	  915.00	  812.68	-2340.75	  670.12
      7.9700	  880.00	  810.58	-2340.75	  668.02
      8.0700	  863.00	  808.50	-2340.75	  665.94
      8.1700	  867.00	  806.44	-2340.75	  663.88
      8.2700	  807.00	  804.39	-2340.75	  661.83
      8.3700	  816.00	  802.36	-2340.75	  659.79
      8.4700	  778.00	  800.34	-2340.75	  657.77
      8.5700	  815.00	  798.33	-2340.75	  655.77
      8.6700	  807.00	  796.34	-2340.75	  653.78
      8.7700	  787.00	  794.37	-2340.75	  651.81
      8.8700	  789.00	  792.41	-2340.75	  649.85
      8.9700	  805.00	  790.47	-2340.75	  647.91
      9.0700	  793.00	  788.54	-2340.75	  645.98
      9.1700	  780.00	  786.63	-2340.75	  644.06
      9.2700	  799.00	  784.73	-2340.75	  642.17
      9.3700	  807.00	  782.84	-2340.75	  640.28
      9.4700	  853.00	  780.97	-2340.75	  638.41
      9.5700	  768.00	  779.12	-2340.75	  636.56
      9.6700	  770.00	  777.28	-2340.75	  634.72
      9.7700	  750.00	  775.45	-2340.75	  632.89
      9.8700	  733.00	  773.64	-2340.75	  631.08
      9.9700	  711.00	  771.84	-2340.75	  629.28
     10.0700	  814.00	  772.11	-2298.86	  627.50
     10.1700	  713.00	  770.57	-2398.32	  625.73
     10.2700	  782.00	  769.08	-2327.83	  623.97
     10.3700	  767.00	  767.66	-2341.41	  622.23
     10.4700	  724.00	  766.33	-2383.08	  620.50
     10.5700	  752.00	  765.14	-2353.89	  618.79
     10.6700	  817.00	  764.14	-2287.89	  617.09
     10.7700	  766.00	  763.39	-2338.14	  615.40
     10.8700	  722.00	  763.01	-2381.76	  613.73
     10.9700	  815.00	  763.07	-2288.82	  612.07
     11.0700	  761.00	  763.63	-2343.38	  610.43
     11.1700	  767.00	  764.73	-2338.48	  608.80
     11.2700	  801.00	  766.37	-2306.12	  607.18
     11.3700	  765.00	  768.59	-2344.34	  605.57
     11.4700	  741.00	  771.49	-2371.24	  603.98
     11.5700	  790.00	  775.19	-2325.94	  602.40
     11.6700	  760.00	  779.91	-2360.66	  600.83
     11.7700	  770.00	  785.92	-2356.67	  599.28
     11.8700	  801.00	  793.50	-2333.25	  597.74
     11.9700	  831.00	  802.76	-2312.51	  596.22
     12.0700	  851.00	  813.28	-2303.03	  594.70
     12.1700	  900.00	  823.56	-2264.31	  593.20
     12.2700	  907.00	  830.56	-2264.31	  591.71
     12.3700	  875.00	  829.67	-2295.42	  590.23
     12.4700	  878.00	  817.68	-2280.43	  588.77
     12.5700	  822.00	  797.90	-2316.65	  587.32
     12.6700	  774.00	  777.64	-2344.39	  585.88
     12.7700	  717.00	  761.14	-2384.89	  584.46
     12.8700	  689.00	  749.13	-2400.88	  583.04
     12.9700	  720.00	  740.84	-2361.59	  581.64
     13.0700	  696.00	  735.11	-2379.86	  580.25
     13.1700	  759.00	  730.97	-2312.72	  578.87
     13.2700	  717.00	  727.77	-2351.52	  577.51
     13.3700	  688.00	  725.10	-2377.85	  576.15
     13.4700	  661.00	  722.78	-2402.53	  574.81
     13.5700	  683.00	  720.69	-2378.44	  573.48
     13.6700	  712.00	  718.76	-2347.51	  572.16
     13.7700	  714.00	  716.96	-2343.71	  570.86
     13.8700	  701.00	  715.26	-2355.01	  569.56
     13.9700	  741.00	  713.64	-2313.39	  568.28
     14.0700	  689.00	  712.09	-2363.84	  567.01
     14.1700	  754.00	  710.59	-2297.34	  565.75
     14.2700	  710.00	  709.13	-2339.88	  564.50
     14.3700	  691.00	  707.72	-2357.47	  563.26
     14.4700	  686.00	  706.34	-2361.09	  562.04
     14.5700	  730.00	  704.99	-2315.74	  560.82
     14.6700	  696.00	  703.67	-2348.42	  559.62
     14.7700	  688.00	  702.37	-2355.12	  558.43
     14.8700	  672.00	  701.10	-2369.85	  557.25
     14.9700	  721.00	  699.84	-2319.59	  556.08
     15.0700	  683.00	  698.61	-2356.36	  554.92
     15.1700	  689.00	  697.40	-2349.15	  553.77
     15.2700	  644.00	  696.20	-2392.95	  552.63
     15.3700	  692.00	  695.02	-2343.77	  551.50
     15.4700	  711.00	  693.85	-2323.60	  550.39
     15.5700	  682.00	  692.70	-2351.45	  549.28
     15.6700	  676.00	  691.57	-2356.32	  548.19
     15.7700	  681.00	  690.45	-2350.20	  547.10
     15.8700	  644.00	  689.34	-2386.09	  546.03
     15.9700	  716.00	  688.24	-2312.99	  544.97
     16.0700	  723.00	  687.16	-2304.91	  543.91
     16.1700	  692.00	  686.09	-2334.84	  542.87
     16.2700	  694.00	  685.03	-2331.78	  541.84
     16.3700	  668.00	  683.99	-2356.74	  540.81
     16.4700	  696.00	  682.96	-2327.71	  539.80
     16.5700	  662.00	  681.93	-2360.68	  538.80
     16.6700	  681.00	  680.92	-2340.67	  537.81
     16.7700	  678.00	  679.92	-2342.68	  536.82
     16.8700	  657.00	  678.94	-2362.69	  535.85
     16.9700	  693.00	  677.96	-2325.71	  534.89
     17.0700	  685.00	  676.99	-2332.74	  533.93
     17.1700	  681.00	  676.04	-2335.79	  532.99
     17.2700	  670.00	  675.09	-2345.84	  532.06
     17.3700	  720.00	  674.16	-2294.91	  531.13
     17.4700	  657.00	  673.23	-2356.98	  530.22
     17.5700	  688.00	  672.32	-2325.07	  529.31
     17.6700	  699.00	  671.42	-2313.17	  528.42
     17.7700	  701.00	  670.52	-2310.27	  527.53
     17.8700	  703.00	  669.64	-2307.39	  526.65
     17.9700	  680.00	  668.76	-2329.51	  525.78
     18.0700	  690.00	  667.90	-2318.65	  524.92
     18.1700	  623.00	  667.04	-2384.79	  524.07
     18.2700	  691.00	  666.20	-2315.95	  523.23
     18.3700	  675.00	  665.36	-2331.11	  522.40
     18.4700	  700.00	  664.54	-2305.29	  521.58
     18.5700	  637.00	  663.72	-2367.47	  520.77
     18.6700	  736.00	  662.91	-2267.66	  519.96
     18.7700	  648.00	  662.11	-2354.86	  519.17
     18.8700	  714.00	  661.32	-2288.07	  518.38
     18.9700	  671.00	  660.54	-2330.29	  517.60
     19.0700	  731.00	  659.77	-2269.52	  516.83
     19.1700	  676.00	  662.56	-2327.31	  516.07
     19.2700	  633.00	  661.88	-2369.63	  515.31
     19.3700	  673.00	  661.21	-2328.96	  514.57
     19.4700	  611.00	  660.56	-2390.31	  513.83
     19.5700	  712.00	  659.92	-2288.67	  513.11
     19.6700	  631.00	  659.28	-2369.03	  512.39
     19.7700	  630.00	  658.66	-2369.41	  511.68
     19.8700	  663.00	  658.06	-2335.81	  510.97
     19.9700	  680.00	  657.46	-2318.21	  510.28
     20.0700	  663.00	  656.87	-2334.62	  509.59
     20.1700	  634.00	  656.30	-2363.05	  508.91
     20.2700	  657.00	  655.79	-2339.54	  508.24
     20.3700	  628.00	  655.25	-2368.00	  507.58
     20.4700	  667.00	  654.71	-2328.46	  506.93
     20.5700	  647.00	  654.19	-2347.94	  506.28
     20.6700	  680.00	  653.68	-2314.43	  505.64
     20.7700	  657.00	  653.18	-2336.94	  505.01
     20.8700	  660.00	  652.70	-2333.45	  504.39
     20.9700	  625.00	  652.23	-2367.98	  503.77
     21.0700	  653.00	  651.78	-2339.53	  503.16
     21.1700	  620.00	  651.34	-2372.09	  502.56
     21.2700	  662.00	  650.92	-2329.67	  501.97
     21.3700	  634.00	  650.51	-2357.26	  501.39
     21.4700	  676.00	  650.11	-2314.86	  500.81
     21.5700	  626.00	  649.73	-2364.48	  500.24
     21.6700	  613.00	  649.37	-2377.12	  499.67
     21.7700	  655.00	  649.03	-2334.78	  499.12
     21.8700	  618.00	  648.70	-2371.45	  498.57
     21.9700	  696.00	  648.40	-2293.15	  498.03
     22.0700	  686.00	  648.11	-2302.86	  497.49
     22.1700	  634.00	  647.84	-2354.59	  496.96
     22.2700	  634.00	  647.60	-2354.35	  496.44
     22.3700	  674.00	  647.37	-2314.12	  495.93
     22.4700	  641.00	  647.39	-2347.14	  495.42
     22.5700	  694.00	  647.22	-2293.97	  494.92
     22.6700	  648.00	  647.07	-2339.82	  494.43
     22.7700	  624.00	  646.96	-2363.71	  493.95
     22.8700	  638.00	  646.88	-2349.63	  493.47
     22.9700	  660.00	  646.84	-2327.59	  492.99
     23.0700	  643.00	  646.84	-2344.59	  492.53
     23.1700	  682.00	  646.88	-2305.63	  492.07
     23.2700	  669.00	  646.97	-2318.72	  491.61
     23.3700	  613.00	  647.11	-2374.86	  491.17
     23.4700	  618.00	  647.32	-2370.07	  490.73
     23.5700	  641.00	  647.60	-2347.35	  490.29
     23.6700	  698.00	  647.98	-2290.73	  489.87
     23.7700	  688.00	  648.47	-2301.22	  489.45
     23.8700	  662.00	  649.12	-2327.87	  489.03
     23.9700	  633.00	  649.98	-2357.73	  488.62
     24.0700	  658.00	  651.14	-2333.89	  488.22
     24.1700	  682.00	  652.77	-2311.52	  487.83
     24.2700	  663.00	  655.11	-2332.86	  487.44
     24.3700	  671.00	  658.51	-2328.26	  487.05
     24.4700	  695.00	  663.33	-2309.08	  486.67
     24.5700	  714.00	  670.03	-2296.78	  486.30
     24.6700	  689.00	  678.67	-2330.42	  485.94
     24.7700	  676.00	  688.86	-2353.61	  485.58
     24.8700	  722.00	  699.45	-2318.20	  485.22
     24.9700	  676.00	  708.18	-2372.93	  484.87
     25.0700	  706.00	  711.74	-2346.49	  484.53
     25.1700	  779.00	  707.84	-2269.59	  484.19
     25.2700	  772.00	  698.42	-2267.17	  483.86
     25.3700	  699.00	  688.10	-2329.85	  483.54
     25.4700	  726.00	  679.93	-2294.68	  483.22
     25.5700	  653.00	  674.55	-2362.30	  482.90
     25.6700	  678.00	  671.75	-2334.50	  482.59
     25.7700	  719.00	  670.90	-2292.65	  482.29
     25.8700	  683.00	  671.45	-2329.20	  481.99
     25.9700	  668.00	  672.97	-2345.72	  481.70
     26.0700	  701.00	  675.24	-2314.99	  481.41
     26.1700	  649.00	  678.16	-2369.91	  481.13
     26.2700	  680.00	  681.73	-2342.48	  480.85
     26.3700	  656.00	  686.00	-2370.75	  480.58
     26.4700	  663.00	  691.04	-2368.79	  480.31
     26.5700	  691.00	  696.99	-2346.74	  480.05
     26.6700	  720.00	  704.01	-2324.76	  479.79
     26.7700	  687.00	  712.33	-2366.08	  479.54
     26.8700	  697.00	  722.24	-2365.99	  479.30
     26.9700	  721.00	  734.14	-2353.89	  479.05
     27.0700	  702.00	  748.58	-2387.33	  478.82
     27.1700	  728.00	  766.30	-2379.05	  478.59
     27.2700	  729.00	  788.38	-2400.13	  478.36
     27.3700	  732.00	  816.52	-2425.27	  478.14
     27.4700	  824.00	  853.70	-2370.45	  477.92
     27.5700	  819.00	  906.19	-2427.94	  477.71
     27.6700	  882.00	  987.96	-2446.71	  477.50
     27.7700	  935.00	 1128.44	-2534.19	  477.30
     27.8700	 1089.00	 1382.62	-2634.37	  477.10
     27.9700	 1358.00	 1838.33	-2821.08	  476.90
     28.0700	 2082.00	 2608.19	-2866.94	  476.71
     28.1700	 3309.00	 3786.76	-2818.51	  476.53
     28.2700	 5405.00	 5356.49	-2292.24	  476.35
     28.3700	 7805.00	 7045.75	-1581.50	  476.17
     28.4700	 9363.00	 8243.54	-1221.29	  476.00
     28.5700	 8875.00	 8212.38	-1678.13	  475.83
     28.6700	 7053.00	 6921.89	-2209.64	  475.67
     28.7700	 5079.00	 5380.28	-2642.03	  475.51
     28.8700	 4228.00	 4439.41	-2552.16	  475.35
     28.9700	 4171.00	 4280.28	-2450.03	  475.20
     29.0700	 4963.00	 4620.49	-1998.24	  475.05
     29.1700	 5327.00	 4957.06	-1970.81	  474.91
     29.2700	 5038.00	 4790.46	-2093.21	  474.77
     29.3700	 3983.00	 3998.74	-2356.49	  474.64
     29.4700	 2833.00	 2978.45	-2486.20	  474.51
     29.5700	 1904.00	 2116.36	-2553.11	  474.38
     29.6700	 1339.00	 1536.60	-2538.35	  474.26
     29.7700	 1238.00	 1201.75	-2304.50	  474.14
     29.8700	  996.00	 1023.27	-2368.02	  474.02
     29.9700	  930.00	  926.20	-2336.95	  473.91
     30.0700	  904.00	  867.36	-2304.11	  473.80
     30.1700	  834.00	  827.15	-2333.90	  473.70
     30.2700	  800.00	  797.62	-2338.37	  473.60
     30.3700	  749.00	  775.42	-2367.17	  473.50
     30.4700	  785.00	  759.13	-2314.88	  473.41
     30.5700	  793.00	  748.44	-2296.19	  473.32
     30.6700	  703.00	  743.94	-2381.69	  473.24
     30.7700	  779.00	  746.85	-2308.60	  473.15
     30.8700	  775.00	  758.11	-2323.86	  473.08
     30.9700	  758.00	  776.86	-2359.61	  473.00
     31.0700	  828.00	  798.83	-2311.58	  472.93
     31.1700	  813.00	  815.48	-2343.23	  472.86
     31.2700	  863.00	  815.47	-2293.22	  472.79
     31.3700	  742.00	  793.37	-2392.12	  472.73
     31.4700	  774.00	  758.64	-2325.39	  472.67
     31.5700	  754.00	  725.04	-2311.79	  472.62
     31.6700	  687.00	  699.25	-2353.00	  472.57
     31.7700	  736.00	  681.99	-2286.74	  472.52
     31.8700	  719.00	  671.29	-2293.04	  472.47
     31.9700	  664.00	  664.71	-2341.46	  472.43
     32.0700	  707.00	  660.41	-2294.16	  472.39
     32.1700	  657.00	  657.36	-2341.11	  472.35
     32.2700	  651.00	  655.07	-2344.82	  472.32
     32.3700	  665.00	  653.30	-2329.05	  472.29
     32.4700	  698.00	  651.97	-2294.72	  472.26
     32.5700	  687.00	  651.03	-2304.78	  472.24
     32.6700	  677.00	  650.45	-2314.20	  472.22
     32.7700	  675.00	  650.25	-2316.00	  472.20
     32.8700	  727.00	  650.48	-2264.23	  472.18
     32.9700	  661.00	  651.13	-2330.88	  472.17
     33.0700	  691.00	  652.31	-2302.06	  472.16
     33.1700	  720.00	  654.16	-2274.91	  472.15
     33.2700	  662.00	  656.92	-2335.67	  472.14
     33.3700	  623.00	  661.00	-2378.75	  472.14
     33.4700	  686.00	  667.28	-2322.03	  472.14
     33.5700	  720.00	  677.42	-2298.17	  472.15
     33.6700	  719.00	  694.48	-2316.23	  472.15
     33.7700	  734.00	  723.40	-2330.15	  472.16
     33.8700	  736.00	  770.73	-2375.48	  472.17
     33.9700	  912.00	  842.57	-2271.32	  472.18
     34.0700	 1000.00	  939.80	-2280.55	  472.20
     34.1700	 1161.00	 1052.07	-2231.82	  472.21
     34.2700	 1195.00	 1153.79	-2299.54	  472.23
     34.3700	 1358.00	 1205.92	-2188.67	  472.26
     34.4700	 1278.00	 1176.00	-2238.75	  472.28
     34.5700	 1275.00	 1075.82	-2141.57	  472.31
     34.6700	  956.00	  953.84	-2338.59	  472.34
     34.7700	  867.00	  847.25	-2321.00	  472.37
     34.8700	  761.00	  769.27	-2349.02	  472.40
     34.9700	  690.00	  718.69	-2369.44	  472.44
     35.0700	  750.00	  688.42	-2279.17	  472.48
     35.1700	  694.00	  670.81	-2317.56	  472.52
     35.2700	  706.00	  660.21	-2294.96	  472.56
     35.3700	  693.00	  653.29	-2301.04	  472.61
     35.4700	  678.00	  648.38	-2311.13	  472.65
     35.5700	  619.00	  644.72	-2366.47	  472.70
     35.6700	  654.00	  641.83	-2328.58	  472.75
     35.7700	  683.00	  639.52	-2297.27	  472.80
     35.8700	  671.00	  637.67	-2307.42	  472.86
     35.9700	  655.00	  636.17	-2321.92	  472.91
     36.0700	  637.00	  634.96	-2338.71	  472.97
     36.1700	  585.00	  633.98	-2389.73	  473.03
     36.2700	  621.00	  633.21	-2352.96	  473.09
     36.3700	  716.00	  632.62	-2257.37	  473.16
     36.4700	  624.00	  632.18	-2348.93	  473.22
     36.5700	  629.00	  631.90	-2343.65	  473.29
     36.6700	  638.00	  631.77	-2334.52	  473.36
     36.7700	  600.00	  631.79	-2372.54	  473.43
     36.8700	  692.00	  631.99	-2280.74	  473.50
     36.9700	  596.00	  632.37	-2377.12	  473.58
     37.0700	  640.00	  633.19	-2333.94	  473.65
     37.1700	  669.00	  634.13	-2305.88	  473.73
     37.2700	  609.00	  636.02	-2367.77	  473.81
     37.3700	  695.00	  638.05	-2283.80	  473.89
     37.4700	  588.00	  641.13	-2393.88	  473.97
     37.5700	  643.00	  645.87	-2343.62	  474.05
     37.6700	  699.00	  653.38	-2295.13	  474.14
     37.7700	  712.00	  665.09	-2293.84	  474.22
     37.8700	  656.00	  682.69	-2367.44	  474.31
     37.9700	  685.00	  707.45	-2363.20	  474.40
     38.0700	  737.00	  737.00	-2340.75	  474.49
     38.1700	  774.00	  772.33	-2339.08	  474.58
     38.2700	  763.00	  804.44	-2382.19	  474.67
     38.3700	  852.00	  822.90	-2311.65	  474.77
     38.4700	  781.00	  817.91	-2377.66	  474.86
     38.5700	  783.00	  790.05	-2347.80	  474.96
     38.6700	  699.00	  751.62	-2393.37	  475.06
     38.7700	  743.00	  714.78	-2312.53	  475.16
     38.8700	  682.00	  685.44	-2344.19	  475.26
     38.9700	  664.00	  664.71	-2341.46	  475.36
     39.0700	  662.00	  651.31	-2330.06	  475.46
     39.1700	  676.00	  643.11	-2307.86	  475.56
     39.2700	  608.00	  638.16	-2370.91	  475.67
     39.3700	  598.00	  635.06	-2377.81	  475.77
     39.4700	  613.00	  632.99	-2360.74	  475.88
     39.5700	  604.00	  630.23	-2366.98	  475.99
     39.6700	  641.00	  629.14	-2328.89	  476.10
     39.7700	  662.00	  628.30	-2307.05	  476.21
     39.8700	  678.00	  627.65	-2290.40	  476.32
     39.9700	  629.00	  627.15	-2338.90	  476.43
     40.0700	  616.00	  626.76	-2351.51	  476.54
     40.1700	  618.00	  626.47	-2349.22	  476.65
     40.2700	  642.00	  626.25	-2325.00	  476.77
     40.3700	  670.00	  626.10	-2296.85	  476.88
     40.4700	  660.00	  626.01	-2306.76	  477.00
     40.5700	  622.00	  625.97	-2344.72	  477.12
     40.6700	  627.00	  625.97	-2339.72	  477.23
     40.7700	  619.00	  626.01	-2347.76	  477.35
