MSG Master    CELL:    5.91459   5.91459  23.24396   90.0000   90.0000  120.0000   SPGR: P 63/m m c             TEMP:    992.55
  1   1280     2.52000     0.00000    -0.12694     0.00000     0.00000    0
    99     0     2
       0.00000      10.00000
     125.00000     130.00000
 2Theta	Yobs	Ycal	Yobs-Ycal	Backg	Posr	(hkl)	K
      0.7700	    0.00	  518.13	-1790.00	  404.10
      0.8700	    0.00	  519.12	-1790.00	  405.10
      0.9700	   59.00	  520.10	-1790.00	  406.07
      1.0700	   34.00	  521.06	-1790.00	  407.04
      1.1700	   48.00	  522.02	-1790.00	  407.99
      1.2700	   40.00	  522.96	-1790.00	  408.93
      1.3700	   51.00	  523.88	-1790.00	  409.86
      1.4700	   96.00	  524.80	-1790.00	  410.78
      1.5700	  296.00	  525.70	-1790.00	  411.68
      1.6700	  465.00	  526.59	-1790.00	  412.57
      1.7700	  593.00	  527.47	-1790.00	  413.45
      1.8700	  671.00	  528.34	-1790.00	  414.32
      1.9700	  686.00	  529.19	-1790.00	  415.17
      2.0700	  781.00	  530.03	-1790.00	  416.01
      2.1700	  846.00	  530.86	-1790.00	  416.84
      2.2700	  792.00	  531.68	-1790.00	  417.66
      2.3700	  700.00	  532.49	-1790.00	  418.47
      2.4700	  708.00	  533.28	-1790.00	  419.26
      2.5700	  704.00	  534.07	-1790.00	  420.04
      2.6700	  692.00	  534.84	-1790.00	  420.82
      2.7700	  692.00	  535.60	-1790.00	  421.58
      2.8700	  678.00	  536.35	-1790.00	  422.32
      2.9700	  604.00	  537.08	-1790.00	  423.06
      3.0700	  600.00	  537.81	-1790.00	  423.79
      3.1700	  605.00	  538.52	-1790.00	  424.50
      3.2700	  597.00	  539.23	-1790.00	  425.21
      3.3700	  718.00	  539.92	-1790.00	  425.90
      3.4700	  715.00	  540.60	-1790.00	  426.58
      3.5700	  782.00	  541.27	-1790.00	  427.25
      3.6700	  837.00	  541.93	-1790.00	  427.91
      3.7700	  878.00	  542.58	-1790.00	  428.56
      3.8700	  935.00	  543.22	-1790.00	  429.20
      3.9700	  987.00	  543.85	-1790.00	  429.83
      4.0700	 1082.00	  544.47	-1790.00	  430.45
      4.1700	 1117.00	  545.08	-1790.00	  431.05
      4.2700	 1088.00	  545.67	-1790.00	  431.65
      4.3700	 1044.00	  546.26	-1790.00	  432.24
      4.4700	 1156.00	  546.84	-1790.00	  432.82
      4.5700	 1122.00	  547.40	-1790.00	  433.38
      4.6700	 1027.00	  547.96	-1790.00	  433.94
      4.7700	 1001.00	  548.51	-1790.00	  434.49
      4.8700	  922.00	  549.04	-1790.00	  435.02
      4.9700	  947.00	  549.57	-1790.00	  435.55
      5.0700	  910.00	  550.09	-1790.00	  436.07
      5.1700	  923.00	  550.60	-1790.00	  436.57
      5.2700	  887.00	  551.09	-1790.00	  437.07
      5.3700	  877.00	  551.58	-1790.00	  437.56
      5.4700	  854.00	  552.06	-1790.00	  438.04
      5.5700	  871.00	  552.53	-1790.00	  438.51
      5.6700	  825.00	  552.99	-1790.00	  438.97
      5.7700	  815.00	  553.44	-1790.00	  439.42
      5.8700	  834.00	  553.88	-1790.00	  439.86
      5.9700	  847.00	  554.32	-1790.00	  440.30
      6.0700	  782.00	  554.74	-1790.00	  440.72
      6.1700	  774.00	  555.16	-1790.00	  441.14
      6.2700	  763.00	  555.56	-1790.00	  441.54
      6.3700	  813.00	  555.96	-1790.00	  441.94
      6.4700	  765.00	  556.35	-1790.00	  442.33
      6.5700	  724.00	  556.73	-1790.00	  442.71
      6.6700	  713.00	  557.10	-1790.00	  443.08
      6.7700	  692.00	  557.46	-1790.00	  443.44
      6.8700	  708.00	  557.82	-1790.00	  443.79
      6.9700	  715.00	  558.16	-1790.00	  444.14
      7.0700	  705.00	  558.50	-1790.00	  444.48
      7.1700	  717.00	  558.83	-1790.00	  444.81
      7.2700	  682.00	  559.15	-1790.00	  445.13
      7.3700	  696.00	  559.46	-1790.00	  445.44
      7.4700	  646.00	  559.77	-1790.00	  445.74
      7.5700	  652.00	  560.06	-1790.00	  446.04
      7.6700	  645.00	  560.35	-1790.00	  446.33
      7.7700	  670.00	  560.63	-1790.00	  446.61
      7.8700	  616.00	  560.90	-1790.00	  446.88
      7.9700	  645.00	  561.17	-1790.00	  447.15
      8.0700	  652.00	  561.43	-1790.00	  447.41
      8.1700	  618.00	  561.68	-1790.00	  447.65
      8.2700	  604.00	  561.92	-1790.00	  447.90
      8.3700	  639.00	  562.15	-1790.00	  448.13
      8.4700	  640.00	  562.38	-1790.00	  448.36
      8.5700	  605.00	  562.60	-1790.00	  448.58
      8.6700	  632.00	  562.81	-1790.00	  448.79
      8.7700	  603.00	  563.02	-1790.00	  449.00
      8.8700	  616.00	  563.22	-1790.00	  449.19
      8.9700	  602.00	  563.41	-1790.00	  449.39
      9.0700	  611.00	  563.59	-1790.00	  449.57
      9.1700	  589.00	  563.77	-1790.00	  449.75
      9.2700	  634.00	  563.94	-1790.00	  449.92
      9.3700	  590.00	  564.10	-1790.00	  450.08
      9.4700	  595.00	  564.26	-1790.00	  450.24
      9.5700	  583.00	  564.41	-1790.00	  450.39
      9.6700	  562.00	  564.55	-1790.00	  450.53
      9.7700	  579.00	  564.69	-1790.00	  450.66
      9.8700	  634.00	  564.82	-1790.00	  450.79
      9.9700	  626.00	  564.94	-1790.00	  450.92
     10.0700	  612.00	  565.84	-1743.84	  451.03
     10.1700	  590.00	  566.02	-1766.02	  451.14
     10.2700	  582.00	  566.21	-1774.21	  451.25
     10.3700	  560.00	  566.42	-1796.42	  451.34
     10.4700	  586.00	  566.66	-1770.66	  451.44
     10.5700	  609.00	  566.99	-1747.99	  451.52
     10.6700	  603.00	  567.48	-1754.48	  451.60
     10.7700	  539.00	  568.23	-1819.23	  451.67
     10.8700	  583.00	  569.31	-1776.31	  451.74
     10.9700	  606.00	  570.73	-1754.73	  451.80
     11.0700	  605.00	  572.46	-1757.46	  451.86
     11.1700	  636.00	  574.48	-1728.48	  451.90
     11.2700	  539.00	  576.81	-1827.81	  451.95
     11.3700	  540.00	  579.53	-1829.53	  451.99
     11.4700	  590.00	  582.73	-1782.73	  452.02
     11.5700	  541.00	  586.59	-1835.59	  452.04
     11.6700	  585.00	  591.38	-1796.38	  452.06
     11.7700	  560.00	  597.59	-1827.59	  452.08
     11.8700	  636.00	  606.04	-1760.04	  452.09
     11.9700	  684.00	  617.45	-1723.45	  452.09
     12.0700	  671.00	  630.97	-1749.97	  452.09
     12.1700	  684.00	  641.76	-1747.76	  452.09
     12.2700	  645.00	  641.19	-1786.19	  452.08
     12.3700	  642.00	  624.81	-1772.81	  452.06
     12.4700	  621.00	  602.41	-1771.41	  452.04
     12.5700	  588.00	  585.26	-1787.26	  452.01
     12.6700	  599.00	  575.79	-1766.79	  451.98
     12.7700	  569.00	  571.54	-1792.54	  451.94
     12.8700	  584.00	  569.72	-1775.72	  451.90
     12.9700	  563.00	  568.78	-1795.78	  451.85
     13.0700	  584.00	  568.18	-1774.18	  451.80
     13.1700	  514.00	  567.73	-1843.73	  451.75
     13.2700	  522.00	  567.38	-1835.38	  451.69
     13.3700	  541.00	  567.09	-1816.09	  451.62
     13.4700	  564.00	  566.85	-1792.85	  451.55
     13.5700	  544.00	  566.64	-1812.64	  451.47
     13.6700	  554.00	  566.45	-1802.45	  451.40
     13.7700	  576.00	  566.27	-1780.27	  451.31
     13.8700	  552.00	  566.11	-1804.11	  451.22
     13.9700	  593.00	  565.95	-1762.95	  451.13
     14.0700	  578.00	  565.80	-1777.80	  451.03
     14.1700	  575.00	  565.66	-1780.66	  450.93
     14.2700	  531.00	  565.51	-1824.51	  450.83
     14.3700	  593.00	  565.37	-1762.37	  450.72
     14.4700	  523.00	  565.22	-1832.22	  450.60
     14.5700	  588.00	  565.08	-1767.08	  450.49
     14.6700	  589.00	  564.93	-1765.93	  450.37
     14.7700	  583.00	  564.79	-1771.79	  450.24
     14.8700	  503.00	  564.64	-1851.64	  450.11
     14.9700	  599.00	  564.49	-1755.49	  449.98
     15.0700	  531.00	  564.34	-1823.34	  449.84
     15.1700	  510.00	  564.18	-1844.18	  449.70
     15.2700	  554.00	  564.02	-1800.02	  449.55
     15.3700	  569.00	  563.87	-1784.86	  449.40
     15.4700	  546.00	  563.70	-1807.70	  449.25
     15.5700	  545.00	  563.54	-1808.54	  449.10
     15.6700	  564.00	  563.37	-1789.37	  448.94
     15.7700	  528.00	  563.20	-1825.20	  448.77
     15.8700	  537.00	  563.03	-1816.03	  448.61
     15.9700	  553.00	  562.85	-1799.85	  448.44
     16.0700	  587.00	  562.67	-1765.67	  448.26
     16.1700	  568.00	  562.49	-1784.49	  448.09
     16.2700	  563.00	  562.33	-1789.33	  447.91
     16.3700	  554.00	  562.14	-1798.14	  447.72
     16.4700	  509.00	  561.95	-1842.95	  447.54
     16.5700	  586.00	  561.76	-1765.76	  447.35
     16.6700	  533.00	  561.56	-1818.56	  447.16
     16.7700	  582.00	  561.37	-1769.37	  446.96
     16.8700	  559.00	  561.17	-1792.17	  446.76
     16.9700	  568.00	  560.96	-1782.96	  446.56
     17.0700	  588.00	  560.75	-1762.75	  446.36
     17.1700	  542.00	  560.55	-1808.55	  446.15
     17.2700	  593.00	  560.33	-1757.33	  445.94
     17.3700	  527.00	  560.12	-1823.12	  445.72
     17.4700	  533.00	  559.90	-1816.90	  445.51
     17.5700	  551.00	  559.68	-1798.68	  445.29
     17.6700	  543.00	  559.46	-1806.46	  445.07
     17.7700	  559.00	  559.23	-1790.23	  444.84
     17.8700	  533.00	  559.01	-1816.01	  444.62
     17.9700	  573.00	  558.87	-1775.87	  444.39
     18.0700	  488.00	  558.64	-1860.64	  444.16
     18.1700	  547.00	  558.41	-1801.41	  443.92
     18.2700	  567.00	  558.18	-1781.18	  443.68
     18.3700	  537.00	  557.94	-1810.94	  443.45
     18.4700	  533.00	  557.70	-1814.70	  443.20
     18.5700	  559.00	  557.46	-1788.46	  442.96
     18.6700	  503.00	  557.22	-1844.22	  442.71
     18.7700	  545.00	  556.97	-1801.97	  442.46
     18.8700	  552.00	  556.81	-1794.81	  442.21
     18.9700	  540.00	  556.57	-1806.57	  441.96
     19.0700	  557.00	  556.32	-1789.32	  441.71
     19.1700	  520.00	  556.06	-1826.06	  441.45
     19.2700	  569.00	  555.81	-1776.81	  441.19
     19.3700	  530.00	  555.56	-1815.56	  440.93
     19.4700	  518.00	  555.30	-1827.30	  440.66
     19.5700	  513.00	  555.04	-1832.04	  440.40
     19.6700	  544.00	  554.78	-1800.78	  440.13
     19.7700	  495.00	  554.52	-1849.52	  439.86
     19.8700	  523.00	  554.26	-1821.26	  439.59
     19.9700	  553.00	  553.99	-1790.99	  439.32
     20.0700	  575.00	  553.73	-1768.73	  439.04
     20.1700	  555.00	  553.46	-1788.46	  438.77
     20.2700	  522.00	  553.20	-1821.20	  438.49
     20.3700	  584.00	  552.93	-1758.93	  438.21
     20.4700	  550.00	  552.66	-1792.66	  437.93
     20.5700	  551.00	  552.36	-1791.36	  437.64
     20.6700	  543.00	  552.09	-1799.09	  437.36
     20.7700	  539.00	  551.82	-1802.82	  437.07
     20.8700	  577.00	  551.58	-1764.58	  436.79
     20.9700	  542.00	  551.31	-1799.31	  436.50
     21.0700	  522.00	  551.03	-1819.03	  436.21
     21.1700	  569.00	  550.76	-1771.76	  435.91
     21.2700	  557.00	  550.49	-1783.49	  435.62
     21.3700	  519.00	  550.21	-1821.21	  435.32
     21.4700	  538.00	  549.94	-1801.94	  435.03
     21.5700	  575.00	  549.66	-1764.66	  434.73
     21.6700	  554.00	  549.39	-1785.39	  434.43
     21.7700	  559.00	  549.12	-1780.12	  434.13
     21.8700	  574.00	  548.85	-1764.85	  433.83
     21.9700	  546.00	  548.57	-1792.57	  433.53
     22.0700	  581.00	  548.30	-1757.30	  433.23
     22.1700	  531.00	  548.04	-1807.04	  432.92
     22.2700	  519.00	  547.77	-1818.77	  432.62
     22.3700	  577.00	  547.51	-1760.51	  432.31
     22.4700	  538.00	  547.25	-1799.25	  432.00
     22.5700	  566.00	  546.99	-1770.99	  431.69
     22.6700	  567.00	  546.74	-1769.74	  431.39
     22.7700	  551.00	  546.50	-1785.50	  431.07
     22.8700	  554.00	  546.26	-1782.26	  430.76
     22.9700	  526.00	  546.03	-1810.03	  430.45
     23.0700	  562.00	  545.81	-1773.81	  430.14
     23.1700	  561.00	  545.61	-1774.61	  429.83
     23.2700	  583.00	  545.42	-1752.42	  429.51
     23.3700	  573.00	  545.26	-1762.26	  429.20
     23.4700	  543.00	  545.13	-1792.13	  428.88
     23.5700	  518.00	  545.04	-1817.04	  428.56
     23.6700	  566.00	  545.01	-1769.01	  428.25
     23.7700	  551.00	  545.20	-1784.20	  427.93
     23.8700	  565.00	  545.44	-1770.44	  427.61
     23.9700	  552.00	  546.02	-1784.02	  427.29
     24.0700	  510.00	  547.32	-1827.32	  426.97
     24.1700	  538.00	  549.95	-1801.95	  426.65
     24.2700	  610.00	  554.74	-1734.74	  426.33
     24.3700	  588.00	  562.65	-1764.65	  426.01
     24.4700	  590.00	  574.79	-1774.79	  425.69
     24.5700	  618.00	  591.90	-1763.90	  425.37
     24.6700	  677.00	  612.45	-1725.45	  425.05
     24.7700	  605.00	  629.87	-1814.87	  424.73
     24.8700	  613.00	  633.06	-1810.06	  424.40
     24.9700	  612.00	  615.82	-1793.82	  424.08
     25.0700	  625.00	  588.96	-1753.96	  423.76
     25.1700	  597.00	  566.54	-1759.54	  423.43
     25.2700	  553.00	  553.06	-1790.06	  423.11
     25.3700	  568.00	  546.55	-1768.55	  422.79
     25.4700	  550.00	  543.67	-1783.67	  422.46
     25.5700	  568.00	  542.25	-1764.25	  422.14
     25.6700	  516.00	  541.37	-1815.37	  421.82
     25.7700	  559.00	  540.75	-1771.75	  421.49
     25.8700	  537.00	  540.28	-1793.28	  421.17
     25.9700	  623.00	  539.92	-1706.93	  420.84
     26.0700	  585.00	  539.66	-1744.66	  420.52
     26.1700	  567.00	  539.47	-1762.47	  420.19
     26.2700	  521.00	  539.36	-1808.36	  419.87
     26.3700	  543.00	  539.32	-1786.32	  419.55
     26.4700	  558.00	  539.37	-1771.37	  419.22
     26.5700	  554.00	  539.50	-1775.50	  418.90
     26.6700	  566.00	  539.74	-1763.74	  418.57
     26.7700	  576.00	  540.11	-1754.11	  418.25
     26.8700	  517.00	  540.64	-1813.64	  417.93
     26.9700	  584.00	  541.37	-1747.37	  417.60
     27.0700	  550.00	  542.37	-1782.37	  417.28
     27.1700	  532.00	  543.76	-1801.76	  416.96
     27.2700	  579.00	  545.74	-1756.74	  416.63
     27.3700	  556.00	  548.72	-1782.72	  416.31
     27.4700	  530.00	  553.50	-1813.50	  415.99
     27.5700	  601.00	  561.52	-1750.52	  415.67
     27.6700	  562.00	  575.13	-1803.13	  415.35
     27.7700	  595.00	  597.47	-1792.47	  415.03
     27.8700	  588.00	  631.56	-1833.56	  414.71
     27.9700	  659.00	  678.24	-1809.24	  414.39
     28.0700	  704.00	  733.35	-1819.35	  414.07
     28.1700	  829.00	  785.09	-1746.09	  413.75
     28.2700	  932.00	  814.00	-1672.00	  413.43
     28.3700	  882.00	  804.30	-1712.30	  413.11
     28.4700	  799.00	  768.80	-1759.80	  412.79
     28.5700	  707.00	  740.68	-1823.68	  412.48
     28.6700	  716.00	  739.36	-1813.36	  412.16
     28.7700	  716.00	  763.72	-1837.72	  411.84
     28.8700	  797.00	  796.71	-1789.71	  411.53
     28.9700	  796.00	  810.78	-1804.78	  411.21
     29.0700	  756.00	  782.80	-1816.80	  410.90
     29.1700	  725.00	  721.06	-1786.06	  410.58
     29.2700	  631.00	  656.13	-1815.13	  410.27
     29.3700	  626.00	  606.60	-1770.60	  409.96
     29.4700	  582.00	  575.43	-1783.43	  409.65
     29.5700	  614.00	  558.17	-1734.17	  409.34
     29.6700	  601.00	  549.06	-1738.06	  409.03
     29.7700	  597.00	  544.03	-1737.03	  408.72
     29.8700	  595.00	  540.97	-1735.97	  408.41
     29.9700	  562.00	  539.02	-1767.02	  408.10
     30.0700	  568.00	  537.92	-1759.92	  407.79
     30.1700	  539.00	  537.76	-1788.76	  407.49
     30.2700	  554.00	  538.98	-1774.98	  407.18
     30.3700	  573.00	  542.51	-1759.51	  406.88
     30.4700	  589.00	  549.90	-1750.90	  406.57
     30.5700	  570.00	  562.95	-1782.95	  406.27
     30.6700	  574.00	  582.64	-1798.64	  405.97
     30.7700	  587.00	  607.34	-1810.34	  405.67
     30.8700	  650.00	  631.12	-1771.12	  405.37
     30.9700	  643.00	  643.75	-1790.75	  405.07
     31.0700	  616.00	  635.61	-1809.61	  404.77
     31.1700	  554.00	  609.74	-1845.74	  404.47
     31.2700	  569.00	  580.25	-1801.25	  404.18
     31.3700	  565.00	  556.95	-1781.95	  403.88
     31.4700	  535.00	  542.08	-1797.08	  403.59
     31.5700	  564.00	  533.89	-1759.89	  403.30
     31.6700	  538.00	  529.65	-1781.65	  403.00
     31.7700	  534.00	  527.37	-1783.37	  402.71
     31.8700	  565.00	  525.98	-1750.98	  402.42
     31.9700	  557.00	  525.03	-1758.03	  402.13
     32.0700	  536.00	  524.34	-1778.34	  401.85
     32.1700	  537.00	  523.86	-1776.86	  401.56
     32.2700	  557.00	  523.55	-1756.55	  401.28
     32.3700	  545.00	  523.39	-1768.39	  400.99
     32.4700	  546.00	  523.39	-1767.39	  400.71
     32.5700	  546.00	  523.55	-1767.55	  400.43
     32.6700	  511.00	  523.90	-1802.90	  400.15
     32.7700	  510.00	  524.48	-1804.48	  399.87
     32.8700	  524.00	  525.35	-1791.35	  399.59
     32.9700	  588.00	  526.61	-1728.61	  399.31
     33.0700	  540.00	  528.42	-1778.42	  399.04
     33.1700	  550.00	  531.14	-1771.14	  398.76
     33.2700	  516.00	  535.60	-1809.60	  398.49
     33.3700	  595.00	  543.59	-1738.59	  398.22
     33.4700	  567.00	  558.77	-1781.77	  397.95
     33.5700	  587.00	  587.32	-1790.32	  397.68
     33.6700	  616.00	  637.44	-1811.44	  397.41
     33.7700	  775.00	  715.02	-1730.02	  397.14
     33.8700	  863.00	  815.78	-1742.78	  396.88
     33.9700	  929.00	  917.91	-1778.91	  396.61
     34.0700	 1116.00	  981.77	-1655.77	  396.35
     34.1700	  997.00	  967.07	-1760.07	  396.09
     34.2700	  966.00	  876.28	-1700.28	  395.83
     34.3700	  778.00	  760.43	-1772.43	  395.57
     34.4700	  648.00	  662.62	-1804.62	  395.31
     34.5700	  552.00	  597.27	-1835.27	  395.06
     34.6700	  574.00	  560.35	-1776.35	  394.80
     34.7700	  529.00	  541.55	-1802.55	  394.55
     34.8700	  503.00	  532.00	-1819.00	  394.30
     34.9700	  564.00	  526.57	-1752.57	  394.05
     35.0700	  557.00	  522.98	-1755.98	  393.80
     35.1700	  522.00	  520.32	-1788.32	  393.56
     35.2700	  526.00	  518.25	-1782.25	  393.31
     35.3700	  543.00	  516.58	-1763.58	  393.07
     35.4700	  511.00	  515.20	-1794.20	  392.82
     35.5700	  530.00	  514.03	-1774.03	  392.58
     35.6700	  491.00	  513.03	-1812.03	  392.34
     35.7700	  533.00	  512.17	-1769.17	  392.11
     35.8700	  553.00	  511.40	-1748.40	  391.87
     35.9700	  508.00	  511.23	-1793.23	  391.63
     36.0700	  514.00	  510.62	-1786.62	  391.40
     36.1700	  518.00	  510.08	-1782.08	  391.17
     36.2700	  541.00	  509.59	-1758.59	  390.94
     36.3700	  516.00	  509.15	-1783.15	  390.71
     36.4700	  479.00	  508.74	-1819.74	  390.48
     36.5700	  527.00	  508.37	-1771.37	  390.26
     36.6700	  553.00	  508.04	-1745.04	  390.04
     36.7700	  468.00	  507.75	-1829.75	  389.81
     36.8700	  529.00	  507.50	-1768.50	  389.59
     36.9700	  514.00	  507.34	-1783.34	  389.37
     37.0700	  523.00	  507.33	-1774.33	  389.16
     37.1700	  497.00	  507.63	-1800.63	  388.94
     37.2700	  532.00	  508.50	-1766.50	  388.73
     37.3700	  563.00	  510.29	-1737.29	  388.51
     37.4700	  488.00	  513.25	-1815.25	  388.30
     37.5700	  552.00	  517.19	-1755.19	  388.09
     37.6700	  496.00	  521.25	-1815.25	  387.89
     37.7700	  529.00	  524.05	-1785.05	  387.68
     37.8700	  511.00	  524.48	-1803.48	  387.48
     37.9700	  500.00	  522.81	-1812.81	  387.27
     38.0700	  518.00	  519.99	-1791.99	  387.07
     38.1700	  511.00	  516.41	-1795.41	  386.88
     38.2700	  523.00	  512.55	-1779.55	  386.68
     38.3700	  509.00	  509.13	-1790.13	  386.48
     38.4700	  506.00	  506.54	-1790.54	  386.29
     38.5700	  486.00	  504.81	-1808.81	  386.10
     38.6700	  525.00	  503.73	-1768.73	  385.91
     38.7700	  542.00	  503.07	-1751.07	  385.72
     38.8700	  512.00	  502.55	-1780.55	  385.53
     38.9700	  494.00	  502.22	-1798.22	  385.35
     39.0700	  465.00	  501.94	-1826.94	  385.16
     39.1700	  489.00	  501.70	-1802.70	  384.98
     39.2700	  479.00	  501.48	-1812.48	  384.80
     39.3700	  496.00	  501.19	-1795.19	  384.62
     39.4700	  485.00	  501.00	-1806.00	  384.44
     39.5700	  504.00	  500.82	-1786.82	  384.27
     39.6700	  485.00	  500.78	-1805.78	  384.10
     39.7700	  466.00	  500.62	-1824.62	  383.93
     39.8700	  462.00	  500.48	-1828.48	  383.76
     39.9700	  501.00	  500.35	-1789.35	  383.59
     40.0700	  491.00	  500.22	-1799.22	  383.42
     40.1700	  503.00	  500.11	-1787.11	  383.26
     40.2700	  474.00	  500.01	-1816.01	  383.10
     40.3700	  520.00	  499.91	-1769.91	  382.94
     40.4700	  490.00	  499.84	-1799.84	  382.78
     40.5700	  488.00	  499.77	-1801.77	  382.62
     40.6700	  518.00	  499.73	-1771.73	  382.46
     40.7700	  473.00	  499.70	-1816.70	  382.31
