MSG Master    CELL:    5.91984   5.91984  23.28176   90.0000   90.0000  120.0000   SPGR: P 63/m m c             TEMP:   1074.85
  1   1280     2.52000     0.00000    -0.13089     0.00000     0.00000    0
    99     0     2
       0.00000      10.00000
     125.00000     130.00000
 2Theta	Yobs	Ycal	Yobs-Ycal	Backg	Posr	(hkl)	K
      0.7700	    0.00	  550.68	-1731.75	  430.63
      0.8700	    0.00	  551.28	-1731.75	  431.23
      0.9700	   35.00	  551.87	-1731.75	  431.82
      1.0700	   40.00	  552.45	-1731.75	  432.40
      1.1700	   52.00	  553.02	-1731.75	  432.97
      1.2700	   43.00	  553.58	-1731.75	  433.53
      1.3700	   42.00	  554.13	-1731.75	  434.08
      1.4700	   95.00	  554.68	-1731.75	  434.62
      1.5700	  314.00	  555.21	-1731.75	  435.16
      1.6700	  458.00	  555.73	-1731.75	  435.68
      1.7700	  533.00	  556.25	-1731.75	  436.20
      1.8700	  637.00	  556.76	-1731.75	  436.71
      1.9700	  735.00	  557.26	-1731.75	  437.20
      2.0700	  756.00	  557.74	-1731.75	  437.69
      2.1700	  770.00	  558.23	-1731.75	  438.17
      2.2700	  803.00	  558.70	-1731.75	  438.65
      2.3700	  754.00	  559.16	-1731.75	  439.11
      2.4700	  699.00	  559.62	-1731.75	  439.56
      2.5700	  689.00	  560.06	-1731.75	  440.01
      2.6700	  701.00	  560.50	-1731.75	  440.45
      2.7700	  700.00	  560.93	-1731.75	  440.88
      2.8700	  619.00	  561.35	-1731.75	  441.30
      2.9700	  571.00	  561.76	-1731.75	  441.71
      3.0700	  588.00	  562.17	-1731.75	  442.12
      3.1700	  631.00	  562.56	-1731.75	  442.51
      3.2700	  600.00	  562.95	-1731.75	  442.90
      3.3700	  736.00	  563.33	-1731.75	  443.28
      3.4700	  780.00	  563.71	-1731.75	  443.65
      3.5700	  819.00	  564.07	-1731.75	  444.02
      3.6700	  882.00	  564.43	-1731.75	  444.38
      3.7700	  897.00	  564.78	-1731.75	  444.72
      3.8700	 1052.00	  565.12	-1731.75	  445.07
      3.9700	 1018.00	  565.45	-1731.75	  445.40
      4.0700	 1103.00	  565.78	-1731.75	  445.73
      4.1700	 1080.00	  566.10	-1731.75	  446.04
      4.2700	 1111.00	  566.41	-1731.75	  446.36
      4.3700	 1067.00	  566.71	-1731.75	  446.66
      4.4700	 1056.00	  567.01	-1731.75	  446.96
      4.5700	 1044.00	  567.30	-1731.75	  447.24
      4.6700	 1031.00	  567.58	-1731.75	  447.53
      4.7700	  991.00	  567.85	-1731.75	  447.80
      4.8700	  968.00	  568.12	-1731.75	  448.07
      4.9700	 1017.00	  568.38	-1731.75	  448.33
      5.0700	  935.00	  568.63	-1731.75	  448.58
      5.1700	  884.00	  568.88	-1731.75	  448.83
      5.2700	  897.00	  569.12	-1731.75	  449.07
      5.3700	  894.00	  569.35	-1731.75	  449.30
      5.4700	  794.00	  569.58	-1731.75	  449.53
      5.5700	  881.00	  569.80	-1731.75	  449.75
      5.6700	  867.00	  570.01	-1731.75	  449.96
      5.7700	  818.00	  570.21	-1731.75	  450.16
      5.8700	  836.00	  570.41	-1731.75	  450.36
      5.9700	  865.00	  570.61	-1731.75	  450.55
      6.0700	  791.00	  570.79	-1731.75	  450.74
      6.1700	  803.00	  570.97	-1731.75	  450.92
      6.2700	  759.00	  571.15	-1731.75	  451.09
      6.3700	  787.00	  571.31	-1731.75	  451.26
      6.4700	  731.00	  571.47	-1731.75	  451.42
      6.5700	  766.00	  571.63	-1731.75	  451.58
      6.6700	  755.00	  571.78	-1731.75	  451.72
      6.7700	  731.00	  571.92	-1731.75	  451.87
      6.8700	  720.00	  572.05	-1731.75	  452.00
      6.9700	  717.00	  572.18	-1731.75	  452.13
      7.0700	  668.00	  572.31	-1731.75	  452.26
      7.1700	  688.00	  572.43	-1731.75	  452.37
      7.2700	  626.00	  572.54	-1731.75	  452.49
      7.3700	  732.00	  572.65	-1731.75	  452.59
      7.4700	  661.00	  572.75	-1731.75	  452.69
      7.5700	  673.00	  572.84	-1731.75	  452.79
      7.6700	  628.00	  572.93	-1731.75	  452.88
      7.7700	  665.00	  573.01	-1731.75	  452.96
      7.8700	  626.00	  573.09	-1731.75	  453.04
      7.9700	  609.00	  573.17	-1731.75	  453.11
      8.0700	  606.00	  573.23	-1731.75	  453.18
      8.1700	  659.00	  573.29	-1731.75	  453.24
      8.2700	  625.00	  573.35	-1731.75	  453.30
      8.3700	  650.00	  573.40	-1731.75	  453.35
      8.4700	  636.00	  573.45	-1731.75	  453.40
      8.5700	  610.00	  573.49	-1731.75	  453.44
      8.6700	  598.00	  573.53	-1731.75	  453.47
      8.7700	  601.00	  573.56	-1731.75	  453.50
      8.8700	  623.00	  573.58	-1731.75	  453.53
      8.9700	  616.00	  573.60	-1731.75	  453.55
      9.0700	  602.00	  573.62	-1731.75	  453.57
      9.1700	  581.00	  573.63	-1731.75	  453.58
      9.2700	  626.00	  573.63	-1731.75	  453.58
      9.3700	  607.00	  573.63	-1731.75	  453.58
      9.4700	  634.00	  573.63	-1731.75	  453.58
      9.5700	  612.00	  573.62	-1731.75	  453.57
      9.6700	  540.00	  573.61	-1731.75	  453.56
      9.7700	  609.00	  573.59	-1731.75	  453.54
      9.8700	  614.00	  573.57	-1731.75	  453.52
      9.9700	  601.00	  573.54	-1731.75	  453.49
     10.0700	  579.00	  574.66	-1727.41	  453.46
     10.1700	  549.00	  574.75	-1757.50	  453.42
     10.2700	  609.00	  574.87	-1697.62	  453.38
     10.3700	  632.00	  575.05	-1674.80	  453.34
     10.4700	  596.00	  575.30	-1711.05	  453.29
     10.5700	  585.00	  575.71	-1722.46	  453.23
     10.6700	  578.00	  576.38	-1730.13	  453.17
     10.7700	  527.00	  577.42	-1782.17	  453.11
     10.8700	  539.00	  578.90	-1771.65	  453.05
     10.9700	  589.00	  580.81	-1723.56	  452.98
     11.0700	  639.00	  583.14	-1675.89	  452.90
     11.1700	  553.00	  585.88	-1764.63	  452.82
     11.2700	  645.00	  589.08	-1675.83	  452.74
     11.3700	  564.00	  592.85	-1760.60	  452.65
     11.4700	  628.00	  597.33	-1701.08	  452.56
     11.5700	  611.00	  602.79	-1723.54	  452.47
     11.6700	  595.00	  609.64	-1746.39	  452.37
     11.7700	  598.00	  618.57	-1752.32	  452.27
     11.8700	  685.00	  630.35	-1677.10	  452.16
     11.9700	  686.00	  645.03	-1690.78	  452.06
     12.0700	  677.00	  660.15	-1714.90	  451.94
     12.1700	  680.00	  669.20	-1720.95	  451.83
     12.2700	  702.00	  663.28	-1693.03	  451.71
     12.3700	  686.00	  641.30	-1687.05	  451.58
     12.4700	  677.00	  615.82	-1670.57	  451.46
     12.5700	  590.00	  596.75	-1738.50	  451.33
     12.6700	  568.00	  585.58	-1749.33	  451.19
     12.7700	  547.00	  579.91	-1764.66	  451.05
     12.8700	  595.00	  577.09	-1713.84	  450.91
     12.9700	  542.00	  575.50	-1765.25	  450.77
     13.0700	  593.00	  574.43	-1713.18	  450.62
     13.1700	  554.00	  573.63	-1751.38	  450.47
     13.2700	  528.00	  572.98	-1776.73	  450.32
     13.3700	  569.00	  572.45	-1735.20	  450.16
     13.4700	  536.00	  571.99	-1767.74	  450.00
     13.5700	  573.00	  571.59	-1730.34	  449.84
     13.6700	  560.00	  571.23	-1742.98	  449.67
     13.7700	  574.00	  570.90	-1728.65	  449.50
     13.8700	  585.00	  570.60	-1717.35	  449.33
     13.9700	  555.00	  570.31	-1747.06	  449.16
     14.0700	  571.00	  570.04	-1730.79	  448.98
     14.1700	  571.00	  569.78	-1730.53	  448.80
     14.2700	  579.00	  569.52	-1722.27	  448.62
     14.3700	  509.00	  569.28	-1792.03	  448.43
     14.4700	  590.00	  569.03	-1710.78	  448.24
     14.5700	  589.00	  568.79	-1711.54	  448.05
     14.6700	  541.00	  568.56	-1759.31	  447.86
     14.7700	  529.00	  568.32	-1771.07	  447.66
     14.8700	  583.00	  568.09	-1716.84	  447.46
     14.9700	  589.00	  567.86	-1710.61	  447.26
     15.0700	  546.00	  567.63	-1753.38	  447.06
     15.1700	  570.00	  567.40	-1729.15	  446.85
     15.2700	  576.00	  567.17	-1722.92	  446.64
     15.3700	  557.00	  566.94	-1741.69	  446.43
     15.4700	  561.00	  566.73	-1737.48	  446.21
     15.5700	  568.00	  566.50	-1730.25	  446.00
     15.6700	  538.00	  566.27	-1760.02	  445.78
     15.7700	  585.00	  566.03	-1712.78	  445.56
     15.8700	  553.00	  565.80	-1744.55	  445.34
     15.9700	  538.00	  565.56	-1759.31	  445.11
     16.0700	  598.00	  565.32	-1699.07	  444.88
     16.1700	  587.00	  565.08	-1709.83	  444.65
     16.2700	  557.00	  564.84	-1739.59	  444.42
     16.3700	  523.00	  564.60	-1773.35	  444.19
     16.4700	  537.00	  564.36	-1759.11	  443.95
     16.5700	  583.00	  564.11	-1712.86	  443.72
     16.6700	  563.00	  563.87	-1732.62	  443.48
     16.7700	  570.00	  563.62	-1725.37	  443.23
     16.8700	  508.00	  563.37	-1787.12	  442.99
     16.9700	  540.00	  563.12	-1754.87	  442.75
     17.0700	  574.00	  562.87	-1720.62	  442.50
     17.1700	  548.00	  562.62	-1746.37	  442.25
     17.2700	  542.00	  562.36	-1752.11	  442.00
     17.3700	  591.00	  562.11	-1702.86	  441.75
     17.4700	  559.00	  561.85	-1734.60	  441.49
     17.5700	  562.00	  561.59	-1731.34	  441.24
     17.6700	  555.00	  561.33	-1738.08	  440.98
     17.7700	  614.00	  561.07	-1678.82	  440.72
     17.8700	  572.00	  560.81	-1720.56	  440.46
     17.9700	  554.00	  560.54	-1738.29	  440.20
     18.0700	  511.00	  560.28	-1781.03	  439.93
     18.1700	  561.00	  560.11	-1730.86	  439.67
     18.2700	  587.00	  559.85	-1704.60	  439.40
     18.3700	  510.00	  559.58	-1781.33	  439.13
     18.4700	  548.00	  559.31	-1743.06	  438.86
     18.5700	  572.00	  559.04	-1718.79	  438.59
     18.6700	  547.00	  558.77	-1743.52	  438.32
     18.7700	  553.00	  558.50	-1737.25	  438.05
     18.8700	  533.00	  558.32	-1757.07	  437.77
     18.9700	  546.00	  558.04	-1743.79	  437.50
     19.0700	  576.00	  557.77	-1713.52	  437.22
     19.1700	  552.00	  557.50	-1737.25	  436.94
     19.2700	  537.00	  557.23	-1751.98	  436.66
     19.3700	  522.00	  556.95	-1766.70	  436.38
     19.4700	  532.00	  556.68	-1756.43	  436.10
     19.5700	  543.00	  556.40	-1745.15	  435.81
     19.6700	  607.00	  556.12	-1680.87	  435.53
     19.7700	  574.00	  555.85	-1713.60	  435.24
     19.8700	  533.00	  555.57	-1754.32	  434.96
     19.9700	  561.00	  555.29	-1726.04	  434.67
     20.0700	  602.00	  555.01	-1684.76	  434.38
     20.1700	  554.00	  554.73	-1732.48	  434.09
     20.2700	  530.00	  554.45	-1756.20	  433.80
     20.3700	  564.00	  554.17	-1721.92	  433.51
     20.4700	  563.00	  553.89	-1722.64	  433.22
     20.5700	  549.00	  553.61	-1736.36	  432.93
     20.6700	  527.00	  553.37	-1758.12	  432.63
     20.7700	  546.00	  553.09	-1738.84	  432.34
     20.8700	  542.00	  552.81	-1742.56	  432.04
     20.9700	  573.00	  552.53	-1711.28	  431.75
     21.0700	  523.00	  552.26	-1761.01	  431.45
     21.1700	  543.00	  551.98	-1740.73	  431.16
     21.2700	  542.00	  551.70	-1741.45	  430.86
     21.3700	  516.00	  551.39	-1767.14	  430.56
     21.4700	  525.00	  551.11	-1757.86	  430.26
     21.5700	  548.00	  550.84	-1734.59	  429.96
     21.6700	  537.00	  550.57	-1745.32	  429.66
     21.7700	  570.00	  550.30	-1712.05	  429.36
     21.8700	  540.00	  550.03	-1741.78	  429.06
     21.9700	  555.00	  549.77	-1726.52	  428.76
     22.0700	  578.00	  549.51	-1703.26	  428.46
     22.1700	  555.00	  549.25	-1726.00	  428.15
     22.2700	  540.00	  548.99	-1740.74	  427.85
     22.3700	  535.00	  548.74	-1745.49	  427.55
     22.4700	  545.00	  548.49	-1735.24	  427.24
     22.5700	  568.00	  548.25	-1712.00	  426.94
     22.6700	  531.00	  548.02	-1748.77	  426.63
     22.7700	  557.00	  547.80	-1722.55	  426.33
     22.8700	  554.00	  547.59	-1725.34	  426.03
     22.9700	  579.00	  547.39	-1700.14	  425.72
     23.0700	  581.00	  547.20	-1697.95	  425.41
     23.1700	  564.00	  547.04	-1714.79	  425.11
     23.2700	  543.00	  546.90	-1735.66	  424.80
     23.3700	  562.00	  546.80	-1716.55	  424.50
     23.4700	  603.00	  546.89	-1675.64	  424.19
     23.5700	  527.00	  546.89	-1751.64	  423.89
     23.6700	  542.00	  546.99	-1736.74	  423.58
     23.7700	  567.00	  547.24	-1711.99	  423.27
     23.8700	  552.00	  547.78	-1727.53	  422.97
     23.9700	  567.00	  548.84	-1713.59	  422.66
     24.0700	  545.00	  550.87	-1737.62	  422.35
     24.1700	  554.00	  554.49	-1732.24	  422.05
     24.2700	  552.00	  560.49	-1740.24	  421.74
     24.3700	  565.00	  569.68	-1736.43	  421.43
     24.4700	  572.00	  582.65	-1742.40	  421.13
     24.5700	  645.00	  598.85	-1685.60	  420.82
     24.6700	  621.00	  615.03	-1725.78	  420.51
     24.7700	  659.00	  624.33	-1697.08	  420.21
     24.8700	  623.00	  618.99	-1727.74	  419.90
     24.9700	  623.00	  600.11	-1708.86	  419.60
     25.0700	  570.00	  578.83	-1740.58	  419.29
     25.1700	  543.00	  562.77	-1751.52	  418.99
     25.2700	  548.00	  553.13	-1736.88	  418.68
     25.3700	  591.00	  548.13	-1688.88	  418.38
     25.4700	  568.00	  545.62	-1709.37	  418.07
     25.5700	  553.00	  544.22	-1722.97	  417.77
     25.6700	  512.00	  543.32	-1763.07	  417.46
     25.7700	  532.00	  542.68	-1742.43	  417.16
     25.8700	  554.00	  542.19	-1719.94	  416.85
     25.9700	  533.00	  541.82	-1740.57	  416.55
     26.0700	  583.00	  541.55	-1690.30	  416.25
     26.1700	  584.00	  541.37	-1689.12	  415.95
     26.2700	  493.00	  541.26	-1780.01	  415.64
     26.3700	  566.00	  541.24	-1706.99	  415.34
     26.4700	  574.00	  541.31	-1699.06	  415.04
     26.5700	  528.00	  541.47	-1745.22	  414.74
     26.6700	  556.00	  541.75	-1717.50	  414.44
     26.7700	  558.00	  542.17	-1715.92	  414.14
     26.8700	  532.00	  542.75	-1742.50	  413.84
     26.9700	  566.00	  543.56	-1709.31	  413.54
     27.0700	  535.00	  544.66	-1741.41	  413.24
     27.1700	  564.00	  546.20	-1713.95	  412.94
     27.2700	  564.00	  548.42	-1716.17	  412.65
     27.3700	  581.00	  551.84	-1702.59	  412.35
     27.4700	  568.00	  557.48	-1721.23	  412.05
     27.5700	  560.00	  567.18	-1738.93	  411.76
     27.6700	  531.00	  583.86	-1784.61	  411.46
     27.7700	  606.00	  611.26	-1737.01	  411.17
     27.8700	  579.00	  652.61	-1805.36	  410.88
     27.9700	  671.00	  707.96	-1768.71	  410.58
     28.0700	  768.00	  770.55	-1734.30	  410.29
     28.1700	  932.00	  823.78	-1623.53	  410.00
     28.2700	  989.00	  843.47	-1586.22	  409.71
     28.3700	  870.00	  817.66	-1679.41	  409.42
     28.4700	  844.00	  771.80	-1659.55	  409.13
     28.5700	  735.00	  742.21	-1738.96	  408.84
     28.6700	  708.00	  743.61	-1767.36	  408.55
     28.7700	  783.00	  769.33	-1718.08	  408.26
     28.8700	  770.00	  797.61	-1759.36	  407.98
     28.9700	  805.00	  799.59	-1726.34	  407.69
     29.0700	  777.00	  759.45	-1714.20	  407.41
     29.1700	  699.00	  695.62	-1728.37	  407.12
     29.2700	  620.00	  636.52	-1748.27	  406.84
     29.3700	  598.00	  594.60	-1728.35	  406.56
     29.4700	  574.00	  569.56	-1727.31	  406.28
     29.5700	  588.00	  556.11	-1699.86	  406.00
     29.6700	  551.00	  549.02	-1729.77	  405.72
     29.7700	  540.00	  545.00	-1736.75	  405.44
     29.8700	  593.00	  542.50	-1681.25	  405.16
     29.9700	  545.00	  540.95	-1727.70	  404.88
     30.0700	  549.00	  540.21	-1722.96	  404.61
     30.1700	  549.00	  540.49	-1723.24	  404.33
     30.2700	  571.00	  542.32	-1703.07	  404.06
     30.3700	  553.00	  546.76	-1725.51	  403.79
     30.4700	  562.00	  555.31	-1725.06	  403.51
     30.5700	  562.00	  569.45	-1739.20	  403.24
     30.6700	  594.00	  589.22	-1726.97	  402.97
     30.7700	  590.00	  611.86	-1753.61	  402.70
     30.8700	  644.00	  630.61	-1718.36	  402.44
     30.9700	  558.00	  635.73	-1809.48	  402.17
     31.0700	  634.00	  621.62	-1719.37	  401.90
     31.1700	  595.00	  595.88	-1732.63	  401.64
     31.2700	  587.00	  570.83	-1715.58	  401.38
     31.3700	  525.00	  552.49	-1759.24	  401.11
     31.4700	  554.00	  541.29	-1719.04	  400.85
     31.5700	  525.00	  535.22	-1741.97	  400.59
     31.6700	  531.00	  532.06	-1732.81	  400.33
     31.7700	  533.00	  530.29	-1729.04	  400.07
     31.8700	  502.00	  529.19	-1758.94	  399.82
     31.9700	  578.00	  528.45	-1682.20	  399.56
     32.0700	  547.00	  527.94	-1712.69	  399.31
     32.1700	  524.00	  527.62	-1735.37	  399.05
     32.2700	  565.00	  527.48	-1694.23	  398.80
     32.3700	  574.00	  527.49	-1685.24	  398.55
     32.4700	  531.00	  527.68	-1728.43	  398.30
     32.5700	  525.00	  528.05	-1734.80	  398.05
     32.6700	  550.00	  528.65	-1710.40	  397.80
     32.7700	  531.00	  529.52	-1730.27	  397.56
     32.8700	  559.00	  530.76	-1703.51	  397.31
     32.9700	  546.00	  532.50	-1718.25	  397.07
     33.0700	  555.00	  535.00	-1711.75	  396.83
     33.1700	  569.00	  538.85	-1701.59	  396.58
     33.2700	  579.00	  545.28	-1698.03	  396.34
     33.3700	  539.00	  556.87	-1749.62	  396.11
     33.4700	  554.00	  578.29	-1756.04	  395.87
     33.5700	  574.00	  616.41	-1774.16	  395.63
     33.6700	  631.00	  678.26	-1779.01	  395.40
     33.7700	  788.00	  765.37	-1709.12	  395.16
     33.8700	  961.00	  866.35	-1637.10	  394.93
     33.9700	 1057.00	  952.80	-1627.55	  394.70
     34.0700	 1060.00	  984.11	-1655.86	  394.47
     34.1700	  948.00	  934.94	-1718.69	  394.24
     34.2700	  849.00	  831.62	-1714.37	  394.01
     34.3700	  747.00	  724.34	-1709.09	  393.79
     34.4700	  641.00	  641.72	-1732.47	  393.56
     34.5700	  569.00	  589.06	-1751.81	  393.34
     34.6700	  600.00	  559.75	-1691.50	  393.12
     34.7700	  550.00	  544.46	-1726.21	  392.90
     34.8700	  584.00	  536.23	-1683.98	  392.68
     34.9700	  536.00	  531.24	-1726.99	  392.46
     35.0700	  539.00	  527.80	-1720.55	  392.25
     35.1700	  522.00	  525.20	-1734.95	  392.03
     35.2700	  570.00	  523.15	-1684.90	  391.82
     35.3700	  498.00	  521.48	-1755.23	  391.61
     35.4700	  513.00	  520.11	-1738.86	  391.40
     35.5700	  548.00	  518.95	-1702.70	  391.19
     35.6700	  516.00	  517.96	-1733.71	  390.98
     35.7700	  476.00	  517.11	-1772.86	  390.78
     35.8700	  575.00	  516.37	-1673.12	  390.57
     35.9700	  494.00	  515.71	-1753.46	  390.37
     36.0700	  500.00	  515.12	-1746.87	  390.17
     36.1700	  536.00	  515.05	-1710.80	  389.97
     36.2700	  523.00	  514.59	-1723.34	  389.77
     36.3700	  507.00	  514.18	-1738.93	  389.57
     36.4700	  511.00	  513.82	-1734.57	  389.37
     36.5700	  552.00	  513.50	-1693.25	  389.18
     36.6700	  520.00	  513.24	-1724.99	  388.99
     36.7700	  502.00	  513.04	-1742.79	  388.79
     36.8700	  481.00	  512.95	-1763.70	  388.60
     36.9700	  493.00	  513.05	-1751.80	  388.42
     37.0700	  493.00	  513.51	-1752.26	  388.23
     37.1700	  488.00	  514.61	-1758.36	  388.04
     37.2700	  516.00	  516.70	-1732.45	  387.86
     37.3700	  522.00	  519.97	-1729.72	  387.68
     37.4700	  538.00	  524.22	-1717.97	  387.50
     37.5700	  512.00	  528.55	-1748.30	  387.32
     37.6700	  531.00	  531.38	-1732.13	  387.14
     37.7700	  530.00	  531.22	-1732.97	  386.96
     37.8700	  532.00	  528.17	-1727.92	  386.79
     37.9700	  521.00	  523.88	-1734.63	  386.61
     38.0700	  515.00	  519.68	-1736.43	  386.44
     38.1700	  500.00	  516.11	-1747.86	  386.27
     38.2700	  518.00	  513.36	-1727.11	  386.10
     38.3700	  482.00	  511.43	-1761.18	  385.94
     38.4700	  533.00	  510.14	-1708.89	  385.77
     38.5700	  531.00	  509.20	-1709.95	  385.61
     38.6700	  501.00	  508.64	-1739.39	  385.44
     38.7700	  523.00	  508.24	-1716.99	  385.28
     38.8700	  465.00	  507.93	-1774.68	  385.12
     38.9700	  508.00	  507.81	-1731.56	  384.96
     39.0700	  502.00	  507.58	-1737.33	  384.81
     39.1700	  480.00	  507.38	-1759.13	  384.65
     39.2700	  549.00	  507.11	-1689.86	  384.50
     39.3700	  537.00	  506.94	-1701.69	  384.35
     39.4700	  503.00	  506.78	-1735.53	  384.20
     39.5700	  506.00	  506.63	-1732.38	  384.05
     39.6700	  504.00	  506.50	-1734.25	  383.90
     39.7700	  554.00	  506.37	-1684.12	  383.76
     39.8700	  526.00	  506.25	-1712.00	  383.61
     39.9700	  470.00	  506.15	-1767.90	  383.47
     40.0700	  498.00	  506.05	-1739.80	  383.33
     40.1700	  494.00	  505.97	-1743.72	  383.19
     40.2700	  513.00	  505.89	-1724.64	  383.05
     40.3700	  470.00	  505.83	-1767.58	  382.92
     40.4700	  488.00	  505.79	-1749.54	  382.78
     40.5700	  477.00	  505.76	-1760.51	  382.65
     40.6700	  515.00	  505.74	-1722.49	  382.52
     40.7700	  491.00	  505.75	-1746.50	  382.39
