MSG Master    CELL:    5.91050   5.91050  23.23437   90.0000   90.0000  120.0000   SPGR: P 63/m m c             TEMP:    924.05
  1   1280     2.52000     0.00000    -0.12504     0.00000     0.00000    0
    98     0     2
       0.00000      10.00000
     125.00000     130.00000
 2Theta	Yobs	Ycal	Yobs-Ycal	Backg	Posr	(hkl)	K
      0.7700	    0.00	  489.44	-1753.50	  378.77
      0.8700	    0.00	  490.71	-1753.50	  380.05
      0.9700	   50.00	  491.97	-1753.50	  381.30
      1.0700	   39.00	  493.21	-1753.50	  382.55
      1.1700	   39.00	  494.44	-1753.50	  383.77
      1.2700	   33.00	  495.65	-1753.50	  384.99
      1.3700	   53.00	  496.85	-1753.50	  386.18
      1.4700	   83.00	  498.03	-1753.50	  387.37
      1.5700	  301.00	  499.20	-1753.50	  388.54
      1.6700	  453.00	  500.35	-1753.50	  389.69
      1.7700	  586.00	  501.49	-1753.50	  390.83
      1.8700	  663.00	  502.62	-1753.50	  391.96
      1.9700	  723.00	  503.73	-1753.50	  393.07
      2.0700	  768.00	  504.83	-1753.50	  394.16
      2.1700	  812.00	  505.91	-1753.50	  395.25
      2.2700	  722.00	  506.98	-1753.50	  396.32
      2.3700	  737.00	  508.04	-1753.50	  397.37
      2.4700	  736.00	  509.08	-1753.50	  398.41
      2.5700	  665.00	  510.11	-1753.50	  399.44
      2.6700	  692.00	  511.12	-1753.50	  400.46
      2.7700	  668.00	  512.12	-1753.50	  401.46
      2.8700	  611.00	  513.11	-1753.50	  402.45
      2.9700	  589.00	  514.08	-1753.50	  403.42
      3.0700	  660.00	  515.04	-1753.50	  404.38
      3.1700	  585.00	  515.99	-1753.50	  405.33
      3.2700	  651.00	  516.93	-1753.50	  406.26
      3.3700	  713.00	  517.85	-1753.50	  407.19
      3.4700	  825.00	  518.76	-1753.50	  408.09
      3.5700	  933.00	  519.65	-1753.50	  408.99
      3.6700	  982.00	  520.54	-1753.50	  409.87
      3.7700	 1072.00	  521.41	-1753.50	  410.74
      3.8700	 1105.00	  522.27	-1753.50	  411.60
      3.9700	 1131.00	  523.11	-1753.50	  412.45
      4.0700	 1171.00	  523.95	-1753.50	  413.28
      4.1700	 1228.00	  524.77	-1753.50	  414.10
      4.2700	 1224.00	  525.58	-1753.50	  414.91
      4.3700	 1179.00	  526.37	-1753.50	  415.71
      4.4700	 1188.00	  527.16	-1753.50	  416.50
      4.5700	 1098.00	  527.93	-1753.50	  417.27
      4.6700	 1185.00	  528.69	-1753.50	  418.03
      4.7700	 1100.00	  529.44	-1753.50	  418.78
      4.8700	 1061.00	  530.18	-1753.50	  419.52
      4.9700	 1029.00	  530.91	-1753.50	  420.24
      5.0700	 1016.00	  531.62	-1753.50	  420.96
      5.1700	 1012.00	  532.33	-1753.50	  421.66
      5.2700	  963.00	  533.02	-1753.50	  422.35
      5.3700	  932.00	  533.70	-1753.50	  423.04
      5.4700	  992.00	  534.37	-1753.50	  423.70
      5.5700	  943.00	  535.03	-1753.50	  424.36
      5.6700	  916.00	  535.67	-1753.50	  425.01
      5.7700	  852.00	  536.31	-1753.50	  425.65
      5.8700	  822.00	  536.94	-1753.50	  426.27
      5.9700	  816.00	  537.55	-1753.50	  426.89
      6.0700	  870.00	  538.16	-1753.50	  427.49
      6.1700	  843.00	  538.75	-1753.50	  428.09
      6.2700	  774.00	  539.33	-1753.50	  428.67
      6.3700	  758.00	  539.90	-1753.50	  429.24
      6.4700	  766.00	  540.47	-1753.50	  429.80
      6.5700	  758.00	  541.02	-1753.50	  430.35
      6.6700	  775.00	  541.56	-1753.50	  430.90
      6.7700	  713.00	  542.09	-1753.50	  431.43
      6.8700	  773.00	  542.61	-1753.50	  431.95
      6.9700	  681.00	  543.12	-1753.50	  432.46
      7.0700	  644.00	  543.62	-1753.50	  432.96
      7.1700	  718.00	  544.12	-1753.50	  433.45
      7.2700	  664.00	  544.60	-1753.50	  433.93
      7.3700	  654.00	  545.07	-1753.50	  434.41
      7.4700	  650.00	  545.53	-1753.50	  434.87
      7.5700	  694.00	  545.98	-1753.50	  435.32
      7.6700	  681.00	  546.43	-1753.50	  435.76
      7.7700	  643.00	  546.86	-1753.50	  436.20
      7.8700	  657.00	  547.29	-1753.50	  436.62
      7.9700	  693.00	  547.70	-1753.50	  437.04
      8.0700	  618.00	  548.11	-1753.50	  437.44
      8.1700	  608.00	  548.51	-1753.50	  437.84
      8.2700	  624.00	  548.89	-1753.50	  438.23
      8.3700	  631.00	  549.27	-1753.50	  438.61
      8.4700	  616.00	  549.64	-1753.50	  438.98
      8.5700	  565.00	  550.00	-1753.50	  439.34
      8.6700	  618.00	  550.36	-1753.50	  439.69
      8.7700	  612.00	  550.70	-1753.50	  440.04
      8.8700	  633.00	  551.03	-1753.50	  440.37
      8.9700	  607.00	  551.36	-1753.50	  440.70
      9.0700	  615.00	  551.68	-1753.50	  441.02
      9.1700	  614.00	  551.99	-1753.50	  441.33
      9.2700	  584.00	  552.29	-1753.50	  441.63
      9.3700	  598.00	  552.58	-1753.50	  441.92
      9.4700	  596.00	  552.87	-1753.50	  442.21
      9.5700	  623.00	  553.15	-1753.50	  442.48
      9.6700	  638.00	  553.41	-1753.50	  442.75
      9.7700	  629.00	  553.67	-1753.50	  443.01
      9.8700	  603.00	  553.93	-1753.50	  443.26
      9.9700	  603.00	  554.17	-1753.50	  443.51
     10.0700	  579.00	  555.90	-1730.40	  443.75
     10.1700	  553.00	  556.28	-1756.78	  443.98
     10.2700	  582.00	  556.70	-1728.20	  444.20
     10.3700	  607.00	  557.16	-1703.66	  444.41
     10.4700	  563.00	  557.70	-1748.20	  444.62
     10.5700	  606.00	  558.37	-1705.87	  444.82
     10.6700	  600.00	  559.24	-1712.74	  445.01
     10.7700	  632.00	  560.42	-1681.92	  445.19
     10.8700	  538.00	  561.95	-1777.45	  445.37
     10.9700	  567.00	  563.88	-1750.38	  445.54
     11.0700	  548.00	  566.20	-1771.70	  445.70
     11.1700	  553.00	  568.90	-1769.40	  445.86
     11.2700	  587.00	  572.03	-1738.53	  446.01
     11.3700	  592.00	  575.66	-1737.16	  446.15
     11.4700	  576.00	  579.92	-1757.42	  446.28
     11.5700	  588.00	  585.00	-1750.50	  446.41
     11.6700	  583.00	  591.22	-1761.72	  446.53
     11.7700	  614.00	  598.99	-1738.49	  446.65
     11.8700	  595.00	  608.70	-1767.20	  446.76
     11.9700	  659.00	  620.18	-1714.68	  446.86
     12.0700	  687.00	  631.89	-1698.39	  446.95
     12.1700	  662.00	  640.08	-1731.58	  447.04
     12.2700	  667.00	  639.07	-1725.57	  447.12
     12.3700	  625.00	  625.91	-1754.41	  447.20
     12.4700	  683.00	  606.70	-1677.20	  447.27
     12.5700	  583.00	  589.69	-1760.19	  447.33
     12.6700	  551.00	  577.91	-1780.41	  447.39
     12.7700	  568.00	  570.84	-1756.34	  447.44
     12.8700	  562.00	  566.91	-1758.41	  447.48
     12.9700	  555.00	  564.72	-1763.22	  447.52
     13.0700	  550.00	  563.39	-1766.89	  447.56
     13.1700	  574.00	  562.50	-1742.00	  447.58
     13.2700	  568.00	  561.85	-1747.35	  447.61
     13.3700	  507.00	  561.35	-1807.85	  447.62
     13.4700	  535.00	  560.95	-1779.45	  447.63
     13.5700	  518.00	  560.63	-1796.13	  447.64
     13.6700	  534.00	  560.37	-1779.87	  447.63
     13.7700	  531.00	  560.15	-1782.65	  447.63
     13.8700	  557.00	  559.96	-1756.46	  447.62
     13.9700	  554.00	  559.79	-1759.29	  447.60
     14.0700	  582.00	  559.64	-1731.14	  447.58
     14.1700	  553.00	  559.50	-1760.00	  447.55
     14.2700	  606.00	  559.40	-1706.90	  447.51
     14.3700	  548.00	  559.28	-1764.78	  447.48
     14.4700	  573.00	  559.17	-1739.67	  447.43
     14.5700	  562.00	  559.06	-1750.56	  447.38
     14.6700	  565.00	  558.95	-1747.45	  447.33
     14.7700	  575.00	  558.84	-1737.34	  447.27
     14.8700	  575.00	  558.73	-1737.23	  447.21
     14.9700	  569.00	  558.62	-1743.12	  447.14
     15.0700	  534.00	  558.52	-1778.02	  447.07
     15.1700	  517.00	  558.41	-1794.91	  446.99
     15.2700	  526.00	  558.30	-1785.80	  446.91
     15.3700	  577.00	  558.18	-1734.68	  446.82
     15.4700	  540.00	  558.07	-1771.57	  446.73
     15.5700	  568.00	  557.95	-1743.45	  446.63
     15.6700	  547.00	  557.83	-1764.33	  446.53
     15.7700	  547.00	  557.71	-1764.21	  446.42
     15.8700	  558.00	  557.58	-1753.08	  446.31
     15.9700	  548.00	  557.45	-1762.95	  446.20
     16.0700	  548.00	  557.32	-1762.82	  446.08
     16.1700	  502.00	  557.19	-1808.69	  445.96
     16.2700	  510.00	  557.05	-1800.55	  445.83
     16.3700	  547.00	  556.91	-1763.41	  445.70
     16.4700	  509.00	  556.76	-1801.26	  445.57
     16.5700	  543.00	  556.61	-1767.11	  445.43
     16.6700	  554.00	  556.46	-1755.96	  445.29
     16.7700	  555.00	  556.31	-1754.81	  445.14
     16.8700	  558.00	  556.15	-1751.65	  444.99
     16.9700	  549.00	  555.99	-1760.49	  444.83
     17.0700	  538.00	  555.83	-1771.33	  444.67
     17.1700	  511.00	  555.66	-1798.16	  444.51
     17.2700	  529.00	  555.49	-1779.99	  444.35
     17.3700	  557.00	  555.32	-1751.82	  444.18
     17.4700	  550.00	  555.14	-1758.64	  444.01
     17.5700	  566.00	  554.96	-1742.46	  443.83
     17.6700	  546.00	  554.88	-1762.38	  443.65
     17.7700	  532.00	  554.70	-1776.20	  443.47
     17.8700	  553.00	  554.51	-1755.01	  443.28
     17.9700	  537.00	  554.32	-1770.82	  443.09
     18.0700	  541.00	  554.13	-1766.63	  442.90
     18.1700	  532.00	  553.93	-1775.43	  442.70
     18.2700	  509.00	  553.83	-1798.33	  442.50
     18.3700	  540.00	  553.63	-1767.13	  442.30
     18.4700	  526.00	  553.43	-1780.93	  442.09
     18.5700	  505.00	  553.22	-1801.72	  441.88
     18.6700	  551.00	  553.01	-1755.51	  441.67
     18.7700	  545.00	  552.80	-1761.30	  441.45
     18.8700	  564.00	  552.59	-1742.09	  441.23
     18.9700	  560.00	  552.37	-1745.87	  441.01
     19.0700	  498.00	  552.16	-1807.66	  440.79
     19.1700	  506.00	  551.94	-1799.44	  440.56
     19.2700	  541.00	  551.71	-1764.21	  440.33
     19.3700	  541.00	  551.49	-1763.99	  440.10
     19.4700	  516.00	  551.26	-1788.76	  439.86
     19.5700	  547.00	  551.03	-1757.53	  439.63
     19.6700	  579.00	  550.80	-1725.30	  439.39
     19.7700	  593.00	  550.57	-1711.07	  439.14
     19.8700	  500.00	  550.34	-1803.84	  438.90
     19.9700	  549.00	  550.13	-1754.63	  438.65
     20.0700	  543.00	  549.90	-1760.40	  438.40
     20.1700	  557.00	  549.66	-1746.16	  438.15
     20.2700	  543.00	  549.42	-1759.92	  437.89
     20.3700	  543.00	  549.17	-1759.67	  437.63
     20.4700	  568.00	  548.93	-1734.43	  437.37
     20.5700	  494.00	  548.68	-1808.18	  437.11
     20.6700	  552.00	  548.44	-1749.94	  436.85
     20.7700	  573.00	  548.19	-1728.69	  436.58
     20.8700	  567.00	  547.94	-1734.44	  436.31
     20.9700	  540.00	  547.69	-1761.19	  436.04
     21.0700	  538.00	  547.44	-1762.94	  435.77
     21.1700	  555.00	  547.19	-1745.69	  435.50
     21.2700	  530.00	  546.94	-1770.44	  435.22
     21.3700	  539.00	  546.69	-1761.19	  434.94
     21.4700	  531.00	  546.44	-1768.94	  434.66
     21.5700	  547.00	  546.19	-1752.69	  434.38
     21.6700	  506.00	  545.95	-1793.45	  434.09
     21.7700	  565.00	  545.70	-1734.20	  433.81
     21.8700	  578.00	  545.45	-1720.95	  433.52
     21.9700	  538.00	  545.21	-1760.71	  433.23
     22.0700	  534.00	  544.96	-1764.46	  432.94
     22.1700	  605.00	  544.72	-1693.22	  432.65
     22.2700	  574.00	  544.49	-1723.99	  432.35
     22.3700	  562.00	  544.26	-1735.76	  432.06
     22.4700	  536.00	  543.99	-1761.49	  431.76
     22.5700	  536.00	  543.92	-1761.42	  431.46
     22.6700	  574.00	  543.71	-1723.21	  431.16
     22.7700	  544.00	  543.51	-1753.01	  430.86
     22.8700	  525.00	  543.33	-1771.83	  430.55
     22.9700	  588.00	  543.15	-1708.65	  430.25
     23.0700	  534.00	  543.00	-1762.50	  429.94
     23.1700	  564.00	  542.87	-1732.37	  429.64
     23.2700	  554.00	  542.77	-1742.27	  429.33
     23.3700	  527.00	  542.70	-1769.20	  429.02
     23.4700	  556.00	  542.69	-1740.19	  428.71
     23.5700	  551.00	  542.74	-1745.24	  428.40
     23.6700	  559.00	  542.89	-1737.39	  428.08
     23.7700	  543.00	  543.19	-1753.69	  427.77
     23.8700	  537.00	  543.74	-1760.24	  427.45
     23.9700	  535.00	  544.72	-1763.22	  427.14
     24.0700	  563.00	  546.43	-1736.93	  426.82
     24.1700	  513.00	  549.34	-1789.84	  426.50
     24.2700	  567.00	  554.06	-1740.56	  426.18
     24.3700	  564.00	  561.21	-1750.71	  425.86
     24.4700	  565.00	  571.18	-1759.68	  425.54
     24.5700	  653.00	  583.73	-1684.23	  425.22
     24.6700	  615.00	  597.26	-1735.76	  424.90
     24.7700	  615.00	  608.07	-1746.57	  424.58
     24.8700	  616.00	  610.54	-1748.04	  424.25
     24.9700	  613.00	  601.16	-1741.66	  423.93
     25.0700	  582.00	  584.52	-1756.02	  423.60
     25.1700	  593.00	  568.38	-1728.88	  423.28
     25.2700	  596.00	  556.39	-1713.89	  422.95
     25.3700	  527.00	  548.75	-1775.25	  422.62
     25.4700	  556.00	  544.32	-1741.82	  422.29
     25.5700	  564.00	  541.80	-1731.30	  421.97
     25.6700	  553.00	  540.28	-1740.78	  421.64
     25.7700	  563.00	  539.28	-1729.78	  421.31
     25.8700	  555.00	  538.56	-1737.06	  420.98
     25.9700	  575.00	  538.02	-1716.52	  420.65
     26.0700	  545.00	  537.63	-1746.13	  420.32
     26.1700	  564.00	  537.35	-1726.85	  419.99
     26.2700	  565.00	  537.18	-1725.68	  419.65
     26.3700	  541.00	  537.11	-1749.61	  419.32
     26.4700	  582.00	  537.14	-1708.64	  418.99
     26.5700	  568.00	  537.29	-1722.79	  418.66
     26.6700	  574.00	  537.56	-1717.06	  418.33
     26.7700	  549.00	  537.98	-1742.48	  417.99
     26.8700	  537.00	  538.58	-1755.08	  417.66
     26.9700	  528.00	  539.41	-1764.91	  417.33
     27.0700	  532.00	  540.54	-1762.04	  416.99
     27.1700	  580.00	  542.10	-1715.60	  416.66
     27.2700	  549.00	  544.29	-1748.79	  416.33
     27.3700	  573.00	  547.52	-1728.02	  415.99
     27.4700	  573.00	  552.58	-1733.08	  415.66
     27.5700	  605.00	  560.88	-1709.38	  415.33
     27.6700	  586.00	  574.75	-1742.25	  414.99
     27.7700	  566.00	  597.36	-1784.86	  414.66
     27.8700	  623.00	  631.92	-1762.42	  414.33
     27.9700	  631.00	  679.73	-1802.23	  413.99
     28.0700	  748.00	  737.46	-1742.96	  413.66
     28.1700	  763.00	  794.50	-1785.00	  413.33
     28.2700	  968.00	  831.99	-1617.49	  413.00
     28.3700	  884.00	  830.65	-1700.15	  412.66
     28.4700	  826.00	  795.37	-1722.87	  412.33
     28.5700	  749.00	  757.95	-1762.45	  412.00
     28.6700	  713.00	  742.30	-1782.80	  411.67
     28.7700	  722.00	  751.78	-1783.28	  411.34
     28.8700	  726.00	  774.30	-1801.80	  411.00
     28.9700	  819.00	  787.84	-1722.34	  410.67
     29.0700	  778.00	  770.46	-1745.96	  410.34
     29.1700	  767.00	  721.57	-1708.07	  410.01
     29.2700	  692.00	  663.87	-1725.37	  409.68
     29.3700	  611.00	  615.76	-1758.26	  409.35
     29.4700	  587.00	  582.58	-1749.08	  409.02
     29.5700	  539.00	  562.37	-1776.87	  408.70
     29.6700	  568.00	  550.93	-1736.43	  408.37
     29.7700	  602.00	  544.40	-1695.90	  408.04
     29.8700	  600.00	  540.48	-1693.98	  407.71
     29.9700	  545.00	  538.00	-1746.50	  407.39
     30.0700	  566.00	  536.54	-1724.04	  407.06
     30.1700	  560.00	  536.07	-1729.57	  406.74
     30.2700	  510.00	  536.87	-1780.37	  406.41
     30.3700	  574.00	  539.58	-1719.08	  406.09
     30.4700	  603.00	  545.21	-1695.71	  405.76
     30.5700	  576.00	  554.86	-1732.36	  405.44
     30.6700	  537.00	  569.07	-1785.57	  405.12
     30.7700	  589.00	  586.71	-1751.21	  404.80
     30.8700	  564.00	  604.19	-1793.69	  404.48
     30.9700	  621.00	  615.15	-1747.65	  404.16
     31.0700	  578.00	  612.63	-1788.13	  403.84
     31.1700	  619.00	  596.34	-1730.84	  403.52
     31.2700	  583.00	  574.76	-1745.26	  403.20
     31.3700	  556.00	  555.69	-1753.19	  402.88
     31.4700	  535.00	  541.98	-1760.48	  402.57
     31.5700	  535.00	  533.35	-1751.85	  402.25
     31.6700	  539.00	  528.37	-1742.86	  401.94
     31.7700	  503.00	  525.53	-1776.03	  401.62
     31.8700	  493.00	  523.85	-1784.35	  401.31
     31.9700	  547.00	  522.77	-1729.27	  401.00
     32.0700	  571.00	  522.05	-1704.55	  400.69
     32.1700	  550.00	  521.58	-1725.08	  400.38
     32.2700	  583.00	  521.33	-1691.83	  400.07
     32.3700	  472.00	  521.27	-1802.77	  399.76
     32.4700	  560.00	  521.41	-1714.91	  399.45
     32.5700	  531.00	  521.76	-1744.26	  399.15
     32.6700	  513.00	  522.36	-1762.86	  398.84
     32.7700	  561.00	  523.26	-1715.76	  398.54
     32.8700	  592.00	  524.53	-1686.03	  398.24
     32.9700	  509.00	  526.31	-1770.81	  397.93
     33.0700	  523.00	  528.82	-1759.32	  397.63
     33.1700	  610.00	  532.51	-1676.01	  397.33
     33.2700	  526.00	  538.27	-1765.77	  397.04
     33.3700	  564.00	  547.86	-1737.36	  396.74
     33.4700	  540.00	  564.40	-1777.90	  396.44
     33.5700	  581.00	  592.58	-1765.08	  396.15
     33.6700	  609.00	  637.92	-1782.42	  395.85
     33.7700	  719.00	  703.78	-1738.28	  395.56
     33.8700	  823.00	  786.63	-1717.13	  395.27
     33.9700	  903.00	  871.71	-1722.21	  394.98
     34.0700	 1012.00	  931.78	-1673.28	  394.69
     34.1700	 1012.00	  935.44	-1676.94	  394.40
     34.2700	  935.00	  875.07	-1693.57	  394.11
     34.3700	  811.00	  782.36	-1724.86	  393.83
     34.4700	  696.00	  693.71	-1751.21	  393.54
     34.5700	  613.00	  626.07	-1766.57	  393.26
     34.6700	  611.00	  581.41	-1723.91	  392.98
     34.7700	  562.00	  554.72	-1746.22	  392.70
     34.8700	  524.00	  539.50	-1769.00	  392.42
     34.9700	  521.00	  530.60	-1763.10	  392.14
     35.0700	  531.00	  524.93	-1747.43	  391.86
     35.1700	  502.00	  520.93	-1772.43	  391.59
     35.2700	  548.00	  517.89	-1723.39	  391.32
     35.3700	  524.00	  515.44	-1744.94	  391.04
     35.4700	  540.00	  513.47	-1726.97	  390.77
     35.5700	  514.00	  511.82	-1751.32	  390.50
     35.6700	  494.00	  510.89	-1770.39	  390.24
     35.7700	  533.00	  509.70	-1730.20	  389.97
     35.8700	  515.00	  508.66	-1747.16	  389.70
     35.9700	  506.00	  507.76	-1755.26	  389.44
     36.0700	  512.00	  506.95	-1748.45	  389.18
     36.1700	  494.00	  506.25	-1765.75	  388.92
     36.2700	  561.00	  505.61	-1698.11	  388.66
     36.3700	  525.00	  505.03	-1733.53	  388.40
     36.4700	  507.00	  504.52	-1751.02	  388.14
     36.5700	  484.00	  504.06	-1773.56	  387.89
     36.6700	  492.00	  503.66	-1765.16	  387.63
     36.7700	  491.00	  503.33	-1765.83	  387.38
     36.8700	  523.00	  503.09	-1733.59	  387.13
     36.9700	  502.00	  502.99	-1754.49	  386.88
     37.0700	  475.00	  503.12	-1781.62	  386.63
     37.1700	  482.00	  503.63	-1775.13	  386.39
     37.2700	  453.00	  504.74	-1805.24	  386.14
     37.3700	  518.00	  506.62	-1742.12	  385.90
     37.4700	  537.00	  509.30	-1725.80	  385.66
     37.5700	  529.00	  512.47	-1736.97	  385.42
     37.6700	  517.00	  515.32	-1751.82	  385.18
     37.7700	  551.00	  516.67	-1719.17	  384.95
     37.8700	  500.00	  515.59	-1769.09	  384.71
     37.9700	  465.00	  512.61	-1801.11	  384.48
     38.0700	  525.00	  508.73	-1737.23	  384.25
     38.1700	  477.00	  505.19	-1781.69	  384.02
     38.2700	  506.00	  502.43	-1749.93	  383.79
     38.3700	  461.00	  500.48	-1792.98	  383.56
     38.4700	  477.00	  499.18	-1775.68	  383.34
     38.5700	  481.00	  498.31	-1770.81	  383.11
     38.6700	  489.00	  497.70	-1762.20	  382.89
     38.7700	  511.00	  497.24	-1739.74	  382.67
     38.8700	  484.00	  496.85	-1766.35	  382.45
     38.9700	  504.00	  496.52	-1746.02	  382.23
     39.0700	  505.00	  496.21	-1744.71	  382.02
     39.1700	  512.00	  495.83	-1737.33	  381.81
     39.2700	  532.00	  495.58	-1717.08	  381.59
     39.3700	  496.00	  495.34	-1752.84	  381.38
     39.4700	  492.00	  495.12	-1756.62	  381.18
     39.5700	  523.00	  494.91	-1725.41	  380.97
     39.6700	  485.00	  494.71	-1763.21	  380.76
     39.7700	  487.00	  494.52	-1761.02	  380.56
     39.8700	  463.00	  494.35	-1784.85	  380.36
     39.9700	  535.00	  494.19	-1712.69	  380.16
     40.0700	  496.00	  493.95	-1751.45	  379.96
     40.1700	  469.00	  493.82	-1778.32	  379.77
     40.2700	  510.00	  493.69	-1737.19	  379.57
     40.3700	  467.00	  493.59	-1780.09	  379.38
     40.4700	  486.00	  493.49	-1760.99	  379.19
     40.5700	  515.00	  493.92	-1732.42	  379.00
     40.6700	  500.00	  493.87	-1747.37	  378.81
     40.7700	  465.00	  493.84	-1782.34	  378.62
