MSG Master    CELL:    5.91923   5.91923  23.28094   90.0000   90.0000  120.0000   SPGR: P 63/m m c             TEMP:   1066.85
  1   1280     2.52000     0.00000    -0.12379     0.00000     0.00000    0
    99     0     2
       0.00000      10.00000
     125.00000     130.00000
 2Theta	Yobs	Ycal	Yobs-Ycal	Backg	Posr	(hkl)	K
      0.7700	    0.00	  527.29	-1709.75	  408.66
      0.8700	    0.00	  528.21	-1709.75	  409.58
      0.9700	   48.00	  529.11	-1709.75	  410.48
      1.0700	   35.00	  530.00	-1709.75	  411.37
      1.1700	   50.00	  530.88	-1709.75	  412.24
      1.2700	   35.00	  531.74	-1709.75	  413.11
      1.3700	   57.00	  532.60	-1709.75	  413.96
      1.4700	   91.00	  533.44	-1709.75	  414.80
      1.5700	  304.00	  534.27	-1709.75	  415.63
      1.6700	  487.00	  535.08	-1709.75	  416.45
      1.7700	  552.00	  535.89	-1709.75	  417.26
      1.8700	  643.00	  536.68	-1709.75	  418.05
      1.9700	  699.00	  537.47	-1709.75	  418.83
      2.0700	  753.00	  538.24	-1709.75	  419.60
      2.1700	  803.00	  539.00	-1709.75	  420.36
      2.2700	  760.00	  539.74	-1709.75	  421.11
      2.3700	  758.00	  540.48	-1709.75	  421.85
      2.4700	  715.00	  541.21	-1709.75	  422.57
      2.5700	  683.00	  541.92	-1709.75	  423.29
      2.6700	  687.00	  542.62	-1709.75	  423.99
      2.7700	  672.00	  543.32	-1709.75	  424.68
      2.8700	  648.00	  544.00	-1709.75	  425.36
      2.9700	  657.00	  544.67	-1709.75	  426.04
      3.0700	  620.00	  545.33	-1709.75	  426.70
      3.1700	  599.00	  545.98	-1709.75	  427.35
      3.2700	  590.00	  546.62	-1709.75	  427.98
      3.3700	  697.00	  547.25	-1709.75	  428.61
      3.4700	  778.00	  547.86	-1709.75	  429.23
      3.5700	  851.00	  548.47	-1709.75	  429.84
      3.6700	  857.00	  549.07	-1709.75	  430.43
      3.7700	  913.00	  549.66	-1709.75	  431.02
      3.8700	  967.00	  550.23	-1709.75	  431.60
      3.9700	 1058.00	  550.80	-1709.75	  432.16
      4.0700	 1067.00	  551.36	-1709.75	  432.72
      4.1700	 1130.00	  551.90	-1709.75	  433.27
      4.2700	 1141.00	  552.44	-1709.75	  433.81
      4.3700	 1154.00	  552.97	-1709.75	  434.33
      4.4700	 1075.00	  553.48	-1709.75	  434.85
      4.5700	 1061.00	  553.99	-1709.75	  435.36
      4.6700	  967.00	  554.49	-1709.75	  435.86
      4.7700	 1042.00	  554.98	-1709.75	  436.34
      4.8700	  970.00	  555.46	-1709.75	  436.82
      4.9700	  970.00	  555.93	-1709.75	  437.29
      5.0700	  908.00	  556.39	-1709.75	  437.75
      5.1700	  966.00	  556.84	-1709.75	  438.21
      5.2700	  936.00	  557.28	-1709.75	  438.65
      5.3700	  928.00	  557.72	-1709.75	  439.08
      5.4700	  867.00	  558.14	-1709.75	  439.51
      5.5700	  846.00	  558.55	-1709.75	  439.92
      5.6700	  846.00	  558.96	-1709.75	  440.33
      5.7700	  870.00	  559.36	-1709.75	  440.72
      5.8700	  872.00	  559.75	-1709.75	  441.11
      5.9700	  828.00	  560.13	-1709.75	  441.49
      6.0700	  812.00	  560.50	-1709.75	  441.87
      6.1700	  774.00	  560.86	-1709.75	  442.23
      6.2700	  746.00	  561.22	-1709.75	  442.58
      6.3700	  800.00	  561.56	-1709.75	  442.93
      6.4700	  768.00	  561.90	-1709.75	  443.27
      6.5700	  762.00	  562.23	-1709.75	  443.60
      6.6700	  678.00	  562.55	-1709.75	  443.92
      6.7700	  758.00	  562.86	-1709.75	  444.23
      6.8700	  742.00	  563.17	-1709.75	  444.54
      6.9700	  717.00	  563.47	-1709.75	  444.83
      7.0700	  716.00	  563.76	-1709.75	  445.12
      7.1700	  712.00	  564.04	-1709.75	  445.40
      7.2700	  720.00	  564.31	-1709.75	  445.68
      7.3700	  691.00	  564.58	-1709.75	  445.94
      7.4700	  700.00	  564.84	-1709.75	  446.20
      7.5700	  657.00	  565.09	-1709.75	  446.45
      7.6700	  702.00	  565.33	-1709.75	  446.70
      7.7700	  665.00	  565.56	-1709.75	  446.93
      7.8700	  673.00	  565.79	-1709.75	  447.16
      7.9700	  620.00	  566.01	-1709.75	  447.38
      8.0700	  619.00	  566.23	-1709.75	  447.59
      8.1700	  649.00	  566.43	-1709.75	  447.80
      8.2700	  638.00	  566.63	-1709.75	  448.00
      8.3700	  612.00	  566.82	-1709.75	  448.19
      8.4700	  584.00	  567.01	-1709.75	  448.37
      8.5700	  639.00	  567.19	-1709.75	  448.55
      8.6700	  606.00	  567.36	-1709.75	  448.72
      8.7700	  619.00	  567.52	-1709.75	  448.89
      8.8700	  586.00	  567.68	-1709.75	  449.04
      8.9700	  599.00	  567.83	-1709.75	  449.19
      9.0700	  576.00	  567.97	-1709.75	  449.34
      9.1700	  641.00	  568.11	-1709.75	  449.47
      9.2700	  630.00	  568.24	-1709.75	  449.60
      9.3700	  612.00	  568.36	-1709.75	  449.73
      9.4700	  574.00	  568.48	-1709.75	  449.85
      9.5700	  603.00	  568.59	-1709.75	  449.96
      9.6700	  611.00	  568.70	-1709.75	  450.06
      9.7700	  644.00	  568.79	-1709.75	  450.16
      9.8700	  567.00	  568.89	-1709.75	  450.25
      9.9700	  564.00	  568.97	-1709.75	  450.34
     10.0700	  556.00	  570.04	-1723.79	  450.42
     10.1700	  588.00	  570.23	-1691.98	  450.49
     10.2700	  598.00	  570.43	-1682.18	  450.56
     10.3700	  634.00	  570.67	-1646.42	  450.62
     10.4700	  547.00	  570.98	-1733.73	  450.68
     10.5700	  615.00	  571.42	-1666.17	  450.73
     10.6700	  544.00	  572.08	-1737.83	  450.77
     10.7700	  560.00	  573.08	-1722.83	  450.81
     10.8700	  577.00	  574.48	-1707.23	  450.84
     10.9700	  602.00	  576.28	-1684.03	  450.87
     11.0700	  548.00	  578.46	-1740.21	  450.89
     11.1700	  568.00	  581.01	-1722.76	  450.91
     11.2700	  552.00	  583.97	-1741.72	  450.92
     11.3700	  579.00	  587.44	-1718.19	  450.92
     11.4700	  573.00	  591.54	-1728.29	  450.92
     11.5700	  603.00	  596.51	-1703.26	  450.92
     11.6700	  620.00	  602.71	-1692.46	  450.91
     11.7700	  578.00	  610.78	-1742.53	  450.89
     11.8700	  675.00	  621.52	-1656.27	  450.87
     11.9700	  627.00	  635.23	-1717.98	  450.85
     12.0700	  698.00	  649.95	-1661.70	  450.81
     12.1700	  685.00	  659.70	-1684.45	  450.78
     12.2700	  693.00	  655.64	-1672.39	  450.74
     12.3700	  677.00	  635.55	-1668.30	  450.69
     12.4700	  612.00	  611.13	-1708.88	  450.64
     12.5700	  623.00	  592.71	-1679.46	  450.59
     12.6700	  564.00	  582.08	-1727.83	  450.53
     12.7700	  595.00	  576.87	-1691.62	  450.46
     12.8700	  580.00	  574.39	-1704.14	  450.39
     12.9700	  590.00	  573.03	-1692.78	  450.32
     13.0700	  549.00	  572.15	-1732.90	  450.24
     13.1700	  537.00	  571.49	-1744.24	  450.16
     13.2700	  563.00	  570.98	-1717.73	  450.07
     13.3700	  560.00	  570.56	-1720.31	  449.98
     13.4700	  595.00	  570.21	-1684.96	  449.88
     13.5700	  551.00	  569.90	-1728.65	  449.78
     13.6700	  547.00	  569.63	-1732.38	  449.68
     13.7700	  583.00	  569.38	-1696.13	  449.57
     13.8700	  568.00	  569.16	-1710.91	  449.46
     13.9700	  553.00	  568.94	-1725.69	  449.34
     14.0700	  551.00	  568.74	-1727.49	  449.22
     14.1700	  542.00	  568.54	-1736.29	  449.09
     14.2700	  553.00	  568.36	-1725.11	  448.96
     14.3700	  546.00	  568.17	-1731.92	  448.83
     14.4700	  565.00	  567.99	-1712.74	  448.69
     14.5700	  574.00	  567.81	-1703.56	  448.55
     14.6700	  570.00	  567.63	-1707.38	  448.41
     14.7700	  554.00	  567.45	-1723.20	  448.26
     14.8700	  541.00	  567.27	-1736.02	  448.11
     14.9700	  547.00	  567.08	-1729.83	  447.96
     15.0700	  603.00	  566.90	-1673.65	  447.80
     15.1700	  567.00	  566.72	-1709.47	  447.63
     15.2700	  529.00	  566.54	-1747.29	  447.47
     15.3700	  556.00	  566.35	-1720.10	  447.30
     15.4700	  545.00	  566.16	-1730.91	  447.13
     15.5700	  552.00	  565.97	-1723.72	  446.95
     15.6700	  552.00	  565.81	-1723.56	  446.77
     15.7700	  583.00	  565.61	-1692.36	  446.59
     15.8700	  550.00	  565.42	-1725.17	  446.40
     15.9700	  576.00	  565.22	-1698.97	  446.21
     16.0700	  570.00	  565.02	-1704.77	  446.02
     16.1700	  562.00	  564.81	-1712.56	  445.83
     16.2700	  581.00	  564.61	-1693.36	  445.63
     16.3700	  581.00	  564.40	-1693.15	  445.43
     16.4700	  566.00	  564.19	-1707.94	  445.22
     16.5700	  559.00	  563.98	-1714.73	  445.02
     16.6700	  586.00	  563.76	-1687.51	  444.81
     16.7700	  559.00	  563.54	-1714.29	  444.59
     16.8700	  565.00	  563.32	-1708.07	  444.38
     16.9700	  587.00	  563.10	-1685.85	  444.16
     17.0700	  553.00	  562.88	-1719.63	  443.94
     17.1700	  581.00	  562.65	-1691.40	  443.71
     17.2700	  596.00	  562.42	-1676.17	  443.49
     17.3700	  569.00	  562.19	-1702.94	  443.26
     17.4700	  558.00	  561.95	-1713.70	  443.03
     17.5700	  528.00	  561.72	-1743.47	  442.79
     17.6700	  559.00	  561.48	-1712.23	  442.56
     17.7700	  563.00	  561.24	-1707.99	  442.32
     17.8700	  531.00	  560.99	-1739.74	  442.08
     17.9700	  576.00	  560.75	-1694.50	  441.83
     18.0700	  593.00	  560.61	-1677.36	  441.59
     18.1700	  559.00	  560.37	-1711.12	  441.34
     18.2700	  584.00	  560.12	-1685.87	  441.09
     18.3700	  574.00	  559.87	-1695.62	  440.83
     18.4700	  590.00	  559.61	-1679.36	  440.58
     18.5700	  521.00	  559.36	-1748.11	  440.32
     18.6700	  553.00	  559.10	-1715.85	  440.06
     18.7700	  557.00	  558.92	-1711.67	  439.80
     18.8700	  534.00	  558.67	-1734.42	  439.54
     18.9700	  542.00	  558.40	-1726.15	  439.27
     19.0700	  537.00	  558.14	-1730.89	  439.01
     19.1700	  544.00	  557.88	-1723.63	  438.74
     19.2700	  540.00	  557.61	-1727.36	  438.47
     19.3700	  550.00	  557.35	-1717.10	  438.19
     19.4700	  589.00	  557.08	-1677.83	  437.92
     19.5700	  572.00	  556.81	-1694.56	  437.64
     19.6700	  586.00	  556.54	-1680.29	  437.36
     19.7700	  574.00	  556.27	-1692.02	  437.08
     19.8700	  518.00	  556.00	-1747.75	  436.80
     19.9700	  558.00	  555.72	-1707.47	  436.52
     20.0700	  527.00	  555.45	-1738.20	  436.23
     20.1700	  559.00	  555.17	-1705.92	  435.95
     20.2700	  564.00	  554.89	-1700.65	  435.66
     20.3700	  553.00	  554.62	-1711.37	  435.37
     20.4700	  533.00	  554.34	-1731.09	  435.08
     20.5700	  536.00	  554.06	-1727.81	  434.79
     20.6700	  508.00	  553.81	-1755.56	  434.49
     20.7700	  540.00	  553.53	-1723.28	  434.20
     20.8700	  519.00	  553.25	-1744.00	  433.90
     20.9700	  538.00	  552.97	-1724.72	  433.60
     21.0700	  581.00	  552.69	-1681.44	  433.31
     21.1700	  542.00	  552.37	-1720.12	  433.01
     21.2700	  585.00	  552.09	-1676.84	  432.70
     21.3700	  538.00	  551.81	-1723.56	  432.40
     21.4700	  525.00	  551.54	-1736.29	  432.10
     21.5700	  550.00	  551.26	-1711.01	  431.79
     21.6700	  562.00	  550.98	-1698.73	  431.49
     21.7700	  525.00	  550.70	-1735.45	  431.18
     21.8700	  567.00	  550.43	-1693.18	  430.87
     21.9700	  559.00	  550.15	-1700.90	  430.56
     22.0700	  553.00	  549.88	-1706.63	  430.25
     22.1700	  517.00	  549.61	-1742.36	  429.94
     22.2700	  560.00	  549.34	-1699.09	  429.63
     22.3700	  526.00	  549.08	-1732.83	  429.32
     22.4700	  549.00	  548.82	-1709.57	  429.01
     22.5700	  514.00	  548.57	-1744.32	  428.69
     22.6700	  550.00	  548.32	-1708.07	  428.38
     22.7700	  554.00	  548.08	-1703.83	  428.06
     22.8700	  553.00	  547.85	-1704.60	  427.74
     22.9700	  581.00	  547.63	-1676.38	  427.43
     23.0700	  565.00	  547.43	-1692.18	  427.11
     23.1700	  538.00	  547.24	-1718.99	  426.79
     23.2700	  548.00	  547.08	-1708.83	  426.47
     23.3700	  509.00	  546.94	-1747.69	  426.15
     23.4700	  525.00	  546.99	-1731.74	  425.83
     23.5700	  538.00	  546.95	-1718.70	  425.51
     23.6700	  542.00	  546.99	-1714.74	  425.19
     23.7700	  552.00	  547.17	-1704.92	  424.87
     23.8700	  535.00	  547.58	-1722.33	  424.55
     23.9700	  619.00	  548.48	-1639.23	  424.23
     24.0700	  546.00	  550.25	-1714.00	  423.90
     24.1700	  576.00	  553.52	-1687.27	  423.58
     24.2700	  543.00	  559.05	-1725.80	  423.26
     24.3700	  564.00	  567.70	-1713.45	  422.93
     24.4700	  601.00	  580.16	-1688.91	  422.61
     24.5700	  570.00	  596.19	-1735.94	  422.28
     24.6700	  650.00	  612.87	-1672.62	  421.96
     24.7700	  628.00	  623.42	-1705.17	  421.63
     24.8700	  604.00	  619.48	-1725.23	  421.31
     24.9700	  640.00	  600.98	-1670.73	  420.98
     25.0700	  591.00	  579.18	-1697.93	  420.66
     25.1700	  579.00	  562.58	-1693.33	  420.33
     25.2700	  569.00	  552.71	-1693.46	  420.01
     25.3700	  546.00	  547.70	-1711.45	  419.68
     25.4700	  541.00	  545.26	-1714.01	  419.36
     25.5700	  565.00	  543.93	-1688.68	  419.03
     25.6700	  571.00	  543.07	-1681.82	  418.71
     25.7700	  600.00	  542.45	-1652.20	  418.38
     25.8700	  564.00	  541.99	-1687.74	  418.06
     25.9700	  556.00	  541.64	-1695.39	  417.73
     26.0700	  531.00	  541.38	-1720.13	  417.40
     26.1700	  583.00	  541.21	-1667.96	  417.08
     26.2700	  564.00	  541.12	-1686.87	  416.75
     26.3700	  549.00	  541.12	-1701.87	  416.43
     26.4700	  556.00	  541.20	-1694.95	  416.11
     26.5700	  524.00	  541.39	-1727.14	  415.78
     26.6700	  552.00	  541.69	-1699.44	  415.46
     26.7700	  541.00	  542.15	-1710.90	  415.13
     26.8700	  525.00	  542.79	-1727.54	  414.81
     26.9700	  517.00	  543.66	-1736.41	  414.49
     27.0700	  547.00	  544.86	-1707.61	  414.16
     27.1700	  570.00	  546.52	-1686.27	  413.84
     27.2700	  546.00	  548.90	-1712.65	  413.52
     27.3700	  524.00	  552.55	-1738.30	  413.20
     27.4700	  549.00	  558.52	-1719.27	  412.88
     27.5700	  610.00	  568.70	-1668.45	  412.55
     27.6700	  574.00	  586.09	-1721.84	  412.23
     27.7700	  600.00	  614.59	-1724.34	  411.91
     27.8700	  594.00	  657.62	-1773.37	  411.59
     27.9700	  647.00	  715.43	-1778.18	  411.28
     28.0700	  809.00	  781.48	-1682.23	  410.96
     28.1700	  852.00	  839.22	-1696.97	  410.64
     28.2700	  983.00	  863.49	-1590.24	  410.32
     28.3700	  913.00	  838.68	-1635.43	  410.00
     28.4700	  845.00	  787.11	-1651.86	  409.69
     28.5700	  701.00	  747.26	-1756.01	  409.37
     28.6700	  701.00	  737.20	-1745.95	  409.06
     28.7700	  748.00	  753.00	-1714.75	  408.74
     28.8700	  741.00	  775.74	-1744.49	  408.43
     28.9700	  790.00	  778.91	-1698.66	  408.12
     29.0700	  782.00	  745.33	-1673.08	  407.81
     29.1700	  688.00	  688.16	-1709.91	  407.49
     29.2700	  636.00	  633.22	-1706.97	  407.18
     29.3700	  600.00	  593.15	-1702.90	  406.87
     29.4700	  597.00	  568.59	-1681.34	  406.56
     29.5700	  597.00	  555.09	-1667.84	  406.26
     29.6700	  585.00	  547.86	-1672.61	  405.95
     29.7700	  579.00	  543.73	-1674.48	  405.64
     29.8700	  551.00	  541.14	-1699.89	  405.34
     29.9700	  549.00	  539.49	-1700.24	  405.03
     30.0700	  517.00	  538.61	-1731.36	  404.73
     30.1700	  550.00	  538.66	-1698.41	  404.42
     30.2700	  562.00	  540.11	-1687.86	  404.12
     30.3700	  589.00	  543.89	-1664.64	  403.82
     30.4700	  603.00	  551.38	-1658.13	  403.52
     30.5700	  580.00	  563.97	-1693.72	  403.22
     30.6700	  598.00	  582.01	-1693.76	  402.92
     30.7700	  575.00	  603.13	-1737.88	  402.62
     30.8700	  616.00	  621.42	-1715.17	  402.33
     30.9700	  605.00	  627.86	-1732.61	  402.03
     31.0700	  560.00	  616.30	-1766.05	  401.74
     31.1700	  560.00	  592.65	-1742.40	  401.44
     31.2700	  582.00	  568.66	-1696.41	  401.15
     31.3700	  534.00	  550.67	-1726.42	  400.86
     31.4700	  554.00	  539.49	-1695.24	  400.57
     31.5700	  553.00	  533.35	-1690.10	  400.28
     31.6700	  572.00	  530.13	-1667.88	  399.99
     31.7700	  527.00	  528.33	-1711.08	  399.71
     31.8700	  557.00	  527.21	-1679.96	  399.42
     31.9700	  525.00	  526.45	-1711.20	  399.14
     32.0700	  562.00	  525.92	-1673.67	  398.85
     32.1700	  530.00	  525.57	-1705.32	  398.57
     32.2700	  560.00	  525.39	-1675.14	  398.29
     32.3700	  539.00	  525.37	-1696.12	  398.01
     32.4700	  538.00	  525.51	-1697.26	  397.73
     32.5700	  509.00	  525.83	-1726.58	  397.46
     32.6700	  533.00	  526.38	-1703.13	  397.18
     32.7700	  506.00	  527.18	-1730.93	  396.91
     32.8700	  544.00	  528.34	-1694.09	  396.63
     32.9700	  523.00	  529.96	-1716.71	  396.36
     33.0700	  521.00	  532.31	-1721.06	  396.09
     33.1700	  567.00	  535.90	-1678.65	  395.82
     33.2700	  522.00	  541.88	-1729.63	  395.55
     33.3700	  548.00	  552.64	-1714.39	  395.29
     33.4700	  587.00	  572.65	-1695.40	  395.02
     33.5700	  598.00	  608.69	-1720.44	  394.76
     33.6700	  652.00	  668.15	-1725.90	  394.49
     33.7700	  789.00	  753.64	-1674.39	  394.23
     33.8700	  896.00	  855.38	-1669.13	  393.97
     33.9700	  979.00	  946.32	-1677.07	  393.71
     34.0700	 1029.00	  985.69	-1666.44	  393.46
     34.1700	 1029.00	  943.91	-1624.66	  393.20
     34.2700	  897.00	  842.34	-1655.09	  392.95
     34.3700	  741.00	  732.36	-1701.11	  392.69
     34.4700	  668.00	  645.87	-1687.62	  392.44
     34.5700	  588.00	  590.07	-1711.82	  392.19
     34.6700	  572.00	  558.81	-1696.56	  391.94
     34.7700	  511.00	  542.56	-1741.31	  391.70
     34.8700	  532.00	  533.93	-1711.68	  391.45
     34.9700	  537.00	  528.75	-1701.50	  391.21
     35.0700	  495.00	  525.20	-1739.95	  390.96
     35.1700	  553.00	  522.53	-1679.28	  390.72
     35.2700	  520.00	  520.43	-1710.18	  390.48
     35.3700	  570.00	  518.72	-1658.47	  390.25
     35.4700	  529.00	  517.31	-1698.06	  390.01
     35.5700	  505.00	  516.12	-1720.87	  389.78
     35.6700	  481.00	  515.09	-1743.84	  389.54
     35.7700	  486.00	  514.21	-1737.96	  389.31
     35.8700	  506.00	  513.43	-1717.18	  389.08
     35.9700	  515.00	  512.74	-1707.49	  388.85
     36.0700	  541.00	  512.59	-1681.34	  388.62
     36.1700	  532.00	  512.04	-1689.79	  388.40
     36.2700	  498.00	  511.55	-1723.30	  388.17
     36.3700	  529.00	  511.11	-1691.86	  387.95
     36.4700	  541.00	  510.71	-1679.46	  387.73
     36.5700	  475.00	  510.36	-1745.11	  387.51
     36.6700	  536.00	  510.05	-1683.80	  387.30
     36.7700	  510.00	  509.80	-1709.55	  387.08
     36.8700	  532.00	  509.65	-1687.40	  386.87
     36.9700	  507.00	  509.65	-1712.40	  386.65
     37.0700	  477.00	  509.97	-1742.72	  386.44
     37.1700	  548.00	  510.87	-1672.62	  386.23
     37.2700	  515.00	  512.68	-1707.43	  386.03
     37.3700	  543.00	  515.66	-1682.41	  385.82
     37.4700	  483.00	  519.68	-1746.43	  385.62
     37.5700	  479.00	  523.86	-1754.61	  385.41
     37.6700	  527.00	  526.67	-1709.42	  385.21
     37.7700	  511.00	  526.53	-1725.28	  385.01
     37.8700	  521.00	  523.40	-1712.15	  384.82
     37.9700	  532.00	  518.96	-1696.71	  384.62
     38.0700	  524.00	  514.73	-1700.48	  384.43
     38.1700	  517.00	  511.34	-1704.09	  384.23
     38.2700	  500.00	  508.90	-1718.65	  384.04
     38.3700	  484.00	  507.27	-1733.02	  383.85
     38.4700	  498.00	  506.21	-1717.96	  383.67
     38.5700	  506.00	  505.50	-1709.25	  383.48
     38.6700	  513.00	  505.01	-1701.76	  383.30
     38.7700	  488.00	  504.54	-1726.29	  383.12
     38.8700	  524.00	  504.24	-1689.99	  382.94
     38.9700	  493.00	  503.98	-1720.73	  382.76
     39.0700	  488.00	  503.74	-1725.49	  382.58
     39.1700	  473.00	  503.67	-1740.42	  382.41
     39.2700	  490.00	  503.47	-1723.22	  382.23
     39.3700	  528.00	  503.22	-1684.97	  382.06
     39.4700	  458.00	  503.04	-1754.79	  381.89
     39.5700	  475.00	  502.88	-1737.63	  381.73
     39.6700	  475.00	  502.73	-1737.48	  381.56
     39.7700	  482.00	  502.59	-1730.34	  381.39
     39.8700	  546.00	  502.46	-1666.21	  381.23
     39.9700	  495.00	  502.34	-1717.09	  381.07
     40.0700	  481.00	  502.23	-1730.98	  380.91
     40.1700	  543.00	  502.13	-1668.88	  380.76
     40.2700	  491.00	  502.05	-1720.80	  380.60
     40.3700	  491.00	  501.97	-1720.72	  380.45
     40.4700	  464.00	  501.91	-1747.66	  380.29
     40.5700	  484.00	  501.87	-1727.62	  380.14
     40.6700	  494.00	  501.84	-1717.59	  380.00
     40.7700	  495.00	  501.83	-1716.58	  379.85
