MSG Master    CELL:    5.91914   5.91914  23.27586   90.0000   90.0000  120.0000   SPGR: P 63/m m c             TEMP:   1074.85
  1   1280     2.52000     0.00000    -0.13118     0.00000     0.00000    0
    99     0     2
       0.00000      10.00000
     125.00000     130.00000
 2Theta	Yobs	Ycal	Yobs-Ycal	Backg	Posr	(hkl)	K
      0.7700	    0.00	  547.49	-1745.50	  429.15
      0.8700	    0.00	  548.19	-1745.50	  429.85
      0.9700	   38.00	  548.87	-1745.50	  430.53
      1.0700	   31.00	  549.55	-1745.50	  431.21
      1.1700	   46.00	  550.21	-1745.50	  431.87
      1.2700	   44.00	  550.86	-1745.50	  432.52
      1.3700	   42.00	  551.51	-1745.50	  433.17
      1.4700	  101.00	  552.14	-1745.50	  433.80
      1.5700	  272.00	  552.76	-1745.50	  434.42
      1.6700	  489.00	  553.38	-1745.50	  435.04
      1.7700	  581.00	  553.98	-1745.50	  435.64
      1.8700	  632.00	  554.57	-1745.50	  436.23
      1.9700	  695.00	  555.15	-1745.50	  436.81
      2.0700	  844.00	  555.73	-1745.50	  437.39
      2.1700	  806.00	  556.29	-1745.50	  437.95
      2.2700	  728.00	  556.84	-1745.50	  438.50
      2.3700	  739.00	  557.39	-1745.50	  439.05
      2.4700	  721.00	  557.92	-1745.50	  439.58
      2.5700	  703.00	  558.44	-1745.50	  440.10
      2.6700	  668.00	  558.96	-1745.50	  440.62
      2.7700	  649.00	  559.46	-1745.50	  441.12
      2.8700	  590.00	  559.96	-1745.50	  441.62
      2.9700	  633.00	  560.45	-1745.50	  442.11
      3.0700	  602.00	  560.93	-1745.50	  442.58
      3.1700	  629.00	  561.39	-1745.50	  443.05
      3.2700	  624.00	  561.85	-1745.50	  443.51
      3.3700	  663.00	  562.30	-1745.50	  443.96
      3.4700	  750.00	  562.74	-1745.50	  444.40
      3.5700	  802.00	  563.18	-1745.50	  444.84
      3.6700	  873.00	  563.60	-1745.50	  445.26
      3.7700	  971.00	  564.02	-1745.50	  445.67
      3.8700	  933.00	  564.42	-1745.50	  446.08
      3.9700	 1077.00	  564.82	-1745.50	  446.48
      4.0700	 1056.00	  565.21	-1745.50	  446.87
      4.1700	 1101.00	  565.59	-1745.50	  447.25
      4.2700	 1133.00	  565.96	-1745.50	  447.62
      4.3700	 1125.00	  566.32	-1745.50	  447.98
      4.4700	 1063.00	  566.68	-1745.50	  448.34
      4.5700	 1021.00	  567.03	-1745.50	  448.69
      4.6700	 1022.00	  567.37	-1745.50	  449.02
      4.7700	  959.00	  567.70	-1745.50	  449.36
      4.8700	  940.00	  568.02	-1745.50	  449.68
      4.9700	  956.00	  568.33	-1745.50	  449.99
      5.0700	  933.00	  568.64	-1745.50	  450.30
      5.1700	  949.00	  568.94	-1745.50	  450.60
      5.2700	  947.00	  569.23	-1745.50	  450.89
      5.3700	  882.00	  569.51	-1745.50	  451.17
      5.4700	  908.00	  569.79	-1745.50	  451.45
      5.5700	  891.00	  570.06	-1745.50	  451.72
      5.6700	  883.00	  570.32	-1745.50	  451.98
      5.7700	  872.00	  570.57	-1745.50	  452.23
      5.8700	  847.00	  570.82	-1745.50	  452.48
      5.9700	  780.00	  571.06	-1745.50	  452.72
      6.0700	  845.00	  571.29	-1745.50	  452.95
      6.1700	  724.00	  571.51	-1745.50	  453.17
      6.2700	  802.00	  571.73	-1745.50	  453.39
      6.3700	  753.00	  571.94	-1745.50	  453.60
      6.4700	  735.00	  572.14	-1745.50	  453.80
      6.5700	  765.00	  572.33	-1745.50	  453.99
      6.6700	  686.00	  572.52	-1745.50	  454.18
      6.7700	  680.00	  572.70	-1745.50	  454.36
      6.8700	  664.00	  572.88	-1745.50	  454.54
      6.9700	  746.00	  573.05	-1745.50	  454.71
      7.0700	  719.00	  573.21	-1745.50	  454.87
      7.1700	  700.00	  573.36	-1745.50	  455.02
      7.2700	  686.00	  573.51	-1745.50	  455.17
      7.3700	  683.00	  573.65	-1745.50	  455.31
      7.4700	  732.00	  573.79	-1745.50	  455.44
      7.5700	  635.00	  573.91	-1745.50	  455.57
      7.6700	  641.00	  574.04	-1745.50	  455.69
      7.7700	  631.00	  574.15	-1745.50	  455.81
      7.8700	  665.00	  574.26	-1745.50	  455.92
      7.9700	  655.00	  574.36	-1745.50	  456.02
      8.0700	  622.00	  574.46	-1745.50	  456.12
      8.1700	  678.00	  574.55	-1745.50	  456.21
      8.2700	  711.00	  574.64	-1745.50	  456.29
      8.3700	  609.00	  574.71	-1745.50	  456.37
      8.4700	  618.00	  574.79	-1745.50	  456.45
      8.5700	  657.00	  574.85	-1745.50	  456.51
      8.6700	  678.00	  574.91	-1745.50	  456.57
      8.7700	  634.00	  574.97	-1745.50	  456.63
      8.8700	  617.00	  575.02	-1745.50	  456.68
      8.9700	  590.00	  575.06	-1745.50	  456.72
      9.0700	  571.00	  575.10	-1745.50	  456.76
      9.1700	  598.00	  575.13	-1745.50	  456.79
      9.2700	  583.00	  575.16	-1745.50	  456.82
      9.3700	  598.00	  575.18	-1745.50	  456.84
      9.4700	  576.00	  575.20	-1745.50	  456.86
      9.5700	  631.00	  575.21	-1745.50	  456.87
      9.6700	  619.00	  575.21	-1745.50	  456.87
      9.7700	  612.00	  575.21	-1745.50	  456.87
      9.8700	  560.00	  575.21	-1745.50	  456.87
      9.9700	  608.00	  575.20	-1745.50	  456.86
     10.0700	  628.00	  576.19	-1693.69	  456.84
     10.1700	  607.00	  576.29	-1714.79	  456.82
     10.2700	  599.00	  576.40	-1722.90	  456.80
     10.3700	  635.00	  576.55	-1687.05	  456.76
     10.4700	  622.00	  576.78	-1700.28	  456.73
     10.5700	  577.00	  577.15	-1745.65	  456.69
     10.6700	  572.00	  577.76	-1751.26	  456.64
     10.7700	  589.00	  578.73	-1735.23	  456.59
     10.8700	  590.00	  580.13	-1735.63	  456.54
     10.9700	  595.00	  581.95	-1732.45	  456.48
     11.0700	  600.00	  584.16	-1729.66	  456.42
     11.1700	  569.00	  586.77	-1763.27	  456.35
     11.2700	  587.00	  589.81	-1748.31	  456.27
     11.3700	  611.00	  593.38	-1727.88	  456.20
     11.4700	  598.00	  597.64	-1745.14	  456.11
     11.5700	  601.00	  602.81	-1747.31	  456.03
     11.6700	  588.00	  609.31	-1766.81	  455.94
     11.7700	  614.00	  617.81	-1749.31	  455.84
     11.8700	  605.00	  629.21	-1769.71	  455.74
     11.9700	  640.00	  643.82	-1749.32	  455.64
     12.0700	  687.00	  659.44	-1717.94	  455.53
     12.1700	  716.00	  669.40	-1698.90	  455.42
     12.2700	  652.00	  664.15	-1757.65	  455.30
     12.3700	  685.00	  641.96	-1702.46	  455.18
     12.4700	  607.00	  615.96	-1754.46	  455.06
     12.5700	  572.00	  596.80	-1770.30	  454.93
     12.6700	  574.00	  585.96	-1757.46	  454.80
     12.7700	  608.00	  580.73	-1718.23	  454.67
     12.8700	  568.00	  578.22	-1755.72	  454.53
     12.9700	  562.00	  576.82	-1760.32	  454.38
     13.0700	  572.00	  575.87	-1749.37	  454.24
     13.1700	  533.00	  575.14	-1787.64	  454.09
     13.2700	  629.00	  574.56	-1691.06	  453.93
     13.3700	  556.00	  574.08	-1763.58	  453.77
     13.4700	  544.00	  573.66	-1775.16	  453.61
     13.5700	  521.00	  573.29	-1797.79	  453.45
     13.6700	  543.00	  572.95	-1775.45	  453.28
     13.7700	  559.00	  572.64	-1759.14	  453.11
     13.8700	  584.00	  572.35	-1733.85	  452.93
     13.9700	  574.00	  572.08	-1743.58	  452.75
     14.0700	  566.00	  571.81	-1751.31	  452.57
     14.1700	  542.00	  571.56	-1775.06	  452.39
     14.2700	  540.00	  571.31	-1776.81	  452.20
     14.3700	  578.00	  571.06	-1738.56	  452.01
     14.4700	  529.00	  570.82	-1787.32	  451.82
     14.5700	  587.00	  570.58	-1729.08	  451.62
     14.6700	  558.00	  570.35	-1757.85	  451.42
     14.7700	  579.00	  570.11	-1736.61	  451.21
     14.8700	  585.00	  569.88	-1730.38	  451.01
     14.9700	  534.00	  569.64	-1781.14	  450.80
     15.0700	  564.00	  569.40	-1750.90	  450.59
     15.1700	  627.00	  569.17	-1687.67	  450.37
     15.2700	  580.00	  568.93	-1734.43	  450.15
     15.3700	  548.00	  568.69	-1766.19	  449.93
     15.4700	  558.00	  568.46	-1755.96	  449.71
     15.5700	  502.00	  568.21	-1811.71	  449.48
     15.6700	  544.00	  567.97	-1769.47	  449.26
     15.7700	  571.00	  567.76	-1742.26	  449.02
     15.8700	  572.00	  567.51	-1741.01	  448.79
     15.9700	  562.00	  567.27	-1750.77	  448.55
     16.0700	  578.00	  567.02	-1734.52	  448.32
     16.1700	  583.00	  566.77	-1729.27	  448.07
     16.2700	  533.00	  566.52	-1779.02	  447.83
     16.3700	  574.00	  566.27	-1737.77	  447.58
     16.4700	  607.00	  566.01	-1704.51	  447.34
     16.5700	  540.00	  565.75	-1771.25	  447.09
     16.6700	  504.00	  565.50	-1807.00	  446.83
     16.7700	  559.00	  565.24	-1751.74	  446.58
     16.8700	  571.00	  564.97	-1739.47	  446.32
     16.9700	  538.00	  564.71	-1772.21	  446.06
     17.0700	  541.00	  564.44	-1768.94	  445.80
     17.1700	  589.00	  564.18	-1720.68	  445.53
     17.2700	  543.00	  563.91	-1766.41	  445.27
     17.3700	  535.00	  563.64	-1774.14	  445.00
     17.4700	  580.00	  563.36	-1728.86	  444.73
     17.5700	  618.00	  563.09	-1690.59	  444.46
     17.6700	  499.00	  562.82	-1809.32	  444.19
     17.7700	  580.00	  562.54	-1728.04	  443.91
     17.8700	  562.00	  562.26	-1745.76	  443.63
     17.9700	  559.00	  561.98	-1748.48	  443.35
     18.0700	  601.00	  561.80	-1706.30	  443.07
     18.1700	  543.00	  561.52	-1764.02	  442.79
     18.2700	  563.00	  561.24	-1743.74	  442.51
     18.3700	  585.00	  560.95	-1721.45	  442.22
     18.4700	  552.00	  560.67	-1754.17	  441.93
     18.5700	  559.00	  560.38	-1746.88	  441.64
     18.6700	  515.00	  560.09	-1790.59	  441.35
     18.7700	  537.00	  559.80	-1768.30	  441.06
     18.8700	  515.00	  559.59	-1790.09	  440.76
     18.9700	  591.00	  559.30	-1713.80	  440.47
     19.0700	  528.00	  559.01	-1776.51	  440.17
     19.1700	  575.00	  558.71	-1729.21	  439.87
     19.2700	  610.00	  558.42	-1693.92	  439.57
     19.3700	  556.00	  558.12	-1747.62	  439.27
     19.4700	  549.00	  557.83	-1754.33	  438.97
     19.5700	  586.00	  557.53	-1717.03	  438.67
     19.6700	  556.00	  557.23	-1746.73	  438.36
     19.7700	  570.00	  556.93	-1732.44	  438.06
     19.8700	  575.00	  556.64	-1727.14	  437.75
     19.9700	  481.00	  556.34	-1820.84	  437.44
     20.0700	  532.00	  556.04	-1769.54	  437.13
     20.1700	  555.00	  555.73	-1746.23	  436.82
     20.2700	  542.00	  555.43	-1758.93	  436.51
     20.3700	  515.00	  555.13	-1785.63	  436.19
     20.4700	  575.00	  554.83	-1725.33	  435.88
     20.5700	  539.00	  554.53	-1761.03	  435.56
     20.6700	  585.00	  554.22	-1714.72	  435.25
     20.7700	  578.00	  553.95	-1721.45	  434.93
     20.8700	  539.00	  553.61	-1760.11	  434.61
     20.9700	  552.00	  553.31	-1746.81	  434.30
     21.0700	  548.00	  553.01	-1750.51	  433.98
     21.1700	  526.00	  552.71	-1772.21	  433.66
     21.2700	  552.00	  552.41	-1745.91	  433.33
     21.3700	  559.00	  552.11	-1738.61	  433.01
     21.4700	  556.00	  551.81	-1741.31	  432.69
     21.5700	  560.00	  551.51	-1737.01	  432.37
     21.6700	  579.00	  551.21	-1717.71	  432.04
     21.7700	  514.00	  550.92	-1782.42	  431.72
     21.8700	  562.00	  550.62	-1734.12	  431.39
     21.9700	  569.00	  550.33	-1726.83	  431.07
     22.0700	  522.00	  550.04	-1773.54	  430.74
     22.1700	  575.00	  549.75	-1720.25	  430.41
     22.2700	  551.00	  549.47	-1743.97	  430.08
     22.3700	  549.00	  549.19	-1745.69	  429.76
     22.4700	  527.00	  548.91	-1767.41	  429.43
     22.5700	  497.00	  548.64	-1797.14	  429.10
     22.6700	  562.00	  548.37	-1731.87	  428.77
     22.7700	  615.00	  548.12	-1678.62	  428.44
     22.8700	  568.00	  547.87	-1725.37	  428.11
     22.9700	  539.00	  547.63	-1754.13	  427.78
     23.0700	  519.00	  547.41	-1773.91	  427.45
     23.1700	  546.00	  547.20	-1746.70	  427.12
     23.2700	  526.00	  547.02	-1766.52	  426.79
     23.3700	  535.00	  546.87	-1757.37	  426.45
     23.4700	  577.00	  546.75	-1715.25	  426.12
     23.5700	  562.00	  546.83	-1730.33	  425.79
     23.6700	  568.00	  546.85	-1724.35	  425.46
     23.7700	  511.00	  547.00	-1781.50	  425.12
     23.8700	  561.00	  547.38	-1731.88	  424.79
     23.9700	  569.00	  548.24	-1724.74	  424.46
     24.0700	  546.00	  549.97	-1749.47	  424.13
     24.1700	  568.00	  553.20	-1730.70	  423.79
     24.2700	  594.00	  558.70	-1710.20	  423.46
     24.3700	  595.00	  567.32	-1717.82	  423.13
     24.4700	  627.00	  579.79	-1698.29	  422.79
     24.5700	  649.00	  595.90	-1692.40	  422.46
     24.6700	  646.00	  612.65	-1712.15	  422.13
     24.7700	  612.00	  623.08	-1756.58	  421.80
     24.8700	  596.00	  618.72	-1768.22	  421.46
     24.9700	  630.00	  599.79	-1715.29	  421.13
     25.0700	  540.00	  577.90	-1783.40	  420.80
     25.1700	  578.00	  561.47	-1728.97	  420.47
     25.2700	  588.00	  551.86	-1709.36	  420.13
     25.3700	  545.00	  547.06	-1747.56	  419.80
     25.4700	  592.00	  544.74	-1698.24	  419.47
     25.5700	  555.00	  543.46	-1733.96	  419.14
     25.6700	  529.00	  542.63	-1759.13	  418.81
     25.7700	  563.00	  542.02	-1724.52	  418.48
     25.8700	  532.00	  541.56	-1755.06	  418.15
     25.9700	  559.00	  541.20	-1727.70	  417.82
     26.0700	  558.00	  540.94	-1728.44	  417.49
     26.1700	  567.00	  540.76	-1719.26	  417.16
     26.2700	  563.00	  540.66	-1723.16	  416.83
     26.3700	  556.00	  540.63	-1730.13	  416.50
     26.4700	  499.00	  540.69	-1787.19	  416.17
     26.5700	  549.00	  540.85	-1737.35	  415.84
     26.6700	  564.00	  541.13	-1722.63	  415.51
     26.7700	  602.00	  541.54	-1685.04	  415.19
     26.8700	  589.00	  542.13	-1698.63	  414.86
     26.9700	  570.00	  542.95	-1718.45	  414.54
     27.0700	  527.00	  544.08	-1762.58	  414.21
     27.1700	  530.00	  545.64	-1761.14	  413.89
     27.2700	  551.00	  547.92	-1742.42	  413.56
     27.3700	  562.00	  551.43	-1734.93	  413.24
     27.4700	  539.00	  557.20	-1763.70	  412.91
     27.5700	  549.00	  567.08	-1763.58	  412.59
     27.6700	  585.00	  584.00	-1744.50	  412.27
     27.7700	  544.00	  611.68	-1813.18	  411.95
     27.8700	  581.00	  653.30	-1817.80	  411.63
     27.9700	  648.00	  708.86	-1806.36	  411.31
     28.0700	  780.00	  771.62	-1737.12	  410.99
     28.1700	  969.00	  825.22	-1601.72	  410.67
     28.2700	  968.00	  845.56	-1623.06	  410.35
     28.3700	  890.00	  819.71	-1675.21	  410.04
     28.4700	  778.00	  771.63	-1739.13	  409.72
     28.5700	  686.00	  737.56	-1797.06	  409.40
     28.6700	  752.00	  733.04	-1726.54	  409.09
     28.7700	  697.00	  752.75	-1801.25	  408.78
     28.8700	  767.00	  776.89	-1755.39	  408.46
     28.9700	  802.00	  778.72	-1722.22	  408.15
     29.0700	  749.00	  742.56	-1739.06	  407.84
     29.1700	  677.00	  684.06	-1752.56	  407.53
     29.2700	  601.00	  629.27	-1773.77	  407.22
     29.3700	  634.00	  590.04	-1701.54	  406.91
     29.4700	  568.00	  566.39	-1743.89	  406.60
     29.5700	  607.00	  553.56	-1692.06	  406.30
     29.6700	  575.00	  546.74	-1717.24	  405.99
     29.7700	  577.00	  542.83	-1711.33	  405.69
     29.8700	  592.00	  540.39	-1693.89	  405.38
     29.9700	  599.00	  538.84	-1685.34	  405.08
     30.0700	  563.00	  538.06	-1720.56	  404.78
     30.1700	  543.00	  538.22	-1740.72	  404.48
     30.2700	  593.00	  539.83	-1692.33	  404.18
     30.3700	  590.00	  543.89	-1699.39	  403.88
     30.4700	  608.00	  551.83	-1689.33	  403.58
     30.5700	  552.00	  565.12	-1758.62	  403.29
     30.6700	  565.00	  583.97	-1764.47	  402.99
     30.7700	  619.00	  605.89	-1732.39	  402.70
     30.8700	  665.00	  624.39	-1704.89	  402.40
     30.9700	  623.00	  630.08	-1752.58	  402.11
     31.0700	  619.00	  617.07	-1743.57	  401.82
     31.1700	  589.00	  592.28	-1748.78	  401.53
     31.2700	  562.00	  567.82	-1751.32	  401.24
     31.3700	  547.00	  549.81	-1748.31	  400.95
     31.4700	  500.00	  538.80	-1784.30	  400.67
     31.5700	  550.00	  532.85	-1728.35	  400.38
     31.6700	  552.00	  529.75	-1723.25	  400.10
     31.7700	  513.00	  528.02	-1760.52	  399.82
     31.8700	  534.00	  526.94	-1738.44	  399.53
     31.9700	  544.00	  526.20	-1727.70	  399.25
     32.0700	  532.00	  525.69	-1739.19	  398.98
     32.1700	  525.00	  525.37	-1745.87	  398.70
     32.2700	  561.00	  525.21	-1709.71	  398.42
     32.3700	  530.00	  525.20	-1740.70	  398.15
     32.4700	  536.00	  525.36	-1734.86	  397.87
     32.5700	  529.00	  525.71	-1742.21	  397.60
     32.6700	  548.00	  526.28	-1723.78	  397.33
     32.7700	  540.00	  527.12	-1732.62	  397.06
     32.8700	  584.00	  528.31	-1689.81	  396.79
     32.9700	  518.00	  529.99	-1757.49	  396.52
     33.0700	  558.00	  532.41	-1719.91	  396.26
     33.1700	  505.00	  536.11	-1776.61	  395.99
     33.2700	  528.00	  542.31	-1759.81	  395.73
     33.3700	  558.00	  553.56	-1741.06	  395.47
     33.4700	  573.00	  574.60	-1747.10	  395.21
     33.5700	  640.00	  612.61	-1718.11	  394.95
     33.6700	  661.00	  675.37	-1759.87	  394.69
     33.7700	  760.00	  765.38	-1750.88	  394.44
     33.8700	  915.00	  871.74	-1702.24	  394.18
     33.9700	 1088.00	  965.24	-1622.74	  393.93
     34.0700	 1089.00	 1002.75	-1659.25	  393.68
     34.1700	 1019.00	  954.97	-1681.47	  393.43
     34.2700	  908.00	  847.13	-1684.63	  393.18
     34.3700	  722.00	  733.14	-1756.64	  392.93
     34.4700	  609.00	  644.97	-1781.47	  392.69
     34.5700	  609.00	  588.95	-1725.45	  392.44
     34.6700	  562.00	  558.03	-1741.53	  392.20
     34.7700	  553.00	  542.14	-1734.64	  391.96
     34.8700	  531.00	  533.69	-1748.19	  391.72
     34.9700	  526.00	  528.63	-1748.13	  391.48
     35.0700	  553.00	  525.12	-1717.62	  391.24
     35.1700	  495.00	  522.48	-1772.98	  391.01
     35.2700	  510.00	  520.39	-1755.89	  390.78
     35.3700	  498.00	  518.70	-1766.20	  390.54
     35.4700	  517.00	  517.29	-1745.79	  390.31
     35.5700	  504.00	  516.11	-1757.61	  390.08
     35.6700	  521.00	  515.09	-1739.59	  389.86
     35.7700	  533.00	  514.21	-1726.71	  389.63
     35.8700	  542.00	  513.44	-1716.94	  389.41
     35.9700	  464.00	  512.76	-1794.26	  389.18
     36.0700	  530.00	  512.61	-1728.11	  388.96
     36.1700	  493.00	  512.07	-1764.57	  388.74
     36.2700	  470.00	  511.58	-1787.08	  388.53
     36.3700	  548.00	  511.14	-1708.64	  388.31
     36.4700	  473.00	  510.75	-1783.25	  388.10
     36.5700	  507.00	  510.40	-1748.90	  387.88
     36.6700	  487.00	  510.09	-1768.59	  387.67
     36.7700	  474.00	  509.84	-1781.34	  387.46
     36.8700	  518.00	  509.67	-1737.17	  387.25
     36.9700	  504.00	  509.65	-1751.15	  387.05
     37.0700	  469.00	  509.93	-1786.43	  386.84
     37.1700	  524.00	  510.73	-1732.23	  386.64
     37.2700	  522.00	  512.41	-1735.91	  386.44
     37.3700	  501.00	  515.21	-1759.71	  386.24
     37.4700	  544.00	  519.02	-1720.52	  386.04
     37.5700	  508.00	  523.07	-1760.57	  385.84
     37.6700	  534.00	  525.90	-1737.40	  385.65
     37.7700	  486.00	  526.02	-1785.52	  385.46
     37.8700	  508.00	  523.33	-1760.83	  385.26
     37.9700	  533.00	  519.34	-1731.84	  385.07
     38.0700	  513.00	  515.41	-1747.91	  384.89
     38.1700	  485.00	  512.08	-1772.58	  384.70
     38.2700	  511.00	  509.53	-1744.03	  384.52
     38.3700	  524.00	  507.75	-1729.25	  384.33
     38.4700	  520.00	  506.56	-1732.06	  384.15
     38.5700	  493.00	  505.77	-1758.27	  383.97
     38.6700	  504.00	  505.14	-1746.64	  383.79
     38.7700	  502.00	  504.76	-1748.26	  383.62
     38.8700	  499.00	  504.46	-1750.96	  383.44
     38.9700	  495.00	  504.20	-1754.70	  383.27
     39.0700	  522.00	  503.98	-1727.48	  383.10
     39.1700	  494.00	  503.69	-1755.19	  382.93
     39.2700	  460.00	  503.64	-1789.14	  382.76
     39.3700	  495.00	  503.46	-1753.96	  382.60
     39.4700	  552.00	  503.30	-1696.80	  382.43
     39.5700	  496.00	  503.14	-1752.64	  382.27
     39.6700	  492.00	  503.00	-1756.50	  382.11
     39.7700	  510.00	  502.87	-1738.37	  381.95
     39.8700	  494.00	  502.74	-1754.24	  381.80
     39.9700	  473.00	  502.63	-1775.13	  381.64
     40.0700	  506.00	  502.52	-1742.02	  381.49
     40.1700	  490.00	  502.43	-1757.93	  381.33
     40.2700	  485.00	  502.35	-1762.85	  381.18
     40.3700	  508.00	  502.28	-1739.78	  381.04
     40.4700	  491.00	  502.22	-1756.72	  380.89
     40.5700	  466.00	  502.18	-1781.68	  380.74
     40.6700	  525.00	  502.16	-1722.66	  380.60
     40.7700	  514.00	  502.16	-1733.66	  380.46
