MSG Master    CELL:    5.90765   5.90765  23.21975   90.0000   90.0000  120.0000   SPGR: P 63/m m c             TEMP:    879.85
  1   1280     2.52000     0.00000    -0.12026     0.00000     0.00000    0
    98     0     2
       0.00000      10.00000
     125.00000     130.00000
 2Theta	Yobs	Ycal	Yobs-Ycal	Backg	Posr	(hkl)	K
      0.7700	    0.00	  450.36	-1744.25	  339.78
      0.8700	    0.00	  452.19	-1744.25	  341.61
      0.9700	   37.00	  453.99	-1744.25	  343.41
      1.0700	   45.00	  455.78	-1744.25	  345.20
      1.1700	   35.00	  457.54	-1744.25	  346.96
      1.2700	   42.00	  459.29	-1744.25	  348.71
      1.3700	   59.00	  461.02	-1744.25	  350.43
      1.4700	   77.00	  462.72	-1744.25	  352.14
      1.5700	  290.00	  464.41	-1744.25	  353.83
      1.6700	  458.00	  466.08	-1744.25	  355.50
      1.7700	  589.00	  467.73	-1744.25	  357.15
      1.8700	  652.00	  469.37	-1744.25	  358.79
      1.9700	  718.00	  470.98	-1744.25	  360.40
      2.0700	  772.00	  472.58	-1744.25	  362.00
      2.1700	  836.00	  474.15	-1744.25	  363.57
      2.2700	  758.00	  475.71	-1744.25	  365.13
      2.3700	  734.00	  477.25	-1744.25	  366.67
      2.4700	  709.00	  478.78	-1744.25	  368.20
      2.5700	  712.00	  480.28	-1744.25	  369.70
      2.6700	  651.00	  481.77	-1744.25	  371.19
      2.7700	  679.00	  483.24	-1744.25	  372.66
      2.8700	  611.00	  484.69	-1744.25	  374.11
      2.9700	  594.00	  486.13	-1744.25	  375.55
      3.0700	  561.00	  487.54	-1744.25	  376.96
      3.1700	  585.00	  488.95	-1744.25	  378.36
      3.2700	  623.00	  490.33	-1744.25	  379.75
      3.3700	  764.00	  491.69	-1744.25	  381.11
      3.4700	  864.00	  493.04	-1744.25	  382.46
      3.5700	  952.00	  494.38	-1744.25	  383.80
      3.6700	 1053.00	  495.69	-1744.25	  385.11
      3.7700	 1104.00	  496.99	-1744.25	  386.41
      3.8700	 1117.00	  498.28	-1744.25	  387.69
      3.9700	 1166.00	  499.54	-1744.25	  388.96
      4.0700	 1243.00	  500.79	-1744.25	  390.21
      4.1700	 1251.00	  502.03	-1744.25	  391.45
      4.2700	 1283.00	  503.24	-1744.25	  392.66
      4.3700	 1316.00	  504.45	-1744.25	  393.87
      4.4700	 1201.00	  505.63	-1744.25	  395.05
      4.5700	 1197.00	  506.80	-1744.25	  396.22
      4.6700	 1077.00	  507.96	-1744.25	  397.38
      4.7700	 1123.00	  509.10	-1744.25	  398.52
      4.8700	 1038.00	  510.22	-1744.25	  399.64
      4.9700	 1055.00	  511.33	-1744.25	  400.75
      5.0700	 1000.00	  512.43	-1744.25	  401.85
      5.1700	 1064.00	  513.51	-1744.25	  402.92
      5.2700	  980.00	  514.57	-1744.25	  403.99
      5.3700	  974.00	  515.62	-1744.25	  405.04
      5.4700	 1005.00	  516.65	-1744.25	  406.07
      5.5700	  939.00	  517.67	-1744.25	  407.09
      5.6700	  928.00	  518.68	-1744.25	  408.09
      5.7700	  931.00	  519.67	-1744.25	  409.09
      5.8700	  958.00	  520.64	-1744.25	  410.06
      5.9700	  874.00	  521.60	-1744.25	  411.02
      6.0700	  835.00	  522.55	-1744.25	  411.97
      6.1700	  826.00	  523.48	-1744.25	  412.90
      6.2700	  790.00	  524.40	-1744.25	  413.82
      6.3700	  760.00	  525.31	-1744.25	  414.73
      6.4700	  784.00	  526.20	-1744.25	  415.62
      6.5700	  725.00	  527.08	-1744.25	  416.50
      6.6700	  772.00	  527.94	-1744.25	  417.36
      6.7700	  726.00	  528.79	-1744.25	  418.21
      6.8700	  736.00	  529.63	-1744.25	  419.05
      6.9700	  738.00	  530.46	-1744.25	  419.88
      7.0700	  753.00	  531.27	-1744.25	  420.69
      7.1700	  738.00	  532.06	-1744.25	  421.48
      7.2700	  683.00	  532.85	-1744.25	  422.27
      7.3700	  718.00	  533.62	-1744.25	  423.04
      7.4700	  678.00	  534.38	-1744.25	  423.80
      7.5700	  689.00	  535.13	-1744.25	  424.55
      7.6700	  647.00	  535.86	-1744.25	  425.28
      7.7700	  691.00	  536.58	-1744.25	  426.00
      7.8700	  625.00	  537.29	-1744.25	  426.71
      7.9700	  589.00	  537.99	-1744.25	  427.40
      8.0700	  661.00	  538.67	-1744.25	  428.09
      8.1700	  641.00	  539.34	-1744.25	  428.76
      8.2700	  627.00	  540.00	-1744.25	  429.42
      8.3700	  700.00	  540.65	-1744.25	  430.07
      8.4700	  607.00	  541.28	-1744.25	  430.70
      8.5700	  613.00	  541.91	-1744.25	  431.33
      8.6700	  652.00	  542.52	-1744.25	  431.94
      8.7700	  623.00	  543.12	-1744.25	  432.54
      8.8700	  611.00	  543.71	-1744.25	  433.13
      8.9700	  603.00	  544.29	-1744.25	  433.71
      9.0700	  615.00	  544.85	-1744.25	  434.27
      9.1700	  631.00	  545.41	-1744.25	  434.83
      9.2700	  605.00	  545.95	-1744.25	  435.37
      9.3700	  584.00	  546.48	-1744.25	  435.90
      9.4700	  603.00	  547.00	-1744.25	  436.42
      9.5700	  612.00	  547.51	-1744.25	  436.93
      9.6700	  629.00	  548.01	-1744.25	  437.43
      9.7700	  604.00	  548.50	-1744.25	  437.92
      9.8700	  595.00	  548.98	-1744.25	  438.40
      9.9700	  635.00	  549.45	-1744.25	  438.87
     10.0700	  654.00	  551.64	-1641.89	  439.32
     10.1700	  570.00	  552.26	-1726.51	  439.77
     10.2700	  561.00	  552.91	-1736.16	  440.21
     10.3700	  592.00	  553.61	-1705.86	  440.63
     10.4700	  603.00	  554.39	-1695.64	  441.05
     10.5700	  595.00	  555.30	-1704.55	  441.45
     10.6700	  579.00	  556.42	-1721.67	  441.85
     10.7700	  575.00	  557.84	-1727.09	  442.23
     10.8700	  577.00	  559.63	-1726.88	  442.61
     10.9700	  574.00	  561.83	-1732.08	  442.97
     11.0700	  581.00	  564.45	-1727.70	  443.33
     11.1700	  564.00	  567.48	-1747.73	  443.68
     11.2700	  576.00	  570.96	-1739.21	  444.01
     11.3700	  532.00	  574.97	-1787.22	  444.34
     11.4700	  585.00	  579.63	-1738.88	  444.66
     11.5700	  626.00	  585.13	-1703.38	  444.97
     11.6700	  576.00	  591.79	-1760.04	  445.27
     11.7700	  585.00	  600.00	-1759.25	  445.56
     11.8700	  615.00	  610.11	-1739.36	  445.84
     11.9700	  669.00	  621.94	-1697.19	  446.11
     12.0700	  648.00	  634.07	-1730.32	  446.37
     12.1700	  673.00	  643.05	-1714.30	  446.63
     12.2700	  687.00	  643.44	-1700.69	  446.87
     12.3700	  636.00	  631.67	-1739.92	  447.11
     12.4700	  605.00	  612.66	-1751.91	  447.34
     12.5700	  616.00	  594.83	-1723.08	  447.56
     12.6700	  588.00	  581.93	-1738.18	  447.77
     12.7700	  554.00	  573.88	-1764.13	  447.97
     12.8700	  565.00	  569.30	-1748.55	  448.17
     12.9700	  532.00	  566.75	-1779.00	  448.35
     13.0700	  555.00	  565.27	-1754.52	  448.53
     13.1700	  536.00	  564.33	-1772.58	  448.70
     13.2700	  562.00	  563.69	-1745.94	  448.86
     13.3700	  520.00	  563.23	-1787.48	  449.02
     13.4700	  526.00	  562.90	-1781.15	  449.16
     13.5700	  598.00	  562.66	-1708.91	  449.30
     13.6700	  524.00	  562.48	-1782.73	  449.43
     13.7700	  561.00	  562.35	-1745.60	  449.56
     13.8700	  554.00	  562.25	-1752.50	  449.67
     13.9700	  580.00	  562.22	-1726.47	  449.78
     14.0700	  582.00	  562.17	-1724.42	  449.88
     14.1700	  587.00	  562.13	-1719.38	  449.97
     14.2700	  538.00	  562.11	-1768.36	  450.06
     14.3700	  512.00	  562.09	-1794.34	  450.14
     14.4700	  563.00	  562.08	-1743.33	  450.21
     14.5700	  535.00	  562.07	-1771.32	  450.27
     14.6700	  576.00	  562.06	-1730.31	  450.33
     14.7700	  545.00	  562.05	-1761.30	  450.38
     14.8700	  512.00	  562.05	-1794.30	  450.43
     14.9700	  542.00	  562.04	-1764.29	  450.46
     15.0700	  535.00	  562.03	-1771.28	  450.49
     15.1700	  573.00	  562.01	-1733.26	  450.52
     15.2700	  547.00	  562.00	-1759.25	  450.53
     15.3700	  509.00	  561.98	-1797.23	  450.54
     15.4700	  517.00	  561.95	-1789.20	  450.55
     15.5700	  519.00	  561.93	-1787.18	  450.54
     15.6700	  567.00	  561.90	-1739.15	  450.54
     15.7700	  554.00	  561.86	-1752.11	  450.52
     15.8700	  543.00	  561.82	-1763.07	  450.50
     15.9700	  553.00	  561.77	-1753.02	  450.47
     16.0700	  543.00	  561.73	-1762.98	  450.44
     16.1700	  551.00	  561.67	-1754.92	  450.40
     16.2700	  542.00	  561.61	-1763.86	  450.35
     16.3700	  584.00	  561.55	-1721.80	  450.30
     16.4700	  563.00	  561.48	-1742.73	  450.24
     16.5700	  585.00	  561.41	-1720.66	  450.18
     16.6700	  558.00	  561.33	-1747.58	  450.11
     16.7700	  573.00	  561.24	-1732.49	  450.04
     16.8700	  582.00	  561.16	-1723.41	  449.96
     16.9700	  609.00	  561.06	-1696.31	  449.87
     17.0700	  574.00	  560.97	-1731.22	  449.78
     17.1700	  541.00	  560.86	-1764.11	  449.68
     17.2700	  600.00	  560.76	-1705.01	  449.58
     17.3700	  533.00	  560.64	-1771.89	  449.47
     17.4700	  548.00	  560.53	-1756.78	  449.36
     17.5700	  519.00	  560.52	-1785.77	  449.24
     17.6700	  588.00	  560.40	-1716.65	  449.12
     17.7700	  556.00	  560.27	-1748.52	  448.99
     17.8700	  511.00	  560.14	-1793.39	  448.86
     17.9700	  568.00	  560.00	-1736.25	  448.72
     18.0700	  562.00	  559.95	-1742.20	  448.58
     18.1700	  483.00	  559.80	-1821.05	  448.43
     18.2700	  565.00	  559.65	-1738.90	  448.28
     18.3700	  545.00	  559.50	-1758.75	  448.13
     18.4700	  548.00	  559.34	-1755.59	  447.97
     18.5700	  509.00	  559.18	-1794.43	  447.80
     18.6700	  553.00	  559.02	-1750.27	  447.63
     18.7700	  493.00	  558.85	-1810.10	  447.45
     18.8700	  519.00	  558.67	-1783.92	  447.28
     18.9700	  558.00	  558.50	-1744.75	  447.09
     19.0700	  542.00	  558.31	-1760.56	  446.90
     19.1700	  577.00	  558.13	-1725.38	  446.71
     19.2700	  549.00	  557.94	-1753.19	  446.52
     19.3700	  511.00	  557.75	-1791.00	  446.32
     19.4700	  591.00	  557.55	-1710.80	  446.11
     19.5700	  574.00	  557.36	-1727.61	  445.90
     19.6700	  540.00	  557.15	-1761.40	  445.69
     19.7700	  530.00	  556.98	-1771.23	  445.47
     19.8700	  521.00	  556.78	-1780.03	  445.25
     19.9700	  521.00	  556.56	-1779.81	  445.03
     20.0700	  525.00	  556.35	-1775.60	  444.80
     20.1700	  545.00	  556.13	-1755.38	  444.57
     20.2700	  522.00	  555.91	-1778.16	  444.34
     20.3700	  558.00	  555.69	-1741.94	  444.10
     20.4700	  542.00	  555.47	-1757.72	  443.86
     20.5700	  558.00	  555.24	-1741.49	  443.61
     20.6700	  530.00	  555.01	-1769.26	  443.36
     20.7700	  534.00	  554.78	-1765.03	  443.11
     20.8700	  553.00	  554.54	-1745.79	  442.85
     20.9700	  521.00	  554.31	-1777.56	  442.60
     21.0700	  570.00	  554.07	-1728.32	  442.33
     21.1700	  512.00	  553.83	-1786.08	  442.07
     21.2700	  559.00	  553.59	-1738.84	  441.80
     21.3700	  555.00	  553.35	-1742.60	  441.53
     21.4700	  512.00	  553.11	-1785.36	  441.25
     21.5700	  543.00	  552.86	-1754.11	  440.98
     21.6700	  575.00	  552.62	-1721.87	  440.70
     21.7700	  546.00	  552.38	-1750.63	  440.41
     21.8700	  563.00	  552.13	-1733.38	  440.13
     21.9700	  519.00	  551.89	-1777.14	  439.84
     22.0700	  539.00	  551.65	-1756.90	  439.54
     22.1700	  556.00	  551.41	-1739.66	  439.25
     22.2700	  584.00	  551.17	-1711.42	  438.95
     22.3700	  507.00	  551.09	-1788.34	  438.65
     22.4700	  594.00	  550.87	-1701.12	  438.35
     22.5700	  586.00	  550.65	-1708.90	  438.05
     22.6700	  525.00	  550.44	-1769.69	  437.74
     22.7700	  559.00	  550.23	-1735.48	  437.43
     22.8700	  566.00	  550.04	-1728.29	  437.12
     22.9700	  560.00	  549.82	-1734.07	  436.80
     23.0700	  531.00	  549.66	-1762.91	  436.49
     23.1700	  574.00	  549.52	-1719.77	  436.17
     23.2700	  560.00	  549.42	-1733.67	  435.84
     23.3700	  586.00	  549.34	-1707.59	  435.52
     23.4700	  535.00	  549.32	-1758.57	  435.20
     23.5700	  528.00	  549.37	-1765.62	  434.87
     23.6700	  557.00	  549.51	-1736.76	  434.54
     23.7700	  568.00	  549.79	-1726.04	  434.21
     23.8700	  567.00	  550.31	-1727.56	  433.87
     23.9700	  550.00	  551.22	-1745.47	  433.54
     24.0700	  557.00	  552.80	-1740.05	  433.20
     24.1700	  569.00	  555.46	-1730.71	  432.86
     24.2700	  580.00	  559.76	-1724.01	  432.52
     24.3700	  592.00	  566.28	-1718.53	  432.18
     24.4700	  587.00	  575.41	-1732.66	  431.83
     24.5700	  589.00	  587.00	-1742.25	  431.49
     24.6700	  628.00	  599.78	-1716.03	  431.14
     24.7700	  659.00	  610.74	-1695.99	  430.79
     24.8700	  614.00	  614.97	-1745.22	  430.44
     24.9700	  634.00	  608.40	-1718.65	  430.09
     25.0700	  634.00	  593.61	-1703.86	  429.73
     25.1700	  578.00	  577.82	-1744.07	  429.38
     25.2700	  599.00	  565.32	-1710.57	  429.02
     25.3700	  587.00	  556.92	-1714.17	  428.66
     25.4700	  588.00	  551.80	-1708.05	  428.31
     25.5700	  584.00	  548.81	-1709.06	  427.95
     25.6700	  596.00	  547.01	-1695.26	  427.58
     25.7700	  590.00	  545.83	-1700.08	  427.22
     25.8700	  590.00	  545.00	-1699.25	  426.86
     25.9700	  548.00	  544.39	-1740.64	  426.49
     26.0700	  617.00	  543.93	-1671.18	  426.13
     26.1700	  577.00	  543.61	-1710.86	  425.76
     26.2700	  554.00	  543.40	-1733.65	  425.39
     26.3700	  569.00	  543.29	-1718.54	  425.02
     26.4700	  548.00	  543.30	-1739.55	  424.65
     26.5700	  525.00	  543.42	-1762.67	  424.28
     26.6700	  543.00	  543.68	-1744.93	  423.91
     26.7700	  593.00	  544.09	-1695.34	  423.53
     26.8700	  545.00	  544.69	-1743.94	  423.16
     26.9700	  563.00	  545.54	-1726.79	  422.79
     27.0700	  577.00	  546.69	-1713.94	  422.41
     27.1700	  593.00	  548.28	-1699.53	  422.04
     27.2700	  579.00	  550.50	-1715.75	  421.66
     27.3700	  573.00	  553.76	-1725.01	  421.28
     27.4700	  596.00	  558.82	-1707.07	  420.91
     27.5700	  571.00	  567.06	-1740.31	  420.53
     27.6700	  584.00	  580.79	-1741.04	  420.15
     27.7700	  606.00	  603.30	-1741.55	  419.77
     27.8700	  615.00	  638.15	-1767.40	  419.39
     27.9700	  635.00	  687.21	-1796.46	  419.01
     28.0700	  717.00	  747.99	-1775.24	  418.63
     28.1700	  834.00	  810.62	-1720.87	  418.25
     28.2700	  896.00	  856.30	-1704.55	  417.87
     28.3700	  958.00	  862.76	-1649.01	  417.49
     28.4700	  903.00	  828.31	-1669.56	  417.10
     28.5700	  789.00	  783.78	-1739.03	  416.72
     28.6700	  750.00	  758.36	-1752.61	  416.34
     28.7700	  734.00	  759.65	-1769.90	  415.96
     28.8700	  784.00	  778.16	-1738.41	  415.58
     28.9700	  815.00	  793.39	-1722.64	  415.19
     29.0700	  809.00	  782.18	-1717.43	  414.81
     29.1700	  742.00	  738.24	-1740.49	  414.43
     29.2700	  709.00	  680.93	-1716.18	  414.04
     29.3700	  611.00	  630.54	-1763.79	  413.66
     29.4700	  583.00	  594.37	-1755.62	  413.28
     29.5700	  600.00	  571.62	-1715.88	  412.90
     29.6700	  577.00	  558.40	-1725.65	  412.51
     29.7700	  567.00	  550.83	-1728.08	  412.13
     29.8700	  569.00	  546.29	-1721.54	  411.75
     29.9700	  600.00	  543.43	-1687.68	  411.37
     30.0700	  551.00	  541.68	-1734.93	  410.98
     30.1700	  555.00	  540.95	-1730.20	  410.60
     30.2700	  607.00	  541.46	-1678.71	  410.22
     30.3700	  554.00	  543.78	-1734.03	  409.84
     30.4700	  583.00	  548.85	-1710.10	  409.46
     30.5700	  601.00	  557.77	-1701.02	  409.08
     30.6700	  637.00	  571.20	-1678.45	  408.70
     30.7700	  567.00	  588.39	-1765.64	  408.32
     30.8700	  585.00	  606.28	-1765.53	  407.94
     30.9700	  580.00	  619.08	-1783.33	  407.56
     31.0700	  625.00	  619.64	-1738.89	  407.18
     31.1700	  657.00	  605.70	-1692.95	  406.80
     31.2700	  554.00	  584.38	-1774.63	  406.42
     31.3700	  596.00	  564.21	-1712.46	  406.05
     31.4700	  528.00	  549.02	-1765.27	  405.67
     31.5700	  570.00	  539.07	-1713.32	  405.29
     31.6700	  592.00	  533.12	-1685.37	  404.92
     31.7700	  548.00	  529.68	-1725.93	  404.54
     31.8700	  545.00	  527.63	-1726.88	  404.17
     31.9700	  587.00	  526.31	-1683.56	  403.80
     32.0700	  569.00	  525.41	-1700.66	  403.42
     32.1700	  536.00	  524.80	-1733.05	  403.05
     32.2700	  507.00	  524.42	-1761.67	  402.68
     32.3700	  575.00	  524.25	-1693.50	  402.31
     32.4700	  532.00	  524.28	-1736.53	  401.94
     32.5700	  543.00	  524.53	-1725.78	  401.57
     32.6700	  541.00	  525.03	-1728.28	  401.20
     32.7700	  548.00	  525.82	-1722.07	  400.83
     32.8700	  604.00	  526.97	-1667.22	  400.47
     32.9700	  528.00	  528.61	-1744.86	  400.10
     33.0700	  555.00	  530.94	-1720.19	  399.74
     33.1700	  552.00	  534.35	-1726.60	  399.37
     33.2700	  508.00	  539.63	-1775.88	  399.01
     33.3700	  571.00	  548.28	-1721.53	  398.65
     33.4700	  551.00	  563.03	-1756.28	  398.29
     33.5700	  596.00	  587.96	-1736.21	  397.93
     33.6700	  596.00	  628.16	-1776.41	  397.57
     33.7700	  665.00	  687.36	-1766.61	  397.21
     33.8700	  769.00	  763.86	-1739.11	  396.86
     33.9700	  884.00	  846.21	-1706.46	  396.50
     34.0700	 1025.00	  911.31	-1630.56	  396.14
     34.1700	  995.00	  929.10	-1678.35	  395.79
     34.2700	  950.00	  884.55	-1678.80	  395.44
     34.3700	  821.00	  800.17	-1723.42	  395.09
     34.4700	  705.00	  712.37	-1751.62	  394.74
     34.5700	  617.00	  641.67	-1768.92	  394.39
     34.6700	  601.00	  592.80	-1736.05	  394.04
     34.7700	  594.00	  562.43	-1712.68	  393.70
     34.8700	  549.00	  544.65	-1739.90	  393.35
     34.9700	  535.00	  534.21	-1743.46	  393.01
     35.0700	  506.00	  527.67	-1765.92	  392.66
     35.1700	  538.00	  523.15	-1729.40	  392.32
     35.2700	  468.00	  519.75	-1796.00	  391.98
     35.3700	  530.00	  517.07	-1731.32	  391.64
     35.4700	  483.00	  514.88	-1776.13	  391.31
     35.5700	  492.00	  513.05	-1765.30	  390.97
     35.6700	  476.00	  511.97	-1780.22	  390.64
     35.7700	  490.00	  510.64	-1764.89	  390.30
     35.8700	  511.00	  509.49	-1742.74	  389.97
     35.9700	  476.00	  508.43	-1776.68	  389.64
     36.0700	  524.00	  507.52	-1727.77	  389.31
     36.1700	  501.00	  506.70	-1749.95	  388.99
     36.2700	  528.00	  505.97	-1722.22	  388.66
     36.3700	  477.00	  505.30	-1772.55	  388.34
     36.4700	  504.00	  504.70	-1744.95	  388.01
     36.5700	  481.00	  504.16	-1767.41	  387.69
     36.6700	  505.00	  503.68	-1742.93	  387.37
     36.7700	  488.00	  503.26	-1759.51	  387.05
     36.8700	  522.00	  502.93	-1725.18	  386.74
     36.9700	  470.00	  502.73	-1776.98	  386.42
     37.0700	  528.00	  502.73	-1718.98	  386.11
     37.1700	  494.00	  503.06	-1753.31	  385.80
     37.2700	  481.00	  503.90	-1767.15	  385.49
     37.3700	  471.00	  505.41	-1778.66	  385.18
     37.4700	  526.00	  507.69	-1725.94	  384.87
     37.5700	  517.00	  510.53	-1737.78	  384.56
     37.6700	  491.00	  513.54	-1766.79	  384.26
     37.7700	  502.00	  515.37	-1757.62	  383.96
     37.8700	  547.00	  515.20	-1712.45	  383.66
     37.9700	  508.00	  512.89	-1749.14	  383.36
     38.0700	  531.00	  509.47	-1722.72	  383.06
     38.1700	  494.00	  505.97	-1756.22	  382.77
     38.2700	  482.00	  502.93	-1765.18	  382.47
     38.3700	  482.00	  500.54	-1762.79	  382.18
     38.4700	  461.00	  498.79	-1782.04	  381.89
     38.5700	  515.00	  497.55	-1726.80	  381.60
     38.6700	  477.00	  496.67	-1763.92	  381.32
     38.7700	  492.00	  496.01	-1748.26	  381.03
     38.8700	  481.00	  495.48	-1758.73	  380.75
     38.9700	  511.00	  495.03	-1728.28	  380.47
     39.0700	  478.00	  494.63	-1760.88	  380.19
     39.1700	  454.00	  494.27	-1784.52	  379.91
     39.2700	  490.00	  493.82	-1748.07	  379.63
     39.3700	  550.00	  493.51	-1687.76	  379.36
     39.4700	  478.00	  493.21	-1759.46	  379.09
     39.5700	  494.00	  492.93	-1743.18	  378.82
     39.6700	  523.00	  492.66	-1713.91	  378.55
     39.7700	  493.00	  492.41	-1743.66	  378.28
     39.8700	  473.00	  492.17	-1763.42	  378.02
     39.9700	  490.00	  491.94	-1746.19	  377.75
     40.0700	  485.00	  491.72	-1750.97	  377.49
     40.1700	  462.00	  491.43	-1773.68	  377.23
     40.2700	  500.00	  491.25	-1735.50	  376.98
     40.3700	  494.00	  491.58	-1741.83	  376.72
     40.4700	  436.00	  491.43	-1799.68	  376.47
     40.5700	  472.00	  491.30	-1763.55	  376.22
     40.6700	  498.00	  491.18	-1737.43	  375.97
     40.7700	  495.00	  491.09	-1740.34	  375.72
