MSG Master    CELL:    5.91901   5.91901  23.27353   90.0000   90.0000  120.0000   SPGR: P 63/m m c             TEMP:   1074.85
  1   1280     2.52000     0.00000    -0.12888     0.00000     0.00000    0
    99     0     2
       0.00000      10.00000
     125.00000     130.00000
 2Theta	Yobs	Ycal	Yobs-Ycal	Backg	Posr	(hkl)	K
      0.7700	    0.00	  547.33	-1760.25	  429.93
      0.8700	    0.00	  548.08	-1760.25	  430.67
      0.9700	   25.00	  548.81	-1760.25	  431.40
      1.0700	   37.00	  549.53	-1760.25	  432.13
      1.1700	   40.00	  550.25	-1760.25	  432.84
      1.2700	   36.00	  550.95	-1760.25	  433.54
      1.3700	   50.00	  551.63	-1760.25	  434.23
      1.4700	   96.00	  552.31	-1760.25	  434.90
      1.5700	  302.00	  552.98	-1760.25	  435.57
      1.6700	  460.00	  553.64	-1760.25	  436.23
      1.7700	  607.00	  554.28	-1760.25	  436.87
      1.8700	  627.00	  554.92	-1760.25	  437.51
      1.9700	  688.00	  555.54	-1760.25	  438.13
      2.0700	  772.00	  556.16	-1760.25	  438.75
      2.1700	  783.00	  556.76	-1760.25	  439.35
      2.2700	  751.00	  557.36	-1760.25	  439.95
      2.3700	  703.00	  557.94	-1760.25	  440.53
      2.4700	  703.00	  558.51	-1760.25	  441.10
      2.5700	  645.00	  559.08	-1760.25	  441.67
      2.6700	  639.00	  559.63	-1760.25	  442.22
      2.7700	  679.00	  560.18	-1760.25	  442.77
      2.8700	  623.00	  560.71	-1760.25	  443.30
      2.9700	  620.00	  561.23	-1760.25	  443.82
      3.0700	  617.00	  561.75	-1760.25	  444.34
      3.1700	  599.00	  562.25	-1760.25	  444.84
      3.2700	  568.00	  562.75	-1760.25	  445.34
      3.3700	  674.00	  563.23	-1760.25	  445.83
      3.4700	  783.00	  563.71	-1760.25	  446.30
      3.5700	  841.00	  564.18	-1760.25	  446.77
      3.6700	  870.00	  564.64	-1760.25	  447.23
      3.7700	  950.00	  565.09	-1760.25	  447.68
      3.8700	  971.00	  565.52	-1760.25	  448.12
      3.9700	 1021.00	  565.96	-1760.25	  448.55
      4.0700	 1052.00	  566.38	-1760.25	  448.97
      4.1700	 1064.00	  566.79	-1760.25	  449.38
      4.2700	 1069.00	  567.19	-1760.25	  449.78
      4.3700	 1051.00	  567.59	-1760.25	  450.18
      4.4700	  976.00	  567.97	-1760.25	  450.57
      4.5700	 1040.00	  568.35	-1760.25	  450.94
      4.6700	 1032.00	  568.72	-1760.25	  451.31
      4.7700	  973.00	  569.08	-1760.25	  451.67
      4.8700	  987.00	  569.43	-1760.25	  452.02
      4.9700	  972.00	  569.78	-1760.25	  452.37
      5.0700	  924.00	  570.11	-1760.25	  452.70
      5.1700	  939.00	  570.44	-1760.25	  453.03
      5.2700	  926.00	  570.76	-1760.25	  453.35
      5.3700	  912.00	  571.07	-1760.25	  453.66
      5.4700	  845.00	  571.37	-1760.25	  453.96
      5.5700	  865.00	  571.67	-1760.25	  454.26
      5.6700	  846.00	  571.95	-1760.25	  454.54
      5.7700	  835.00	  572.23	-1760.25	  454.82
      5.8700	  815.00	  572.50	-1760.25	  455.09
      5.9700	  846.00	  572.77	-1760.25	  455.36
      6.0700	  803.00	  573.02	-1760.25	  455.61
      6.1700	  768.00	  573.27	-1760.25	  455.86
      6.2700	  786.00	  573.51	-1760.25	  456.10
      6.3700	  735.00	  573.74	-1760.25	  456.33
      6.4700	  749.00	  573.97	-1760.25	  456.56
      6.5700	  740.00	  574.18	-1760.25	  456.78
      6.6700	  769.00	  574.40	-1760.25	  456.99
      6.7700	  709.00	  574.60	-1760.25	  457.19
      6.8700	  741.00	  574.79	-1760.25	  457.39
      6.9700	  709.00	  574.98	-1760.25	  457.57
      7.0700	  757.00	  575.17	-1760.25	  457.76
      7.1700	  659.00	  575.34	-1760.25	  457.93
      7.2700	  660.00	  575.51	-1760.25	  458.10
      7.3700	  679.00	  575.67	-1760.25	  458.26
      7.4700	  686.00	  575.82	-1760.25	  458.41
      7.5700	  654.00	  575.97	-1760.25	  458.56
      7.6700	  717.00	  576.11	-1760.25	  458.70
      7.7700	  659.00	  576.24	-1760.25	  458.84
      7.8700	  651.00	  576.37	-1760.25	  458.96
      7.9700	  648.00	  576.49	-1760.25	  459.08
      8.0700	  627.00	  576.61	-1760.25	  459.20
      8.1700	  636.00	  576.71	-1760.25	  459.31
      8.2700	  632.00	  576.82	-1760.25	  459.41
      8.3700	  614.00	  576.91	-1760.25	  459.50
      8.4700	  644.00	  577.00	-1760.25	  459.59
      8.5700	  634.00	  577.08	-1760.25	  459.67
      8.6700	  622.00	  577.16	-1760.25	  459.75
      8.7700	  632.00	  577.23	-1760.25	  459.82
      8.8700	  686.00	  577.29	-1760.25	  459.89
      8.9700	  599.00	  577.35	-1760.25	  459.94
      9.0700	  626.00	  577.40	-1760.25	  460.00
      9.1700	  635.00	  577.45	-1760.25	  460.04
      9.2700	  595.00	  577.49	-1760.25	  460.08
      9.3700	  621.00	  577.53	-1760.25	  460.12
      9.4700	  584.00	  577.56	-1760.25	  460.15
      9.5700	  632.00	  577.58	-1760.25	  460.17
      9.6700	  553.00	  577.60	-1760.25	  460.19
      9.7700	  598.00	  577.61	-1760.25	  460.20
      9.8700	  628.00	  577.62	-1760.25	  460.21
      9.9700	  582.00	  577.62	-1760.25	  460.21
     10.0700	  638.00	  578.35	-1700.60	  460.20
     10.1700	  621.00	  578.41	-1717.66	  460.20
     10.2700	  564.00	  578.49	-1774.74	  460.18
     10.3700	  588.00	  578.60	-1750.85	  460.16
     10.4700	  661.00	  578.75	-1678.00	  460.14
     10.5700	  584.00	  579.01	-1755.26	  460.11
     10.6700	  583.00	  579.46	-1756.71	  460.07
     10.7700	  552.00	  580.22	-1788.47	  460.03
     10.8700	  597.00	  581.34	-1744.59	  459.98
     10.9700	  591.00	  582.82	-1752.07	  459.93
     11.0700	  581.00	  584.61	-1763.86	  459.88
     11.1700	  606.00	  586.73	-1740.98	  459.82
     11.2700	  551.00	  589.19	-1798.44	  459.75
     11.3700	  569.00	  592.08	-1783.33	  459.68
     11.4700	  567.00	  595.52	-1788.77	  459.61
     11.5700	  571.00	  599.71	-1788.96	  459.53
     11.6700	  563.00	  604.97	-1802.22	  459.45
     11.7700	  618.00	  611.89	-1754.14	  459.36
     11.8700	  597.00	  621.38	-1784.63	  459.27
     11.9700	  653.00	  634.10	-1741.35	  459.17
     12.0700	  699.00	  648.51	-1709.76	  459.07
     12.1700	  675.00	  658.53	-1743.78	  458.96
     12.2700	  681.00	  654.74	-1733.99	  458.85
     12.3700	  654.00	  634.76	-1741.01	  458.74
     12.4700	  612.00	  611.02	-1759.27	  458.62
     12.5700	  625.00	  594.03	-1729.28	  458.50
     12.6700	  645.00	  585.03	-1700.28	  458.37
     12.7700	  595.00	  581.04	-1746.29	  458.24
     12.8700	  573.00	  579.25	-1766.50	  458.11
     12.9700	  600.00	  578.24	-1738.49	  457.97
     13.0700	  564.00	  577.55	-1773.80	  457.83
     13.1700	  557.00	  577.00	-1780.25	  457.68
     13.2700	  535.00	  576.56	-1801.81	  457.53
     13.3700	  549.00	  576.18	-1787.43	  457.38
     13.4700	  578.00	  575.84	-1758.09	  457.22
     13.5700	  588.00	  575.54	-1747.79	  457.06
     13.6700	  595.00	  575.26	-1740.51	  456.89
     13.7700	  557.00	  575.00	-1778.25	  456.72
     13.8700	  567.00	  574.74	-1767.99	  456.55
     13.9700	  557.00	  574.50	-1777.75	  456.37
     14.0700	  548.00	  574.27	-1786.52	  456.19
     14.1700	  607.00	  574.04	-1727.29	  456.01
     14.2700	  551.00	  573.81	-1783.06	  455.83
     14.3700	  552.00	  573.58	-1781.83	  455.64
     14.4700	  593.00	  573.36	-1740.61	  455.44
     14.5700	  567.00	  573.13	-1766.38	  455.25
     14.6700	  582.00	  572.91	-1751.16	  455.05
     14.7700	  540.00	  572.69	-1792.94	  454.85
     14.8700	  551.00	  572.46	-1781.71	  454.64
     14.9700	  504.00	  572.23	-1828.48	  454.43
     15.0700	  570.00	  572.01	-1762.26	  454.22
     15.1700	  588.00	  571.78	-1744.03	  454.01
     15.2700	  551.00	  571.55	-1780.80	  453.79
     15.3700	  569.00	  571.32	-1762.57	  453.57
     15.4700	  548.00	  571.08	-1783.33	  453.34
     15.5700	  569.00	  570.85	-1762.10	  453.12
     15.6700	  573.00	  570.61	-1757.86	  452.89
     15.7700	  605.00	  570.37	-1725.62	  452.66
     15.8700	  550.00	  570.13	-1780.38	  452.42
     15.9700	  553.00	  569.88	-1777.13	  452.19
     16.0700	  571.00	  569.63	-1758.88	  451.95
     16.1700	  563.00	  569.39	-1766.64	  451.70
     16.2700	  562.00	  569.16	-1767.41	  451.46
     16.3700	  604.00	  568.91	-1725.16	  451.21
     16.4700	  577.00	  568.66	-1751.91	  450.96
     16.5700	  537.00	  568.40	-1791.65	  450.71
     16.6700	  568.00	  568.14	-1760.39	  450.45
     16.7700	  580.00	  567.88	-1748.13	  450.20
     16.8700	  570.00	  567.62	-1757.87	  449.94
     16.9700	  564.00	  567.35	-1763.60	  449.68
     17.0700	  551.00	  567.09	-1776.34	  449.41
     17.1700	  503.00	  566.82	-1824.07	  449.15
     17.2700	  594.00	  566.55	-1732.80	  448.88
     17.3700	  527.00	  566.28	-1799.53	  448.61
     17.4700	  548.00	  566.00	-1778.25	  448.33
     17.5700	  558.00	  565.73	-1767.98	  448.06
     17.6700	  534.00	  565.45	-1791.70	  447.78
     17.7700	  580.00	  565.17	-1745.42	  447.50
     17.8700	  578.00	  564.89	-1747.14	  447.22
     17.9700	  593.00	  564.60	-1731.85	  446.94
     18.0700	  570.00	  564.42	-1754.67	  446.65
     18.1700	  557.00	  564.13	-1767.38	  446.37
     18.2700	  520.00	  563.85	-1804.10	  446.08
     18.3700	  527.00	  563.56	-1796.81	  445.79
     18.4700	  538.00	  563.27	-1785.52	  445.50
     18.5700	  536.00	  562.98	-1787.23	  445.20
     18.6700	  578.00	  562.69	-1744.94	  444.91
     18.7700	  564.00	  562.39	-1758.64	  444.61
     18.8700	  563.00	  562.10	-1759.35	  444.31
     18.9700	  565.00	  561.88	-1757.13	  444.01
     19.0700	  608.00	  561.59	-1713.84	  443.71
     19.1700	  579.00	  561.29	-1742.54	  443.41
     19.2700	  608.00	  560.99	-1713.24	  443.10
     19.3700	  592.00	  560.69	-1728.94	  442.80
     19.4700	  553.00	  560.39	-1767.64	  442.49
     19.5700	  562.00	  560.09	-1758.34	  442.18
     19.6700	  547.00	  559.78	-1773.03	  441.87
     19.7700	  549.00	  559.48	-1770.73	  441.56
     19.8700	  546.00	  559.18	-1773.43	  441.25
     19.9700	  555.00	  558.87	-1764.12	  440.93
     20.0700	  566.00	  558.56	-1752.81	  440.62
     20.1700	  581.00	  558.26	-1737.51	  440.30
     20.2700	  554.00	  557.95	-1764.20	  439.98
     20.3700	  557.00	  557.64	-1760.89	  439.67
     20.4700	  504.00	  557.33	-1813.58	  439.35
     20.5700	  530.00	  556.99	-1787.24	  439.02
     20.6700	  554.00	  556.69	-1762.94	  438.70
     20.7700	  553.00	  556.38	-1763.63	  438.38
     20.8700	  509.00	  556.07	-1807.32	  438.06
     20.9700	  576.00	  555.79	-1740.04	  437.73
     21.0700	  588.00	  555.48	-1727.73	  437.40
     21.1700	  546.00	  555.17	-1769.42	  437.08
     21.2700	  545.00	  554.86	-1770.11	  436.75
     21.3700	  536.00	  554.56	-1778.81	  436.42
     21.4700	  520.00	  554.25	-1794.50	  436.09
     21.5700	  536.00	  553.94	-1778.19	  435.76
     21.6700	  561.00	  553.64	-1752.89	  435.43
     21.7700	  561.00	  553.33	-1752.58	  435.10
     21.8700	  579.00	  553.03	-1734.28	  434.77
     21.9700	  568.00	  552.72	-1744.97	  434.44
     22.0700	  550.00	  552.42	-1762.67	  434.10
     22.1700	  618.00	  552.13	-1694.38	  433.77
     22.2700	  582.00	  551.83	-1730.08	  433.43
     22.3700	  586.00	  551.54	-1725.79	  433.10
     22.4700	  509.00	  551.25	-1802.50	  432.76
     22.5700	  532.00	  550.96	-1779.21	  432.43
     22.6700	  588.00	  550.68	-1722.94	  432.09
     22.7700	  550.00	  550.41	-1760.66	  431.75
     22.8700	  502.00	  550.15	-1808.40	  431.42
     22.9700	  544.00	  549.89	-1766.14	  431.08
     23.0700	  562.00	  549.65	-1747.90	  430.74
     23.1700	  503.00	  549.42	-1806.67	  430.40
     23.2700	  535.00	  549.21	-1774.46	  430.06
     23.3700	  536.00	  549.03	-1773.28	  429.72
     23.4700	  541.00	  548.88	-1768.13	  429.38
     23.5700	  565.00	  548.77	-1744.02	  429.04
     23.6700	  558.00	  548.73	-1750.98	  428.70
     23.7700	  517.00	  548.93	-1792.18	  428.36
     23.8700	  553.00	  549.21	-1756.46	  428.02
     23.9700	  578.00	  549.92	-1732.17	  427.68
     24.0700	  588.00	  551.49	-1723.74	  427.34
     24.1700	  548.00	  554.60	-1766.85	  427.00
     24.2700	  580.00	  560.07	-1740.32	  426.66
     24.3700	  613.00	  568.87	-1716.12	  426.32
     24.4700	  579.00	  582.05	-1763.30	  425.98
     24.5700	  616.00	  599.85	-1744.10	  425.64
     24.6700	  597.00	  619.36	-1782.61	  425.30
     24.7700	  607.00	  632.50	-1785.75	  424.96
     24.8700	  623.00	  628.65	-1765.90	  424.62
     24.9700	  652.00	  607.15	-1715.40	  424.28
     25.0700	  616.00	  581.87	-1726.12	  423.94
     25.1700	  600.00	  563.35	-1723.60	  423.60
     25.2700	  558.00	  553.13	-1755.38	  423.26
     25.3700	  544.00	  548.42	-1764.67	  422.92
     25.4700	  543.00	  546.29	-1763.54	  422.58
     25.5700	  573.00	  545.14	-1732.39	  422.24
     25.6700	  542.00	  544.38	-1762.63	  421.90
     25.7700	  549.00	  543.82	-1755.07	  421.56
     25.8700	  525.00	  543.38	-1778.63	  421.22
     25.9700	  565.00	  543.05	-1738.30	  420.89
     26.0700	  568.00	  542.80	-1735.05	  420.55
     26.1700	  546.00	  542.62	-1756.87	  420.21
     26.2700	  571.00	  542.52	-1731.77	  419.87
     26.3700	  570.00	  542.48	-1732.73	  419.54
     26.4700	  536.00	  542.54	-1766.79	  419.20
     26.5700	  535.00	  542.68	-1767.93	  418.86
     26.6700	  587.00	  542.93	-1716.18	  418.53
     26.7700	  572.00	  543.32	-1731.57	  418.19
     26.8700	  556.00	  543.87	-1748.12	  417.86
     26.9700	  522.00	  544.64	-1782.89	  417.53
     27.0700	  570.00	  545.71	-1735.96	  417.19
     27.1700	  573.00	  547.20	-1734.45	  416.86
     27.2700	  590.00	  549.35	-1719.60	  416.53
     27.3700	  589.00	  552.68	-1723.93	  416.20
     27.4700	  536.00	  558.14	-1782.39	  415.86
     27.5700	  575.00	  567.47	-1752.72	  415.53
     27.6700	  601.00	  583.43	-1742.68	  415.20
     27.7700	  592.00	  609.58	-1777.83	  414.88
     27.8700	  628.00	  648.99	-1781.24	  414.55
     27.9700	  627.00	  701.78	-1835.03	  414.22
     28.0700	  789.00	  761.79	-1733.04	  413.89
     28.1700	  891.00	  813.76	-1683.01	  413.57
     28.2700	  926.00	  834.97	-1669.22	  413.24
     28.3700	  894.00	  812.61	-1678.86	  412.92
     28.4700	  855.00	  768.89	-1674.14	  412.59
     28.5700	  711.00	  739.07	-1788.32	  412.27
     28.6700	  709.00	  738.80	-1790.05	  411.95
     28.7700	  760.00	  762.97	-1763.22	  411.63
     28.8700	  774.00	  791.29	-1777.54	  411.31
     28.9700	  794.00	  795.52	-1761.77	  410.99
     29.0700	  766.00	  758.27	-1752.52	  410.67
     29.1700	  739.00	  695.84	-1717.09	  410.35
     29.2700	  677.00	  636.86	-1720.11	  410.03
     29.3700	  589.00	  594.66	-1765.91	  409.72
     29.4700	  620.00	  569.40	-1709.65	  409.40
     29.5700	  623.00	  555.87	-1693.12	  409.09
     29.6700	  591.00	  548.75	-1718.00	  408.77
     29.7700	  595.00	  544.71	-1709.96	  408.46
     29.8700	  604.00	  542.18	-1698.43	  408.15
     29.9700	  541.00	  540.55	-1759.80	  407.84
     30.0700	  569.00	  539.70	-1730.95	  407.53
     30.1700	  559.00	  539.78	-1741.03	  407.22
     30.2700	  532.00	  541.32	-1769.57	  406.92
     30.3700	  559.00	  545.33	-1746.58	  406.61
     30.4700	  548.00	  553.40	-1765.65	  406.31
     30.5700	  500.00	  567.17	-1827.42	  406.00
     30.6700	  577.00	  587.11	-1770.36	  405.70
     30.7700	  596.00	  610.73	-1774.98	  405.40
     30.8700	  611.00	  631.18	-1780.43	  405.10
     30.9700	  631.00	  638.11	-1767.36	  404.80
     31.0700	  573.00	  624.66	-1811.91	  404.50
     31.1700	  579.00	  598.00	-1779.25	  404.21
     31.2700	  569.00	  571.48	-1762.73	  403.91
     31.3700	  536.00	  552.08	-1776.33	  403.62
     31.4700	  557.00	  540.40	-1743.65	  403.32
     31.5700	  540.00	  534.21	-1754.46	  403.03
     31.6700	  539.00	  531.05	-1752.30	  402.74
     31.7700	  503.00	  529.29	-1786.54	  402.45
     31.8700	  554.00	  528.17	-1734.42	  402.16
     31.9700	  525.00	  527.39	-1762.64	  401.88
     32.0700	  534.00	  526.83	-1753.08	  401.59
     32.1700	  545.00	  526.45	-1741.70	  401.31
     32.2700	  528.00	  526.22	-1758.47	  401.03
     32.3700	  544.00	  526.14	-1742.39	  400.75
     32.4700	  530.00	  526.21	-1756.46	  400.47
     32.5700	  530.00	  526.44	-1756.69	  400.19
     32.6700	  533.00	  526.87	-1754.12	  399.91
     32.7700	  539.00	  527.54	-1748.79	  399.63
     32.8700	  518.00	  528.52	-1770.77	  399.36
     32.9700	  550.00	  529.92	-1740.17	  399.09
     33.0700	  548.00	  531.96	-1744.21	  398.81
     33.1700	  536.00	  535.10	-1759.35	  398.54
     33.2700	  543.00	  540.41	-1757.66	  398.28
     33.3700	  546.00	  550.22	-1764.47	  398.01
     33.4700	  543.00	  569.04	-1786.29	  397.74
     33.5700	  637.00	  604.06	-1727.31	  397.48
     33.6700	  640.00	  663.69	-1783.94	  397.22
     33.7700	  781.00	  751.65	-1730.90	  396.95
     33.8700	  955.00	  858.27	-1663.52	  396.69
     33.9700	 1049.00	  954.54	-1665.79	  396.44
     34.0700	 1035.00	  996.11	-1721.36	  396.18
     34.1700	 1042.00	  951.00	-1669.25	  395.92
     34.2700	  901.00	  842.92	-1702.17	  395.67
     34.3700	  760.00	  727.76	-1728.01	  395.42
     34.4700	  634.00	  639.36	-1765.61	  395.17
     34.5700	  583.00	  584.34	-1761.59	  394.92
     34.6700	  603.00	  554.89	-1712.14	  394.67
     34.7700	  559.00	  540.24	-1741.49	  394.42
     34.8700	  518.00	  532.64	-1774.89	  394.18
     34.9700	  535.00	  528.09	-1753.34	  393.94
     35.0700	  489.00	  524.94	-1796.19	  393.69
     35.1700	  503.00	  522.55	-1779.80	  393.45
     35.2700	  526.00	  520.68	-1754.93	  393.22
     35.3700	  538.00	  519.14	-1741.39	  392.98
     35.4700	  537.00	  517.86	-1741.11	  392.74
     35.5700	  495.00	  516.78	-1782.03	  392.51
     35.6700	  504.00	  515.85	-1772.10	  392.28
     35.7700	  510.00	  515.04	-1765.29	  392.05
     35.8700	  509.00	  514.32	-1765.57	  391.82
     35.9700	  528.00	  513.69	-1745.94	  391.59
     36.0700	  521.00	  513.59	-1752.84	  391.37
     36.1700	  560.00	  513.08	-1713.33	  391.15
     36.2700	  509.00	  512.62	-1763.87	  390.92
     36.3700	  507.00	  512.20	-1765.45	  390.70
     36.4700	  534.00	  511.82	-1738.07	  390.49
     36.5700	  507.00	  511.48	-1764.73	  390.27
     36.6700	  536.00	  511.17	-1735.42	  390.05
     36.7700	  542.00	  510.91	-1729.16	  389.84
     36.8700	  508.00	  510.72	-1762.97	  389.63
     36.9700	  501.00	  510.64	-1769.89	  389.42
     37.0700	  507.00	  510.80	-1764.05	  389.21
     37.1700	  501.00	  511.44	-1770.69	  389.01
     37.2700	  503.00	  512.89	-1770.14	  388.80
     37.3700	  550.00	  515.51	-1725.76	  388.60
     37.4700	  525.00	  519.31	-1754.56	  388.40
     37.5700	  569.00	  523.64	-1714.89	  388.20
     37.6700	  565.00	  527.09	-1722.34	  388.00
     37.7700	  516.00	  528.11	-1772.36	  387.80
     37.8700	  550.00	  526.36	-1736.61	  387.61
     37.9700	  495.00	  523.10	-1788.35	  387.42
     38.0700	  483.00	  519.45	-1796.70	  387.23
     38.1700	  500.00	  515.85	-1776.10	  387.04
     38.2700	  504.00	  512.65	-1768.90	  386.85
     38.3700	  511.00	  510.18	-1759.43	  386.67
     38.4700	  503.00	  508.45	-1765.70	  386.48
     38.5700	  500.00	  507.34	-1767.59	  386.30
     38.6700	  484.00	  506.54	-1782.79	  386.12
     38.7700	  501.00	  506.09	-1765.34	  385.94
     38.8700	  497.00	  505.76	-1769.01	  385.77
     38.9700	  476.00	  505.49	-1789.74	  385.59
     39.0700	  532.00	  505.25	-1733.50	  385.42
     39.1700	  538.00	  504.96	-1727.21	  385.25
     39.2700	  490.00	  504.76	-1775.01	  385.08
     39.3700	  505.00	  504.57	-1759.82	  384.91
     39.4700	  544.00	  504.40	-1720.65	  384.75
     39.5700	  496.00	  504.24	-1768.49	  384.58
     39.6700	  512.00	  504.21	-1752.46	  384.42
     39.7700	  523.00	  504.07	-1741.32	  384.26
     39.8700	  527.00	  503.94	-1737.19	  384.10
     39.9700	  551.00	  503.82	-1713.07	  383.95
     40.0700	  469.00	  503.71	-1794.96	  383.79
     40.1700	  525.00	  503.60	-1738.85	  383.64
     40.2700	  467.00	  503.51	-1796.76	  383.49
     40.3700	  467.00	  503.43	-1796.68	  383.34
     40.4700	  502.00	  503.36	-1761.61	  383.19
     40.5700	  486.00	  503.31	-1777.56	  383.05
     40.6700	  533.00	  503.27	-1730.52	  382.90
     40.7700	  493.00	  503.25	-1770.50	  382.76
