MSG Master    CELL:    5.91365   5.91365  23.23674   90.0000   90.0000  120.0000   SPGR: P 63/m m c             TEMP:    973.25
  1   1280     2.52000     0.00000    -0.12689     0.00000     0.00000    0
    98     0     2
       0.00000      10.00000
     125.00000     130.00000
 2Theta	Yobs	Ycal	Yobs-Ycal	Backg	Posr	(hkl)	K
      0.7700	    0.00	  513.26	-1851.25	  400.94
      0.8700	    0.00	  514.34	-1851.25	  402.02
      0.9700	   45.00	  515.41	-1851.25	  403.09
      1.0700	   42.00	  516.46	-1851.25	  404.14
      1.1700	   49.00	  517.50	-1851.25	  405.19
      1.2700	   40.00	  518.53	-1851.25	  406.21
      1.3700	   41.00	  519.55	-1851.25	  407.23
      1.4700	   85.00	  520.55	-1851.25	  408.23
      1.5700	  267.00	  521.54	-1851.25	  409.22
      1.6700	  464.00	  522.51	-1851.25	  410.19
      1.7700	  604.00	  523.47	-1851.25	  411.15
      1.8700	  604.00	  524.42	-1851.25	  412.10
      1.9700	  702.00	  525.36	-1851.25	  413.04
      2.0700	  802.00	  526.28	-1851.25	  413.96
      2.1700	  790.00	  527.19	-1851.25	  414.87
      2.2700	  775.00	  528.09	-1851.25	  415.77
      2.3700	  758.00	  528.97	-1851.25	  416.65
      2.4700	  732.00	  529.84	-1851.25	  417.52
      2.5700	  692.00	  530.70	-1851.25	  418.38
      2.6700	  653.00	  531.55	-1851.25	  419.23
      2.7700	  642.00	  532.38	-1851.25	  420.07
      2.8700	  654.00	  533.21	-1851.25	  420.89
      2.9700	  639.00	  534.02	-1851.25	  421.70
      3.0700	  578.00	  534.82	-1851.25	  422.50
      3.1700	  570.00	  535.60	-1851.25	  423.29
      3.2700	  603.00	  536.38	-1851.25	  424.06
      3.3700	  641.00	  537.14	-1851.25	  424.82
      3.4700	  724.00	  537.89	-1851.25	  425.58
      3.5700	  795.00	  538.63	-1851.25	  426.32
      3.6700	  900.00	  539.36	-1851.25	  427.04
      3.7700	  896.00	  540.08	-1851.25	  427.76
      3.8700	  874.00	  540.78	-1851.25	  428.47
      3.9700	 1009.00	  541.48	-1851.25	  429.16
      4.0700	  980.00	  542.16	-1851.25	  429.84
      4.1700	 1103.00	  542.83	-1851.25	  430.52
      4.2700	 1069.00	  543.49	-1851.25	  431.18
      4.3700	 1073.00	  544.14	-1851.25	  431.83
      4.4700	 1027.00	  544.78	-1851.25	  432.47
      4.5700	 1024.00	  545.41	-1851.25	  433.09
      4.6700	 1016.00	  546.03	-1851.25	  433.71
      4.7700	  927.00	  546.63	-1851.25	  434.32
      4.8700	 1010.00	  547.23	-1851.25	  434.91
      4.9700	  948.00	  547.82	-1851.25	  435.50
      5.0700	  940.00	  548.39	-1851.25	  436.07
      5.1700	  966.00	  548.96	-1851.25	  436.64
      5.2700	  911.00	  549.51	-1851.25	  437.19
      5.3700	  868.00	  550.06	-1851.25	  437.74
      5.4700	  841.00	  550.59	-1851.25	  438.27
      5.5700	  848.00	  551.11	-1851.25	  438.80
      5.6700	  833.00	  551.63	-1851.25	  439.31
      5.7700	  813.00	  552.13	-1851.25	  439.82
      5.8700	  818.00	  552.63	-1851.25	  440.31
      5.9700	  857.00	  553.11	-1851.25	  440.80
      6.0700	  811.00	  553.59	-1851.25	  441.27
      6.1700	  765.00	  554.05	-1851.25	  441.74
      6.2700	  765.00	  554.51	-1851.25	  442.19
      6.3700	  759.00	  554.96	-1851.25	  442.64
      6.4700	  729.00	  555.39	-1851.25	  443.08
      6.5700	  742.00	  555.82	-1851.25	  443.50
      6.6700	  765.00	  556.24	-1851.25	  443.92
      6.7700	  735.00	  556.65	-1851.25	  444.33
      6.8700	  739.00	  557.05	-1851.25	  444.73
      6.9700	  705.00	  557.44	-1851.25	  445.12
      7.0700	  666.00	  557.82	-1851.25	  445.51
      7.1700	  692.00	  558.20	-1851.25	  445.88
      7.2700	  712.00	  558.56	-1851.25	  446.24
      7.3700	  601.00	  558.92	-1851.25	  446.60
      7.4700	  699.00	  559.26	-1851.25	  446.95
      7.5700	  639.00	  559.60	-1851.25	  447.29
      7.6700	  668.00	  559.93	-1851.25	  447.62
      7.7700	  600.00	  560.25	-1851.25	  447.94
      7.8700	  590.00	  560.57	-1851.25	  448.25
      7.9700	  619.00	  560.87	-1851.25	  448.56
      8.0700	  674.00	  561.17	-1851.25	  448.85
      8.1700	  656.00	  561.46	-1851.25	  449.14
      8.2700	  636.00	  561.74	-1851.25	  449.42
      8.3700	  634.00	  562.01	-1851.25	  449.69
      8.4700	  627.00	  562.28	-1851.25	  449.96
      8.5700	  624.00	  562.53	-1851.25	  450.21
      8.6700	  613.00	  562.78	-1851.25	  450.46
      8.7700	  623.00	  563.02	-1851.25	  450.70
      8.8700	  608.00	  563.25	-1851.25	  450.94
      8.9700	  650.00	  563.48	-1851.25	  451.16
      9.0700	  610.00	  563.70	-1851.25	  451.38
      9.1700	  604.00	  563.91	-1851.25	  451.59
      9.2700	  598.00	  564.11	-1851.25	  451.79
      9.3700	  582.00	  564.30	-1851.25	  451.99
      9.4700	  576.00	  564.49	-1851.25	  452.18
      9.5700	  585.00	  564.67	-1851.25	  452.36
      9.6700	  602.00	  564.85	-1851.25	  452.53
      9.7700	  631.00	  565.01	-1851.25	  452.70
      9.8700	  615.00	  565.17	-1851.25	  452.86
      9.9700	  535.00	  565.33	-1851.25	  453.01
     10.0700	  586.00	  566.11	-1831.36	  453.15
     10.1700	  595.00	  566.31	-1822.56	  453.29
     10.2700	  602.00	  566.52	-1815.77	  453.42
     10.3700	  562.00	  566.73	-1855.98	  453.55
     10.4700	  591.00	  566.98	-1827.23	  453.67
     10.5700	  554.00	  567.31	-1864.56	  453.78
     10.6700	  555.00	  567.79	-1864.04	  453.88
     10.7700	  566.00	  568.52	-1853.77	  453.98
     10.8700	  551.00	  569.60	-1869.85	  454.07
     10.9700	  638.00	  571.02	-1784.27	  454.16
     11.0700	  573.00	  572.75	-1851.00	  454.24
     11.1700	  599.00	  574.76	-1827.01	  454.31
     11.2700	  575.00	  577.08	-1853.33	  454.38
     11.3700	  576.00	  579.78	-1855.03	  454.44
     11.4700	  596.00	  582.95	-1838.20	  454.49
     11.5700	  561.00	  586.76	-1877.01	  454.54
     11.6700	  593.00	  591.48	-1849.73	  454.58
     11.7700	  608.00	  597.60	-1840.85	  454.62
     11.8700	  658.00	  605.98	-1799.23	  454.65
     11.9700	  669.00	  617.58	-1799.83	  454.67
     12.0700	  677.00	  631.88	-1806.13	  454.69
     12.1700	  655.00	  643.98	-1840.23	  454.71
     12.2700	  659.00	  644.36	-1836.61	  454.71
     12.3700	  619.00	  627.49	-1859.74	  454.71
     12.4700	  642.00	  603.66	-1812.91	  454.71
     12.5700	  602.00	  585.56	-1834.81	  454.70
     12.6700	  544.00	  575.93	-1883.18	  454.69
     12.7700	  537.00	  571.88	-1886.13	  454.67
     12.8700	  573.00	  570.25	-1848.50	  454.64
     12.9700	  591.00	  569.44	-1829.69	  454.61
     13.0700	  571.00	  568.91	-1849.16	  454.58
     13.1700	  606.00	  568.53	-1813.78	  454.54
     13.2700	  509.00	  568.23	-1910.48	  454.49
     13.3700	  533.00	  567.98	-1886.23	  454.44
     13.4700	  549.00	  567.78	-1870.03	  454.38
     13.5700	  559.00	  567.60	-1859.85	  454.32
     13.6700	  596.00	  567.43	-1822.68	  454.26
     13.7700	  571.00	  567.28	-1847.53	  454.19
     13.8700	  567.00	  567.14	-1851.39	  454.11
     13.9700	  567.00	  567.01	-1851.26	  454.03
     14.0700	  610.00	  566.87	-1808.12	  453.95
     14.1700	  514.00	  566.74	-1903.99	  453.86
     14.2700	  525.00	  566.62	-1892.87	  453.76
     14.3700	  561.00	  566.49	-1856.74	  453.66
     14.4700	  523.00	  566.36	-1894.61	  453.56
     14.5700	  559.00	  566.23	-1858.48	  453.45
     14.6700	  585.00	  566.10	-1832.35	  453.34
     14.7700	  499.00	  565.96	-1918.21	  453.23
     14.8700	  539.00	  565.83	-1878.08	  453.11
     14.9700	  550.00	  565.69	-1866.94	  452.98
     15.0700	  511.00	  565.55	-1905.80	  452.85
     15.1700	  528.00	  565.40	-1888.65	  452.72
     15.2700	  572.00	  565.25	-1844.50	  452.58
     15.3700	  546.00	  565.10	-1870.35	  452.44
     15.4700	  566.00	  564.95	-1850.20	  452.30
     15.5700	  555.00	  564.79	-1861.04	  452.15
     15.6700	  554.00	  564.63	-1861.88	  452.00
     15.7700	  530.00	  564.47	-1885.72	  451.84
     15.8700	  525.00	  564.30	-1890.55	  451.68
     15.9700	  569.00	  564.13	-1846.38	  451.52
     16.0700	  548.00	  563.96	-1867.21	  451.35
     16.1700	  563.00	  563.79	-1852.04	  451.18
     16.2700	  569.00	  563.61	-1845.86	  451.00
     16.3700	  582.00	  563.42	-1832.67	  450.82
     16.4700	  561.00	  563.24	-1853.49	  450.64
     16.5700	  584.00	  563.07	-1830.32	  450.46
     16.6700	  529.00	  562.88	-1885.13	  450.27
     16.7700	  568.00	  562.69	-1845.94	  450.08
     16.8700	  536.00	  562.49	-1877.74	  449.88
     16.9700	  532.00	  562.29	-1881.54	  449.68
     17.0700	  547.00	  562.08	-1866.33	  449.48
     17.1700	  526.00	  561.88	-1887.13	  449.27
     17.2700	  538.00	  561.67	-1874.92	  449.07
     17.3700	  548.00	  561.46	-1864.71	  448.86
     17.4700	  620.00	  561.24	-1792.49	  448.64
     17.5700	  534.00	  561.02	-1878.27	  448.42
     17.6700	  498.00	  560.80	-1914.05	  448.20
     17.7700	  594.00	  560.69	-1817.94	  447.98
     17.8700	  577.00	  560.46	-1834.71	  447.75
     17.9700	  555.00	  560.23	-1856.48	  447.53
     18.0700	  530.00	  560.00	-1881.25	  447.29
     18.1700	  624.00	  559.77	-1787.02	  447.06
     18.2700	  542.00	  559.54	-1868.79	  446.82
     18.3700	  546.00	  559.30	-1864.55	  446.58
     18.4700	  553.00	  559.06	-1857.31	  446.34
     18.5700	  538.00	  558.82	-1872.07	  446.10
     18.6700	  547.00	  558.57	-1862.82	  445.85
     18.7700	  542.00	  558.33	-1867.58	  445.60
     18.8700	  547.00	  558.16	-1862.41	  445.35
     18.9700	  551.00	  557.91	-1858.16	  445.09
     19.0700	  539.00	  557.66	-1869.91	  444.83
     19.1700	  585.00	  557.41	-1823.66	  444.57
     19.2700	  539.00	  557.15	-1869.40	  444.31
     19.3700	  564.00	  556.89	-1844.14	  444.05
     19.4700	  590.00	  556.64	-1817.89	  443.78
     19.5700	  576.00	  556.37	-1831.62	  443.51
     19.6700	  563.00	  556.11	-1844.36	  443.24
     19.7700	  540.00	  555.85	-1867.10	  442.97
     19.8700	  558.00	  555.58	-1848.83	  442.70
     19.9700	  526.00	  555.31	-1880.56	  442.42
     20.0700	  590.00	  555.04	-1816.29	  442.14
     20.1700	  538.00	  554.77	-1868.02	  441.86
     20.2700	  539.00	  554.47	-1866.72	  441.58
     20.3700	  514.00	  554.20	-1891.45	  441.29
     20.4700	  518.00	  553.93	-1887.18	  441.01
     20.5700	  562.00	  553.65	-1842.90	  440.72
     20.6700	  542.00	  553.37	-1862.62	  440.43
     20.7700	  556.00	  553.10	-1848.35	  440.14
     20.8700	  557.00	  552.82	-1847.07	  439.84
     20.9700	  536.00	  552.57	-1867.82	  439.55
     21.0700	  555.00	  552.29	-1848.54	  439.25
     21.1700	  557.00	  552.01	-1846.26	  438.95
     21.2700	  520.00	  551.73	-1882.98	  438.65
     21.3700	  541.00	  551.45	-1861.70	  438.35
     21.4700	  590.00	  551.17	-1812.42	  438.05
     21.5700	  511.00	  550.88	-1891.13	  437.75
     21.6700	  598.00	  550.60	-1803.85	  437.44
     21.7700	  588.00	  550.32	-1813.57	  437.13
     21.8700	  581.00	  550.04	-1820.29	  436.83
     21.9700	  553.00	  549.76	-1848.01	  436.52
     22.0700	  549.00	  549.48	-1851.73	  436.21
     22.1700	  562.00	  549.20	-1838.45	  435.89
     22.2700	  555.00	  548.92	-1845.17	  435.58
     22.3700	  541.00	  548.65	-1858.90	  435.27
     22.4700	  544.00	  548.38	-1855.62	  434.95
     22.5700	  517.00	  548.11	-1882.36	  434.64
     22.6700	  519.00	  547.84	-1880.09	  434.32
     22.7700	  542.00	  547.58	-1856.83	  434.00
     22.8700	  553.00	  547.32	-1845.57	  433.68
     22.9700	  577.00	  547.08	-1821.33	  433.36
     23.0700	  552.00	  546.84	-1846.09	  433.04
     23.1700	  541.00	  546.61	-1856.86	  432.71
     23.2700	  555.00	  546.40	-1842.65	  432.39
     23.3700	  574.00	  546.20	-1823.45	  432.07
     23.4700	  535.00	  546.03	-1862.28	  431.74
     23.5700	  589.00	  545.89	-1808.14	  431.42
     23.6700	  583.00	  545.80	-1814.05	  431.09
     23.7700	  547.00	  545.79	-1850.04	  430.76
     23.8700	  577.00	  546.03	-1820.28	  430.43
     23.9700	  557.00	  546.43	-1840.68	  430.11
     24.0700	  626.00	  547.45	-1772.70	  429.78
     24.1700	  582.00	  549.64	-1818.89	  429.45
     24.2700	  576.00	  553.80	-1829.05	  429.12
     24.3700	  544.00	  560.85	-1868.10	  428.79
     24.4700	  613.00	  571.89	-1810.14	  428.45
     24.5700	  586.00	  587.97	-1853.22	  428.12
     24.6700	  613.00	  608.15	-1846.40	  427.79
     24.7700	  603.00	  626.41	-1874.66	  427.46
     24.8700	  617.00	  631.39	-1865.64	  427.12
     24.9700	  678.00	  615.58	-1788.83	  426.79
     25.0700	  586.00	  588.82	-1854.07	  426.46
     25.1700	  553.00	  566.15	-1864.40	  426.12
     25.2700	  626.00	  552.74	-1777.99	  425.79
     25.3700	  530.00	  546.54	-1867.79	  425.45
     25.4700	  506.00	  543.94	-1889.19	  425.12
     25.5700	  552.00	  542.70	-1841.95	  424.78
     25.6700	  569.00	  541.95	-1824.20	  424.45
     25.7700	  585.00	  541.41	-1807.66	  424.11
     25.8700	  550.00	  541.00	-1842.25	  423.77
     25.9700	  562.00	  540.70	-1829.95	  423.44
     26.0700	  586.00	  540.48	-1805.73	  423.10
     26.1700	  547.00	  540.33	-1844.58	  422.77
     26.2700	  548.00	  540.26	-1843.51	  422.43
     26.3700	  544.00	  540.27	-1847.52	  422.09
     26.4700	  564.00	  540.36	-1827.61	  421.76
     26.5700	  535.00	  540.54	-1856.79	  421.42
     26.6700	  532.00	  540.84	-1860.09	  421.08
     26.7700	  518.00	  541.28	-1874.53	  420.75
     26.8700	  588.00	  541.89	-1805.14	  420.41
     26.9700	  614.00	  542.72	-1779.97	  420.08
     27.0700	  586.00	  543.86	-1809.11	  419.74
     27.1700	  560.00	  545.42	-1836.67	  419.41
     27.2700	  543.00	  547.64	-1855.89	  419.07
     27.3700	  565.00	  550.96	-1837.21	  418.74
     27.4700	  492.00	  556.28	-1915.53	  418.40
     27.5700	  567.00	  565.15	-1849.40	  418.07
     27.6700	  618.00	  580.12	-1813.37	  417.73
     27.7700	  550.00	  604.62	-1905.87	  417.40
     27.8700	  596.00	  641.90	-1897.15	  417.06
     27.9700	  635.00	  692.84	-1909.09	  416.73
     28.0700	  732.00	  752.99	-1872.24	  416.40
     28.1700	  892.00	  809.68	-1768.93	  416.07
     28.2700	  928.00	  841.75	-1765.00	  415.73
     28.3700	  929.00	  830.97	-1753.22	  415.40
     28.4700	  869.00	  789.04	-1771.29	  415.07
     28.5700	  721.00	  751.25	-1881.50	  414.74
     28.6700	  664.00	  739.69	-1926.94	  414.41
     28.7700	  725.00	  754.94	-1881.19	  414.08
     28.8700	  758.00	  781.53	-1874.78	  413.75
     28.9700	  784.00	  793.70	-1860.95	  413.43
     29.0700	  856.00	  768.75	-1764.00	  413.10
     29.1700	  663.00	  712.16	-1900.41	  412.77
     29.2700	  643.00	  651.54	-1859.79	  412.44
     29.3700	  592.00	  604.67	-1863.92	  412.12
     29.4700	  578.00	  574.79	-1848.04	  411.79
     29.5700	  591.00	  558.02	-1818.27	  411.47
     29.6700	  607.00	  549.07	-1793.32	  411.14
     29.7700	  667.00	  544.08	-1728.33	  410.82
     29.8700	  621.00	  541.01	-1771.26	  410.50
     29.9700	  585.00	  539.02	-1805.27	  410.18
     30.0700	  557.00	  537.84	-1832.09	  409.86
     30.1700	  547.00	  537.54	-1841.79	  409.54
     30.2700	  584.00	  538.50	-1805.75	  409.22
     30.3700	  565.00	  541.59	-1827.84	  408.90
     30.4700	  576.00	  548.25	-1823.50	  408.58
     30.5700	  536.00	  560.23	-1875.48	  408.27
     30.6700	  580.00	  578.59	-1849.84	  407.95
     30.7700	  576.00	  602.00	-1877.25	  407.64
     30.8700	  598.00	  625.06	-1878.31	  407.32
     30.9700	  599.00	  638.10	-1890.35	  407.01
     31.0700	  585.00	  631.52	-1897.77	  406.70
     31.1700	  611.00	  607.27	-1847.52	  406.39
     31.2700	  556.00	  578.85	-1874.10	  406.08
     31.3700	  565.00	  556.13	-1842.38	  405.77
     31.4700	  592.00	  541.51	-1800.76	  405.46
     31.5700	  530.00	  533.44	-1854.69	  405.15
     31.6700	  545.00	  529.27	-1835.52	  404.85
     31.7700	  528.00	  527.03	-1850.28	  404.54
     31.8700	  542.00	  525.66	-1834.91	  404.24
     31.9700	  508.00	  524.72	-1867.97	  403.94
     32.0700	  540.00	  524.03	-1835.28	  403.63
     32.1700	  575.00	  523.54	-1799.79	  403.33
     32.2700	  540.00	  523.21	-1834.46	  403.03
     32.3700	  535.00	  523.02	-1839.27	  402.74
     32.4700	  558.00	  522.98	-1816.23	  402.44
     32.5700	  593.00	  523.10	-1781.35	  402.14
     32.6700	  538.00	  523.40	-1836.65	  401.85
     32.7700	  495.00	  523.91	-1880.16	  401.56
     32.8700	  561.00	  524.69	-1814.94	  401.26
     32.9700	  530.00	  525.83	-1847.08	  400.97
     33.0700	  593.00	  527.49	-1785.74	  400.68
     33.1700	  556.00	  529.99	-1825.24	  400.40
     33.2700	  543.00	  534.06	-1842.31	  400.11
     33.3700	  593.00	  541.36	-1799.61	  399.82
     33.4700	  507.00	  555.40	-1899.65	  399.54
     33.5700	  568.00	  582.23	-1865.48	  399.26
     33.6700	  613.00	  630.18	-1868.43	  398.97
     33.7700	  676.00	  705.99	-1881.24	  398.69
     33.8700	  854.00	  806.76	-1804.01	  398.41
     33.9700	 1007.00	  911.78	-1756.03	  398.14
     34.0700	 1067.00	  981.49	-1765.74	  397.86
     34.1700	 1035.00	  973.18	-1789.43	  397.59
     34.2700	  984.00	  884.80	-1752.05	  397.31
     34.3700	  794.00	  766.95	-1824.20	  397.04
     34.4700	  697.00	  665.90	-1820.15	  396.77
     34.5700	  594.00	  598.08	-1855.33	  396.50
     34.6700	  569.00	  559.92	-1842.17	  396.23
     34.7700	  519.00	  540.69	-1872.94	  395.97
     34.8700	  488.00	  531.07	-1894.32	  395.70
     34.9700	  526.00	  525.68	-1850.93	  395.44
     35.0700	  550.00	  522.13	-1823.38	  395.18
     35.1700	  564.00	  519.52	-1806.77	  394.92
     35.2700	  497.00	  517.47	-1871.72	  394.66
     35.3700	  494.00	  515.81	-1873.06	  394.40
     35.4700	  506.00	  514.44	-1859.69	  394.14
     35.5700	  558.00	  513.30	-1806.55	  393.89
     35.6700	  539.00	  512.31	-1824.56	  393.64
     35.7700	  479.00	  511.45	-1883.70	  393.39
     35.8700	  505.00	  511.19	-1857.44	  393.14
     35.9700	  550.00	  510.52	-1811.77	  392.89
     36.0700	  508.00	  509.91	-1853.16	  392.64
     36.1700	  476.00	  509.36	-1884.61	  392.40
     36.2700	  541.00	  508.86	-1819.11	  392.15
     36.3700	  518.00	  508.41	-1841.66	  391.91
     36.4700	  515.00	  507.99	-1844.24	  391.67
     36.5700	  495.00	  507.60	-1863.85	  391.43
     36.6700	  547.00	  507.25	-1811.50	  391.20
     36.7700	  466.00	  506.94	-1892.19	  390.96
     36.8700	  493.00	  506.67	-1864.92	  390.73
     36.9700	  511.00	  506.46	-1846.71	  390.50
     37.0700	  495.00	  506.39	-1862.64	  390.27
     37.1700	  492.00	  506.58	-1865.83	  390.04
     37.2700	  513.00	  507.31	-1845.56	  389.81
     37.3700	  543.00	  508.95	-1817.20	  389.59
     37.4700	  522.00	  511.81	-1841.06	  389.36
     37.5700	  549.00	  515.77	-1818.02	  389.14
     37.6700	  556.00	  519.95	-1815.20	  388.92
     37.7700	  537.00	  522.85	-1837.10	  388.70
     37.8700	  520.00	  523.13	-1854.38	  388.49
     37.9700	  440.00	  521.03	-1932.28	  388.27
     38.0700	  510.00	  517.77	-1859.02	  388.06
     38.1700	  514.00	  514.10	-1851.35	  387.85
     38.2700	  528.00	  510.46	-1833.71	  387.64
     38.3700	  468.00	  507.36	-1890.61	  387.43
     38.4700	  502.00	  505.06	-1854.31	  387.23
     38.5700	  477.00	  503.53	-1877.78	  387.02
     38.6700	  451.00	  502.57	-1902.82	  386.82
     38.7700	  481.00	  501.97	-1872.22	  386.62
     38.8700	  529.00	  501.46	-1823.71	  386.42
     38.9700	  491.00	  501.14	-1861.39	  386.22
     39.0700	  466.00	  500.87	-1886.12	  386.03
     39.1700	  472.00	  500.63	-1879.88	  385.83
     39.2700	  474.00	  500.32	-1877.57	  385.64
     39.3700	  474.00	  500.11	-1877.36	  385.45
     39.4700	  478.00	  499.92	-1873.17	  385.26
     39.5700	  484.00	  499.73	-1866.98	  385.08
     39.6700	  507.00	  499.56	-1843.81	  384.89
     39.7700	  500.00	  499.39	-1850.64	  384.71
     39.8700	  488.00	  499.35	-1862.60	  384.53
     39.9700	  502.00	  499.20	-1848.45	  384.35
     40.0700	  475.00	  499.06	-1875.31	  384.17
     40.1700	  489.00	  498.94	-1861.19	  384.00
     40.2700	  484.00	  498.82	-1866.07	  383.82
     40.3700	  484.00	  498.71	-1865.96	  383.65
     40.4700	  507.00	  498.62	-1842.87	  383.48
     40.5700	  505.00	  498.53	-1844.78	  383.31
     40.6700	  512.00	  498.47	-1837.72	  383.15
     40.7700	  495.00	  498.41	-1854.67	  382.98
