MSG Master    CELL:    5.91520   5.91520  23.24457   90.0000   90.0000  120.0000   SPGR: P 63/m m c             TEMP:   1002.45
  1   1280     2.52000     0.00000    -0.13328     0.00000     0.00000    0
    99     0     2
       0.00000      10.00000
     125.00000     130.00000
 2Theta	Yobs	Ycal	Yobs-Ycal	Backg	Posr	(hkl)	K
      0.7700	    0.00	  521.18	-1813.00	  407.52
      0.8700	    0.00	  522.15	-1813.00	  408.48
      0.9700	   32.00	  523.10	-1813.00	  409.44
      1.0700	   46.00	  524.04	-1813.00	  410.38
      1.1700	   31.00	  524.97	-1813.00	  411.31
      1.2700	   41.00	  525.89	-1813.00	  412.22
      1.3700	   54.00	  526.79	-1813.00	  413.12
      1.4700	   87.00	  527.68	-1813.00	  414.02
      1.5700	  299.00	  528.56	-1813.00	  414.89
      1.6700	  445.00	  529.43	-1813.00	  415.76
      1.7700	  559.00	  530.28	-1813.00	  416.61
      1.8700	  667.00	  531.12	-1813.00	  417.46
      1.9700	  716.00	  531.95	-1813.00	  418.29
      2.0700	  759.00	  532.77	-1813.00	  419.10
      2.1700	  770.00	  533.58	-1813.00	  419.91
      2.2700	  800.00	  534.37	-1813.00	  420.71
      2.3700	  762.00	  535.15	-1813.00	  421.49
      2.4700	  698.00	  535.93	-1813.00	  422.26
      2.5700	  687.00	  536.69	-1813.00	  423.02
      2.6700	  676.00	  537.43	-1813.00	  423.77
      2.7700	  707.00	  538.17	-1813.00	  424.50
      2.8700	  667.00	  538.90	-1813.00	  425.23
      2.9700	  625.00	  539.61	-1813.00	  425.95
      3.0700	  642.00	  540.32	-1813.00	  426.65
      3.1700	  610.00	  541.01	-1813.00	  427.34
      3.2700	  603.00	  541.69	-1813.00	  428.02
      3.3700	  721.00	  542.36	-1813.00	  428.69
      3.4700	  756.00	  543.02	-1813.00	  429.35
      3.5700	  789.00	  543.67	-1813.00	  430.00
      3.6700	  851.00	  544.31	-1813.00	  430.64
      3.7700	  856.00	  544.93	-1813.00	  431.27
      3.8700	  922.00	  545.55	-1813.00	  431.89
      3.9700	 1037.00	  546.16	-1813.00	  432.49
      4.0700	  988.00	  546.75	-1813.00	  433.09
      4.1700	 1029.00	  547.34	-1813.00	  433.67
      4.2700	 1100.00	  547.92	-1813.00	  434.25
      4.3700	 1107.00	  548.48	-1813.00	  434.82
      4.4700	 1012.00	  549.04	-1813.00	  435.37
      4.5700	 1091.00	  549.58	-1813.00	  435.92
      4.6700	 1053.00	  550.12	-1813.00	  436.45
      4.7700	  991.00	  550.65	-1813.00	  436.98
      4.8700	  968.00	  551.16	-1813.00	  437.50
      4.9700	  936.00	  551.67	-1813.00	  438.00
      5.0700	  930.00	  552.17	-1813.00	  438.50
      5.1700	  881.00	  552.65	-1813.00	  438.99
      5.2700	  853.00	  553.13	-1813.00	  439.46
      5.3700	  852.00	  553.60	-1813.00	  439.93
      5.4700	  844.00	  554.06	-1813.00	  440.39
      5.5700	  861.00	  554.51	-1813.00	  440.84
      5.6700	  837.00	  554.95	-1813.00	  441.28
      5.7700	  876.00	  555.38	-1813.00	  441.71
      5.8700	  803.00	  555.80	-1813.00	  442.14
      5.9700	  806.00	  556.22	-1813.00	  442.55
      6.0700	  782.00	  556.62	-1813.00	  442.95
      6.1700	  793.00	  557.02	-1813.00	  443.35
      6.2700	  752.00	  557.40	-1813.00	  443.74
      6.3700	  772.00	  557.78	-1813.00	  444.11
      6.4700	  790.00	  558.15	-1813.00	  444.48
      6.5700	  721.00	  558.51	-1813.00	  444.84
      6.6700	  708.00	  558.86	-1813.00	  445.20
      6.7700	  674.00	  559.21	-1813.00	  445.54
      6.8700	  716.00	  559.54	-1813.00	  445.87
      6.9700	  717.00	  559.87	-1813.00	  446.20
      7.0700	  748.00	  560.19	-1813.00	  446.52
      7.1700	  639.00	  560.50	-1813.00	  446.83
      7.2700	  724.00	  560.80	-1813.00	  447.13
      7.3700	  702.00	  561.09	-1813.00	  447.43
      7.4700	  678.00	  561.38	-1813.00	  447.71
      7.5700	  638.00	  561.66	-1813.00	  447.99
      7.6700	  682.00	  561.93	-1813.00	  448.26
      7.7700	  665.00	  562.19	-1813.00	  448.53
      7.8700	  595.00	  562.45	-1813.00	  448.78
      7.9700	  611.00	  562.69	-1813.00	  449.03
      8.0700	  623.00	  562.93	-1813.00	  449.27
      8.1700	  686.00	  563.17	-1813.00	  449.50
      8.2700	  606.00	  563.39	-1813.00	  449.72
      8.3700	  625.00	  563.61	-1813.00	  449.94
      8.4700	  642.00	  563.82	-1813.00	  450.15
      8.5700	  619.00	  564.02	-1813.00	  450.35
      8.6700	  630.00	  564.22	-1813.00	  450.55
      8.7700	  637.00	  564.40	-1813.00	  450.74
      8.8700	  588.00	  564.58	-1813.00	  450.92
      8.9700	  619.00	  564.76	-1813.00	  451.09
      9.0700	  645.00	  564.93	-1813.00	  451.26
      9.1700	  615.00	  565.09	-1813.00	  451.42
      9.2700	  613.00	  565.24	-1813.00	  451.57
      9.3700	  614.00	  565.38	-1813.00	  451.72
      9.4700	  599.00	  565.52	-1813.00	  451.86
      9.5700	  595.00	  565.66	-1813.00	  451.99
      9.6700	  578.00	  565.78	-1813.00	  452.12
      9.7700	  601.00	  565.90	-1813.00	  452.24
      9.8700	  572.00	  566.02	-1813.00	  452.35
      9.9700	  605.00	  566.12	-1813.00	  452.46
     10.0700	  585.00	  567.01	-1795.01	  452.56
     10.1700	  623.00	  567.18	-1757.18	  452.65
     10.2700	  603.00	  567.36	-1777.36	  452.74
     10.3700	  623.00	  567.56	-1757.56	  452.82
     10.4700	  582.00	  567.81	-1798.81	  452.89
     10.5700	  577.00	  568.15	-1804.15	  452.96
     10.6700	  619.00	  568.69	-1762.69	  453.03
     10.7700	  601.00	  569.55	-1781.55	  453.08
     10.8700	  567.00	  570.81	-1816.81	  453.13
     10.9700	  515.00	  572.46	-1870.46	  453.18
     11.0700	  573.00	  574.46	-1814.46	  453.22
     11.1700	  544.00	  576.80	-1845.80	  453.25
     11.2700	  584.00	  579.52	-1808.52	  453.28
     11.3700	  592.00	  582.68	-1803.68	  453.30
     11.4700	  618.00	  586.41	-1781.41	  453.32
     11.5700	  539.00	  590.93	-1864.93	  453.33
     11.6700	  617.00	  596.55	-1792.55	  453.34
     11.7700	  653.00	  603.90	-1763.90	  453.34
     11.8700	  638.00	  613.97	-1788.97	  453.33
     11.9700	  646.00	  627.76	-1794.76	  453.32
     12.0700	  637.00	  644.17	-1820.17	  453.30
     12.1700	  655.00	  656.94	-1814.94	  453.28
     12.2700	  669.00	  655.16	-1799.16	  453.26
     12.3700	  661.00	  634.18	-1786.18	  453.22
     12.4700	  668.00	  607.13	-1752.13	  453.19
     12.5700	  591.00	  587.29	-1809.29	  453.15
     12.6700	  573.00	  576.86	-1816.86	  453.10
     12.7700	  580.00	  572.42	-1805.42	  453.05
     12.8700	  569.00	  570.56	-1814.56	  452.99
     12.9700	  559.00	  569.59	-1823.59	  452.93
     13.0700	  571.00	  568.95	-1810.95	  452.86
     13.1700	  576.00	  568.48	-1805.48	  452.79
     13.2700	  577.00	  568.10	-1804.10	  452.72
     13.3700	  578.00	  567.79	-1802.79	  452.64
     13.4700	  545.00	  567.52	-1835.52	  452.55
     13.5700	  589.00	  567.29	-1791.29	  452.46
     13.6700	  543.00	  567.08	-1837.08	  452.37
     13.7700	  528.00	  566.88	-1851.88	  452.27
     13.8700	  554.00	  566.70	-1825.70	  452.17
     13.9700	  535.00	  566.53	-1844.53	  452.06
     14.0700	  530.00	  566.36	-1849.36	  451.95
     14.1700	  524.00	  566.19	-1855.19	  451.84
     14.2700	  521.00	  566.03	-1858.03	  451.72
     14.3700	  544.00	  565.87	-1834.87	  451.60
     14.4700	  563.00	  565.71	-1815.71	  451.47
     14.5700	  570.00	  565.55	-1808.55	  451.34
     14.6700	  533.00	  565.39	-1845.39	  451.20
     14.7700	  561.00	  565.23	-1817.23	  451.06
     14.8700	  513.00	  565.07	-1865.07	  450.92
     14.9700	  548.00	  564.90	-1829.90	  450.77
     15.0700	  545.00	  564.74	-1832.74	  450.62
     15.1700	  543.00	  564.57	-1834.57	  450.47
     15.2700	  609.00	  564.40	-1768.40	  450.31
     15.3700	  566.00	  564.22	-1811.22	  450.14
     15.4700	  535.00	  564.05	-1842.05	  449.98
     15.5700	  587.00	  563.87	-1789.87	  449.81
     15.6700	  552.00	  563.69	-1824.69	  449.64
     15.7700	  563.00	  563.50	-1813.50	  449.46
     15.8700	  552.00	  563.31	-1824.31	  449.28
     15.9700	  575.00	  563.12	-1801.12	  449.10
     16.0700	  562.00	  562.93	-1813.93	  448.91
     16.1700	  563.00	  562.74	-1812.74	  448.72
     16.2700	  553.00	  562.54	-1822.54	  448.53
     16.3700	  509.00	  562.34	-1866.34	  448.33
     16.4700	  544.00	  562.16	-1831.16	  448.13
     16.5700	  559.00	  561.95	-1815.95	  447.93
     16.6700	  511.00	  561.74	-1863.74	  447.72
     16.7700	  595.00	  561.53	-1779.53	  447.52
     16.8700	  554.00	  561.32	-1820.32	  447.30
     16.9700	  571.00	  561.10	-1803.10	  447.09
     17.0700	  548.00	  560.88	-1825.88	  446.87
     17.1700	  545.00	  560.66	-1828.66	  446.65
     17.2700	  528.00	  560.43	-1845.43	  446.43
     17.3700	  519.00	  560.21	-1854.21	  446.20
     17.4700	  553.00	  559.98	-1819.98	  445.97
     17.5700	  565.00	  559.74	-1807.74	  445.74
     17.6700	  543.00	  559.51	-1829.51	  445.51
     17.7700	  588.00	  559.27	-1784.27	  445.27
     17.8700	  544.00	  559.03	-1828.03	  445.03
     17.9700	  540.00	  558.89	-1831.89	  444.79
     18.0700	  545.00	  558.65	-1826.65	  444.55
     18.1700	  507.00	  558.40	-1864.40	  444.30
     18.2700	  560.00	  558.16	-1811.16	  444.05
     18.3700	  554.00	  557.91	-1816.91	  443.80
     18.4700	  568.00	  557.65	-1802.66	  443.54
     18.5700	  539.00	  557.40	-1831.40	  443.29
     18.6700	  588.00	  557.15	-1782.15	  443.03
     18.7700	  531.00	  556.89	-1838.89	  442.77
     18.8700	  584.00	  556.63	-1785.63	  442.50
     18.9700	  550.00	  556.46	-1819.46	  442.24
     19.0700	  581.00	  556.20	-1788.20	  441.97
     19.1700	  544.00	  555.94	-1824.94	  441.70
     19.2700	  553.00	  555.67	-1815.67	  441.43
     19.3700	  541.00	  555.40	-1827.40	  441.16
     19.4700	  561.00	  555.14	-1807.14	  440.88
     19.5700	  561.00	  554.86	-1806.86	  440.60
     19.6700	  564.00	  554.59	-1803.59	  440.32
     19.7700	  536.00	  554.32	-1831.32	  440.04
     19.8700	  540.00	  554.05	-1827.05	  439.76
     19.9700	  548.00	  553.77	-1818.77	  439.48
     20.0700	  589.00	  553.49	-1777.49	  439.19
     20.1700	  551.00	  553.21	-1815.21	  438.90
     20.2700	  583.00	  552.93	-1782.93	  438.61
     20.3700	  558.00	  552.62	-1807.62	  438.32
     20.4700	  535.00	  552.34	-1830.34	  438.03
     20.5700	  556.00	  552.06	-1809.06	  437.73
     20.6700	  542.00	  551.78	-1822.78	  437.43
     20.7700	  572.00	  551.50	-1792.50	  437.14
     20.8700	  517.00	  551.21	-1847.21	  436.84
     20.9700	  535.00	  550.97	-1828.97	  436.54
     21.0700	  504.00	  550.68	-1859.68	  436.23
     21.1700	  581.00	  550.40	-1782.40	  435.93
     21.2700	  560.00	  550.11	-1803.11	  435.62
     21.3700	  574.00	  549.83	-1788.83	  435.32
     21.4700	  574.00	  549.54	-1788.54	  435.01
     21.5700	  549.00	  549.26	-1813.26	  434.70
     21.6700	  538.00	  548.97	-1823.97	  434.39
     21.7700	  527.00	  548.69	-1834.69	  434.08
     21.8700	  518.00	  548.40	-1843.40	  433.77
     21.9700	  538.00	  548.12	-1823.12	  433.45
     22.0700	  548.00	  547.84	-1812.84	  433.14
     22.1700	  568.00	  547.56	-1792.56	  432.82
     22.2700	  569.00	  547.28	-1791.28	  432.51
     22.3700	  519.00	  547.01	-1841.01	  432.19
     22.4700	  556.00	  546.74	-1803.74	  431.87
     22.5700	  560.00	  546.47	-1799.47	  431.55
     22.6700	  542.00	  546.21	-1817.21	  431.23
     22.7700	  544.00	  545.95	-1814.95	  430.91
     22.8700	  534.00	  545.70	-1824.70	  430.59
     22.9700	  540.00	  545.46	-1818.46	  430.26
     23.0700	  570.00	  545.23	-1788.23	  429.94
     23.1700	  595.00	  545.01	-1763.01	  429.61
     23.2700	  517.00	  544.81	-1840.81	  429.29
     23.3700	  541.00	  544.64	-1816.64	  428.96
     23.4700	  539.00	  544.49	-1818.49	  428.64
     23.5700	  547.00	  544.38	-1810.38	  428.31
     23.6700	  566.00	  544.34	-1791.34	  427.98
     23.7700	  562.00	  544.38	-1795.38	  427.65
     23.8700	  527.00	  544.72	-1830.72	  427.32
     23.9700	  533.00	  545.31	-1825.31	  426.99
     24.0700	  528.00	  546.66	-1831.66	  426.66
     24.1700	  548.00	  549.45	-1814.45	  426.33
     24.2700	  582.00	  554.56	-1785.56	  426.00
     24.3700	  560.00	  563.03	-1816.03	  425.67
     24.4700	  590.00	  576.07	-1799.07	  425.34
     24.5700	  558.00	  594.57	-1849.57	  425.00
     24.6700	  612.00	  616.75	-1817.75	  424.67
     24.7700	  630.00	  635.04	-1818.04	  424.34
     24.8700	  633.00	  637.00	-1817.00	  424.00
     24.9700	  600.00	  616.92	-1829.92	  423.67
     25.0700	  562.00	  587.83	-1838.83	  423.34
     25.1700	  578.00	  564.62	-1799.62	  423.00
     25.2700	  575.00	  551.30	-1789.30	  422.67
     25.3700	  572.00	  545.19	-1786.19	  422.33
     25.4700	  560.00	  542.57	-1795.57	  422.00
     25.5700	  517.00	  541.28	-1837.28	  421.66
     25.6700	  559.00	  540.47	-1794.47	  421.33
     25.7700	  604.00	  539.88	-1748.88	  421.00
     25.8700	  544.00	  539.44	-1808.44	  420.66
     25.9700	  542.00	  539.11	-1810.11	  420.33
     26.0700	  561.00	  538.87	-1790.87	  419.99
     26.1700	  594.00	  538.70	-1757.70	  419.66
     26.2700	  563.00	  538.61	-1788.61	  419.32
     26.3700	  550.00	  538.60	-1801.60	  418.99
     26.4700	  566.00	  538.67	-1785.67	  418.65
     26.5700	  548.00	  538.84	-1803.84	  418.32
     26.6700	  572.00	  539.13	-1780.13	  417.98
     26.7700	  541.00	  539.55	-1811.55	  417.65
     26.8700	  546.00	  540.14	-1807.14	  417.31
     26.9700	  544.00	  540.95	-1809.95	  416.98
     27.0700	  563.00	  542.07	-1792.07	  416.65
     27.1700	  547.00	  543.60	-1809.60	  416.31
     27.2700	  541.00	  545.80	-1817.80	  415.98
     27.3700	  559.00	  549.14	-1803.14	  415.65
     27.4700	  553.00	  554.51	-1814.51	  415.32
     27.5700	  550.00	  563.56	-1826.56	  414.98
     27.6700	  615.00	  578.93	-1776.93	  414.65
     27.7700	  598.00	  604.08	-1819.08	  414.32
     27.8700	  602.00	  642.19	-1853.19	  413.99
     27.9700	  670.00	  693.82	-1836.82	  413.66
     28.0700	  763.00	  753.80	-1803.80	  413.33
     28.1700	  896.00	  808.42	-1725.42	  413.00
     28.2700	  950.00	  835.98	-1698.98	  412.67
     28.3700	  901.00	  820.97	-1732.97	  412.34
     28.4700	  856.00	  780.69	-1737.69	  412.01
     28.5700	  721.00	  751.06	-1843.06	  411.69
     28.6700	  671.00	  751.05	-1893.05	  411.36
     28.7700	  747.00	  777.83	-1843.83	  411.03
     28.8700	  812.00	  811.87	-1812.87	  410.71
     28.9700	  806.00	  823.25	-1830.25	  410.38
     29.0700	  842.00	  789.25	-1760.25	  410.06
     29.1700	  723.00	  722.28	-1812.28	  409.74
     29.2700	  673.00	  654.81	-1794.81	  409.41
     29.3700	  606.00	  604.66	-1811.66	  409.09
     29.4700	  563.00	  573.75	-1823.75	  408.77
     29.5700	  585.00	  556.91	-1784.91	  408.45
     29.6700	  605.00	  548.08	-1756.08	  408.13
     29.7700	  585.00	  543.18	-1771.18	  407.81
     29.8700	  570.00	  540.18	-1783.18	  407.49
     29.9700	  632.00	  538.28	-1719.28	  407.17
     30.0700	  553.00	  537.27	-1797.27	  406.85
     30.1700	  575.00	  537.29	-1775.29	  406.54
     30.2700	  606.00	  538.88	-1745.88	  406.22
     30.3700	  554.00	  543.15	-1802.15	  405.91
     30.4700	  596.00	  551.91	-1768.91	  405.60
     30.5700	  557.00	  567.24	-1823.24	  405.28
     30.6700	  575.00	  590.14	-1828.14	  404.97
     30.7700	  628.00	  618.44	-1803.44	  404.66
     30.8700	  596.00	  644.94	-1861.94	  404.35
     30.9700	  629.00	  657.56	-1841.56	  404.04
     31.0700	  617.00	  646.00	-1842.00	  403.73
     31.1700	  623.00	  615.45	-1805.45	  403.43
     31.2700	  545.00	  582.40	-1850.40	  403.12
     31.3700	  519.00	  557.04	-1851.04	  402.82
     31.4700	  555.00	  541.28	-1799.28	  402.51
     31.5700	  530.00	  532.78	-1815.78	  402.21
     31.6700	  557.00	  528.45	-1784.45	  401.91
     31.7700	  549.00	  526.10	-1790.10	  401.61
     31.8700	  544.00	  524.64	-1793.64	  401.31
     31.9700	  569.00	  523.62	-1767.62	  401.01
     32.0700	  535.00	  522.87	-1800.87	  400.71
     32.1700	  573.00	  522.33	-1762.33	  400.42
     32.2700	  533.00	  521.97	-1801.97	  400.12
     32.3700	  535.00	  521.75	-1799.75	  399.83
     32.4700	  539.00	  521.70	-1795.70	  399.54
     32.5700	  506.00	  521.80	-1828.80	  399.25
     32.6700	  583.00	  522.09	-1752.09	  398.96
     32.7700	  508.00	  522.61	-1827.61	  398.67
     32.8700	  558.00	  523.40	-1778.40	  398.38
     32.9700	  578.00	  524.57	-1759.57	  398.09
     33.0700	  535.00	  526.28	-1804.28	  397.81
     33.1700	  534.00	  528.90	-1807.90	  397.52
     33.2700	  537.00	  533.25	-1809.25	  397.24
     33.3700	  552.00	  541.21	-1802.21	  396.96
     33.4700	  541.00	  556.52	-1828.52	  396.68
     33.5700	  563.00	  585.66	-1835.66	  396.40
     33.6700	  614.00	  636.91	-1835.91	  396.12
     33.7700	  699.00	  715.98	-1829.98	  395.85
     33.8700	  866.00	  817.56	-1764.56	  395.57
     33.9700	  993.00	  918.07	-1738.07	  395.30
     34.0700	 1079.00	  976.31	-1710.31	  395.03
     34.1700	 1027.00	  953.46	-1739.46	  394.76
     34.2700	  919.00	  857.70	-1751.70	  394.49
     34.3700	  785.00	  742.34	-1770.34	  394.22
     34.4700	  618.00	  648.11	-1843.11	  393.96
     34.5700	  588.00	  586.98	-1811.98	  393.69
     34.6700	  537.00	  553.43	-1829.43	  393.43
     34.7700	  516.00	  536.70	-1833.70	  393.17
     34.8700	  483.00	  528.24	-1858.24	  392.91
     34.9700	  564.00	  523.36	-1772.36	  392.65
     35.0700	  490.00	  520.08	-1843.08	  392.39
     35.1700	  545.00	  517.63	-1785.63	  392.13
     35.2700	  525.00	  515.70	-1803.70	  391.88
     35.3700	  503.00	  514.13	-1824.13	  391.63
     35.4700	  573.00	  512.85	-1752.85	  391.38
     35.5700	  539.00	  511.75	-1785.75	  391.13
     35.6700	  498.00	  510.80	-1825.80	  390.88
     35.7700	  503.00	  509.98	-1819.98	  390.63
     35.8700	  530.00	  509.25	-1792.25	  390.39
     35.9700	  520.00	  509.09	-1802.09	  390.14
     36.0700	  477.00	  508.52	-1844.52	  389.90
     36.1700	  459.00	  508.00	-1862.00	  389.66
     36.2700	  501.00	  507.52	-1819.52	  389.42
     36.3700	  523.00	  507.09	-1797.09	  389.18
     36.4700	  488.00	  506.70	-1831.70	  388.95
     36.5700	  541.00	  506.35	-1778.35	  388.71
     36.6700	  537.00	  506.03	-1782.03	  388.48
     36.7700	  510.00	  505.75	-1808.75	  388.25
     36.8700	  530.00	  505.53	-1788.53	  388.02
     36.9700	  487.00	  505.41	-1831.41	  387.79
     37.0700	  514.00	  505.46	-1804.46	  387.57
     37.1700	  492.00	  505.89	-1826.89	  387.34
     37.2700	  544.00	  507.06	-1776.06	  387.12
     37.3700	  577.00	  509.40	-1745.40	  386.90
     37.4700	  478.00	  513.26	-1848.26	  386.68
     37.5700	  546.00	  518.41	-1785.41	  386.46
     37.6700	  482.00	  523.75	-1854.75	  386.25
     37.7700	  494.00	  527.54	-1846.54	  386.03
     37.8700	  510.00	  528.43	-1831.43	  385.82
     37.9700	  543.00	  526.77	-1796.77	  385.61
     38.0700	  544.00	  523.48	-1792.48	  385.40
     38.1700	  508.00	  518.90	-1823.90	  385.19
     38.2700	  496.00	  513.72	-1830.72	  384.99
     38.3700	  507.00	  509.07	-1815.07	  384.78
     38.4700	  482.00	  505.58	-1836.58	  384.58
     38.5700	  458.00	  503.29	-1858.29	  384.38
     38.6700	  496.00	  501.93	-1818.93	  384.18
     38.7700	  474.00	  501.13	-1840.13	  383.99
     38.8700	  506.00	  500.52	-1807.52	  383.79
     38.9700	  476.00	  500.15	-1837.15	  383.60
     39.0700	  523.00	  499.84	-1789.84	  383.41
     39.1700	  491.00	  499.57	-1821.57	  383.22
     39.2700	  480.00	  499.24	-1832.24	  383.03
     39.3700	  493.00	  499.02	-1819.02	  382.84
     39.4700	  473.00	  498.81	-1838.81	  382.66
     39.5700	  508.00	  498.62	-1803.62	  382.48
     39.6700	  528.00	  498.44	-1783.44	  382.29
     39.7700	  526.00	  498.27	-1785.27	  382.12
     39.8700	  471.00	  498.23	-1840.23	  381.94
     39.9700	  480.00	  498.08	-1831.08	  381.76
     40.0700	  509.00	  497.94	-1801.94	  381.59
     40.1700	  491.00	  497.81	-1819.81	  381.42
     40.2700	  495.00	  497.70	-1815.70	  381.25
     40.3700	  490.00	  497.60	-1820.60	  381.08
     40.4700	  466.00	  497.50	-1844.50	  380.91
     40.5700	  459.00	  497.43	-1851.43	  380.75
     40.6700	  498.00	  497.37	-1812.37	  380.58
     40.7700	  506.00	  497.32	-1804.32	  380.42
