MSG Master    CELL:    5.91930   5.91930  23.27616   90.0000   90.0000  120.0000   SPGR: P 63/m m c             TEMP:   1074.85
  1   1280     2.52000     0.00000    -0.12731     0.00000     0.00000    0
    99     0     2
       0.00000      10.00000
     125.00000     130.00000
 2Theta	Yobs	Ycal	Yobs-Ycal	Backg	Posr	(hkl)	K
      0.7700	    0.00	  504.40	-1747.00	  386.03
      0.8700	    0.00	  505.59	-1747.00	  387.22
      0.9700	   48.00	  506.76	-1747.00	  388.39
      1.0700	   37.00	  507.92	-1747.00	  389.54
      1.1700	   39.00	  509.06	-1747.00	  390.68
      1.2700	   40.00	  510.19	-1747.00	  391.81
      1.3700	   52.00	  511.30	-1747.00	  392.93
      1.4700	   74.00	  512.40	-1747.00	  394.03
      1.5700	  265.00	  513.49	-1747.00	  395.11
      1.6700	  489.00	  514.56	-1747.00	  396.18
      1.7700	  541.00	  515.62	-1747.00	  397.24
      1.8700	  640.00	  516.66	-1747.00	  398.29
      1.9700	  672.00	  517.69	-1747.00	  399.32
      2.0700	  793.00	  518.71	-1747.00	  400.34
      2.1700	  778.00	  519.72	-1747.00	  401.34
      2.2700	  745.00	  520.71	-1747.00	  402.34
      2.3700	  744.00	  521.69	-1747.00	  403.31
      2.4700	  724.00	  522.65	-1747.00	  404.28
      2.5700	  681.00	  523.60	-1747.00	  405.23
      2.6700	  690.00	  524.54	-1747.00	  406.17
      2.7700	  635.00	  525.47	-1747.00	  407.10
      2.8700	  648.00	  526.39	-1747.00	  408.01
      2.9700	  616.00	  527.29	-1747.00	  408.91
      3.0700	  627.00	  528.18	-1747.00	  409.80
      3.1700	  587.00	  529.05	-1747.00	  410.68
      3.2700	  608.00	  529.92	-1747.00	  411.54
      3.3700	  691.00	  530.77	-1747.00	  412.39
      3.4700	  755.00	  531.61	-1747.00	  413.23
      3.5700	  832.00	  532.43	-1747.00	  414.06
      3.6700	  859.00	  533.25	-1747.00	  414.88
      3.7700	  946.00	  534.05	-1747.00	  415.68
      3.8700	 1014.00	  534.84	-1747.00	  416.47
      3.9700	  976.00	  535.62	-1747.00	  417.25
      4.0700	 1034.00	  536.39	-1747.00	  418.02
      4.1700	 1112.00	  537.15	-1747.00	  418.77
      4.2700	 1067.00	  537.89	-1747.00	  419.52
      4.3700	 1118.00	  538.63	-1747.00	  420.25
      4.4700	 1063.00	  539.35	-1747.00	  420.97
      4.5700	 1045.00	  540.06	-1747.00	  421.68
      4.6700	 1018.00	  540.76	-1747.00	  422.38
      4.7700	 1022.00	  541.45	-1747.00	  423.07
      4.8700	  950.00	  542.12	-1747.00	  423.75
      4.9700	 1027.00	  542.79	-1747.00	  424.41
      5.0700	  947.00	  543.44	-1747.00	  425.07
      5.1700	  932.00	  544.09	-1747.00	  425.71
      5.2700	  899.00	  544.72	-1747.00	  426.35
      5.3700	  882.00	  545.34	-1747.00	  426.97
      5.4700	  810.00	  545.96	-1747.00	  427.58
      5.5700	  909.00	  546.56	-1747.00	  428.18
      5.6700	  798.00	  547.15	-1747.00	  428.77
      5.7700	  807.00	  547.73	-1747.00	  429.36
      5.8700	  824.00	  548.30	-1747.00	  429.93
      5.9700	  803.00	  548.86	-1747.00	  430.49
      6.0700	  812.00	  549.41	-1747.00	  431.04
      6.1700	  827.00	  549.95	-1747.00	  431.58
      6.2700	  788.00	  550.48	-1747.00	  432.11
      6.3700	  741.00	  551.00	-1747.00	  432.63
      6.4700	  777.00	  551.51	-1747.00	  433.14
      6.5700	  701.00	  552.01	-1747.00	  433.64
      6.6700	  707.00	  552.50	-1747.00	  434.13
      6.7700	  700.00	  552.98	-1747.00	  434.61
      6.8700	  744.00	  553.45	-1747.00	  435.08
      6.9700	  708.00	  553.91	-1747.00	  435.54
      7.0700	  738.00	  554.37	-1747.00	  435.99
      7.1700	  665.00	  554.81	-1747.00	  436.44
      7.2700	  672.00	  555.24	-1747.00	  436.87
      7.3700	  691.00	  555.67	-1747.00	  437.29
      7.4700	  678.00	  556.08	-1747.00	  437.71
      7.5700	  646.00	  556.49	-1747.00	  438.12
      7.6700	  675.00	  556.89	-1747.00	  438.51
      7.7700	  632.00	  557.28	-1747.00	  438.90
      7.8700	  645.00	  557.66	-1747.00	  439.28
      7.9700	  555.00	  558.03	-1747.00	  439.65
      8.0700	  610.00	  558.39	-1747.00	  440.02
      8.1700	  617.00	  558.74	-1747.00	  440.37
      8.2700	  624.00	  559.09	-1747.00	  440.71
      8.3700	  598.00	  559.42	-1747.00	  441.05
      8.4700	  634.00	  559.75	-1747.00	  441.38
      8.5700	  616.00	  560.07	-1747.00	  441.70
      8.6700	  616.00	  560.38	-1747.00	  442.01
      8.7700	  641.00	  560.69	-1747.00	  442.31
      8.8700	  639.00	  560.98	-1747.00	  442.61
      8.9700	  595.00	  561.27	-1747.00	  442.89
      9.0700	  605.00	  561.55	-1747.00	  443.17
      9.1700	  637.00	  561.82	-1747.00	  443.44
      9.2700	  612.00	  562.08	-1747.00	  443.71
      9.3700	  612.00	  562.33	-1747.00	  443.96
      9.4700	  620.00	  562.58	-1747.00	  444.21
      9.5700	  619.00	  562.82	-1747.00	  444.45
      9.6700	  596.00	  563.05	-1747.00	  444.68
      9.7700	  577.00	  563.28	-1747.00	  444.90
      9.8700	  579.00	  563.50	-1747.00	  445.12
      9.9700	  575.00	  563.70	-1747.00	  445.33
     10.0700	  570.00	  564.87	-1741.87	  445.53
     10.1700	  600.00	  565.18	-1712.18	  445.73
     10.2700	  556.00	  565.50	-1756.50	  445.92
     10.3700	  628.00	  565.85	-1684.85	  446.10
     10.4700	  559.00	  566.28	-1754.28	  446.27
     10.5700	  556.00	  566.83	-1757.83	  446.44
     10.6700	  543.00	  567.63	-1771.63	  446.59
     10.7700	  620.00	  568.78	-1695.78	  446.75
     10.8700	  535.00	  570.37	-1782.37	  446.89
     10.9700	  580.00	  572.39	-1739.39	  447.03
     11.0700	  622.00	  574.80	-1699.80	  447.16
     11.1700	  591.00	  577.60	-1733.60	  447.29
     11.2700	  570.00	  580.84	-1757.84	  447.41
     11.3700	  528.00	  584.60	-1803.60	  447.52
     11.4700	  630.00	  589.04	-1706.04	  447.62
     11.5700	  630.00	  594.40	-1711.40	  447.72
     11.6700	  572.00	  601.07	-1776.07	  447.81
     11.7700	  602.00	  609.74	-1754.74	  447.90
     11.8700	  634.00	  621.38	-1734.38	  447.98
     11.9700	  678.00	  636.46	-1705.46	  448.05
     12.0700	  664.00	  652.94	-1735.94	  448.12
     12.1700	  676.00	  664.04	-1735.04	  448.18
     12.2700	  691.00	  659.62	-1715.62	  448.24
     12.3700	  700.00	  637.22	-1684.22	  448.29
     12.4700	  642.00	  610.32	-1715.32	  448.33
     12.5700	  565.00	  590.51	-1772.51	  448.37
     12.6700	  606.00	  579.49	-1720.49	  448.40
     12.7700	  604.00	  574.35	-1717.35	  448.43
     12.8700	  577.00	  572.03	-1742.03	  448.45
     12.9700	  595.00	  570.81	-1722.81	  448.46
     13.0700	  533.00	  570.04	-1784.04	  448.47
     13.1700	  523.00	  569.48	-1793.48	  448.48
     13.2700	  585.00	  569.07	-1731.07	  448.47
     13.3700	  523.00	  568.74	-1792.74	  448.47
     13.4700	  504.00	  568.48	-1811.48	  448.45
     13.5700	  541.00	  568.26	-1774.26	  448.44
     13.6700	  567.00	  568.07	-1748.07	  448.41
     13.7700	  559.00	  567.91	-1755.91	  448.39
     13.8700	  547.00	  567.76	-1767.76	  448.35
     13.9700	  569.00	  567.63	-1745.63	  448.31
     14.0700	  570.00	  567.51	-1744.51	  448.27
     14.1700	  548.00	  567.39	-1766.39	  448.22
     14.2700	  554.00	  567.28	-1760.28	  448.17
     14.3700	  539.00	  567.17	-1775.17	  448.11
     14.4700	  586.00	  567.06	-1728.06	  448.05
     14.5700	  558.00	  566.95	-1755.95	  447.98
     14.6700	  556.00	  566.85	-1757.85	  447.91
     14.7700	  520.00	  566.74	-1793.74	  447.83
     14.8700	  585.00	  566.63	-1728.63	  447.75
     14.9700	  535.00	  566.52	-1778.52	  447.66
     15.0700	  533.00	  566.40	-1780.40	  447.57
     15.1700	  538.00	  566.29	-1775.29	  447.48
     15.2700	  548.00	  566.17	-1765.17	  447.38
     15.3700	  591.00	  566.05	-1722.05	  447.27
     15.4700	  572.00	  565.93	-1740.93	  447.16
     15.5700	  559.00	  565.80	-1753.80	  447.05
     15.6700	  565.00	  565.67	-1747.67	  446.93
     15.7700	  500.00	  565.54	-1812.54	  446.81
     15.8700	  565.00	  565.43	-1747.43	  446.69
     15.9700	  540.00	  565.29	-1772.29	  446.56
     16.0700	  548.00	  565.15	-1764.15	  446.43
     16.1700	  570.00	  565.00	-1742.00	  446.29
     16.2700	  562.00	  564.85	-1749.85	  446.15
     16.3700	  588.00	  564.70	-1723.70	  446.00
     16.4700	  576.00	  564.55	-1735.55	  445.85
     16.5700	  588.00	  564.39	-1723.39	  445.70
     16.6700	  511.00	  564.23	-1800.23	  445.55
     16.7700	  542.00	  564.06	-1769.06	  445.39
     16.8700	  560.00	  563.90	-1750.90	  445.22
     16.9700	  543.00	  563.72	-1767.72	  445.06
     17.0700	  548.00	  563.55	-1762.55	  444.88
     17.1700	  557.00	  563.37	-1753.37	  444.71
     17.2700	  538.00	  563.19	-1772.19	  444.53
     17.3700	  581.00	  563.01	-1729.01	  444.35
     17.4700	  566.00	  562.82	-1743.82	  444.17
     17.5700	  550.00	  562.63	-1759.63	  443.98
     17.6700	  550.00	  562.44	-1759.44	  443.79
     17.7700	  587.00	  562.24	-1722.24	  443.60
     17.8700	  552.00	  562.04	-1757.04	  443.40
     17.9700	  553.00	  561.84	-1755.84	  443.20
     18.0700	  543.00	  561.74	-1765.74	  442.99
     18.1700	  536.00	  561.53	-1772.53	  442.79
     18.2700	  580.00	  561.33	-1728.33	  442.58
     18.3700	  607.00	  561.12	-1701.12	  442.37
     18.4700	  556.00	  560.90	-1751.90	  442.15
     18.5700	  565.00	  560.69	-1742.69	  441.93
     18.6700	  569.00	  560.47	-1738.47	  441.71
     18.7700	  603.00	  560.25	-1704.25	  441.49
     18.8700	  553.00	  560.10	-1754.10	  441.26
     18.9700	  554.00	  559.87	-1752.87	  441.03
     19.0700	  564.00	  559.65	-1742.65	  440.80
     19.1700	  580.00	  559.42	-1726.42	  440.57
     19.2700	  583.00	  559.19	-1723.19	  440.33
     19.3700	  554.00	  558.95	-1751.95	  440.09
     19.4700	  590.00	  558.72	-1715.72	  439.85
     19.5700	  579.00	  558.48	-1726.48	  439.60
     19.6700	  536.00	  558.24	-1769.24	  439.36
     19.7700	  543.00	  558.00	-1762.00	  439.11
     19.8700	  542.00	  557.75	-1762.75	  438.86
     19.9700	  584.00	  557.51	-1720.51	  438.60
     20.0700	  592.00	  557.26	-1712.26	  438.34
     20.1700	  567.00	  557.01	-1737.01	  438.09
     20.2700	  553.00	  556.76	-1750.76	  437.83
     20.3700	  612.00	  556.51	-1691.51	  437.56
     20.4700	  591.00	  556.26	-1712.26	  437.30
     20.5700	  515.00	  556.00	-1788.00	  437.03
     20.6700	  544.00	  555.75	-1758.75	  436.76
     20.7700	  578.00	  555.52	-1724.52	  436.49
     20.8700	  573.00	  555.23	-1729.23	  436.22
     20.9700	  554.00	  554.97	-1747.97	  435.94
     21.0700	  526.00	  554.71	-1775.71	  435.67
     21.1700	  537.00	  554.45	-1764.45	  435.39
     21.2700	  573.00	  554.19	-1728.19	  435.11
     21.3700	  567.00	  553.93	-1733.93	  434.83
     21.4700	  562.00	  553.67	-1738.67	  434.54
     21.5700	  553.00	  553.41	-1747.41	  434.26
     21.6700	  572.00	  553.14	-1728.14	  433.97
     21.7700	  562.00	  552.88	-1737.88	  433.68
     21.8700	  543.00	  552.62	-1756.62	  433.39
     21.9700	  577.00	  552.36	-1722.36	  433.10
     22.0700	  570.00	  552.10	-1729.10	  432.81
     22.1700	  548.00	  551.85	-1750.85	  432.51
     22.2700	  534.00	  551.59	-1764.59	  432.22
     22.3700	  530.00	  551.34	-1768.34	  431.92
     22.4700	  514.00	  551.09	-1784.09	  431.62
     22.5700	  546.00	  550.85	-1751.85	  431.32
     22.6700	  561.00	  550.61	-1736.61	  431.02
     22.7700	  547.00	  550.37	-1750.37	  430.72
     22.8700	  528.00	  550.15	-1769.15	  430.41
     22.9700	  534.00	  549.93	-1762.93	  430.11
     23.0700	  502.00	  549.73	-1794.73	  429.80
     23.1700	  541.00	  549.54	-1755.54	  429.49
     23.2700	  499.00	  549.37	-1797.37	  429.18
     23.3700	  560.00	  549.23	-1736.23	  428.87
     23.4700	  559.00	  549.12	-1737.12	  428.56
     23.5700	  557.00	  549.07	-1739.06	  428.25
     23.6700	  552.00	  549.22	-1744.22	  427.94
     23.7700	  537.00	  549.36	-1759.36	  427.62
     23.8700	  564.00	  549.72	-1732.72	  427.31
     23.9700	  553.00	  550.52	-1744.52	  426.99
     24.0700	  574.00	  552.18	-1725.18	  426.68
     24.1700	  548.00	  555.30	-1754.30	  426.36
     24.2700	  565.00	  560.66	-1742.66	  426.04
     24.3700	  573.00	  569.13	-1743.13	  425.72
     24.4700	  621.00	  581.53	-1707.53	  425.40
     24.5700	  667.00	  597.77	-1677.77	  425.08
     24.6700	  601.00	  615.01	-1761.01	  424.76
     24.7700	  657.00	  626.19	-1716.19	  424.44
     24.8700	  644.00	  622.39	-1725.39	  424.12
     24.9700	  624.00	  603.33	-1726.33	  423.80
     25.0700	  611.00	  580.88	-1716.88	  423.47
     25.1700	  567.00	  564.03	-1744.03	  423.15
     25.2700	  571.00	  554.28	-1730.28	  422.83
     25.3700	  533.00	  549.50	-1763.50	  422.50
     25.4700	  565.00	  547.23	-1729.23	  422.18
     25.5700	  561.00	  545.99	-1731.99	  421.85
     25.6700	  564.00	  545.19	-1728.19	  421.52
     25.7700	  535.00	  544.60	-1756.60	  421.20
     25.8700	  523.00	  544.14	-1768.14	  420.87
     25.9700	  535.00	  543.80	-1755.80	  420.54
     26.0700	  586.00	  543.54	-1704.54	  420.22
     26.1700	  561.00	  543.36	-1729.36	  419.89
     26.2700	  553.00	  543.25	-1737.25	  419.56
     26.3700	  503.00	  543.22	-1787.22	  419.23
     26.4700	  546.00	  543.27	-1744.27	  418.91
     26.5700	  516.00	  543.41	-1774.41	  418.58
     26.6700	  558.00	  543.67	-1732.67	  418.25
     26.7700	  527.00	  544.06	-1764.06	  417.92
     26.8700	  553.00	  544.62	-1738.62	  417.59
     26.9700	  582.00	  545.39	-1710.39	  417.26
     27.0700	  556.00	  546.47	-1737.47	  416.94
     27.1700	  558.00	  547.97	-1736.97	  416.61
     27.2700	  577.00	  550.14	-1720.14	  416.28
     27.3700	  511.00	  553.49	-1789.49	  415.95
     27.4700	  555.00	  558.99	-1750.99	  415.62
     27.5700	  563.00	  568.42	-1752.42	  415.29
     27.6700	  585.00	  584.55	-1746.55	  414.96
     27.7700	  601.00	  610.99	-1756.99	  414.64
     27.8700	  615.00	  650.86	-1782.86	  414.31
     27.9700	  676.00	  704.28	-1775.28	  413.98
     28.0700	  783.00	  765.00	-1729.00	  413.65
     28.1700	  901.00	  817.50	-1663.50	  413.33
     28.2700	  972.00	  838.57	-1613.57	  413.00
     28.3700	  900.00	  814.90	-1661.90	  412.67
     28.4700	  808.00	  768.55	-1707.55	  412.35
     28.5700	  692.00	  734.92	-1789.92	  412.02
     28.6700	  650.00	  729.84	-1826.84	  411.70
     28.7700	  734.00	  748.73	-1761.73	  411.37
     28.8700	  778.00	  772.68	-1741.68	  411.05
     28.9700	  803.00	  775.60	-1719.60	  410.72
     29.0700	  769.00	  741.41	-1719.41	  410.40
     29.1700	  687.00	  684.50	-1744.50	  410.07
     29.2700	  652.00	  630.60	-1725.60	  409.75
     29.3700	  561.00	  591.79	-1777.79	  409.43
     29.4700	  625.00	  568.32	-1690.32	  409.11
     29.5700	  581.00	  555.59	-1721.59	  408.78
     29.6700	  603.00	  548.83	-1692.83	  408.46
     29.7700	  582.00	  544.98	-1709.98	  408.14
     29.8700	  567.00	  542.57	-1722.57	  407.82
     29.9700	  570.00	  541.05	-1718.05	  407.50
     30.0700	  536.00	  540.29	-1751.29	  407.19
     30.1700	  579.00	  540.46	-1708.46	  406.87
     30.2700	  492.00	  542.09	-1797.09	  406.55
     30.3700	  586.00	  546.18	-1707.18	  406.23
     30.4700	  590.00	  554.23	-1711.23	  405.92
     30.5700	  558.00	  567.79	-1756.79	  405.60
     30.6700	  583.00	  587.19	-1751.19	  405.29
     30.7700	  630.00	  609.95	-1726.95	  404.98
     30.8700	  659.00	  629.55	-1717.55	  404.66
     30.9700	  617.00	  636.09	-1766.09	  404.35
     31.0700	  628.00	  623.14	-1742.14	  404.04
     31.1700	  589.00	  597.51	-1755.51	  403.73
     31.2700	  548.00	  571.92	-1770.92	  403.42
     31.3700	  566.00	  553.00	-1734.00	  403.11
     31.4700	  570.00	  541.44	-1718.44	  402.81
     31.5700	  546.00	  535.20	-1736.20	  402.50
     31.6700	  569.00	  531.96	-1709.96	  402.19
     31.7700	  559.00	  530.15	-1718.15	  401.89
     31.8700	  531.00	  529.02	-1745.02	  401.59
     31.9700	  548.00	  528.24	-1727.24	  401.28
     32.0700	  559.00	  527.69	-1715.69	  400.98
     32.1700	  564.00	  527.33	-1710.33	  400.68
     32.2700	  513.00	  527.13	-1761.13	  400.38
     32.3700	  529.00	  527.09	-1745.09	  400.08
     32.4700	  540.00	  527.22	-1734.22	  399.78
     32.5700	  552.00	  527.53	-1722.53	  399.49
     32.6700	  511.00	  528.06	-1764.06	  399.19
     32.7700	  544.00	  528.85	-1731.85	  398.90
     32.8700	  587.00	  529.99	-1689.99	  398.61
     32.9700	  541.00	  531.61	-1737.61	  398.31
     33.0700	  580.00	  533.95	-1700.95	  398.02
     33.1700	  540.00	  537.54	-1744.54	  397.73
     33.2700	  574.00	  543.57	-1716.57	  397.44
     33.3700	  513.00	  554.54	-1788.54	  397.16
     33.4700	  584.00	  575.20	-1738.20	  396.87
     33.5700	  596.00	  612.89	-1763.89	  396.59
     33.6700	  694.00	  675.76	-1728.76	  396.30
     33.7700	  751.00	  766.90	-1762.90	  396.02
     33.8700	  915.00	  875.82	-1707.82	  395.74
     33.9700	  983.00	  973.04	-1737.04	  395.46
     34.0700	 1124.00	 1014.19	-1637.19	  395.18
     34.1700	 1054.00	  967.75	-1660.75	  394.90
     34.2700	  930.00	  857.89	-1674.89	  394.63
     34.3700	  782.00	  740.46	-1705.46	  394.35
     34.4700	  649.00	  649.33	-1747.33	  394.08
     34.5700	  603.00	  591.51	-1735.51	  393.81
     34.6700	  538.00	  559.76	-1768.76	  393.54
     34.7700	  589.00	  543.55	-1701.55	  393.27
     34.8700	  571.00	  534.99	-1710.99	  393.00
     34.9700	  524.00	  529.86	-1752.86	  392.73
     35.0700	  522.00	  526.33	-1751.33	  392.47
     35.1700	  520.00	  523.66	-1750.66	  392.20
     35.2700	  505.00	  521.54	-1763.54	  391.94
     35.3700	  498.00	  519.82	-1768.82	  391.68
     35.4700	  554.00	  518.38	-1711.38	  391.42
     35.5700	  496.00	  517.17	-1768.17	  391.16
     35.6700	  506.00	  516.13	-1757.13	  390.91
     35.7700	  504.00	  515.22	-1758.22	  390.65
     35.8700	  511.00	  514.42	-1750.43	  390.40
     35.9700	  475.00	  513.71	-1785.71	  390.15
     36.0700	  532.00	  513.55	-1728.55	  389.90
     36.1700	  540.00	  512.98	-1719.98	  389.65
     36.2700	  508.00	  512.46	-1751.46	  389.40
     36.3700	  508.00	  511.99	-1750.99	  389.16
     36.4700	  478.00	  511.57	-1780.57	  388.91
     36.5700	  488.00	  511.19	-1770.19	  388.67
     36.6700	  504.00	  510.85	-1753.85	  388.43
     36.7700	  454.00	  510.57	-1803.57	  388.19
     36.8700	  495.00	  510.37	-1762.37	  387.95
     36.9700	  483.00	  510.31	-1774.31	  387.71
     37.0700	  477.00	  510.54	-1780.54	  387.48
     37.1700	  503.00	  511.31	-1755.31	  387.25
     37.2700	  565.00	  512.96	-1694.96	  387.01
     37.3700	  478.00	  515.81	-1784.81	  386.78
     37.4700	  526.00	  519.77	-1740.77	  386.56
     37.5700	  501.00	  524.08	-1770.08	  386.33
     37.6700	  555.00	  527.26	-1719.26	  386.10
     37.7700	  549.00	  527.69	-1725.69	  385.88
     37.8700	  537.00	  525.18	-1735.18	  385.66
     37.9700	  549.00	  521.22	-1719.22	  385.44
     38.0700	  512.00	  517.17	-1752.17	  385.22
     38.1700	  538.00	  513.57	-1722.57	  385.00
     38.2700	  488.00	  510.67	-1769.67	  384.79
     38.3700	  484.00	  508.55	-1771.55	  384.58
     38.4700	  499.00	  507.10	-1755.10	  384.37
     38.5700	  460.00	  506.14	-1793.14	  384.16
     38.6700	  502.00	  505.41	-1750.41	  383.95
     38.7700	  546.00	  504.96	-1705.96	  383.74
     38.8700	  471.00	  504.61	-1780.61	  383.54
     38.9700	  522.00	  504.31	-1729.31	  383.33
     39.0700	  523.00	  504.04	-1728.04	  383.13
     39.1700	  486.00	  503.80	-1764.80	  382.93
     39.2700	  503.00	  503.50	-1747.50	  382.74
     39.3700	  502.00	  503.42	-1748.42	  382.54
     39.4700	  473.00	  503.22	-1777.22	  382.35
     39.5700	  480.00	  503.04	-1770.04	  382.15
     39.6700	  505.00	  502.86	-1744.86	  381.96
     39.7700	  475.00	  502.69	-1774.69	  381.77
     39.8700	  519.00	  502.53	-1730.53	  381.59
     39.9700	  509.00	  502.39	-1740.39	  381.40
     40.0700	  490.00	  502.25	-1759.25	  381.22
     40.1700	  510.00	  502.12	-1739.12	  381.04
     40.2700	  516.00	  502.01	-1733.01	  380.86
     40.3700	  473.00	  501.90	-1775.90	  380.68
     40.4700	  547.00	  501.82	-1701.82	  380.50
     40.5700	  476.00	  501.74	-1772.74	  380.33
     40.6700	  454.00	  501.69	-1794.69	  380.16
     40.7700	  506.00	  501.65	-1742.65	  379.99
