MSG Master    CELL:    5.89161   5.89161  23.15524   90.0000   90.0000  120.0000   SPGR: P 63/m m c             TEMP:    663.85
  2   1280     2.52000     0.00000    -0.09514     0.00000     0.00000    0
    96    96     0     0     2
       0.00000      10.00000
     125.00000     130.00000
 2Theta	Yobs	Ycal	Yobs-Ycal	Backg	Posr	(hkl)	K
      0.7700	    0.00	  733.12	-1861.08	  611.47
      0.8700	    0.00	  732.28	-1861.08	  610.64
      0.9700	   43.00	  731.45	-1861.08	  609.80
      1.0700	   50.00	  730.62	-1861.08	  608.97
      1.1700	   48.00	  729.78	-1861.08	  608.14
      1.2700	   38.00	  728.95	-1861.08	  607.31
      1.3700	   48.00	  728.12	-1861.08	  606.48
      1.4700	  112.00	  727.29	-1861.08	  605.65
      1.5700	  279.00	  726.46	-1861.08	  604.82
      1.6700	  476.00	  725.63	-1861.08	  603.99
      1.7700	  635.00	  724.81	-1861.08	  603.16
      1.8700	  618.00	  723.98	-1861.08	  602.33
      1.9700	  733.00	  723.15	-1861.08	  601.51
      2.0700	  799.00	  722.33	-1861.08	  600.68
      2.1700	  783.00	  721.50	-1861.08	  599.86
      2.2700	  750.00	  720.68	-1861.08	  599.04
      2.3700	  742.00	  719.86	-1861.08	  598.21
      2.4700	  736.00	  719.04	-1861.08	  597.39
      2.5700	  677.00	  718.22	-1861.08	  596.57
      2.6700	  711.00	  717.40	-1861.08	  595.75
      2.7700	  673.00	  716.58	-1861.08	  594.93
      2.8700	  639.00	  715.76	-1861.08	  594.12
      2.9700	  604.00	  714.95	-1861.08	  593.30
      3.0700	  646.00	  714.13	-1861.08	  592.49
      3.1700	  646.00	  713.32	-1861.08	  591.67
      3.2700	  672.00	  712.50	-1861.08	  590.86
      3.3700	  861.00	  711.69	-1861.08	  590.05
      3.4700	 1015.00	  710.88	-1861.08	  589.24
      3.5700	 1143.00	  710.07	-1861.08	  588.43
      3.6700	 1197.00	  709.26	-1861.08	  587.62
      3.7700	 1347.00	  708.45	-1861.08	  586.81
      3.8700	 1444.00	  707.65	-1861.08	  586.00
      3.9700	 1520.00	  706.84	-1861.08	  585.20
      4.0700	 1583.00	  706.04	-1861.08	  584.39
      4.1700	 1578.00	  705.24	-1861.08	  583.59
      4.2700	 1569.00	  704.43	-1861.08	  582.79
      4.3700	 1540.00	  703.63	-1861.08	  581.99
      4.4700	 1532.00	  702.83	-1861.08	  581.19
      4.5700	 1481.00	  702.04	-1861.08	  580.39
      4.6700	 1458.00	  701.24	-1861.08	  579.59
      4.7700	 1371.00	  700.44	-1861.08	  578.80
      4.8700	 1357.00	  699.65	-1861.08	  578.00
      4.9700	 1296.00	  698.85	-1861.08	  577.21
      5.0700	 1261.00	  698.06	-1861.08	  576.42
      5.1700	 1292.00	  697.27	-1861.08	  575.63
      5.2700	 1144.00	  696.48	-1861.08	  574.84
      5.3700	 1135.00	  695.70	-1861.08	  574.05
      5.4700	 1067.00	  694.91	-1861.08	  573.26
      5.5700	 1123.00	  694.12	-1861.08	  572.48
      5.6700	 1052.00	  693.34	-1861.08	  571.69
      5.7700	 1074.00	  692.56	-1861.08	  570.91
      5.8700	 1010.00	  691.78	-1861.08	  570.13
      5.9700	 1035.00	  691.00	-1861.08	  569.35
      6.0700	 1014.00	  690.22	-1861.08	  568.57
      6.1700	 1013.00	  689.44	-1861.08	  567.79
      6.2700	  965.00	  688.66	-1861.08	  567.02
      6.3700	  877.00	  687.89	-1861.08	  566.24
      6.4700	  946.00	  687.12	-1861.08	  565.47
      6.5700	  900.00	  686.35	-1861.08	  564.70
      6.6700	  883.00	  685.58	-1861.08	  563.93
      6.7700	  864.00	  684.81	-1861.08	  563.16
      6.8700	  846.00	  684.04	-1861.08	  562.40
      6.9700	  888.00	  683.28	-1861.08	  561.63
      7.0700	  845.00	  682.51	-1861.08	  560.87
      7.1700	  801.00	  681.75	-1861.08	  560.10
      7.2700	  872.00	  680.99	-1861.08	  559.34
      7.3700	  791.00	  680.23	-1861.08	  558.58
      7.4700	  845.00	  679.47	-1861.08	  557.83
      7.5700	  764.00	  678.72	-1861.08	  557.07
      7.6700	  729.00	  677.96	-1861.08	  556.32
      7.7700	  775.00	  677.21	-1861.08	  555.56
      7.8700	  739.00	  676.46	-1861.08	  554.81
      7.9700	  777.00	  675.71	-1861.08	  554.06
      8.0700	  805.00	  674.96	-1861.08	  553.31
      8.1700	  793.00	  674.21	-1861.08	  552.57
      8.2700	  744.00	  673.47	-1861.08	  551.82
      8.3700	  699.00	  672.72	-1861.08	  551.08
      8.4700	  722.00	  671.98	-1861.08	  550.34
      8.5700	  709.00	  671.24	-1861.08	  549.60
      8.6700	  705.00	  670.50	-1861.08	  548.86
      8.7700	  750.00	  669.77	-1861.08	  548.12
      8.8700	  706.00	  669.03	-1861.08	  547.39
      8.9700	  731.00	  668.30	-1861.08	  546.65
      9.0700	  724.00	  667.57	-1861.08	  545.92
      9.1700	  682.00	  666.84	-1861.08	  545.19
      9.2700	  724.00	  666.11	-1861.08	  544.46
      9.3700	  722.00	  665.38	-1861.08	  543.74
      9.4700	  723.00	  664.66	-1861.08	  543.01
      9.5700	  676.00	  663.93	-1861.08	  542.29
      9.6700	  735.00	  663.21	-1861.08	  541.57
      9.7700	  657.00	  662.49	-1861.08	  540.85
      9.8700	  702.00	  661.78	-1861.08	  540.13
      9.9700	  645.00	  661.06	-1861.08	  539.41
     10.0700	  683.00	  662.47	-1840.54	  538.70
     10.1700	  721.00	  661.99	-1802.07	  537.99
     10.2700	  708.00	  661.57	-1814.65	  537.28
     10.3700	  717.00	  661.21	-1805.29	  536.57
     10.4700	  669.00	  660.96	-1853.04	  535.86
     10.5700	  666.00	  660.85	-1855.93	  535.15
     10.6700	  657.00	  660.96	-1865.04	  534.45
     10.7700	  703.00	  661.39	-1819.46	  533.75
     10.8700	  653.00	  662.22	-1870.30	  533.05
     10.9700	  653.00	  663.55	-1871.62	  532.35
     11.0700	  657.00	  665.40	-1869.47	  531.66
     11.1700	  617.00	  667.78	-1911.85	  530.96
     11.2700	  664.00	  670.72	-1867.79	  530.27
     11.3700	  720.00	  674.28	-1815.36	  529.58
     11.4700	  661.00	  678.58	-1878.65	  528.89
     11.5700	  694.00	  683.79	-1850.87	  528.20
     11.6700	  686.00	  690.20	-1865.28	  527.52
     11.7700	  683.00	  698.13	-1876.20	  526.84
     11.8700	  750.00	  707.88	-1818.95	  526.16
     11.9700	  793.00	  719.40	-1787.47	  525.48
     12.0700	  797.00	  731.78	-1795.85	  524.80
     12.1700	  774.00	  742.62	-1829.69	  524.12
     12.2700	  814.00	  747.53	-1794.60	  523.45
     12.3700	  746.00	  741.38	-1856.46	  522.78
     12.4700	  775.00	  723.90	-1809.98	  522.11
     12.5700	  694.00	  702.27	-1869.35	  521.44
     12.6700	  644.00	  683.38	-1900.46	  520.78
     12.7700	  652.00	  669.49	-1878.57	  520.11
     12.8700	  597.00	  660.15	-1924.23	  519.45
     12.9700	  632.00	  654.14	-1883.21	  518.79
     13.0700	  645.00	  650.15	-1866.23	  518.13
     13.1700	  646.00	  647.36	-1862.44	  517.48
     13.2700	  634.00	  645.23	-1872.31	  516.82
     13.3700	  669.00	  643.50	-1835.57	  516.17
     13.4700	  625.00	  642.02	-1878.09	  515.52
     13.5700	  589.00	  640.71	-1912.79	  514.88
     13.6700	  633.00	  639.54	-1867.62	  514.23
     13.7700	  628.00	  638.47	-1871.54	  513.59
     13.8700	  640.00	  637.47	-1858.55	  512.94
     13.9700	  599.00	  636.53	-1898.61	  512.31
     14.0700	  615.00	  635.64	-1881.72	  511.67
     14.1700	  605.00	  634.79	-1890.87	  511.03
     14.2700	  641.00	  633.98	-1854.05	  510.40
     14.3700	  678.00	  633.18	-1816.26	  509.77
     14.4700	  658.00	  632.42	-1835.49	  509.14
     14.5700	  598.00	  631.67	-1894.74	  508.51
     14.6700	  628.00	  630.94	-1864.01	  507.89
     14.7700	  590.00	  630.22	-1901.29	  507.26
     14.8700	  651.00	  629.51	-1839.59	  506.64
     14.9700	  629.00	  628.82	-1860.89	  506.02
     15.0700	  650.00	  628.13	-1839.21	  505.40
     15.1700	  636.00	  627.46	-1852.53	  504.79
     15.2700	  592.00	  626.79	-1895.87	  504.18
     15.3700	  621.00	  626.13	-1866.21	  503.57
     15.4700	  659.00	  625.48	-1827.55	  502.96
     15.5700	  601.00	  624.83	-1884.91	  502.35
     15.6700	  614.00	  624.19	-1871.26	  501.75
     15.7700	  603.00	  623.55	-1881.63	  501.14
     15.8700	  603.00	  622.92	-1881.00	  500.54
     15.9700	  564.00	  622.29	-1919.37	  499.95
     16.0700	  593.00	  621.67	-1889.75	  499.35
     16.1700	  612.00	  621.05	-1870.13	  498.76
     16.2700	  616.00	  620.44	-1865.51	  498.16
     16.3700	  661.00	  619.83	-1819.90	  497.57
     16.4700	  635.00	  619.22	-1845.30	  496.99
     16.5700	  645.00	  618.62	-1834.69	  496.40
     16.6700	  563.00	  618.02	-1916.09	  495.82
     16.7700	  633.00	  617.42	-1845.50	  495.24
     16.8700	  546.00	  616.83	-1931.91	  494.66
     16.9700	  631.00	  616.24	-1846.32	  494.08
     17.0700	  612.00	  615.65	-1864.73	  493.51
     17.1700	  556.00	  615.07	-1920.15	  492.93
     17.2700	  607.00	  614.49	-1868.56	  492.36
     17.3700	  589.00	  613.91	-1885.99	  491.79
     17.4700	  585.00	  613.34	-1889.41	  491.23
     17.5700	  602.00	  612.76	-1871.84	  490.66
     17.6700	  633.00	  612.19	-1840.27	  490.10
     17.7700	  610.00	  611.63	-1862.70	  489.54
     17.8700	  631.00	  611.06	-1841.14	  488.99
     17.9700	  572.00	  610.50	-1899.58	  488.43
     18.0700	  598.00	  609.94	-1873.02	  487.88
     18.1700	  608.00	  609.39	-1862.47	  487.33
     18.2700	  618.00	  608.84	-1851.91	  486.78
     18.3700	  621.00	  609.34	-1849.42	  486.23
     18.4700	  618.00	  608.81	-1851.89	  485.69
     18.5700	  624.00	  608.89	-1845.96	  485.14
     18.6700	  627.00	  608.38	-1842.46	  484.60
     18.7700	  593.00	  607.87	-1875.95	  484.07
     18.8700	  602.00	  607.37	-1866.45	  483.53
     18.9700	  610.00	  606.88	-1857.95	  483.00
     19.0700	  555.00	  606.38	-1912.46	  482.47
     19.1700	  581.00	  605.89	-1885.97	  481.94
     19.2700	  595.00	  605.41	-1871.48	  481.41
     19.3700	  587.00	  604.93	-1879.00	  480.89
     19.4700	  635.00	  604.45	-1830.53	  480.36
     19.5700	  559.00	  603.98	-1906.05	  479.84
     19.6700	  557.00	  603.51	-1907.58	  479.32
     19.7700	  575.00	  603.04	-1889.12	  478.81
     19.8700	  549.00	  602.63	-1914.70	  478.29
     19.9700	  569.00	  602.17	-1894.25	  477.78
     20.0700	  614.00	  601.72	-1848.80	  477.27
     20.1700	  584.00	  601.28	-1878.35	  476.77
     20.2700	  579.00	  600.84	-1882.91	  476.26
     20.3700	  623.00	  600.40	-1838.48	  475.76
     20.4700	  617.00	  599.97	-1844.04	  475.26
     20.5700	  640.00	  599.54	-1820.62	  474.76
     20.6700	  601.00	  599.12	-1859.20	  474.26
     20.7700	  612.00	  598.71	-1847.78	  473.77
     20.8700	  598.00	  598.30	-1861.38	  473.28
     20.9700	  623.00	  597.90	-1835.97	  472.79
     21.0700	  584.00	  597.50	-1874.58	  472.30
     21.1700	  581.00	  597.11	-1877.19	  471.82
     21.2700	  551.00	  596.73	-1906.80	  471.33
     21.3700	  576.00	  596.35	-1881.43	  470.85
     21.4700	  612.00	  595.98	-1845.06	  470.37
     21.5700	  588.00	  595.63	-1868.70	  469.90
     21.6700	  604.00	  595.27	-1852.35	  469.42
     21.7700	  608.00	  594.93	-1848.01	  468.95
     21.8700	  638.00	  594.60	-1817.68	  468.48
     21.9700	  604.00	  594.28	-1851.35	  468.01
     22.0700	  608.00	  593.96	-1847.04	  467.55
     22.1700	  546.00	  593.85	-1908.92	  467.09
     22.2700	  575.00	  593.56	-1879.64	  466.63
     22.3700	  582.00	  593.29	-1872.37	  466.17
     22.4700	  651.00	  593.04	-1803.11	  465.71
     22.5700	  611.00	  592.80	-1842.87	  465.26
     22.6700	  623.00	  592.58	-1830.65	  464.80
     22.7700	  570.00	  592.37	-1883.45	  464.35
     22.8700	  589.00	  592.20	-1864.27	  463.91
     22.9700	  598.00	  592.05	-1855.12	  463.46
     23.0700	  606.00	  591.92	-1847.00	  463.02
     23.1700	  595.00	  591.84	-1857.91	  462.58
     23.2700	  593.00	  591.79	-1859.86	  462.14
     23.3700	  556.00	  591.79	-1896.87	  461.70
     23.4700	  605.00	  591.85	-1847.92	  461.27
     23.5700	  605.00	  591.98	-1848.06	  460.84
     23.6700	  596.00	  592.21	-1857.28	  460.41
     23.7700	  613.00	  592.56	-1840.64	  459.98
     23.8700	  600.00	  593.10	-1854.18	  459.55
     23.9700	  596.00	  593.92	-1859.00	  459.13
     24.0700	  559.00	  595.13	-1897.21	  458.71
     24.1700	  597.00	  597.09	-1861.16	  458.29
     24.2700	  644.00	  600.11	-1817.19	  457.87
     24.3700	  645.00	  604.63	-1820.71	  457.46
     24.4700	  626.00	  611.07	-1846.15	  457.04
     24.5700	  614.00	  619.58	-1866.66	  456.63
     24.6700	  657.00	  629.81	-1833.89	  456.23
     24.7700	  654.00	  640.57	-1847.65	  455.82
     24.8700	  686.00	  649.40	-1824.48	  455.42
     24.9700	  661.00	  652.67	-1852.74	  455.02
     25.0700	  713.00	  647.69	-1795.76	  454.62
     25.1700	  675.00	  636.59	-1822.66	  454.22
     25.2700	  652.00	  624.57	-1833.64	  453.82
     25.3700	  676.00	  614.81	-1799.89	  453.43
     25.4700	  633.00	  608.13	-1836.21	  453.04
     25.5700	  631.00	  604.13	-1834.21	  452.65
     25.6700	  613.00	  602.09	-1850.16	  452.27
     25.7700	  641.00	  601.32	-1821.40	  451.88
     25.8700	  594.00	  601.38	-1868.45	  451.50
     25.9700	  600.00	  601.99	-1863.07	  451.12
     26.0700	  616.00	  603.05	-1848.13	  450.74
     26.1700	  629.00	  604.52	-1836.60	  450.37
     26.2700	  597.00	  606.40	-1870.48	  449.99
     26.3700	  627.00	  608.73	-1842.80	  449.62
     26.4700	  667.00	  611.56	-1805.63	  449.25
     26.5700	  584.00	  614.97	-1892.05	  448.89
     26.6700	  634.00	  619.09	-1846.17	  448.52
     26.7700	  668.00	  624.06	-1817.14	  448.16
     26.8700	  641.00	  630.10	-1850.17	  447.80
     26.9700	  641.00	  637.47	-1857.55	  447.44
     27.0700	  707.00	  646.58	-1800.65	  447.08
     27.1700	  697.00	  657.98	-1822.06	  446.73
     27.2700	  658.00	  672.57	-1875.65	  446.38
     27.3700	  719.00	  691.91	-1833.99	  446.03
     27.4700	  724.00	  719.09	-1856.16	  445.68
     27.5700	  697.00	  760.43	-1924.50	  445.34
     27.6700	  754.00	  828.33	-1935.40	  444.99
     27.7700	  791.00	  944.71	-2014.79	  444.65
     27.8700	  933.00	 1143.22	-2071.29	  444.31
     27.9700	 1081.00	 1464.48	-2244.56	  443.98
     28.0700	 1663.00	 1938.06	-2136.13	  443.64
     28.1700	 2539.00	 2550.10	-1872.18	  443.31
     28.2700	 3465.00	 3203.05	-1599.13	  442.98
     28.3700	 4178.00	 3689.57	-1372.64	  442.65
     28.4700	 4272.00	 3746.57	-1335.65	  442.32
     28.5700	 3436.00	 3321.14	-1746.22	  442.00
     28.6700	 2604.00	 2742.85	-1999.93	  441.67
     28.7700	 2104.00	 2341.51	-2098.59	  441.35
     28.8700	 1976.00	 2214.15	-2099.23	  441.04
     28.9700	 2280.00	 2284.27	-1865.35	  440.72
     29.0700	 2496.00	 2380.51	-1745.58	  440.41
     29.1700	 2492.00	 2314.00	-1683.08	  440.09
     29.2700	 2093.00	 2017.01	-1785.09	  439.78
     29.3700	 1628.00	 1618.10	-1851.18	  439.48
     29.4700	 1273.00	 1265.35	-1853.42	  439.17
     29.5700	 1004.00	 1014.65	-1871.72	  438.87
     29.6700	  888.00	  859.82	-1832.90	  438.56
     29.7700	  821.00	  771.71	-1811.78	  438.26
     29.8700	  742.00	  721.77	-1840.85	  437.97
     29.9700	  742.00	  691.33	-1810.41	  437.67
     30.0700	  763.00	  670.86	-1768.93	  437.38
     30.1700	  719.00	  656.15	-1798.22	  437.09
     30.2700	  729.00	  645.49	-1777.56	  436.80
     30.3700	  656.00	  638.33	-1843.41	  436.51
     30.4700	  687.00	  634.89	-1808.97	  436.22
     30.5700	  700.00	  636.00	-1797.08	  435.94
     30.6700	  673.00	  642.88	-1830.96	  435.66
     30.7700	  660.00	  656.38	-1857.46	  435.38
     30.8700	  654.00	  675.68	-1882.76	  435.10
     30.9700	  723.00	  697.06	-1835.14	  434.83
     31.0700	  682.00	  713.24	-1892.32	  434.55
     31.1700	  744.00	  714.62	-1831.70	  434.28
     31.2700	  689.00	  696.73	-1868.81	  434.01
     31.3700	  700.00	  667.66	-1828.73	  433.74
     31.4700	  655.00	  639.14	-1845.22	  433.48
     31.5700	  640.00	  617.02	-1838.10	  433.22
     31.6700	  636.00	  602.07	-1827.15	  432.95
     31.7700	  623.00	  592.79	-1830.87	  432.69
     31.8700	  585.00	  587.17	-1863.25	  432.44
     31.9700	  627.00	  583.62	-1817.70	  432.18
     32.0700	  571.00	  581.21	-1871.29	  431.93
     32.1700	  565.00	  579.46	-1875.54	  431.68
     32.2700	  600.00	  578.17	-1839.24	  431.43
     32.3700	  600.00	  577.23	-1838.30	  431.18
     32.4700	  579.00	  576.60	-1858.68	  430.93
     32.5700	  635.00	  576.28	-1802.36	  430.69
     32.6700	  628.00	  576.27	-1809.35	  430.45
     32.7700	  606.00	  576.60	-1831.67	  430.21
     32.8700	  612.00	  577.34	-1826.41	  429.97
     32.9700	  579.00	  578.51	-1860.59	  429.73
     33.0700	  610.00	  580.28	-1831.36	  429.50
     33.1700	  624.00	  582.87	-1819.95	  429.26
     33.2700	  639.00	  586.71	-1808.78	  429.03
     33.3700	  650.00	  592.62	-1803.69	  428.80
     33.4700	  606.00	  602.19	-1857.27	  428.58
     33.5700	  578.00	  618.24	-1901.32	  428.35
     33.6700	  679.00	  645.14	-1827.22	  428.13
     33.7700	  729.00	  688.37	-1820.45	  427.91
     33.8700	  807.00	  752.46	-1806.54	  427.69
     33.9700	  845.00	  836.84	-1852.92	  427.47
     34.0700	  989.00	  931.05	-1803.13	  427.25
     34.1700	 1102.00	 1011.95	-1771.03	  427.04
     34.2700	 1105.00	 1046.44	-1802.52	  426.83
     34.3700	 1071.00	 1011.22	-1801.30	  426.62
     34.4700	  975.00	  922.25	-1808.33	  426.41
     34.5700	  863.00	  820.42	-1818.50	  426.20
     34.6700	  673.00	  733.67	-1921.75	  426.00
     34.7700	  633.00	  670.90	-1898.97	  425.79
     34.8700	  614.00	  630.27	-1877.35	  425.59
     34.9700	  631.00	  605.77	-1835.85	  425.39
     35.0700	  631.00	  591.28	-1821.36	  425.20
     35.1700	  561.00	  582.36	-1882.43	  425.00
     35.2700	  612.00	  576.39	-1825.46	  424.80
     35.3700	  566.00	  572.05	-1867.13	  424.61
     35.4700	  579.00	  568.71	-1850.79	  424.42
     35.5700	  637.00	  566.05	-1790.12	  424.23
     35.6700	  590.00	  563.88	-1834.95	  424.05
     35.7700	  543.00	  562.08	-1880.16	  423.86
     35.8700	  537.00	  560.58	-1884.66	  423.68
     35.9700	  543.00	  559.32	-1877.40	  423.50
     36.0700	  573.00	  558.25	-1846.33	  423.32
     36.1700	  564.00	  557.35	-1854.43	  423.14
     36.2700	  539.00	  556.59	-1878.67	  422.96
     36.3700	  551.00	  555.95	-1866.03	  422.79
     36.4700	  572.00	  555.94	-1845.01	  422.61
     36.5700	  520.00	  555.54	-1896.62	  422.44
     36.6700	  550.00	  555.26	-1866.34	  422.27
     36.7700	  558.00	  555.11	-1858.18	  422.10
     36.8700	  520.00	  555.09	-1896.17	  421.94
     36.9700	  546.00	  555.26	-1870.34	  421.77
     37.0700	  527.00	  555.86	-1889.94	  421.61
     37.1700	  546.00	  556.60	-1871.67	  421.45
     37.2700	  533.00	  557.90	-1885.98	  421.29
     37.3700	  549.00	  560.06	-1872.13	  421.13
     37.4700	  528.00	  563.52	-1896.60	  420.97
     37.5700	  573.00	  568.96	-1857.04	  420.82
     37.6700	  591.00	  577.14	-1847.21	  420.66
     37.7700	  618.00	  588.72	-1831.80	  420.51
     37.8700	  608.00	  603.82	-1856.90	  420.36
     37.9700	  583.00	  621.46	-1899.54	  420.21
     38.0700	  621.00	  639.20	-1879.28	  420.07
     38.1700	  664.00	  653.08	-1850.16	  419.92
     38.2700	  665.00	  657.73	-1853.81	  419.78
     38.3700	  624.00	  649.39	-1886.47	  419.64
     38.4700	  596.00	  630.85	-1895.92	  419.50
     38.5700	  551.00	  608.30	-1918.38	  419.36
     38.6700	  533.00	  589.24	-1917.31	  419.22
     38.7700	  555.00	  574.75	-1880.82	  419.08
     38.8700	  504.00	  564.74	-1921.82	  418.95
     38.9700	  551.00	  558.34	-1868.41	  418.82
     39.0700	  558.00	  554.37	-1857.45	  418.69
     39.1700	  532.00	  551.88	-1880.96	  418.56
     39.2700	  531.00	  550.22	-1880.29	  418.43
     39.3700	  539.00	  549.02	-1871.10	  418.30
     39.4700	  586.00	  548.10	-1823.18	  418.18
     39.5700	  591.00	  547.36	-1817.44	  418.05
     39.6700	  539.00	  546.76	-1868.83	  417.93
     39.7700	  521.00	  546.25	-1886.33	  417.81
     39.8700	  562.00	  545.82	-1844.90	  417.69
     39.9700	  512.00	  544.90	-1893.98	  417.57
     40.0700	  544.00	  544.60	-1861.68	  417.46
     40.1700	  570.00	  544.35	-1835.43	  417.34
     40.2700	  482.00	  544.14	-1923.22	  417.23
     40.3700	  540.00	  543.96	-1865.04	  417.12
     40.4700	  541.00	  544.36	-1864.44	  417.01
     40.5700	  537.00	  544.26	-1868.34	  416.90
     40.6700	  503.00	  544.19	-1902.27	  416.79
     40.7700	  528.00	  544.15	-1877.23	  416.69
