MSG Master    CELL:    5.89057   5.89057  23.15437   90.0000   90.0000  120.0000   SPGR: P 63/m m c             TEMP:    654.05
  2   1280     2.52000     0.00000    -0.09641     0.00000     0.00000    0
    96    96     0     0     2
       0.00000      10.00000
     125.00000     130.00000
 2Theta	Yobs	Ycal	Yobs-Ycal	Backg	Posr	(hkl)	K
      0.7700	    0.00	  741.49	-1875.87	  618.64
      0.8700	    0.00	  740.58	-1875.87	  617.72
      0.9700	   50.00	  739.66	-1875.87	  616.81
      1.0700	   47.00	  738.75	-1875.87	  615.89
      1.1700	   45.00	  737.83	-1875.87	  614.98
      1.2700	   50.00	  736.92	-1875.87	  614.07
      1.3700	   46.00	  736.01	-1875.87	  613.16
      1.4700	   96.00	  735.10	-1875.87	  612.25
      1.5700	  278.00	  734.19	-1875.87	  611.34
      1.6700	  481.00	  733.29	-1875.87	  610.44
      1.7700	  563.00	  732.38	-1875.87	  609.53
      1.8700	  653.00	  731.48	-1875.87	  608.63
      1.9700	  723.00	  730.58	-1875.87	  607.73
      2.0700	  754.00	  729.68	-1875.87	  606.83
      2.1700	  771.00	  728.78	-1875.87	  605.93
      2.2700	  796.00	  727.88	-1875.87	  605.03
      2.3700	  730.00	  726.98	-1875.87	  604.13
      2.4700	  679.00	  726.09	-1875.87	  603.24
      2.5700	  698.00	  725.19	-1875.87	  602.34
      2.6700	  688.00	  724.30	-1875.87	  601.45
      2.7700	  623.00	  723.41	-1875.87	  600.56
      2.8700	  616.00	  722.52	-1875.87	  599.67
      2.9700	  664.00	  721.64	-1875.87	  598.78
      3.0700	  580.00	  720.75	-1875.87	  597.90
      3.1700	  614.00	  719.86	-1875.87	  597.01
      3.2700	  701.00	  718.98	-1875.87	  596.13
      3.3700	  834.00	  718.10	-1875.87	  595.25
      3.4700	 1007.00	  717.22	-1875.87	  594.37
      3.5700	 1140.00	  716.34	-1875.87	  593.49
      3.6700	 1296.00	  715.47	-1875.87	  592.61
      3.7700	 1340.00	  714.59	-1875.87	  591.74
      3.8700	 1414.00	  713.72	-1875.87	  590.87
      3.9700	 1527.00	  712.85	-1875.87	  589.99
      4.0700	 1525.00	  711.97	-1875.87	  589.12
      4.1700	 1637.00	  711.11	-1875.87	  588.25
      4.2700	 1689.00	  710.24	-1875.87	  587.39
      4.3700	 1660.00	  709.37	-1875.87	  586.52
      4.4700	 1475.00	  708.51	-1875.87	  585.66
      4.5700	 1439.00	  707.65	-1875.87	  584.80
      4.6700	 1426.00	  706.79	-1875.87	  583.94
      4.7700	 1367.00	  705.93	-1875.87	  583.08
      4.8700	 1321.00	  705.07	-1875.87	  582.22
      4.9700	 1293.00	  704.22	-1875.87	  581.37
      5.0700	 1318.00	  703.37	-1875.87	  580.51
      5.1700	 1261.00	  702.51	-1875.87	  579.66
      5.2700	 1197.00	  701.67	-1875.87	  578.81
      5.3700	 1152.00	  700.82	-1875.87	  577.97
      5.4700	 1103.00	  699.97	-1875.87	  577.12
      5.5700	 1128.00	  699.13	-1875.87	  576.28
      5.6700	 1074.00	  698.28	-1875.87	  575.43
      5.7700	 1060.00	  697.44	-1875.87	  574.59
      5.8700	 1029.00	  696.61	-1875.87	  573.75
      5.9700	  994.00	  695.77	-1875.87	  572.92
      6.0700	 1026.00	  694.93	-1875.87	  572.08
      6.1700	  958.00	  694.10	-1875.87	  571.25
      6.2700	  991.00	  693.27	-1875.87	  570.42
      6.3700	  962.00	  692.44	-1875.87	  569.59
      6.4700	  930.00	  691.61	-1875.87	  568.76
      6.5700	  934.00	  690.79	-1875.87	  567.93
      6.6700	  884.00	  689.96	-1875.87	  567.11
      6.7700	  905.00	  689.14	-1875.87	  566.29
      6.8700	  847.00	  688.32	-1875.87	  565.47
      6.9700	  826.00	  687.50	-1875.87	  564.65
      7.0700	  881.00	  686.69	-1875.87	  563.84
      7.1700	  814.00	  685.87	-1875.87	  563.02
      7.2700	  830.00	  685.06	-1875.87	  562.21
      7.3700	  882.00	  684.25	-1875.87	  561.40
      7.4700	  803.00	  683.44	-1875.87	  560.59
      7.5700	  780.00	  682.64	-1875.87	  559.78
      7.6700	  783.00	  681.83	-1875.87	  558.98
      7.7700	  762.00	  681.03	-1875.87	  558.18
      7.8700	  770.00	  680.23	-1875.87	  557.38
      7.9700	  777.00	  679.43	-1875.87	  556.58
      8.0700	  802.00	  678.64	-1875.87	  555.78
      8.1700	  748.00	  677.84	-1875.87	  554.99
      8.2700	  785.00	  677.05	-1875.87	  554.20
      8.3700	  752.00	  676.26	-1875.87	  553.41
      8.4700	  758.00	  675.47	-1875.87	  552.62
      8.5700	  710.00	  674.69	-1875.87	  551.83
      8.6700	  706.00	  673.90	-1875.87	  551.05
      8.7700	  701.00	  673.12	-1875.87	  550.27
      8.8700	  680.00	  672.34	-1875.87	  549.49
      8.9700	  696.00	  671.56	-1875.87	  548.71
      9.0700	  768.00	  670.79	-1875.87	  547.94
      9.1700	  708.00	  670.01	-1875.87	  547.16
      9.2700	  712.00	  669.24	-1875.87	  546.39
      9.3700	  704.00	  668.47	-1875.87	  545.62
      9.4700	  739.00	  667.71	-1875.87	  544.86
      9.5700	  728.00	  666.94	-1875.87	  544.09
      9.6700	  705.00	  666.18	-1875.87	  543.33
      9.7700	  653.00	  665.42	-1875.87	  542.57
      9.8700	  668.00	  664.66	-1875.87	  541.81
      9.9700	  664.00	  663.90	-1875.87	  541.05
     10.0700	  721.00	  665.53	-1820.39	  540.30
     10.1700	  649.00	  665.04	-1891.91	  539.55
     10.2700	  677.00	  664.61	-1863.48	  538.80
     10.3700	  690.00	  664.26	-1850.13	  538.05
     10.4700	  699.00	  664.02	-1840.89	  537.30
     10.5700	  618.00	  663.94	-1921.80	  536.56
     10.6700	  670.00	  664.08	-1869.95	  535.82
     10.7700	  709.00	  664.55	-1831.41	  535.08
     10.8700	  660.00	  665.43	-1881.29	  534.34
     10.9700	  710.00	  666.79	-1832.66	  533.61
     11.0700	  652.00	  668.69	-1892.55	  532.88
     11.1700	  630.00	  671.12	-1916.98	  532.15
     11.2700	  682.00	  674.12	-1867.99	  531.42
     11.3700	  722.00	  677.77	-1831.63	  530.70
     11.4700	  699.00	  682.17	-1859.03	  529.97
     11.5700	  690.00	  687.50	-1873.37	  529.25
     11.6700	  732.00	  694.01	-1837.88	  528.53
     11.7700	  722.00	  701.99	-1855.86	  527.82
     11.8700	  753.00	  711.63	-1834.49	  527.10
     11.9700	  813.00	  722.74	-1785.61	  526.39
     12.0700	  763.00	  734.36	-1847.22	  525.68
     12.1700	  838.00	  744.18	-1782.05	  524.98
     12.2700	  786.00	  748.23	-1838.10	  524.27
     12.3700	  812.00	  742.11	-1805.98	  523.57
     12.4700	  726.00	  725.71	-1875.58	  522.87
     12.5700	  713.00	  705.36	-1868.23	  522.17
     12.6700	  717.00	  687.21	-1846.08	  521.47
     12.7700	  686.00	  673.47	-1863.33	  520.78
     12.8700	  627.00	  663.90	-1912.77	  520.09
     12.9700	  650.00	  657.48	-1883.35	  519.40
     13.0700	  634.00	  653.15	-1895.01	  518.71
     13.1700	  623.00	  650.08	-1902.94	  518.03
     13.2700	  617.00	  647.74	-1906.61	  517.35
     13.3700	  645.00	  645.86	-1876.72	  516.67
     13.4700	  588.00	  644.25	-1932.12	  515.99
     13.5700	  650.00	  642.85	-1868.72	  515.32
     13.6700	  599.00	  641.59	-1918.46	  514.64
     13.7700	  656.00	  640.44	-1860.31	  513.97
     13.8700	  654.00	  639.38	-1861.24	  513.31
     13.9700	  685.00	  638.38	-1829.24	  512.64
     14.0700	  637.00	  637.43	-1876.30	  511.98
     14.1700	  637.00	  636.53	-1875.40	  511.32
     14.2700	  602.00	  635.67	-1909.53	  510.66
     14.3700	  621.00	  634.83	-1889.70	  510.00
     14.4700	  597.00	  634.02	-1912.89	  509.35
     14.5700	  600.00	  633.24	-1909.10	  508.70
     14.6700	  589.00	  632.47	-1919.33	  508.05
     14.7700	  591.00	  631.72	-1916.58	  507.40
     14.8700	  624.00	  630.98	-1882.84	  506.76
     14.9700	  598.00	  630.25	-1908.12	  506.12
     15.0700	  600.00	  629.54	-1905.40	  505.48
     15.1700	  622.00	  628.83	-1882.70	  504.84
     15.2700	  591.00	  628.14	-1913.00	  504.21
     15.3700	  603.00	  627.45	-1900.31	  503.58
     15.4700	  635.00	  626.77	-1867.63	  502.95
     15.5700	  592.00	  626.10	-1909.96	  502.32
     15.6700	  644.00	  625.43	-1857.29	  501.70
     15.7700	  617.00	  624.77	-1883.63	  501.07
     15.8700	  600.00	  624.11	-1899.98	  500.45
     15.9700	  614.00	  623.46	-1885.33	  499.84
     16.0700	  607.00	  622.82	-1891.68	  499.22
     16.1700	  598.00	  622.18	-1900.04	  498.61
     16.2700	  641.00	  621.54	-1856.41	  498.00
     16.3700	  556.00	  620.91	-1940.78	  497.39
     16.4700	  606.00	  620.28	-1890.15	  496.78
     16.5700	  628.00	  619.66	-1867.53	  496.18
     16.6700	  616.00	  619.04	-1878.91	  495.58
     16.7700	  595.00	  618.43	-1899.29	  494.98
     16.8700	  581.00	  617.82	-1912.68	  494.39
     16.9700	  610.00	  617.21	-1883.08	  493.79
     17.0700	  646.00	  616.60	-1846.47	  493.20
     17.1700	  631.00	  616.00	-1860.87	  492.61
     17.2700	  669.00	  615.41	-1822.27	  492.03
     17.3700	  575.00	  614.81	-1915.68	  491.45
     17.4700	  604.00	  614.22	-1886.09	  490.86
     17.5700	  646.00	  613.63	-1843.50	  490.29
     17.6700	  619.00	  613.05	-1869.91	  489.71
     17.7700	  583.00	  612.47	-1905.33	  489.14
     17.8700	  583.00	  611.89	-1904.75	  488.56
     17.9700	  615.00	  611.31	-1872.18	  488.00
     18.0700	  651.00	  610.74	-1835.61	  487.43
     18.1700	  592.00	  610.17	-1894.04	  486.87
     18.2700	  585.00	  609.61	-1900.47	  486.30
     18.3700	  627.00	  609.04	-1857.91	  485.74
     18.4700	  574.00	  608.48	-1910.35	  485.19
     18.5700	  606.00	  609.71	-1879.57	  484.63
     18.6700	  592.00	  609.19	-1893.06	  484.08
     18.7700	  580.00	  608.67	-1904.54	  483.53
     18.8700	  559.00	  608.16	-1925.03	  482.99
     18.9700	  561.00	  607.66	-1922.52	  482.44
     19.0700	  569.00	  607.16	-1914.02	  481.90
     19.1700	  547.00	  606.66	-1935.52	  481.36
     19.2700	  583.00	  606.16	-1899.03	  480.82
     19.3700	  604.00	  605.67	-1877.54	  480.29
     19.4700	  608.00	  605.19	-1873.06	  479.76
     19.5700	  618.00	  604.71	-1862.58	  479.23
     19.6700	  633.00	  604.23	-1847.10	  478.70
     19.7700	  618.00	  603.82	-1861.68	  478.17
     19.8700	  583.00	  603.35	-1896.22	  477.65
     19.9700	  630.00	  602.89	-1848.76	  477.13
     20.0700	  607.00	  602.43	-1871.30	  476.61
     20.1700	  650.00	  601.98	-1827.85	  476.10
     20.2700	  646.00	  601.54	-1831.40	  475.59
     20.3700	  599.00	  601.10	-1877.97	  475.08
     20.4700	  610.00	  600.66	-1866.53	  474.57
     20.5700	  586.00	  600.24	-1890.10	  474.06
     20.6700	  604.00	  599.81	-1871.68	  473.56
     20.7700	  606.00	  599.40	-1869.26	  473.06
     20.8700	  626.00	  598.99	-1848.85	  472.56
     20.9700	  586.00	  598.58	-1888.45	  472.07
     21.0700	  603.00	  598.19	-1871.05	  471.57
     21.1700	  572.00	  597.80	-1901.66	  471.08
     21.2700	  578.00	  597.42	-1895.28	  470.60
     21.3700	  595.00	  597.04	-1877.91	  470.11
     21.4700	  547.00	  596.68	-1925.54	  469.63
     21.5700	  606.00	  596.32	-1866.19	  469.15
     21.6700	  589.00	  595.97	-1882.84	  468.67
     21.7700	  579.00	  595.63	-1892.50	  468.19
     21.8700	  599.00	  595.30	-1872.17	  467.72
     21.9700	  578.00	  595.17	-1893.04	  467.25
     22.0700	  585.00	  594.87	-1885.74	  466.78
     22.1700	  558.00	  594.58	-1912.45	  466.31
     22.2700	  545.00	  594.30	-1925.17	  465.85
     22.3700	  613.00	  594.04	-1856.91	  465.39
     22.4700	  613.00	  593.80	-1856.67	  464.93
     22.5700	  560.00	  593.57	-1909.44	  464.47
     22.6700	  616.00	  593.37	-1853.23	  464.02
     22.7700	  599.00	  593.18	-1870.05	  463.56
     22.8700	  586.00	  593.02	-1882.89	  463.12
     22.9700	  617.00	  592.89	-1851.75	  462.67
     23.0700	  613.00	  592.79	-1855.65	  462.22
     23.1700	  568.00	  592.73	-1900.59	  461.78
     23.2700	  599.00	  592.71	-1869.57	  461.34
     23.3700	  615.00	  592.74	-1853.61	  460.90
     23.4700	  635.00	  592.84	-1833.71	  460.47
     23.5700	  585.00	  593.02	-1883.89	  460.04
     23.6700	  640.00	  593.31	-1829.17	  459.61
     23.7700	  622.00	  593.73	-1847.60	  459.18
     23.8700	  604.00	  594.36	-1866.22	  458.75
     23.9700	  623.00	  595.29	-1848.15	  458.33
     24.0700	  575.00	  596.69	-1897.55	  457.91
     24.1700	  622.00	  598.74	-1852.61	  457.49
     24.2700	  589.00	  601.92	-1888.79	  457.08
     24.3700	  611.00	  606.57	-1871.43	  456.66
     24.4700	  628.00	  613.02	-1860.88	  456.25
     24.5700	  649.00	  621.35	-1848.21	  455.84
     24.6700	  635.00	  631.15	-1872.02	  455.44
     24.7700	  662.00	  641.27	-1855.13	  455.03
     24.8700	  710.00	  649.43	-1815.30	  454.63
     24.9700	  698.00	  652.43	-1830.29	  454.23
     25.0700	  668.00	  647.90	-1855.77	  453.84
     25.1700	  665.00	  637.76	-1848.63	  453.44
     25.2700	  656.00	  626.53	-1846.40	  453.05
     25.3700	  655.00	  617.22	-1838.09	  452.66
     25.4700	  633.00	  610.64	-1853.51	  452.27
     25.5700	  618.00	  606.55	-1864.42	  451.89
     25.6700	  636.00	  604.35	-1844.21	  451.50
     25.7700	  599.00	  603.45	-1880.32	  451.12
     25.8700	  609.00	  603.43	-1870.30	  450.75
     25.9700	  645.00	  604.02	-1834.89	  450.37
     26.0700	  620.00	  605.10	-1860.96	  450.00
     26.1700	  637.00	  606.60	-1845.47	  449.63
     26.2700	  634.00	  608.55	-1850.41	  449.26
     26.3700	  582.00	  610.95	-1904.82	  448.89
     26.4700	  630.00	  613.89	-1859.75	  448.53
     26.5700	  613.00	  617.43	-1880.29	  448.16
     26.6700	  674.00	  621.69	-1823.56	  447.80
     26.7700	  655.00	  626.84	-1847.70	  447.45
     26.8700	  626.00	  633.08	-1882.94	  447.09
     26.9700	  651.00	  640.69	-1865.56	  446.74
     27.0700	  683.00	  650.09	-1842.96	  446.39
     27.1700	  669.00	  661.84	-1868.71	  446.04
     27.2700	  676.00	  676.84	-1876.71	  445.70
     27.3700	  725.00	  696.65	-1847.52	  445.35
     27.4700	  722.00	  724.37	-1878.24	  445.01
     27.5700	  739.00	  766.49	-1903.36	  444.67
     27.6700	  784.00	  835.97	-1927.84	  444.33
     27.7700	  796.00	  956.21	-2036.07	  444.00
     27.8700	  903.00	 1163.86	-2136.72	  443.67
     27.9700	 1162.00	 1504.80	-2218.66	  443.34
     28.0700	 1635.00	 2015.41	-2256.28	  443.01
     28.1700	 2540.00	 2686.80	-2022.67	  442.68
     28.2700	 3755.00	 3416.69	-1537.55	  442.36
     28.3700	 4589.00	 3975.99	-1262.86	  442.04
     28.4700	 4650.00	 4064.11	-1289.98	  441.72
     28.5700	 3858.00	 3602.38	-1620.25	  441.40
     28.6700	 2742.00	 2953.92	-2087.79	  441.09
     28.7700	 2183.00	 2500.19	-2193.05	  440.78
     28.8700	 2177.00	 2357.98	-2056.84	  440.47
     28.9700	 2408.00	 2443.19	-1911.06	  440.16
     29.0700	 2779.00	 2563.39	-1660.25	  439.86
     29.1700	 2679.00	 2505.36	-1702.23	  439.55
     29.2700	 2256.00	 2186.01	-1805.88	  439.25
     29.3700	 1712.00	 1744.25	-1908.12	  438.95
     29.4700	 1320.00	 1349.12	-1904.99	  438.66
     29.5700	  993.00	 1066.89	-1949.76	  438.36
     29.6700	  908.00	  892.35	-1860.22	  438.07
     29.7700	  837.00	  793.25	-1832.11	  437.78
     29.8700	  802.00	  737.44	-1811.31	  437.49
     29.9700	  730.00	  703.72	-1849.58	  437.20
     30.0700	  764.00	  681.20	-1793.07	  436.92
     30.1700	  669.00	  665.12	-1871.98	  436.64
     30.2700	  731.00	  653.52	-1798.38	  436.36
     30.3700	  718.00	  645.77	-1803.64	  436.08
     30.4700	  661.00	  642.07	-1856.94	  435.81
     30.5700	  636.00	  643.30	-1883.16	  435.53
     30.6700	  670.00	  650.72	-1856.59	  435.26
     30.7700	  702.00	  665.22	-1839.09	  434.99
     30.8700	  708.00	  685.94	-1853.81	  434.73
     30.9700	  715.00	  709.00	-1869.86	  434.46
     31.0700	  735.00	  726.72	-1867.59	  434.20
     31.1700	  753.00	  728.91	-1851.78	  433.94
     31.2700	  696.00	  710.46	-1890.32	  433.68
     31.3700	  627.00	  679.49	-1928.35	  433.42
     31.4700	  664.00	  648.62	-1860.49	  433.17
     31.5700	  657.00	  624.38	-1843.24	  432.92
     31.6700	  626.00	  607.80	-1857.66	  432.67
     31.7700	  640.00	  597.39	-1833.26	  432.42
     31.8700	  597.00	  591.06	-1869.92	  432.17
     31.9700	  612.00	  587.07	-1850.94	  431.93
     32.0700	  574.00	  584.38	-1886.25	  431.69
     32.1700	  616.00	  582.44	-1842.31	  431.45
     32.2700	  621.00	  581.01	-1835.88	  431.21
     32.3700	  575.00	  579.97	-1880.84	  430.97
     32.4700	  618.00	  579.31	-1837.18	  430.74
     32.5700	  606.00	  578.95	-1848.81	  430.51
     32.6700	  618.00	  578.91	-1836.78	  430.28
     32.7700	  623.00	  579.23	-1832.10	  430.05
     32.8700	  605.00	  579.96	-1850.82	  429.83
     32.9700	  582.00	  581.17	-1875.04	  429.60
     33.0700	  590.00	  583.01	-1868.87	  429.38
     33.1700	  618.00	  585.70	-1843.57	  429.16
     33.2700	  587.00	  589.69	-1878.55	  428.94
     33.3700	  620.00	  595.81	-1851.68	  428.73
     33.4700	  604.00	  605.66	-1877.53	  428.51
     33.5700	  669.00	  621.97	-1828.84	  428.30
     33.6700	  584.00	  648.91	-1940.78	  428.09
     33.7700	  683.00	  691.61	-1884.47	  427.88
     33.8700	  753.00	  754.17	-1877.04	  427.68
     33.9700	  861.00	  835.93	-1850.80	  427.47
     34.0700	  963.00	  927.01	-1839.87	  427.27
     34.1700	 1061.00	 1005.64	-1820.51	  427.07
     34.2700	 1161.00	 1040.62	-1755.48	  426.87
     34.3700	 1062.00	 1009.15	-1823.01	  426.67
     34.4700	  964.00	  924.92	-1836.79	  426.48
     34.5700	  821.00	  826.39	-1881.26	  426.29
     34.6700	  760.00	  741.01	-1856.88	  426.10
     34.7700	  730.00	  678.08	-1823.95	  425.91
     34.8700	  670.00	  636.48	-1842.34	  425.72
     34.9700	  726.00	  610.87	-1760.74	  425.53
     35.0700	  646.00	  595.49	-1825.36	  425.35
     35.1700	  580.00	  585.96	-1881.83	  425.17
     35.2700	  644.00	  579.61	-1811.48	  424.99
     35.3700	  605.00	  575.03	-1845.90	  424.81
     35.4700	  594.00	  571.52	-1853.39	  424.63
     35.5700	  587.00	  568.73	-1857.60	  424.46
     35.6700	  585.00	  566.47	-1857.33	  424.29
     35.7700	  568.00	  564.60	-1872.47	  424.12
     35.8700	  519.00	  563.05	-1919.92	  423.95
     35.9700	  499.00	  561.75	-1938.62	  423.78
     36.0700	  587.00	  560.66	-1849.52	  423.61
     36.1700	  548.00	  559.74	-1887.61	  423.45
     36.2700	  559.00	  558.97	-1875.84	  423.29
     36.3700	  555.00	  558.34	-1879.21	  423.13
     36.4700	  512.00	  557.84	-1921.71	  422.97
     36.5700	  531.00	  557.67	-1902.53	  422.81
     36.6700	  592.00	  557.91	-1841.77	  422.66
     36.7700	  573.00	  557.80	-1860.66	  422.51
     36.8700	  563.00	  557.85	-1870.72	  422.35
     36.9700	  596.00	  558.10	-1837.96	  422.20
     37.0700	  566.00	  558.62	-1868.48	  422.06
     37.1700	  599.00	  559.49	-1836.36	  421.91
     37.2700	  546.00	  560.98	-1890.85	  421.77
     37.3700	  544.00	  563.36	-1895.23	  421.62
     37.4700	  614.00	  567.11	-1828.98	  421.48
     37.5700	  554.00	  572.88	-1894.74	  421.34
     37.6700	  586.00	  581.42	-1871.29	  421.20
     37.7700	  611.00	  593.40	-1858.26	  421.07
     37.8700	  618.00	  608.91	-1866.78	  420.93
     37.9700	  632.00	  627.00	-1870.87	  420.80
     38.0700	  614.00	  645.28	-1907.15	  420.67
     38.1700	  630.00	  659.76	-1905.63	  420.54
     38.2700	  659.00	  665.07	-1881.93	  420.41
     38.3700	  653.00	  657.19	-1880.05	  420.29
     38.4700	  617.00	  638.70	-1897.57	  420.16
     38.5700	  576.00	  615.70	-1915.57	  420.04
     38.6700	  539.00	  595.89	-1932.75	  419.92
     38.7700	  609.00	  580.48	-1847.35	  419.80
     38.8700	  547.00	  569.65	-1898.52	  419.68
     38.9700	  532.00	  562.55	-1906.42	  419.56
     39.0700	  579.00	  558.07	-1854.94	  419.44
     39.1700	  518.00	  555.23	-1913.09	  419.33
     39.2700	  568.00	  553.33	-1861.20	  419.22
     39.3700	  591.00	  551.98	-1836.85	  419.11
     39.4700	  547.00	  550.96	-1879.83	  419.00
     39.5700	  543.00	  550.15	-1883.01	  418.89
     39.6700	  567.00	  549.48	-1858.35	  418.78
     39.7700	  501.00	  548.93	-1923.80	  418.68
     39.8700	  561.00	  547.84	-1862.71	  418.58
     39.9700	  553.00	  547.47	-1870.33	  418.47
     40.0700	  541.00	  547.15	-1882.02	  418.37
     40.1700	  536.00	  546.89	-1886.76	  418.28
     40.2700	  519.00	  547.22	-1904.09	  418.18
     40.3700	  555.00	  547.05	-1867.92	  418.08
     40.4700	  550.00	  546.92	-1872.79	  417.99
     40.5700	  533.00	  546.82	-1889.69	  417.90
     40.6700	  516.00	  546.76	-1906.63	  417.80
     40.7700	  595.00	  546.73	-1827.60	  417.71
