MSG Master    CELL:    5.88450   5.88450  23.12779   90.0000   90.0000  120.0000   SPGR: P 63/m m c             TEMP:    585.15
  2   1280     2.52000     0.00000    -0.09070     0.00000     0.00000    0
    96    96     0     0     2
       0.00000      10.00000
     125.00000     130.00000
 2Theta	Yobs	Ycal	Yobs-Ycal	Backg	Posr	(hkl)	K
      0.7700	    0.00	  847.30	-1927.99	  716.84
      0.8700	    0.00	  845.31	-1927.99	  714.86
      0.9700	   54.00	  843.34	-1927.99	  712.88
      1.0700	   43.00	  841.38	-1927.99	  710.92
      1.1700	   66.00	  839.42	-1927.99	  708.97
      1.2700	   42.00	  837.48	-1927.99	  707.02
      1.3700	   67.00	  835.54	-1927.99	  705.09
      1.4700	  111.00	  833.62	-1927.99	  703.16
      1.5700	  273.00	  831.70	-1927.99	  701.24
      1.6700	  459.00	  829.79	-1927.99	  699.34
      1.7700	  597.00	  827.90	-1927.99	  697.44
      1.8700	  621.00	  826.01	-1927.99	  695.55
      1.9700	  714.00	  824.13	-1927.99	  693.67
      2.0700	  768.00	  822.26	-1927.99	  691.81
      2.1700	  811.00	  820.40	-1927.99	  689.95
      2.2700	  769.00	  818.55	-1927.99	  688.10
      2.3700	  775.00	  816.71	-1927.99	  686.25
      2.4700	  691.00	  814.88	-1927.99	  684.42
      2.5700	  724.00	  813.05	-1927.99	  682.60
      2.6700	  730.00	  811.24	-1927.99	  680.79
      2.7700	  662.00	  809.44	-1927.99	  678.98
      2.8700	  641.00	  807.64	-1927.99	  677.18
      2.9700	  627.00	  805.85	-1927.99	  675.40
      3.0700	  578.00	  804.08	-1927.99	  673.62
      3.1700	  599.00	  802.31	-1927.99	  671.85
      3.2700	  746.00	  800.55	-1927.99	  670.09
      3.3700	  895.00	  798.80	-1927.99	  668.34
      3.4700	 1052.00	  797.06	-1927.99	  666.60
      3.5700	 1236.00	  795.32	-1927.99	  664.87
      3.6700	 1357.00	  793.60	-1927.99	  663.15
      3.7700	 1442.00	  791.89	-1927.99	  661.43
      3.8700	 1483.00	  790.18	-1927.99	  659.72
      3.9700	 1682.00	  788.48	-1927.99	  658.03
      4.0700	 1694.00	  786.79	-1927.99	  656.34
      4.1700	 1614.00	  785.12	-1927.99	  654.66
      4.2700	 1705.00	  783.44	-1927.99	  652.99
      4.3700	 1739.00	  781.78	-1927.99	  651.33
      4.4700	 1663.00	  780.13	-1927.99	  649.67
      4.5700	 1545.00	  778.48	-1927.99	  648.03
      4.6700	 1440.00	  776.85	-1927.99	  646.39
      4.7700	 1453.00	  775.22	-1927.99	  644.76
      4.8700	 1503.00	  773.60	-1927.99	  643.14
      4.9700	 1352.00	  771.99	-1927.99	  641.53
      5.0700	 1328.00	  770.39	-1927.99	  639.93
      5.1700	 1351.00	  768.79	-1927.99	  638.34
      5.2700	 1292.00	  767.21	-1927.99	  636.75
      5.3700	 1198.00	  765.63	-1927.99	  635.18
      5.4700	 1220.00	  764.06	-1927.99	  633.61
      5.5700	 1213.00	  762.50	-1927.99	  632.05
      5.6700	 1109.00	  760.95	-1927.99	  630.50
      5.7700	 1105.00	  759.41	-1927.99	  628.95
      5.8700	 1124.00	  757.88	-1927.99	  627.42
      5.9700	 1059.00	  756.35	-1927.99	  625.89
      6.0700	 1021.00	  754.83	-1927.99	  624.37
      6.1700	 1036.00	  753.32	-1927.99	  622.86
      6.2700	  999.00	  751.82	-1927.99	  621.36
      6.3700	 1039.00	  750.32	-1927.99	  619.87
      6.4700	  926.00	  748.84	-1927.99	  618.38
      6.5700	  981.00	  747.36	-1927.99	  616.91
      6.6700	  960.00	  745.89	-1927.99	  615.44
      6.7700	  910.00	  744.43	-1927.99	  613.97
      6.8700	  937.00	  742.98	-1927.99	  612.52
      6.9700	  842.00	  741.53	-1927.99	  611.08
      7.0700	  892.00	  740.10	-1927.99	  609.64
      7.1700	  840.00	  738.67	-1927.99	  608.21
      7.2700	  858.00	  737.24	-1927.99	  606.79
      7.3700	  818.00	  735.83	-1927.99	  605.38
      7.4700	  842.00	  734.43	-1927.99	  603.97
      7.5700	  863.00	  733.03	-1927.99	  602.57
      7.6700	  775.00	  731.64	-1927.99	  601.18
      7.7700	  791.00	  730.26	-1927.99	  599.80
      7.8700	  796.00	  728.88	-1927.99	  598.43
      7.9700	  804.00	  727.52	-1927.99	  597.06
      8.0700	  785.00	  726.16	-1927.99	  595.70
      8.1700	  763.00	  724.81	-1927.99	  594.35
      8.2700	  767.00	  723.46	-1927.99	  593.01
      8.3700	  806.00	  722.13	-1927.99	  591.67
      8.4700	  779.00	  720.80	-1927.99	  590.34
      8.5700	  745.00	  719.48	-1927.99	  589.02
      8.6700	  760.00	  718.17	-1927.99	  587.71
      8.7700	  715.00	  716.86	-1927.99	  586.40
      8.8700	  760.00	  715.56	-1927.99	  585.11
      8.9700	  708.00	  714.27	-1927.99	  583.82
      9.0700	  755.00	  712.99	-1927.99	  582.53
      9.1700	  739.00	  711.71	-1927.99	  581.26
      9.2700	  715.00	  710.45	-1927.99	  579.99
      9.3700	  722.00	  709.19	-1927.99	  578.73
      9.4700	  712.00	  707.93	-1927.99	  577.48
      9.5700	  686.00	  706.69	-1927.99	  576.23
      9.6700	  730.00	  705.45	-1927.99	  574.99
      9.7700	  746.00	  704.22	-1927.99	  573.76
      9.8700	  633.00	  702.99	-1927.99	  572.54
      9.9700	  706.00	  701.78	-1927.99	  571.32
     10.0700	  695.00	  702.56	-1935.55	  570.11
     10.1700	  681.00	  701.58	-1948.57	  568.91
     10.2700	  675.00	  700.64	-1953.64	  567.72
     10.3700	  748.00	  699.78	-1879.77	  566.53
     10.4700	  685.00	  699.01	-1942.00	  565.35
     10.5700	  738.00	  698.37	-1888.36	  564.17
     10.6700	  689.00	  697.93	-1936.92	  563.01
     10.7700	  738.00	  697.78	-1887.77	  561.85
     10.8700	  689.00	  698.01	-1937.00	  560.70
     10.9700	  638.00	  698.71	-1988.70	  559.55
     11.0700	  683.00	  699.91	-1944.91	  558.41
     11.1700	  714.00	  701.64	-1915.63	  557.28
     11.2700	  746.00	  703.90	-1885.89	  556.16
     11.3700	  719.00	  706.76	-1915.75	  555.04
     11.4700	  676.00	  710.30	-1962.29	  553.93
     11.5700	  712.00	  714.69	-1930.69	  552.82
     11.6700	  758.00	  720.18	-1890.17	  551.73
     11.7700	  729.00	  727.09	-1926.08	  550.64
     11.8700	  748.00	  735.73	-1915.72	  549.55
     11.9700	  807.00	  746.18	-1867.17	  548.48
     12.0700	  868.00	  757.76	-1817.76	  547.41
     12.1700	  776.00	  768.49	-1920.49	  546.35
     12.2700	  862.00	  774.46	-1840.45	  545.29
     12.3700	  852.00	  770.49	-1846.48	  544.24
     12.4700	  820.00	  754.84	-1862.83	  543.20
     12.5700	  740.00	  733.53	-1921.52	  542.16
     12.6700	  675.00	  714.00	-1966.99	  541.13
     12.7700	  670.00	  699.23	-1957.22	  540.11
     12.8700	  648.00	  689.08	-1969.08	  539.09
     12.9700	  662.00	  682.40	-1948.39	  538.08
     13.0700	  612.00	  677.94	-1993.93	  537.08
     13.1700	  663.00	  674.73	-1939.72	  536.08
     13.2700	  661.00	  672.24	-1939.23	  535.09
     13.3700	  631.00	  670.16	-1967.16	  534.10
     13.4700	  627.00	  668.35	-1969.35	  533.13
     13.5700	  630.00	  666.73	-1964.72	  532.15
     13.6700	  662.00	  665.24	-1931.23	  531.19
     13.7700	  685.00	  663.85	-1906.85	  530.23
     13.8700	  719.00	  662.55	-1871.54	  529.28
     13.9700	  642.00	  661.31	-1947.30	  528.33
     14.0700	  673.00	  660.12	-1915.12	  527.39
     14.1700	  676.00	  658.98	-1910.97	  526.46
     14.2700	  656.00	  657.87	-1929.86	  525.53
     14.3700	  634.00	  656.79	-1950.79	  524.61
     14.4700	  666.00	  655.74	-1917.73	  523.69
     14.5700	  655.00	  654.71	-1927.71	  522.79
     14.6700	  640.00	  653.71	-1941.70	  521.88
     14.7700	  601.00	  652.72	-1979.71	  520.99
     14.8700	  648.00	  651.74	-1931.74	  520.10
     14.9700	  660.00	  650.79	-1918.78	  519.21
     15.0700	  670.00	  649.84	-1907.84	  518.33
     15.1700	  618.00	  648.91	-1958.90	  517.46
     15.2700	  679.00	  647.99	-1896.98	  516.59
     15.3700	  643.00	  647.08	-1932.08	  515.73
     15.4700	  631.00	  646.18	-1943.18	  514.88
     15.5700	  602.00	  645.30	-1971.29	  514.03
     15.6700	  609.00	  644.42	-1963.41	  513.19
     15.7700	  642.00	  643.55	-1929.54	  512.35
     15.8700	  637.00	  642.69	-1933.68	  511.52
     15.9700	  609.00	  641.83	-1960.83	  510.69
     16.0700	  649.00	  640.99	-1919.98	  509.87
     16.1700	  655.00	  640.15	-1913.14	  509.06
     16.2700	  662.00	  639.32	-1905.31	  508.25
     16.3700	  645.00	  638.50	-1921.49	  507.45
     16.4700	  650.00	  637.68	-1915.68	  506.65
     16.5700	  601.00	  636.88	-1963.87	  505.86
     16.6700	  606.00	  636.08	-1958.07	  505.08
     16.7700	  688.00	  635.28	-1875.27	  504.30
     16.8700	  634.00	  634.49	-1928.49	  503.52
     16.9700	  632.00	  633.71	-1929.71	  502.76
     17.0700	  598.00	  632.94	-1962.93	  501.99
     17.1700	  585.00	  632.17	-1975.16	  501.24
     17.2700	  631.00	  631.41	-1928.40	  500.48
     17.3700	  623.00	  630.65	-1935.65	  499.74
     17.4700	  652.00	  629.90	-1905.90	  499.00
     17.5700	  602.00	  629.16	-1955.16	  498.26
     17.6700	  607.00	  628.42	-1949.42	  497.53
     17.7700	  623.00	  627.69	-1932.69	  496.81
     17.8700	  596.00	  626.97	-1958.96	  496.09
     17.9700	  623.00	  626.25	-1931.24	  495.38
     18.0700	  592.00	  625.54	-1961.53	  494.67
     18.1700	  640.00	  624.83	-1912.82	  493.96
     18.2700	  619.00	  624.13	-1933.12	  493.27
     18.3700	  645.00	  623.43	-1906.43	  492.57
     18.4700	  588.00	  622.74	-1962.74	  491.89
     18.5700	  623.00	  622.06	-1927.05	  491.21
     18.6700	  657.00	  621.38	-1892.37	  490.53
     18.7700	  625.00	  620.71	-1923.70	  489.86
     18.8700	  610.00	  621.63	-1939.62	  489.19
     18.9700	  628.00	  621.92	-1921.91	  488.53
     19.0700	  593.00	  621.31	-1956.31	  487.88
     19.1700	  624.00	  620.72	-1924.71	  487.22
     19.2700	  633.00	  620.13	-1915.12	  486.58
     19.3700	  614.00	  619.55	-1933.54	  485.94
     19.4700	  628.00	  618.97	-1918.97	  485.30
     19.5700	  576.00	  618.41	-1970.40	  484.67
     19.6700	  656.00	  617.85	-1889.84	  484.05
     19.7700	  575.00	  617.29	-1970.29	  483.43
     19.8700	  615.00	  616.75	-1929.74	  482.81
     19.9700	  627.00	  616.21	-1917.21	  482.20
     20.0700	  607.00	  615.69	-1936.68	  481.59
     20.1700	  609.00	  615.22	-1934.21	  480.99
     20.2700	  618.00	  614.70	-1924.70	  480.40
     20.3700	  596.00	  614.20	-1946.20	  479.81
     20.4700	  609.00	  613.71	-1932.70	  479.22
     20.5700	  639.00	  613.22	-1902.22	  478.64
     20.6700	  619.00	  612.75	-1921.74	  478.06
     20.7700	  631.00	  612.28	-1909.27	  477.49
     20.8700	  658.00	  611.82	-1881.81	  476.92
     20.9700	  586.00	  611.37	-1953.37	  476.36
     21.0700	  628.00	  610.93	-1910.93	  475.80
     21.1700	  601.00	  610.50	-1937.50	  475.25
     21.2700	  614.00	  610.09	-1924.08	  474.70
     21.3700	  641.00	  609.68	-1896.67	  474.16
     21.4700	  593.00	  609.28	-1944.28	  473.62
     21.5700	  651.00	  608.90	-1885.89	  473.08
     21.6700	  604.00	  608.53	-1932.52	  472.55
     21.7700	  669.00	  608.17	-1867.16	  472.03
     21.8700	  707.00	  607.82	-1828.82	  471.51
     21.9700	  591.00	  607.49	-1944.48	  470.99
     22.0700	  607.00	  607.17	-1928.17	  470.48
     22.1700	  620.00	  606.87	-1914.86	  469.97
     22.2700	  612.00	  606.59	-1922.58	  469.47
     22.3700	  619.00	  606.32	-1915.31	  468.97
     22.4700	  646.00	  606.26	-1888.25	  468.48
     22.5700	  598.00	  606.04	-1936.03	  467.99
     22.6700	  616.00	  605.83	-1917.83	  467.50
     22.7700	  649.00	  605.66	-1884.65	  467.02
     22.8700	  612.00	  605.51	-1921.50	  466.54
     22.9700	  639.00	  605.38	-1894.38	  466.07
     23.0700	  594.00	  605.30	-1939.29	  465.60
     23.1700	  624.00	  605.25	-1909.24	  465.14
     23.2700	  647.00	  605.24	-1886.23	  464.68
     23.3700	  621.00	  605.28	-1912.28	  464.23
     23.4700	  631.00	  605.39	-1902.38	  463.77
     23.5700	  600.00	  605.56	-1933.56	  463.33
     23.6700	  624.00	  605.83	-1909.82	  462.89
     23.7700	  625.00	  606.22	-1909.21	  462.45
     23.8700	  635.00	  606.76	-1899.76	  462.01
     23.9700	  573.00	  607.50	-1962.49	  461.58
     24.0700	  615.00	  608.66	-1921.66	  461.16
     24.1700	  653.00	  610.41	-1885.40	  460.73
     24.2700	  621.00	  613.05	-1920.04	  460.32
     24.3700	  617.00	  617.01	-1928.00	  459.90
     24.4700	  647.00	  622.72	-1903.71	  459.49
     24.5700	  654.00	  630.45	-1904.44	  459.09
     24.6700	  664.00	  640.08	-1904.08	  458.68
     24.7700	  635.00	  650.79	-1943.79	  458.29
     24.8700	  690.00	  660.67	-1898.66	  457.89
     24.9700	  702.00	  666.46	-1892.46	  457.50
     25.0700	  697.00	  664.78	-1895.77	  457.11
     25.1700	  683.00	  655.83	-1900.82	  456.73
     25.2700	  685.00	  644.27	-1887.27	  456.35
     25.3700	  675.00	  634.24	-1887.23	  455.98
     25.4700	  639.00	  627.19	-1916.18	  455.61
     25.5700	  611.00	  623.05	-1940.04	  455.24
     25.6700	  669.00	  621.05	-1880.04	  454.88
     25.7700	  637.00	  620.56	-1911.55	  454.52
     25.8700	  624.00	  621.05	-1925.04	  454.16
     25.9700	  642.00	  622.22	-1908.22	  453.81
     26.0700	  643.00	  623.94	-1908.93	  453.46
     26.1700	  614.00	  626.16	-1940.15	  453.11
     26.2700	  616.00	  628.89	-1940.89	  452.77
     26.3700	  650.00	  632.19	-1910.18	  452.44
     26.4700	  615.00	  636.12	-1949.12	  452.10
     26.5700	  589.00	  640.80	-1979.79	  451.77
     26.6700	  630.00	  646.37	-1944.36	  451.44
     26.7700	  666.00	  653.02	-1915.01	  451.12
     26.8700	  670.00	  661.01	-1919.00	  450.80
     26.9700	  630.00	  670.69	-1968.69	  450.48
     27.0700	  652.00	  682.54	-1958.54	  450.17
     27.1700	  673.00	  697.24	-1952.23	  449.86
     27.2700	  652.00	  715.79	-1991.79	  449.56
     27.3700	  667.00	  739.88	-2000.87	  449.25
     27.4700	  712.00	  772.72	-1988.72	  448.96
     27.5700	  776.00	  821.22	-1973.21	  448.66
     27.6700	  759.00	  899.94	-2068.93	  448.37
     27.7700	  860.00	 1037.12	-2105.12	  448.08
     27.8700	 1014.00	 1280.72	-2194.71	  447.79
     27.9700	 1271.00	 1698.62	-2355.62	  447.51
     28.0700	 1946.00	 2361.27	-2343.26	  447.23
     28.1700	 2997.00	 3296.43	-2227.43	  446.96
     28.2700	 4716.00	 4414.06	-1626.05	  446.69
     28.3700	 6140.00	 5428.33	-1216.32	  446.42
     28.4700	 6633.00	 5870.47	-1165.46	  446.15
     28.5700	 5806.00	 5405.47	-1527.47	  445.89
     28.6700	 4355.00	 4389.25	-1962.24	  445.63
     28.7700	 3244.00	 3516.37	-2200.36	  445.37
     28.8700	 2866.00	 3124.19	-2186.19	  445.12
     28.9700	 3199.00	 3171.88	-1900.87	  444.87
     29.0700	 3607.00	 3398.68	-1719.67	  444.62
     29.1700	 3666.00	 3461.67	-1723.67	  444.38
     29.2700	 3390.00	 3122.90	-1660.89	  444.14
     29.3700	 2470.00	 2489.92	-1947.91	  443.90
     29.4700	 1757.00	 1855.24	-2026.23	  443.67
     29.5700	 1235.00	 1379.51	-2072.50	  443.44
     29.6700	 1020.00	 1081.15	-1989.14	  443.21
     29.7700	  881.00	  914.31	-1961.30	  442.98
     29.8700	  789.00	  824.04	-1963.04	  442.76
     29.9700	  757.00	  771.98	-1942.97	  442.54
     30.0700	  755.00	  738.24	-1911.23	  442.33
     30.1700	  729.00	  714.22	-1913.21	  442.11
     30.2700	  683.00	  696.42	-1941.41	  441.90
     30.3700	  667.00	  683.41	-1944.41	  441.69
     30.4700	  710.00	  674.83	-1892.82	  441.49
     30.5700	  694.00	  671.15	-1905.14	  441.29
     30.6700	  716.00	  673.52	-1885.51	  441.09
     30.7700	  744.00	  683.26	-1867.25	  440.89
     30.8700	  740.00	  700.57	-1888.57	  440.70
     30.9700	  726.00	  722.97	-1924.96	  440.51
     31.0700	  722.00	  744.01	-1950.00	  440.32
     31.1700	  833.00	  753.40	-1848.39	  440.14
     31.2700	  719.00	  741.87	-1950.86	  439.95
     31.3700	  718.00	  712.45	-1922.44	  439.77
     31.4700	  689.00	  678.83	-1917.82	  439.60
     31.5700	  676.00	  650.84	-1902.83	  439.42
     31.6700	  642.00	  631.23	-1917.22	  439.25
     31.7700	  707.00	  618.88	-1839.88	  439.08
     31.8700	  671.00	  611.46	-1868.45	  438.92
     31.9700	  598.00	  606.86	-1936.85	  438.75
     32.0700	  647.00	  603.77	-1884.77	  438.59
     32.1700	  611.00	  601.53	-1918.52	  438.43
     32.2700	  605.00	  599.83	-1922.82	  438.28
     32.3700	  640.00	  598.55	-1886.54	  438.13
     32.4700	  653.00	  597.62	-1872.61	  437.97
     32.5700	  599.00	  597.02	-1926.01	  437.83
     32.6700	  608.00	  596.74	-1916.73	  437.68
     32.7700	  610.00	  596.80	-1914.79	  437.54
     32.8700	  647.00	  597.24	-1878.24	  437.40
     32.9700	  650.00	  598.12	-1876.12	  437.26
     33.0700	  619.00	  599.58	-1908.57	  437.12
     33.1700	  627.00	  601.72	-1902.72	  436.99
     33.2700	  600.00	  604.89	-1932.89	  436.86
     33.3700	  624.00	  609.70	-1913.69	  436.73
     33.4700	  631.00	  617.36	-1914.35	  436.60
     33.5700	  642.00	  630.16	-1916.15	  436.48
     33.6700	  671.00	  652.06	-1909.06	  436.36
     33.7700	  695.00	  688.78	-1921.77	  436.24
     33.8700	  738.00	  746.58	-1936.57	  436.12
     33.9700	  888.00	  828.68	-1868.67	  436.01
     34.0700	  948.00	  929.63	-1909.62	  435.89
     34.1700	 1013.00	 1030.60	-1945.60	  435.78
     34.2700	 1207.00	 1098.49	-1819.48	  435.68
     34.3700	 1169.00	 1097.14	-1856.14	  435.57
     34.4700	 1034.00	 1021.16	-1915.16	  435.47
     34.5700	  943.00	  909.62	-1894.61	  435.36
     34.6700	  759.00	  804.09	-1973.08	  435.27
     34.7700	  696.00	  723.40	-1955.40	  435.17
     34.8700	  712.00	  669.58	-1885.57	  435.07
     34.9700	  702.00	  636.94	-1862.94	  434.98
     35.0700	  698.00	  618.02	-1848.01	  434.89
     35.1700	  616.00	  606.84	-1918.84	  434.80
     35.2700	  625.00	  599.73	-1902.73	  434.71
     35.3700	  628.00	  594.77	-1894.77	  434.63
     35.4700	  668.00	  591.06	-1851.05	  434.55
     35.5700	  569.00	  588.15	-1947.15	  434.47
     35.6700	  586.00	  585.83	-1927.82	  434.39
     35.7700	  598.00	  583.94	-1913.94	  434.31
     35.8700	  615.00	  582.40	-1895.39	  434.24
     35.9700	  599.00	  581.12	-1910.12	  434.17
     36.0700	  551.00	  580.07	-1957.06	  434.10
     36.1700	  568.00	  579.21	-1939.20	  434.03
     36.2700	  566.00	  578.50	-1940.50	  433.96
     36.3700	  602.00	  577.94	-1903.93	  433.90
     36.4700	  592.00	  577.51	-1913.51	  433.83
     36.5700	  553.00	  577.22	-1952.21	  433.77
     36.6700	  605.00	  577.05	-1900.04	  433.71
     36.7700	  550.00	  577.02	-1955.01	  433.66
     36.8700	  587.00	  577.14	-1918.14	  433.60
     36.9700	  577.00	  577.96	-1928.95	  433.55
     37.0700	  588.00	  578.53	-1918.52	  433.49
     37.1700	  586.00	  579.41	-1921.40	  433.44
     37.2700	  565.00	  581.03	-1944.02	  433.40
     37.3700	  613.00	  583.27	-1898.26	  433.35
     37.4700	  582.00	  586.82	-1932.81	  433.30
     37.5700	  545.00	  592.45	-1975.44	  433.26
     37.6700	  595.00	  601.26	-1934.26	  433.22
     37.7700	  607.00	  614.56	-1935.56	  433.18
     37.8700	  627.00	  633.40	-1934.40	  433.14
     37.9700	  633.00	  657.76	-1952.75	  433.11
     38.0700	  686.00	  685.58	-1927.57	  433.07
     38.1700	  702.00	  711.96	-1937.95	  433.04
     38.2700	  738.00	  727.70	-1917.69	  433.01
     38.3700	  661.00	  727.24	-1994.24	  432.98
     38.4700	  718.00	  707.24	-1917.24	  432.95
     38.5700	  663.00	  676.49	-1941.49	  432.92
     38.6700	  702.00	  645.70	-1871.69	  432.90
     38.7700	  614.00	  620.63	-1934.62	  432.87
     38.8700	  571.00	  602.72	-1959.71	  432.85
     38.9700	  595.00	  591.07	-1924.07	  432.83
     39.0700	  550.00	  583.95	-1961.95	  432.81
     39.1700	  583.00	  579.67	-1924.66	  432.79
     39.2700	  570.00	  576.99	-1934.98	  432.78
     39.3700	  543.00	  575.19	-1960.19	  432.76
     39.4700	  568.00	  573.89	-1933.88	  432.75
     39.5700	  519.00	  572.90	-1981.89	  432.74
     39.6700	  564.00	  571.26	-1935.26	  432.73
     39.7700	  576.00	  570.65	-1922.65	  432.72
     39.8700	  572.00	  570.16	-1926.15	  432.71
     39.9700	  561.00	  569.76	-1936.76	  432.71
     40.0700	  607.00	  569.45	-1890.44	  432.70
     40.1700	  627.00	  569.19	-1870.18	  432.70
     40.2700	  581.00	  568.99	-1915.98	  432.69
     40.3700	  553.00	  568.84	-1943.83	  432.69
     40.4700	  559.00	  568.73	-1937.72	  432.69
     40.5700	  583.00	  568.66	-1913.65	  432.70
     40.6700	  540.00	  568.63	-1956.62	  432.70
     40.7700	  606.00	  569.14	-1891.13	  432.70
