MSG Master    CELL:    5.91472   5.91472  23.25204   90.0000   90.0000  120.0000   SPGR: P 63/m m c             TEMP:    998.25
  1   1280     2.52000     0.00000    -0.13500     0.00000     0.00000    0
    99     0     2
       0.00000      10.00000
     125.00000     130.00000
 2Theta	Yobs	Ycal	Yobs-Ycal	Backg	Posr	(hkl)	K
      0.7700	    0.00	  503.21	-1711.67	  389.45
      0.8700	    0.00	  504.39	-1711.67	  390.63
      0.9700	   48.00	  505.56	-1711.67	  391.80
      1.0700	   27.00	  506.71	-1711.67	  392.96
      1.1700	   52.00	  507.85	-1711.67	  394.10
      1.2700	   41.00	  508.98	-1711.67	  395.22
      1.3700	   52.00	  510.09	-1711.67	  396.33
      1.4700	   92.00	  511.19	-1711.67	  397.43
      1.5700	  334.00	  512.27	-1711.67	  398.51
      1.6700	  481.00	  513.34	-1711.67	  399.58
      1.7700	  546.00	  514.40	-1711.67	  400.64
      1.8700	  655.00	  515.44	-1711.67	  401.68
      1.9700	  715.00	  516.47	-1711.67	  402.71
      2.0700	  771.00	  517.48	-1711.67	  403.72
      2.1700	  793.00	  518.48	-1711.67	  404.72
      2.2700	  781.00	  519.47	-1711.67	  405.71
      2.3700	  703.00	  520.44	-1711.67	  406.68
      2.4700	  703.00	  521.40	-1711.67	  407.65
      2.5700	  712.00	  522.35	-1711.67	  408.59
      2.6700	  678.00	  523.29	-1711.67	  409.53
      2.7700	  673.00	  524.21	-1711.67	  410.45
      2.8700	  650.00	  525.12	-1711.67	  411.36
      2.9700	  620.00	  526.01	-1711.67	  412.25
      3.0700	  611.00	  526.90	-1711.67	  413.14
      3.1700	  600.00	  527.77	-1711.67	  414.01
      3.2700	  608.00	  528.62	-1711.67	  414.87
      3.3700	  729.00	  529.47	-1711.67	  415.71
      3.4700	  777.00	  530.30	-1711.67	  416.55
      3.5700	  820.00	  531.12	-1711.67	  417.37
      3.6700	  937.00	  531.93	-1711.67	  418.18
      3.7700	  994.00	  532.73	-1711.67	  418.97
      3.8700	 1036.00	  533.51	-1711.67	  419.76
      3.9700	 1097.00	  534.29	-1711.67	  420.53
      4.0700	 1144.00	  535.05	-1711.67	  421.29
      4.1700	 1151.00	  535.80	-1711.67	  422.04
      4.2700	 1129.00	  536.53	-1711.67	  422.78
      4.3700	 1210.00	  537.26	-1711.67	  423.50
      4.4700	 1126.00	  537.97	-1711.67	  424.22
      4.5700	 1091.00	  538.68	-1711.67	  424.92
      4.6700	 1074.00	  539.37	-1711.67	  425.61
      4.7700	 1081.00	  540.05	-1711.67	  426.29
      4.8700	 1071.00	  540.72	-1711.67	  426.96
      4.9700	 1004.00	  541.38	-1711.67	  427.62
      5.0700	  973.00	  542.02	-1711.67	  428.27
      5.1700	 1063.00	  542.66	-1711.67	  428.90
      5.2700	  948.00	  543.28	-1711.67	  429.53
      5.3700	  944.00	  543.90	-1711.67	  430.14
      5.4700	  917.00	  544.50	-1711.67	  430.74
      5.5700	  878.00	  545.09	-1711.67	  431.34
      5.6700	  894.00	  545.68	-1711.67	  431.92
      5.7700	  842.00	  546.25	-1711.67	  432.49
      5.8700	  811.00	  546.81	-1711.67	  433.05
      5.9700	  778.00	  547.36	-1711.67	  433.60
      6.0700	  852.00	  547.90	-1711.67	  434.14
      6.1700	  802.00	  548.43	-1711.67	  434.68
      6.2700	  795.00	  548.95	-1711.67	  435.20
      6.3700	  759.00	  549.46	-1711.67	  435.71
      6.4700	  808.00	  549.96	-1711.67	  436.21
      6.5700	  748.00	  550.46	-1711.67	  436.70
      6.6700	  732.00	  550.94	-1711.67	  437.18
      6.7700	  764.00	  551.41	-1711.67	  437.65
      6.8700	  752.00	  551.87	-1711.67	  438.11
      6.9700	  683.00	  552.32	-1711.67	  438.56
      7.0700	  743.00	  552.76	-1711.67	  439.01
      7.1700	  741.00	  553.20	-1711.67	  439.44
      7.2700	  631.00	  553.62	-1711.67	  439.86
      7.3700	  668.00	  554.03	-1711.67	  440.28
      7.4700	  662.00	  554.44	-1711.67	  440.68
      7.5700	  594.00	  554.84	-1711.67	  441.08
      7.6700	  639.00	  555.22	-1711.67	  441.47
      7.7700	  608.00	  555.60	-1711.67	  441.84
      7.8700	  651.00	  555.97	-1711.67	  442.21
      7.9700	  613.00	  556.33	-1711.67	  442.57
      8.0700	  650.00	  556.68	-1711.67	  442.93
      8.1700	  644.00	  557.03	-1711.67	  443.27
      8.2700	  610.00	  557.36	-1711.67	  443.60
      8.3700	  655.00	  557.69	-1711.67	  443.93
      8.4700	  625.00	  558.00	-1711.67	  444.25
      8.5700	  598.00	  558.31	-1711.67	  444.55
      8.6700	  597.00	  558.61	-1711.67	  444.86
      8.7700	  624.00	  558.90	-1711.67	  445.15
      8.8700	  622.00	  559.19	-1711.67	  445.43
      8.9700	  600.00	  559.46	-1711.67	  445.71
      9.0700	  648.00	  559.73	-1711.67	  445.98
      9.1700	  652.00	  559.99	-1711.67	  446.24
      9.2700	  593.00	  560.24	-1711.67	  446.49
      9.3700	  581.00	  560.49	-1711.67	  446.73
      9.4700	  577.00	  560.72	-1711.67	  446.97
      9.5700	  618.00	  560.95	-1711.67	  447.20
      9.6700	  597.00	  561.17	-1711.67	  447.42
      9.7700	  600.00	  561.39	-1711.67	  447.63
      9.8700	  613.00	  561.59	-1711.67	  447.84
      9.9700	  601.00	  561.79	-1711.67	  448.03
     10.0700	  578.00	  563.35	-1697.02	  448.23
     10.1700	  623.00	  563.69	-1652.36	  448.41
     10.2700	  620.00	  564.05	-1655.72	  448.59
     10.3700	  640.00	  564.46	-1636.13	  448.75
     10.4700	  596.00	  564.96	-1680.63	  448.92
     10.5700	  581.00	  565.60	-1696.27	  449.07
     10.6700	  576.00	  566.47	-1702.14	  449.22
     10.7700	  639.00	  567.68	-1640.35	  449.36
     10.8700	  580.00	  569.29	-1700.96	  449.49
     10.9700	  591.00	  571.32	-1691.98	  449.62
     11.0700	  601.00	  573.74	-1684.41	  449.74
     11.1700	  613.00	  576.57	-1675.24	  449.86
     11.2700	  566.00	  579.85	-1725.51	  449.96
     11.3700	  588.00	  583.66	-1707.33	  450.06
     11.4700	  571.00	  588.15	-1728.82	  450.16
     11.5700	  583.00	  593.55	-1722.22	  450.25
     11.6700	  604.00	  600.23	-1707.90	  450.33
     11.7700	  610.00	  608.73	-1710.40	  450.40
     11.8700	  635.00	  619.56	-1696.23	  450.47
     11.9700	  668.00	  632.54	-1676.21	  450.53
     12.0700	  658.00	  645.62	-1699.29	  450.59
     12.1700	  683.00	  653.87	-1682.54	  450.64
     12.2700	  629.00	  650.29	-1732.95	  450.68
     12.3700	  622.00	  632.96	-1722.63	  450.72
     12.4700	  676.00	  610.98	-1646.65	  450.75
     12.5700	  650.00	  593.18	-1654.85	  450.78
     12.6700	  540.00	  581.77	-1753.44	  450.80
     12.7700	  553.00	  575.43	-1734.10	  450.82
     12.8700	  556.00	  572.11	-1727.78	  450.83
     12.9700	  547.00	  570.28	-1734.95	  450.83
     13.0700	  554.00	  569.13	-1726.80	  450.83
     13.1700	  543.00	  568.33	-1737.00	  450.82
     13.2700	  534.00	  567.73	-1745.40	  450.81
     13.3700	  517.00	  567.26	-1761.93	  450.79
     13.4700	  530.00	  566.88	-1748.55	  450.77
     13.5700	  522.00	  566.57	-1756.23	  450.74
     13.6700	  564.00	  566.30	-1713.97	  450.70
     13.7700	  540.00	  566.07	-1737.74	  450.67
     13.8700	  520.00	  565.87	-1757.54	  450.62
     13.9700	  590.00	  565.68	-1687.35	  450.57
     14.0700	  563.00	  565.52	-1714.18	  450.52
     14.1700	  553.00	  565.36	-1724.03	  450.46
     14.2700	  542.00	  565.21	-1734.88	  450.39
     14.3700	  528.00	  565.07	-1748.74	  450.33
     14.4700	  556.00	  564.93	-1720.60	  450.25
     14.5700	  594.00	  564.79	-1682.46	  450.17
     14.6700	  537.00	  564.66	-1739.33	  450.09
     14.7700	  537.00	  564.56	-1739.23	  450.00
     14.8700	  551.00	  564.43	-1725.10	  449.91
     14.9700	  598.00	  564.29	-1677.96	  449.81
     15.0700	  530.00	  564.16	-1745.83	  449.71
     15.1700	  551.00	  564.03	-1724.70	  449.61
     15.2700	  548.00	  563.89	-1727.56	  449.50
     15.3700	  548.00	  563.76	-1727.42	  449.38
     15.4700	  539.00	  563.62	-1736.28	  449.26
     15.5700	  539.00	  563.47	-1736.14	  449.14
     15.6700	  593.00	  563.33	-1682.00	  449.01
     15.7700	  552.00	  563.18	-1722.85	  448.88
     15.8700	  549.00	  563.03	-1725.70	  448.75
     15.9700	  543.00	  562.88	-1731.55	  448.61
     16.0700	  541.00	  562.72	-1733.39	  448.47
     16.1700	  560.00	  562.57	-1714.24	  448.32
     16.2700	  536.00	  562.41	-1738.07	  448.17
     16.3700	  538.00	  562.24	-1735.91	  448.01
     16.4700	  577.00	  562.07	-1696.74	  447.86
     16.5700	  541.00	  561.90	-1732.57	  447.69
     16.6700	  560.00	  561.73	-1713.40	  447.53
     16.7700	  565.00	  561.55	-1708.22	  447.36
     16.8700	  534.00	  561.38	-1739.04	  447.19
     16.9700	  576.00	  561.19	-1696.86	  447.01
     17.0700	  601.00	  561.01	-1671.68	  446.83
     17.1700	  560.00	  560.82	-1712.49	  446.65
     17.2700	  557.00	  560.63	-1715.30	  446.46
     17.3700	  510.00	  560.43	-1762.10	  446.27
     17.4700	  535.00	  560.24	-1736.91	  446.08
     17.5700	  545.00	  560.04	-1726.71	  445.88
     17.6700	  536.00	  559.83	-1735.50	  445.68
     17.7700	  544.00	  559.63	-1727.30	  445.48
     17.8700	  559.00	  559.42	-1712.09	  445.27
     17.9700	  555.00	  559.31	-1715.98	  445.06
     18.0700	  556.00	  559.10	-1714.77	  444.85
     18.1700	  599.00	  558.88	-1671.55	  444.63
     18.2700	  591.00	  558.67	-1679.34	  444.42
     18.3700	  561.00	  558.45	-1709.12	  444.19
     18.4700	  580.00	  558.23	-1689.89	  443.97
     18.5700	  575.00	  558.08	-1694.75	  443.74
     18.6700	  518.00	  557.86	-1751.53	  443.51
     18.7700	  528.00	  557.63	-1741.30	  443.28
     18.8700	  557.00	  557.40	-1712.07	  443.05
     18.9700	  521.00	  557.17	-1747.84	  442.81
     19.0700	  579.00	  556.93	-1689.60	  442.57
     19.1700	  584.00	  556.70	-1684.37	  442.33
     19.2700	  544.00	  556.46	-1724.13	  442.08
     19.3700	  517.00	  556.22	-1750.89	  441.84
     19.4700	  576.00	  555.97	-1691.64	  441.59
     19.5700	  521.00	  555.73	-1746.40	  441.33
     19.6700	  531.00	  555.48	-1736.15	  441.08
     19.7700	  575.00	  555.24	-1691.90	  440.82
     19.8700	  538.00	  554.99	-1728.65	  440.56
     19.9700	  566.00	  554.73	-1700.40	  440.30
     20.0700	  531.00	  554.48	-1735.15	  440.04
     20.1700	  531.00	  554.23	-1734.89	  439.77
     20.2700	  545.00	  554.01	-1720.67	  439.50
     20.3700	  543.00	  553.75	-1722.42	  439.23
     20.4700	  526.00	  553.49	-1739.16	  438.96
     20.5700	  537.00	  553.23	-1727.90	  438.69
     20.6700	  527.00	  552.97	-1737.64	  438.41
     20.7700	  534.00	  552.71	-1730.38	  438.14
     20.8700	  553.00	  552.45	-1711.12	  437.86
     20.9700	  563.00	  552.19	-1700.85	  437.57
     21.0700	  511.00	  551.92	-1752.59	  437.29
     21.1700	  512.00	  551.66	-1751.33	  437.01
     21.2700	  531.00	  551.40	-1732.06	  436.72
     21.3700	  552.00	  551.13	-1710.80	  436.43
     21.4700	  516.00	  550.87	-1746.54	  436.14
     21.5700	  551.00	  550.61	-1711.27	  435.85
     21.6700	  556.00	  550.34	-1706.01	  435.56
     21.7700	  547.00	  550.08	-1714.75	  435.26
     21.8700	  551.00	  549.82	-1710.49	  434.96
     21.9700	  568.00	  549.56	-1693.23	  434.67
     22.0700	  544.00	  549.26	-1716.93	  434.37
     22.1700	  553.00	  549.01	-1707.68	  434.07
     22.2700	  550.00	  548.76	-1710.43	  433.77
     22.3700	  566.00	  548.51	-1694.18	  433.46
     22.4700	  613.00	  548.27	-1646.94	  433.16
     22.5700	  595.00	  548.04	-1664.71	  432.85
     22.6700	  520.00	  547.81	-1739.48	  432.55
     22.7700	  571.00	  547.59	-1688.26	  432.24
     22.8700	  556.00	  547.38	-1703.05	  431.93
     22.9700	  550.00	  547.34	-1709.01	  431.62
     23.0700	  520.00	  547.16	-1738.83	  431.31
     23.1700	  538.00	  547.01	-1720.68	  430.99
     23.2700	  523.00	  546.88	-1735.55	  430.68
     23.3700	  550.00	  546.79	-1708.46	  430.36
     23.4700	  572.00	  546.74	-1686.41	  430.05
     23.5700	  546.00	  546.76	-1712.43	  429.73
     23.6700	  549.00	  546.87	-1709.53	  429.41
     23.7700	  571.00	  547.12	-1687.79	  429.10
     23.8700	  561.00	  547.64	-1698.31	  428.78
     23.9700	  604.00	  548.61	-1656.28	  428.46
     24.0700	  539.00	  550.39	-1723.06	  428.14
     24.1700	  567.00	  553.49	-1698.16	  427.82
     24.2700	  576.00	  558.57	-1694.24	  427.49
     24.3700	  569.00	  566.28	-1708.95	  427.17
     24.4700	  583.00	  577.05	-1705.72	  426.85
     24.5700	  635.00	  590.49	-1667.16	  426.52
     24.6700	  664.00	  604.43	-1652.10	  426.20
     24.7700	  589.00	  614.14	-1736.81	  425.87
     24.8700	  619.00	  613.28	-1705.95	  425.55
     24.9700	  608.00	  600.08	-1703.75	  425.22
     25.0700	  597.00	  581.94	-1696.60	  424.89
     25.1700	  570.00	  566.40	-1708.06	  424.57
     25.2700	  531.00	  555.87	-1736.54	  424.24
     25.3700	  576.00	  549.72	-1685.39	  423.91
     25.4700	  572.00	  546.38	-1686.05	  423.58
     25.5700	  544.00	  544.51	-1712.18	  423.25
     25.6700	  600.00	  543.35	-1655.02	  422.92
     25.7700	  618.00	  542.54	-1636.21	  422.59
     25.8700	  520.00	  541.94	-1733.60	  422.27
     25.9700	  538.00	  541.48	-1715.15	  421.94
     26.0700	  520.00	  541.14	-1732.81	  421.61
     26.1700	  524.00	  540.89	-1728.56	  421.27
     26.2700	  579.00	  540.74	-1673.41	  420.94
     26.3700	  544.00	  540.67	-1708.34	  420.61
     26.4700	  543.00	  540.69	-1709.36	  420.28
     26.5700	  573.00	  540.81	-1679.48	  419.95
     26.6700	  547.00	  541.05	-1705.72	  419.62
     26.7700	  576.00	  541.43	-1677.10	  419.29
     26.8700	  533.00	  541.98	-1720.65	  418.96
     26.9700	  521.00	  542.75	-1733.42	  418.63
     27.0700	  559.00	  543.81	-1696.48	  418.30
     27.1700	  526.00	  545.29	-1730.96	  417.97
     27.2700	  589.00	  547.42	-1670.09	  417.64
     27.3700	  587.00	  550.65	-1675.32	  417.31
     27.4700	  571.00	  555.88	-1696.54	  416.98
     27.5700	  557.00	  564.70	-1719.37	  416.65
     27.6700	  596.00	  579.70	-1695.37	  416.32
     27.7700	  584.00	  604.27	-1731.94	  415.99
     27.8700	  611.00	  641.55	-1742.22	  415.66
     27.9700	  669.00	  692.08	-1734.75	  415.33
     28.0700	  736.00	  750.84	-1726.51	  415.00
     28.1700	  928.00	  804.33	-1588.00	  414.67
     28.2700	  908.00	  831.09	-1634.76	  414.35
     28.3700	  895.00	  815.36	-1632.03	  414.02
     28.4700	  795.00	  773.18	-1689.85	  413.69
     28.5700	  777.00	  738.93	-1673.60	  413.36
     28.6700	  703.00	  730.74	-1739.41	  413.04
     28.7700	  763.00	  746.52	-1695.19	  412.71
     28.8700	  790.00	  770.00	-1691.67	  412.38
     28.9700	  813.00	  776.90	-1675.57	  412.06
     29.0700	  738.00	  749.02	-1722.69	  411.74
     29.1700	  711.00	  695.39	-1696.06	  411.41
     29.2700	  657.00	  640.77	-1695.44	  411.09
     29.3700	  576.00	  599.17	-1734.84	  410.76
     29.4700	  605.00	  572.56	-1679.23	  410.44
     29.5700	  563.00	  557.39	-1706.06	  410.12
     29.6700	  546.00	  549.11	-1714.78	  409.80
     29.7700	  552.00	  544.43	-1704.10	  409.48
     29.8700	  563.00	  541.58	-1690.25	  409.16
     29.9700	  595.00	  539.79	-1656.46	  408.84
     30.0700	  553.00	  538.91	-1697.58	  408.52
     30.1700	  538.00	  538.96	-1712.62	  408.20
     30.2700	  567.00	  540.41	-1685.08	  407.89
     30.3700	  590.00	  544.11	-1665.78	  407.57
     30.4700	  546.00	  551.33	-1717.00	  407.26
     30.5700	  581.00	  563.32	-1693.99	  406.94
     30.6700	  571.00	  580.40	-1721.07	  406.63
     30.7700	  566.00	  600.65	-1746.32	  406.31
     30.8700	  540.00	  618.96	-1790.63	  406.00
     30.9700	  654.00	  627.23	-1684.90	  405.69
     31.0700	  595.00	  618.82	-1735.48	  405.38
     31.1700	  629.00	  597.32	-1679.99	  405.07
     31.2700	  566.00	  573.65	-1719.32	  404.76
     31.3700	  564.00	  554.77	-1702.44	  404.46
     31.4700	  533.00	  542.28	-1720.95	  404.15
     31.5700	  563.00	  534.99	-1683.66	  403.84
     31.6700	  572.00	  531.00	-1670.67	  403.54
     31.7700	  534.00	  528.78	-1706.45	  403.24
     31.8700	  572.00	  527.43	-1667.10	  402.93
     31.9700	  539.00	  526.55	-1699.22	  402.63
     32.0700	  540.00	  525.97	-1697.64	  402.33
     32.1700	  549.00	  525.60	-1688.27	  402.03
     32.2700	  550.00	  525.43	-1687.10	  401.73
     32.3700	  576.00	  525.45	-1661.12	  401.44
     32.4700	  550.00	  525.66	-1687.32	  401.14
     32.5700	  571.00	  526.08	-1666.75	  400.84
     32.6700	  543.00	  526.75	-1695.42	  400.55
     32.7700	  552.00	  527.73	-1687.40	  400.26
     32.8700	  512.00	  529.11	-1728.78	  399.97
     32.9700	  565.00	  531.03	-1677.69	  399.68
     33.0700	  544.00	  533.76	-1701.42	  399.39
     33.1700	  548.00	  537.84	-1701.51	  399.10
     33.2700	  510.00	  544.43	-1746.09	  398.81
     33.3700	  613.00	  555.79	-1654.46	  398.53
     33.4700	  603.00	  576.00	-1684.66	  398.24
     33.5700	  591.00	  611.07	-1731.74	  397.96
     33.6700	  611.00	  667.53	-1768.20	  397.68
     33.7700	  733.00	  748.08	-1726.75	  397.40
     33.8700	  882.00	  845.23	-1674.90	  397.12
     33.9700	 1050.00	  936.74	-1598.41	  396.84
     34.0700	 1098.00	  986.74	-1600.41	  396.56
     34.1700	 1023.00	  963.15	-1651.82	  396.29
     34.2700	  938.00	  874.76	-1648.43	  396.02
     34.3700	  812.00	  767.28	-1666.95	  395.74
     34.4700	  677.00	  675.78	-1710.45	  395.47
     34.5700	  631.00	  611.83	-1692.50	  395.20
     34.6700	  548.00	  572.90	-1736.57	  394.93
     34.7700	  544.00	  551.17	-1718.84	  394.67
     34.8700	  516.00	  539.20	-1734.87	  394.40
     34.9700	  540.00	  532.14	-1703.81	  394.14
     35.0700	  539.00	  527.43	-1700.10	  393.88
     35.1700	  527.00	  524.01	-1708.68	  393.62
     35.2700	  503.00	  521.34	-1730.01	  393.36
     35.3700	  497.00	  519.20	-1733.87	  393.10
     35.4700	  560.00	  517.44	-1669.10	  392.84
     35.5700	  571.00	  515.96	-1656.62	  392.59
     35.6700	  520.00	  514.70	-1706.36	  392.33
     35.7700	  527.00	  513.61	-1698.28	  392.08
     35.8700	  516.00	  512.66	-1708.33	  391.83
     35.9700	  541.00	  512.27	-1682.94	  391.58
     36.0700	  473.00	  511.53	-1750.20	  391.33
     36.1700	  506.00	  510.88	-1716.54	  391.09
     36.2700	  505.00	  510.28	-1716.95	  390.84
     36.3700	  480.00	  509.75	-1741.42	  390.60
     36.4700	  512.00	  509.27	-1708.94	  390.36
     36.5700	  507.00	  508.84	-1713.51	  390.12
     36.6700	  511.00	  508.48	-1709.15	  389.88
     36.7700	  527.00	  508.17	-1692.84	  389.64
     36.8700	  507.00	  507.94	-1712.61	  389.41
     36.9700	  528.00	  507.86	-1691.53	  389.18
     37.0700	  504.00	  508.01	-1715.68	  388.94
     37.1700	  499.00	  508.58	-1721.25	  388.71
     37.2700	  536.00	  509.78	-1685.45	  388.49
     37.3700	  504.00	  511.78	-1719.45	  388.26
     37.4700	  522.00	  514.53	-1704.20	  388.03
     37.5700	  541.00	  517.58	-1688.24	  387.81
     37.6700	  524.00	  519.97	-1707.64	  387.59
     37.7700	  506.00	  520.52	-1726.19	  387.37
     37.8700	  488.00	  518.70	-1742.37	  387.15
     37.9700	  523.00	  515.38	-1704.05	  386.93
     38.0700	  483.00	  511.84	-1740.51	  386.72
     38.1700	  449.00	  508.82	-1771.49	  386.51
     38.2700	  519.00	  506.54	-1699.21	  386.30
     38.3700	  513.00	  504.95	-1703.62	  386.09
     38.4700	  517.00	  504.07	-1698.73	  385.88
     38.5700	  523.00	  503.35	-1692.02	  385.67
     38.6700	  492.00	  502.84	-1722.51	  385.47
     38.7700	  497.00	  502.44	-1717.11	  385.26
     38.8700	  531.00	  502.01	-1682.68	  385.06
     38.9700	  508.00	  501.72	-1705.39	  384.86
     39.0700	  492.00	  501.46	-1721.13	  384.66
     39.1700	  517.00	  501.22	-1695.89	  384.47
     39.2700	  491.00	  500.99	-1721.66	  384.27
     39.3700	  465.00	  500.78	-1747.45	  384.08
     39.4700	  483.00	  500.59	-1729.25	  383.89
     39.5700	  485.00	  500.40	-1727.07	  383.70
     39.6700	  485.00	  500.15	-1726.81	  383.52
     39.7700	  472.00	  499.98	-1739.65	  383.33
     39.8700	  503.00	  499.83	-1708.50	  383.15
     39.9700	  514.00	  499.69	-1697.36	  382.97
     40.0700	  476.00	  499.56	-1735.22	  382.79
     40.1700	  498.00	  499.44	-1713.10	  382.61
     40.2700	  466.00	  499.33	-1745.00	  382.43
     40.3700	  557.00	  499.24	-1653.90	  382.26
     40.4700	  480.00	  499.16	-1730.83	  382.08
     40.5700	  511.00	  499.09	-1699.76	  381.91
     40.6700	  460.00	  499.05	-1750.72	  381.74
     40.7700	  505.00	  499.03	-1705.70	  381.58
