MSG Master    CELL:    5.91936   5.91936  23.27256   90.0000   90.0000  120.0000   SPGR: P 63/m m c             TEMP:   1071.45
  1   1280     2.52000     0.00000    -0.12052     0.00000     0.00000    0
    99     0     2
       0.00000      10.00000
     125.00000     130.00000
 2Theta	Yobs	Ycal	Yobs-Ycal	Backg	Posr	(hkl)	K
      0.7700	    0.00	  548.61	-1750.25	  431.20
      0.8700	    0.00	  549.29	-1750.25	  431.88
      0.9700	   45.00	  549.97	-1750.25	  432.56
      1.0700	   29.00	  550.63	-1750.25	  433.22
      1.1700	   31.00	  551.29	-1750.25	  433.88
      1.2700	   33.00	  551.93	-1750.25	  434.52
      1.3700	   48.00	  552.56	-1750.25	  435.15
      1.4700	   90.00	  553.19	-1750.25	  435.77
      1.5700	  302.00	  553.80	-1750.25	  436.39
      1.6700	  422.00	  554.40	-1750.25	  436.99
      1.7700	  563.00	  555.00	-1750.25	  437.58
      1.8700	  629.00	  555.58	-1750.25	  438.17
      1.9700	  751.00	  556.15	-1750.25	  438.74
      2.0700	  750.00	  556.72	-1750.25	  439.30
      2.1700	  798.00	  557.27	-1750.25	  439.86
      2.2700	  783.00	  557.81	-1750.25	  440.40
      2.3700	  688.00	  558.35	-1750.25	  440.94
      2.4700	  698.00	  558.87	-1750.25	  441.46
      2.5700	  692.00	  559.39	-1750.25	  441.98
      2.6700	  678.00	  559.89	-1750.25	  442.48
      2.7700	  683.00	  560.39	-1750.25	  442.98
      2.8700	  640.00	  560.88	-1750.25	  443.47
      2.9700	  682.00	  561.36	-1750.25	  443.95
      3.0700	  616.00	  561.83	-1750.25	  444.42
      3.1700	  637.00	  562.29	-1750.25	  444.88
      3.2700	  608.00	  562.74	-1750.25	  445.33
      3.3700	  613.00	  563.18	-1750.25	  445.77
      3.4700	  723.00	  563.62	-1750.25	  446.20
      3.5700	  779.00	  564.04	-1750.25	  446.63
      3.6700	  844.00	  564.46	-1750.25	  447.05
      3.7700	  898.00	  564.86	-1750.25	  447.45
      3.8700	  918.00	  565.26	-1750.25	  447.85
      3.9700	  969.00	  565.65	-1750.25	  448.24
      4.0700	 1025.00	  566.04	-1750.25	  448.62
      4.1700	 1043.00	  566.41	-1750.25	  449.00
      4.2700	 1025.00	  566.78	-1750.25	  449.36
      4.3700	 1181.00	  567.13	-1750.25	  449.72
      4.4700	 1062.00	  567.48	-1750.25	  450.07
      4.5700	 1024.00	  567.82	-1750.25	  450.41
      4.6700	  968.00	  568.16	-1750.25	  450.74
      4.7700	  964.00	  568.48	-1750.25	  451.07
      4.8700	  997.00	  568.80	-1750.25	  451.39
      4.9700	  984.00	  569.11	-1750.25	  451.70
      5.0700	  903.00	  569.41	-1750.25	  452.00
      5.1700	  907.00	  569.70	-1750.25	  452.29
      5.2700	  908.00	  569.99	-1750.25	  452.58
      5.3700	  880.00	  570.27	-1750.25	  452.85
      5.4700	  877.00	  570.54	-1750.25	  453.13
      5.5700	  884.00	  570.80	-1750.25	  453.39
      5.6700	  922.00	  571.06	-1750.25	  453.64
      5.7700	  807.00	  571.30	-1750.25	  453.89
      5.8700	  856.00	  571.55	-1750.25	  454.13
      5.9700	  778.00	  571.78	-1750.25	  454.37
      6.0700	  809.00	  572.01	-1750.25	  454.59
      6.1700	  780.00	  572.23	-1750.25	  454.81
      6.2700	  836.00	  572.44	-1750.25	  455.03
      6.3700	  747.00	  572.64	-1750.25	  455.23
      6.4700	  725.00	  572.84	-1750.25	  455.43
      6.5700	  748.00	  573.03	-1750.25	  455.62
      6.6700	  720.00	  573.22	-1750.25	  455.80
      6.7700	  761.00	  573.39	-1750.25	  455.98
      6.8700	  748.00	  573.57	-1750.25	  456.15
      6.9700	  721.00	  573.73	-1750.25	  456.32
      7.0700	  708.00	  573.89	-1750.25	  456.48
      7.1700	  721.00	  574.04	-1750.25	  456.63
      7.2700	  672.00	  574.18	-1750.25	  456.77
      7.3700	  664.00	  574.32	-1750.25	  456.91
      7.4700	  679.00	  574.45	-1750.25	  457.04
      7.5700	  653.00	  574.58	-1750.25	  457.17
      7.6700	  658.00	  574.70	-1750.25	  457.28
      7.7700	  641.00	  574.81	-1750.25	  457.40
      7.8700	  609.00	  574.92	-1750.25	  457.50
      7.9700	  655.00	  575.02	-1750.25	  457.60
      8.0700	  616.00	  575.11	-1750.25	  457.70
      8.1700	  651.00	  575.20	-1750.25	  457.79
      8.2700	  640.00	  575.28	-1750.25	  457.87
      8.3700	  657.00	  575.36	-1750.25	  457.95
      8.4700	  631.00	  575.43	-1750.25	  458.02
      8.5700	  622.00	  575.49	-1750.25	  458.08
      8.6700	  627.00	  575.55	-1750.25	  458.14
      8.7700	  630.00	  575.60	-1750.25	  458.19
      8.8700	  616.00	  575.65	-1750.25	  458.24
      8.9700	  601.00	  575.69	-1750.25	  458.28
      9.0700	  601.00	  575.73	-1750.25	  458.32
      9.1700	  611.00	  575.76	-1750.25	  458.35
      9.2700	  563.00	  575.79	-1750.25	  458.37
      9.3700	  618.00	  575.81	-1750.25	  458.39
      9.4700	  606.00	  575.82	-1750.25	  458.41
      9.5700	  638.00	  575.83	-1750.25	  458.42
      9.6700	  606.00	  575.84	-1750.25	  458.42
      9.7700	  620.00	  575.83	-1750.25	  458.42
      9.8700	  637.00	  575.83	-1750.25	  458.42
      9.9700	  591.00	  575.82	-1750.25	  458.40
     10.0700	  587.00	  576.54	-1739.79	  458.39
     10.1700	  580.00	  576.59	-1746.84	  458.37
     10.2700	  593.00	  576.66	-1733.91	  458.34
     10.3700	  594.00	  576.75	-1733.00	  458.31
     10.4700	  606.00	  576.88	-1721.13	  458.27
     10.5700	  609.00	  577.11	-1718.36	  458.23
     10.6700	  563.00	  577.51	-1764.76	  458.19
     10.7700	  587.00	  578.20	-1741.45	  458.14
     10.8700	  620.00	  579.22	-1709.47	  458.08
     10.9700	  587.00	  580.59	-1743.84	  458.02
     11.0700	  596.00	  582.27	-1736.52	  457.96
     11.1700	  593.00	  584.25	-1741.50	  457.89
     11.2700	  611.00	  586.56	-1725.81	  457.82
     11.3700	  602.00	  589.27	-1737.52	  457.74
     11.4700	  570.00	  592.50	-1772.75	  457.66
     11.5700	  588.00	  596.41	-1758.66	  457.57
     11.6700	  619.00	  601.32	-1732.57	  457.48
     11.7700	  615.00	  607.75	-1743.00	  457.39
     11.8700	  660.00	  616.51	-1706.76	  457.29
     11.9700	  636.00	  628.23	-1742.48	  457.19
     12.0700	  687.00	  641.70	-1704.95	  457.08
     12.1700	  674.00	  651.66	-1727.91	  456.97
     12.2700	  684.00	  649.46	-1715.71	  456.85
     12.3700	  603.00	  631.80	-1779.05	  456.73
     12.4700	  600.00	  609.36	-1759.61	  456.61
     12.5700	  610.00	  592.63	-1732.88	  456.48
     12.6700	  607.00	  583.43	-1726.68	  456.35
     12.7700	  557.00	  579.22	-1772.47	  456.22
     12.8700	  593.00	  577.32	-1734.57	  456.08
     12.9700	  537.00	  576.27	-1789.52	  455.94
     13.0700	  549.00	  575.56	-1776.81	  455.79
     13.1700	  573.00	  575.01	-1752.26	  455.65
     13.2700	  555.00	  574.55	-1769.80	  455.49
     13.3700	  569.00	  574.17	-1755.42	  455.34
     13.4700	  557.00	  573.83	-1767.08	  455.18
     13.5700	  579.00	  573.52	-1744.77	  455.01
     13.6700	  533.00	  573.24	-1790.49	  454.85
     13.7700	  576.00	  572.97	-1747.22	  454.68
     13.8700	  542.00	  572.72	-1780.97	  454.50
     13.9700	  595.00	  572.48	-1727.73	  454.33
     14.0700	  567.00	  572.24	-1755.49	  454.15
     14.1700	  598.00	  572.01	-1724.26	  453.97
     14.2700	  537.00	  571.78	-1785.03	  453.78
     14.3700	  574.00	  571.55	-1747.80	  453.59
     14.4700	  536.00	  571.33	-1785.58	  453.40
     14.5700	  536.00	  571.11	-1785.36	  453.20
     14.6700	  539.00	  570.88	-1782.13	  453.01
     14.7700	  542.00	  570.66	-1778.91	  452.81
     14.8700	  565.00	  570.44	-1755.69	  452.60
     14.9700	  605.00	  570.21	-1715.46	  452.39
     15.0700	  590.00	  569.99	-1730.24	  452.19
     15.1700	  548.00	  569.76	-1772.01	  451.97
     15.2700	  606.00	  569.53	-1713.78	  451.76
     15.3700	  533.00	  569.30	-1786.55	  451.54
     15.4700	  573.00	  569.07	-1746.32	  451.32
     15.5700	  561.00	  568.84	-1758.09	  451.10
     15.6700	  583.00	  568.61	-1735.86	  450.87
     15.7700	  577.00	  568.37	-1741.62	  450.64
     15.8700	  560.00	  568.13	-1758.38	  450.41
     15.9700	  567.00	  567.89	-1751.14	  450.18
     16.0700	  613.00	  567.65	-1704.90	  449.94
     16.1700	  521.00	  567.43	-1796.68	  449.70
     16.2700	  582.00	  567.18	-1735.43	  449.46
     16.3700	  547.00	  566.94	-1770.19	  449.22
     16.4700	  563.00	  566.69	-1753.94	  448.98
     16.5700	  520.00	  566.44	-1796.69	  448.73
     16.6700	  530.00	  566.18	-1786.43	  448.48
     16.7700	  568.00	  565.93	-1748.18	  448.23
     16.8700	  541.00	  565.67	-1774.92	  447.97
     16.9700	  591.00	  565.41	-1724.66	  447.72
     17.0700	  573.00	  565.15	-1742.40	  447.46
     17.1700	  574.00	  564.89	-1741.14	  447.20
     17.2700	  564.00	  564.63	-1750.88	  446.94
     17.3700	  560.00	  564.36	-1754.61	  446.67
     17.4700	  506.00	  564.09	-1808.34	  446.41
     17.5700	  532.00	  563.83	-1782.08	  446.14
     17.6700	  562.00	  563.55	-1751.80	  445.87
     17.7700	  559.00	  563.28	-1754.53	  445.60
     17.8700	  530.00	  563.01	-1783.26	  445.33
     17.9700	  551.00	  562.84	-1762.09	  445.05
     18.0700	  540.00	  562.56	-1772.81	  444.77
     18.1700	  558.00	  562.29	-1754.54	  444.49
     18.2700	  547.00	  562.01	-1765.26	  444.21
     18.3700	  579.00	  561.73	-1732.98	  443.93
     18.4700	  519.00	  561.45	-1792.70	  443.65
     18.5700	  527.00	  561.17	-1784.42	  443.36
     18.6700	  566.00	  560.88	-1745.13	  443.08
     18.7700	  575.00	  560.60	-1735.85	  442.79
     18.8700	  513.00	  560.39	-1797.64	  442.50
     18.9700	  594.00	  560.10	-1716.35	  442.21
     19.0700	  543.00	  559.81	-1767.06	  441.92
     19.1700	  535.00	  559.53	-1774.78	  441.62
     19.2700	  575.00	  559.24	-1734.49	  441.33
     19.3700	  628.00	  558.95	-1681.20	  441.03
     19.4700	  525.00	  558.66	-1783.91	  440.73
     19.5700	  580.00	  558.36	-1728.61	  440.43
     19.6700	  569.00	  558.07	-1739.32	  440.13
     19.7700	  515.00	  557.78	-1793.03	  439.83
     19.8700	  518.00	  557.48	-1789.73	  439.53
     19.9700	  549.00	  557.19	-1758.44	  439.23
     20.0700	  537.00	  556.89	-1770.14	  438.92
     20.1700	  563.00	  556.60	-1743.85	  438.61
     20.2700	  539.00	  556.30	-1767.55	  438.31
     20.3700	  515.00	  556.00	-1791.25	  438.00
     20.4700	  512.00	  555.68	-1793.93	  437.69
     20.5700	  530.00	  555.38	-1775.63	  437.38
     20.6700	  559.00	  555.08	-1746.33	  437.07
     20.7700	  566.00	  554.78	-1739.03	  436.76
     20.8700	  548.00	  554.52	-1756.77	  436.44
     20.9700	  514.00	  554.23	-1790.48	  436.13
     21.0700	  548.00	  553.93	-1756.18	  435.82
     21.1700	  564.00	  553.63	-1739.88	  435.50
     21.2700	  596.00	  553.34	-1707.59	  435.19
     21.3700	  558.00	  553.04	-1745.29	  434.87
     21.4700	  547.00	  552.74	-1755.99	  434.55
     21.5700	  593.00	  552.45	-1709.70	  434.23
     21.6700	  578.00	  552.16	-1724.41	  433.92
     21.7700	  566.00	  551.86	-1736.11	  433.60
     21.8700	  546.00	  551.57	-1755.82	  433.28
     21.9700	  548.00	  551.28	-1753.53	  432.96
     22.0700	  539.00	  551.00	-1762.25	  432.64
     22.1700	  539.00	  550.71	-1761.96	  432.31
     22.2700	  582.00	  550.43	-1718.68	  431.99
     22.3700	  551.00	  550.15	-1749.40	  431.67
     22.4700	  604.00	  549.87	-1696.12	  431.35
     22.5700	  530.00	  549.60	-1769.85	  431.02
     22.6700	  600.00	  549.34	-1699.59	  430.70
     22.7700	  540.00	  549.08	-1759.33	  430.38
     22.8700	  571.00	  548.83	-1728.08	  430.05
     22.9700	  580.00	  548.59	-1718.84	  429.73
     23.0700	  561.00	  548.36	-1737.61	  429.40
     23.1700	  514.00	  548.15	-1784.40	  429.08
     23.2700	  560.00	  547.96	-1738.21	  428.75
     23.3700	  554.00	  547.79	-1744.04	  428.42
     23.4700	  553.00	  547.65	-1744.90	  428.10
     23.5700	  535.00	  547.56	-1762.81	  427.77
     23.6700	  546.00	  547.53	-1751.78	  427.45
     23.7700	  550.00	  547.74	-1747.99	  427.12
     23.8700	  548.00	  548.02	-1750.27	  426.79
     23.9700	  563.00	  548.70	-1735.95	  426.47
     24.0700	  539.00	  550.19	-1761.44	  426.14
     24.1700	  554.00	  553.11	-1749.36	  425.81
     24.2700	  624.00	  558.28	-1684.53	  425.49
     24.3700	  589.00	  566.60	-1727.85	  425.16
     24.4700	  576.00	  579.07	-1753.32	  424.83
     24.5700	  620.00	  596.01	-1726.26	  424.51
     24.6700	  614.00	  614.92	-1751.17	  424.18
     24.7700	  564.00	  628.53	-1814.78	  423.85
     24.8700	  648.00	  626.61	-1728.86	  423.53
     24.9700	  596.00	  607.08	-1761.33	  423.20
     25.0700	  557.00	  582.48	-1775.73	  422.88
     25.1700	  531.00	  563.72	-1782.97	  422.55
     25.2700	  574.00	  552.99	-1729.24	  422.22
     25.3700	  545.00	  547.91	-1753.16	  421.90
     25.4700	  570.00	  545.60	-1725.85	  421.57
     25.5700	  551.00	  544.39	-1743.64	  421.25
     25.6700	  574.00	  543.61	-1719.86	  420.92
     25.7700	  581.00	  543.05	-1712.30	  420.60
     25.8700	  583.00	  542.62	-1709.87	  420.28
     25.9700	  556.00	  542.30	-1736.55	  419.95
     26.0700	  547.00	  542.06	-1745.31	  419.63
     26.1700	  563.00	  541.90	-1729.15	  419.31
     26.2700	  534.00	  541.82	-1758.07	  418.98
     26.3700	  568.00	  541.81	-1724.06	  418.66
     26.4700	  533.00	  541.89	-1759.14	  418.34
     26.5700	  537.00	  542.07	-1755.32	  418.02
     26.6700	  550.00	  542.36	-1742.61	  417.70
     26.7700	  573.00	  542.79	-1720.04	  417.38
     26.8700	  563.00	  543.40	-1730.65	  417.06
     26.9700	  594.00	  544.23	-1700.48	  416.74
     27.0700	  509.00	  545.36	-1786.61	  416.42
     27.1700	  562.00	  546.94	-1735.19	  416.10
     27.2700	  599.00	  549.21	-1700.46	  415.79
     27.3700	  593.00	  552.67	-1709.92	  415.47
     27.4700	  567.00	  558.31	-1741.56	  415.15
     27.5700	  560.00	  567.88	-1758.13	  414.84
     27.6700	  559.00	  584.17	-1775.42	  414.52
     27.7700	  638.00	  610.78	-1723.03	  414.21
     27.8700	  580.00	  650.90	-1821.15	  413.89
     27.9700	  687.00	  704.76	-1768.01	  413.58
     28.0700	  709.00	  766.38	-1807.63	  413.27
     28.1700	  930.00	  820.67	-1640.92	  412.96
     28.2700	  966.00	  844.48	-1628.73	  412.65
     28.3700	  921.00	  822.91	-1652.16	  412.34
     28.4700	  800.00	  775.86	-1726.11	  412.03
     28.5700	  737.00	  739.36	-1752.61	  411.72
     28.6700	  677.00	  730.90	-1804.15	  411.41
     28.7700	  718.00	  747.22	-1779.47	  411.11
     28.8700	  812.00	  770.44	-1708.69	  410.80
     28.9700	  752.00	  774.84	-1773.09	  410.50
     29.0700	  751.00	  742.97	-1742.22	  410.19
     29.1700	  685.00	  687.06	-1752.31	  409.89
     29.2700	  632.00	  632.80	-1751.05	  409.59
     29.3700	  590.00	  593.12	-1753.37	  409.29
     29.4700	  619.00	  568.83	-1700.08	  408.99
     29.5700	  635.00	  555.56	-1670.81	  408.69
     29.6700	  613.00	  548.51	-1685.76	  408.39
     29.7700	  625.00	  544.52	-1669.77	  408.09
     29.8700	  608.00	  542.06	-1684.31	  407.80
     29.9700	  568.00	  540.52	-1722.77	  407.50
     30.0700	  600.00	  539.76	-1690.01	  407.21
     30.1700	  529.00	  539.96	-1761.21	  406.91
     30.2700	  580.00	  541.65	-1711.90	  406.62
     30.3700	  521.00	  545.88	-1775.13	  406.33
     30.4700	  567.00	  554.28	-1737.53	  406.04
     30.5700	  618.00	  568.57	-1700.82	  405.75
     30.6700	  597.00	  589.31	-1742.56	  405.46
     30.7700	  571.00	  614.09	-1793.34	  405.18
     30.8700	  648.00	  636.10	-1738.35	  404.89
     30.9700	  607.00	  644.69	-1787.94	  404.61
     31.0700	  610.00	  632.11	-1772.36	  404.32
     31.1700	  535.00	  604.68	-1819.93	  404.04
     31.2700	  548.00	  576.50	-1778.75	  403.76
     31.3700	  511.00	  555.39	-1794.64	  403.48
     31.4700	  506.00	  542.40	-1786.65	  403.20
     31.5700	  524.00	  535.40	-1761.65	  402.93
     31.6700	  527.00	  531.79	-1755.04	  402.65
     31.7700	  533.00	  529.80	-1747.05	  402.38
     31.8700	  534.00	  528.56	-1744.81	  402.10
     31.9700	  514.00	  527.70	-1763.95	  401.83
     32.0700	  601.00	  527.09	-1676.34	  401.56
     32.1700	  573.00	  526.66	-1703.91	  401.29
     32.2700	  536.00	  526.40	-1740.65	  401.02
     32.3700	  527.00	  526.29	-1749.54	  400.75
     32.4700	  544.00	  526.34	-1732.59	  400.49
     32.5700	  544.00	  526.55	-1732.80	  400.22
     32.6700	  527.00	  526.95	-1750.20	  399.96
     32.7700	  563.00	  527.59	-1714.84	  399.70
     32.8700	  542.00	  528.54	-1736.79	  399.44
     32.9700	  511.00	  529.89	-1769.14	  399.18
     33.0700	  542.00	  531.85	-1740.10	  398.92
     33.1700	  591.00	  534.86	-1694.11	  398.67
     33.2700	  565.00	  539.90	-1725.15	  398.41
     33.3700	  518.00	  549.06	-1781.31	  398.16
     33.4700	  539.00	  566.54	-1777.79	  397.90
     33.5700	  581.00	  598.89	-1768.14	  397.65
     33.6700	  683.00	  653.87	-1721.12	  397.41
     33.7700	  793.00	  735.29	-1692.54	  397.16
     33.8700	  875.00	  835.00	-1710.25	  396.91
     33.9700	  993.00	  927.18	-1684.43	  396.67
     34.0700	 1047.00	  971.13	-1674.38	  396.42
     34.1700	  953.00	  934.79	-1732.04	  396.18
     34.2700	  886.00	  836.07	-1700.32	  395.94
     34.3700	  747.00	  726.89	-1730.14	  395.70
     34.4700	  605.00	  640.98	-1786.23	  395.46
     34.5700	  613.00	  586.23	-1723.48	  395.23
     34.6700	  509.00	  556.27	-1797.52	  394.99
     34.7700	  516.00	  541.13	-1775.38	  394.76
     34.8700	  514.00	  533.27	-1769.52	  394.53
     34.9700	  522.00	  528.62	-1756.87	  394.30
     35.0700	  530.00	  525.43	-1745.68	  394.07
     35.1700	  542.00	  523.04	-1731.29	  393.84
     35.2700	  518.00	  521.17	-1753.42	  393.62
     35.3700	  479.00	  519.64	-1790.89	  393.40
     35.4700	  541.00	  518.37	-1727.62	  393.17
     35.5700	  534.00	  517.29	-1733.54	  392.95
     35.6700	  498.00	  516.37	-1768.62	  392.73
     35.7700	  483.00	  515.58	-1782.83	  392.52
     35.8700	  506.00	  514.87	-1759.12	  392.30
     35.9700	  526.00	  514.74	-1738.99	  392.09
     36.0700	  490.00	  514.19	-1774.44	  391.87
     36.1700	  525.00	  513.69	-1738.94	  391.66
     36.2700	  509.00	  513.25	-1754.50	  391.45
     36.3700	  538.00	  512.84	-1725.09	  391.25
     36.4700	  561.00	  512.48	-1701.73	  391.04
     36.5700	  528.00	  512.15	-1734.40	  390.84
     36.6700	  518.00	  511.87	-1744.12	  390.63
     36.7700	  508.00	  511.63	-1753.88	  390.43
     36.8700	  537.00	  511.45	-1724.70	  390.23
     36.9700	  511.00	  511.38	-1750.63	  390.04
     37.0700	  500.00	  511.53	-1761.78	  389.84
     37.1700	  540.00	  512.12	-1722.37	  389.65
     37.2700	  514.00	  513.45	-1749.70	  389.45
     37.3700	  537.00	  515.89	-1729.14	  389.26
     37.4700	  552.00	  519.52	-1717.77	  389.07
     37.5700	  571.00	  523.88	-1703.13	  388.88
     37.6700	  522.00	  527.83	-1756.08	  388.70
     37.7700	  548.00	  529.90	-1732.15	  388.51
     37.8700	  512.00	  529.51	-1767.76	  388.33
     37.9700	  541.00	  527.42	-1736.67	  388.15
     38.0700	  537.00	  524.33	-1737.58	  387.97
     38.1700	  503.00	  520.47	-1767.72	  387.79
     38.2700	  509.00	  516.45	-1757.70	  387.62
     38.3700	  519.00	  513.03	-1744.28	  387.44
     38.4700	  495.00	  510.55	-1765.80	  387.27
     38.5700	  515.00	  508.93	-1744.18	  387.10
     38.6700	  497.00	  507.96	-1761.21	  386.93
     38.7700	  504.00	  507.26	-1753.51	  386.76
     38.8700	  482.00	  506.86	-1775.11	  386.60
     38.9700	  473.00	  506.56	-1783.81	  386.44
     39.0700	  480.00	  506.31	-1776.56	  386.27
     39.1700	  549.00	  506.09	-1707.34	  386.11
     39.2700	  490.00	  505.82	-1766.07	  385.95
     39.3700	  522.00	  505.63	-1733.88	  385.80
     39.4700	  503.00	  505.47	-1752.72	  385.64
     39.5700	  502.00	  505.44	-1753.69	  385.49
     39.6700	  539.00	  505.29	-1716.54	  385.34
     39.7700	  513.00	  505.16	-1742.41	  385.19
     39.8700	  502.00	  505.04	-1753.29	  385.04
     39.9700	  529.00	  504.93	-1726.18	  384.89
     40.0700	  508.00	  504.83	-1747.08	  384.75
     40.1700	  514.00	  504.74	-1740.99	  384.61
     40.2700	  496.00	  504.67	-1758.92	  384.47
     40.3700	  455.00	  504.60	-1799.85	  384.33
     40.4700	  560.00	  504.55	-1694.80	  384.19
     40.5700	  503.00	  504.51	-1751.76	  384.05
     40.6700	  492.00	  504.50	-1762.75	  383.92
     40.7700	  540.00	  504.50	-1714.75	  383.79
