MSG Master    CELL:    5.91599   5.91599  23.25157   90.0000   90.0000  120.0000   SPGR: P 63/m m c             TEMP:   1012.35
  1   1280     2.52000     0.00000    -0.12359     0.00000     0.00000    0
    99     0     2
       0.00000      10.00000
     125.00000     130.00000
 2Theta	Yobs	Ycal	Yobs-Ycal	Backg	Posr	(hkl)	K
      0.7700	    0.00	  563.69	-1819.00	  449.52
      0.8700	    0.00	  564.24	-1819.00	  450.07
      0.9700	   38.00	  564.78	-1819.00	  450.61
      1.0700	   46.00	  565.31	-1819.00	  451.14
      1.1700	   36.00	  565.83	-1819.00	  451.66
      1.2700	   51.00	  566.34	-1819.00	  452.17
      1.3700	   46.00	  566.84	-1819.00	  452.67
      1.4700	  102.00	  567.34	-1819.00	  453.16
      1.5700	  289.00	  567.82	-1819.00	  453.65
      1.6700	  447.00	  568.29	-1819.00	  454.12
      1.7700	  615.00	  568.76	-1819.00	  454.58
      1.8700	  682.00	  569.21	-1819.00	  455.04
      1.9700	  773.00	  569.66	-1819.00	  455.49
      2.0700	  754.00	  570.10	-1819.00	  455.92
      2.1700	  788.00	  570.52	-1819.00	  456.35
      2.2700	  787.00	  570.94	-1819.00	  456.77
      2.3700	  725.00	  571.35	-1819.00	  457.18
      2.4700	  737.00	  571.76	-1819.00	  457.58
      2.5700	  710.00	  572.15	-1819.00	  457.98
      2.6700	  695.00	  572.53	-1819.00	  458.36
      2.7700	  627.00	  572.91	-1819.00	  458.74
      2.8700	  681.00	  573.28	-1819.00	  459.11
      2.9700	  607.00	  573.64	-1819.00	  459.46
      3.0700	  600.00	  573.99	-1819.00	  459.82
      3.1700	  580.00	  574.33	-1819.00	  460.16
      3.2700	  604.00	  574.66	-1819.00	  460.49
      3.3700	  694.00	  574.99	-1819.00	  460.82
      3.4700	  763.00	  575.31	-1819.00	  461.14
      3.5700	  806.00	  575.62	-1819.00	  461.45
      3.6700	  858.00	  575.92	-1819.00	  461.75
      3.7700	  906.00	  576.22	-1819.00	  462.04
      3.8700	  966.00	  576.50	-1819.00	  462.33
      3.9700	 1006.00	  576.78	-1819.00	  462.61
      4.0700	 1019.00	  577.05	-1819.00	  462.88
      4.1700	 1067.00	  577.31	-1819.00	  463.14
      4.2700	 1097.00	  577.57	-1819.00	  463.40
      4.3700	 1089.00	  577.82	-1819.00	  463.65
      4.4700	 1139.00	  578.06	-1819.00	  463.89
      4.5700	 1043.00	  578.29	-1819.00	  464.12
      4.6700	 1024.00	  578.52	-1819.00	  464.34
      4.7700	  969.00	  578.73	-1819.00	  464.56
      4.8700	  963.00	  578.95	-1819.00	  464.77
      4.9700	  944.00	  579.15	-1819.00	  464.98
      5.0700	  961.00	  579.35	-1819.00	  465.17
      5.1700	  946.00	  579.53	-1819.00	  465.36
      5.2700	  908.00	  579.72	-1819.00	  465.55
      5.3700	  862.00	  579.89	-1819.00	  465.72
      5.4700	  877.00	  580.06	-1819.00	  465.89
      5.5700	  850.00	  580.22	-1819.00	  466.05
      5.6700	  845.00	  580.38	-1819.00	  466.21
      5.7700	  819.00	  580.53	-1819.00	  466.35
      5.8700	  797.00	  580.67	-1819.00	  466.50
      5.9700	  850.00	  580.80	-1819.00	  466.63
      6.0700	  822.00	  580.93	-1819.00	  466.76
      6.1700	  819.00	  581.05	-1819.00	  466.88
      6.2700	  779.00	  581.17	-1819.00	  467.00
      6.3700	  725.00	  581.28	-1819.00	  467.10
      6.4700	  731.00	  581.38	-1819.00	  467.21
      6.5700	  734.00	  581.48	-1819.00	  467.30
      6.6700	  764.00	  581.57	-1819.00	  467.39
      6.7700	  796.00	  581.65	-1819.00	  467.48
      6.8700	  728.00	  581.73	-1819.00	  467.55
      6.9700	  703.00	  581.80	-1819.00	  467.63
      7.0700	  705.00	  581.86	-1819.00	  467.69
      7.1700	  660.00	  581.92	-1819.00	  467.75
      7.2700	  689.00	  581.98	-1819.00	  467.80
      7.3700	  667.00	  582.02	-1819.00	  467.85
      7.4700	  638.00	  582.07	-1819.00	  467.89
      7.5700	  606.00	  582.10	-1819.00	  467.93
      7.6700	  645.00	  582.13	-1819.00	  467.96
      7.7700	  630.00	  582.16	-1819.00	  467.98
      7.8700	  606.00	  582.18	-1819.00	  468.00
      7.9700	  614.00	  582.19	-1819.00	  468.02
      8.0700	  632.00	  582.20	-1819.00	  468.02
      8.1700	  612.00	  582.20	-1819.00	  468.03
      8.2700	  673.00	  582.20	-1819.00	  468.02
      8.3700	  605.00	  582.19	-1819.00	  468.02
      8.4700	  612.00	  582.17	-1819.00	  468.00
      8.5700	  605.00	  582.15	-1819.00	  467.98
      8.6700	  606.00	  582.13	-1819.00	  467.96
      8.7700	  639.00	  582.10	-1819.00	  467.93
      8.8700	  638.00	  582.07	-1819.00	  467.89
      8.9700	  650.00	  582.03	-1819.00	  467.86
      9.0700	  612.00	  581.98	-1819.00	  467.81
      9.1700	  665.00	  581.93	-1819.00	  467.76
      9.2700	  620.00	  581.88	-1819.00	  467.71
      9.3700	  611.00	  581.82	-1819.00	  467.65
      9.4700	  632.00	  581.76	-1819.00	  467.58
      9.5700	  604.00	  581.69	-1819.00	  467.51
      9.6700	  634.00	  581.61	-1819.00	  467.44
      9.7700	  646.00	  581.53	-1819.00	  467.36
      9.8700	  627.00	  581.45	-1819.00	  467.28
      9.9700	  589.00	  581.36	-1819.00	  467.19
     10.0700	  648.00	  582.18	-1753.18	  467.10
     10.1700	  600.00	  582.18	-1801.18	  467.00
     10.2700	  566.00	  582.19	-1835.19	  466.90
     10.3700	  596.00	  582.22	-1805.22	  466.80
     10.4700	  597.00	  582.32	-1804.32	  466.69
     10.5700	  595.00	  582.51	-1806.51	  466.57
     10.6700	  578.00	  582.90	-1823.90	  466.46
     10.7700	  594.00	  583.58	-1808.58	  466.33
     10.8700	  573.00	  584.65	-1830.65	  466.21
     10.9700	  566.00	  586.09	-1839.09	  466.07
     11.0700	  592.00	  587.89	-1814.89	  465.94
     11.1700	  572.00	  590.03	-1837.03	  465.80
     11.2700	  597.00	  592.55	-1814.55	  465.66
     11.3700	  644.00	  595.51	-1770.51	  465.51
     11.4700	  555.00	  599.04	-1863.04	  465.36
     11.5700	  591.00	  603.33	-1831.33	  465.21
     11.6700	  588.00	  608.69	-1839.69	  465.05
     11.7700	  636.00	  615.70	-1798.70	  464.88
     11.8700	  671.00	  625.16	-1773.16	  464.72
     11.9700	  626.00	  637.68	-1830.68	  464.55
     12.0700	  632.00	  652.02	-1839.02	  464.38
     12.1700	  692.00	  662.98	-1789.98	  464.20
     12.2700	  689.00	  661.73	-1791.73	  464.02
     12.3700	  676.00	  643.92	-1786.92	  463.83
     12.4700	  618.00	  619.74	-1820.74	  463.65
     12.5700	  646.00	  600.78	-1773.78	  463.46
     12.6700	  561.00	  589.75	-1847.75	  463.26
     12.7700	  606.00	  584.40	-1797.40	  463.06
     12.8700	  610.00	  581.89	-1790.89	  462.86
     12.9700	  548.00	  580.51	-1851.51	  462.66
     13.0700	  568.00	  579.58	-1830.58	  462.45
     13.1700	  577.00	  578.86	-1820.86	  462.24
     13.2700	  522.00	  578.27	-1875.27	  462.03
     13.3700	  567.00	  577.76	-1829.76	  461.81
     13.4700	  538.00	  577.31	-1858.31	  461.59
     13.5700	  571.00	  576.91	-1824.91	  461.37
     13.6700	  584.00	  576.54	-1811.54	  461.14
     13.7700	  607.00	  576.19	-1788.19	  460.91
     13.8700	  546.00	  575.86	-1848.86	  460.68
     13.9700	  601.00	  575.54	-1793.54	  460.45
     14.0700	  566.00	  575.23	-1828.23	  460.21
     14.1700	  563.00	  574.93	-1830.93	  459.97
     14.2700	  567.00	  574.63	-1826.63	  459.72
     14.3700	  573.00	  574.34	-1820.34	  459.48
     14.4700	  520.00	  574.05	-1873.05	  459.23
     14.5700	  569.00	  573.77	-1823.77	  458.98
     14.6700	  556.00	  573.48	-1836.48	  458.72
     14.7700	  550.00	  573.20	-1842.20	  458.47
     14.8700	  571.00	  572.92	-1820.92	  458.21
     14.9700	  548.00	  572.63	-1843.63	  457.95
     15.0700	  579.00	  572.35	-1812.35	  457.68
     15.1700	  553.00	  572.06	-1838.06	  457.42
     15.2700	  618.00	  571.78	-1772.78	  457.15
     15.3700	  589.00	  571.49	-1801.49	  456.88
     15.4700	  576.00	  571.21	-1814.21	  456.61
     15.5700	  593.00	  570.92	-1796.92	  456.33
     15.6700	  538.00	  570.63	-1851.63	  456.05
     15.7700	  570.00	  570.34	-1819.34	  455.77
     15.8700	  554.00	  570.05	-1835.05	  455.49
     15.9700	  544.00	  569.78	-1844.78	  455.21
     16.0700	  575.00	  569.49	-1813.49	  454.92
     16.1700	  550.00	  569.19	-1838.19	  454.63
     16.2700	  587.00	  568.90	-1800.90	  454.34
     16.3700	  536.00	  568.60	-1851.60	  454.05
     16.4700	  580.00	  568.30	-1807.30	  453.75
     16.5700	  547.00	  568.00	-1840.00	  453.46
     16.6700	  545.00	  567.70	-1841.70	  453.16
     16.7700	  554.00	  567.39	-1832.39	  452.86
     16.8700	  526.00	  567.09	-1860.09	  452.56
     16.9700	  590.00	  566.78	-1795.78	  452.25
     17.0700	  548.00	  566.47	-1837.47	  451.95
     17.1700	  575.00	  566.16	-1810.16	  451.64
     17.2700	  588.00	  565.85	-1796.85	  451.33
     17.3700	  566.00	  565.54	-1818.54	  451.02
     17.4700	  561.00	  565.22	-1823.22	  450.71
     17.5700	  614.00	  564.91	-1769.91	  450.40
     17.6700	  566.00	  564.59	-1817.59	  450.08
     17.7700	  589.00	  564.27	-1794.27	  449.76
     17.8700	  575.00	  563.95	-1807.95	  449.45
     17.9700	  551.00	  563.73	-1831.73	  449.13
     18.0700	  544.00	  563.41	-1838.41	  448.80
     18.1700	  527.00	  563.09	-1855.09	  448.48
     18.2700	  552.00	  562.77	-1829.77	  448.16
     18.3700	  552.00	  562.44	-1829.44	  447.83
     18.4700	  542.00	  562.12	-1839.12	  447.51
     18.5700	  611.00	  561.79	-1769.79	  447.18
     18.6700	  581.00	  561.47	-1799.47	  446.85
     18.7700	  573.00	  561.14	-1807.14	  446.52
     18.8700	  541.00	  560.91	-1838.91	  446.19
     18.9700	  567.00	  560.58	-1812.58	  445.85
     19.0700	  568.00	  560.25	-1811.25	  445.52
     19.1700	  589.00	  559.92	-1789.92	  445.19
     19.2700	  574.00	  559.59	-1804.59	  444.85
     19.3700	  564.00	  559.26	-1814.26	  444.51
     19.4700	  528.00	  558.93	-1849.93	  444.17
     19.5700	  556.00	  558.60	-1821.60	  443.84
     19.6700	  579.00	  558.27	-1798.27	  443.50
     19.7700	  581.00	  557.94	-1795.94	  443.15
     19.8700	  540.00	  557.60	-1836.60	  442.81
     19.9700	  594.00	  557.27	-1782.27	  442.47
     20.0700	  578.00	  556.93	-1797.93	  442.13
     20.1700	  499.00	  556.60	-1876.60	  441.78
     20.2700	  552.00	  556.27	-1823.27	  441.44
     20.3700	  561.00	  555.93	-1813.93	  441.09
     20.4700	  566.00	  555.56	-1808.56	  440.74
     20.5700	  533.00	  555.23	-1841.23	  440.40
     20.6700	  552.00	  554.89	-1821.89	  440.05
     20.7700	  550.00	  554.59	-1823.59	  439.70
     20.8700	  540.00	  554.26	-1833.26	  439.35
     20.9700	  541.00	  553.93	-1831.93	  439.00
     21.0700	  564.00	  553.59	-1808.59	  438.65
     21.1700	  570.00	  553.26	-1802.26	  438.30
     21.2700	  529.00	  552.93	-1842.93	  437.95
     21.3700	  569.00	  552.60	-1802.60	  437.59
     21.4700	  585.00	  552.27	-1786.27	  437.24
     21.5700	  534.00	  551.94	-1836.94	  436.89
     21.6700	  504.00	  551.61	-1866.61	  436.54
     21.7700	  565.00	  551.29	-1805.29	  436.18
     21.8700	  552.00	  550.96	-1817.96	  435.83
     21.9700	  559.00	  550.64	-1810.64	  435.47
     22.0700	  554.00	  550.32	-1815.32	  435.12
     22.1700	  547.00	  550.00	-1822.00	  434.76
     22.2700	  543.00	  549.69	-1825.69	  434.41
     22.3700	  563.00	  549.38	-1805.38	  434.05
     22.4700	  583.00	  549.07	-1785.07	  433.70
     22.5700	  589.00	  548.77	-1778.77	  433.34
     22.6700	  544.00	  548.48	-1823.48	  432.98
     22.7700	  537.00	  548.19	-1830.19	  432.63
     22.8700	  553.00	  547.91	-1813.91	  432.27
     22.9700	  525.00	  547.64	-1841.64	  431.91
     23.0700	  598.00	  547.38	-1768.38	  431.56
     23.1700	  511.00	  547.13	-1855.13	  431.20
     23.2700	  548.00	  546.91	-1817.91	  430.84
     23.3700	  496.00	  546.71	-1869.71	  430.49
     23.4700	  508.00	  546.55	-1857.55	  430.13
     23.5700	  520.00	  546.56	-1845.56	  429.77
     23.6700	  574.00	  546.50	-1791.50	  429.41
     23.7700	  576.00	  546.55	-1789.55	  429.06
     23.8700	  569.00	  546.77	-1796.77	  428.70
     23.9700	  561.00	  547.34	-1805.34	  428.34
     24.0700	  535.00	  548.60	-1832.60	  427.99
     24.1700	  526.00	  551.10	-1844.10	  427.63
     24.2700	  577.00	  555.56	-1797.56	  427.28
     24.3700	  587.00	  562.81	-1794.81	  426.92
     24.4700	  602.00	  573.74	-1790.74	  426.56
     24.5700	  504.00	  588.71	-1903.71	  426.21
     24.6700	  577.00	  606.01	-1848.01	  425.85
     24.7700	  634.00	  619.94	-1804.94	  425.50
     24.8700	  616.00	  621.50	-1824.50	  425.14
     24.9700	  612.00	  606.36	-1813.36	  424.79
     25.0700	  590.00	  583.80	-1812.80	  424.43
     25.1700	  559.00	  564.93	-1824.93	  424.08
     25.2700	  513.00	  553.24	-1859.24	  423.73
     25.3700	  591.00	  547.28	-1775.28	  423.37
     25.4700	  513.00	  544.48	-1850.48	  423.02
     25.5700	  544.00	  543.03	-1818.03	  422.67
     25.6700	  526.00	  542.13	-1835.13	  422.32
     25.7700	  548.00	  541.48	-1812.48	  421.97
     25.8700	  521.00	  540.99	-1838.99	  421.62
     25.9700	  546.00	  540.62	-1813.62	  421.27
     26.0700	  552.00	  540.34	-1807.34	  420.92
     26.1700	  523.00	  540.13	-1836.13	  420.57
     26.2700	  569.00	  540.01	-1790.01	  420.22
     26.3700	  572.00	  539.97	-1786.97	  419.87
     26.4700	  562.00	  540.01	-1797.01	  419.52
     26.5700	  547.00	  540.14	-1812.14	  419.18
     26.6700	  539.00	  540.38	-1820.38	  418.83
     26.7700	  529.00	  540.76	-1830.76	  418.48
     26.8700	  586.00	  541.31	-1774.31	  418.14
     26.9700	  585.00	  542.06	-1776.06	  417.80
     27.0700	  539.00	  543.11	-1823.11	  417.45
     27.1700	  574.00	  544.56	-1789.56	  417.11
     27.2700	  579.00	  546.62	-1786.62	  416.77
     27.3700	  578.00	  549.73	-1790.73	  416.43
     27.4700	  494.00	  554.74	-1879.74	  416.09
     27.5700	  593.00	  563.19	-1789.19	  415.75
     27.6700	  549.00	  577.56	-1847.56	  415.41
     27.7700	  584.00	  601.19	-1836.19	  415.07
     27.8700	  565.00	  637.30	-1891.30	  414.73
     27.9700	  708.00	  686.70	-1797.70	  414.40
     28.0700	  752.00	  744.90	-1811.90	  414.06
     28.1700	  883.00	  799.16	-1735.16	  413.73
     28.2700	  918.00	  828.73	-1729.73	  413.39
     28.3700	  902.00	  817.49	-1734.49	  413.06
     28.4700	  861.00	  780.41	-1738.41	  412.73
     28.5700	  731.00	  752.71	-1840.71	  412.40
     28.6700	  700.00	  754.06	-1873.06	  412.07
     28.7700	  761.00	  782.32	-1840.32	  411.74
     28.8700	  789.00	  818.49	-1848.49	  411.41
     28.9700	  897.00	  832.70	-1754.70	  411.08
     29.0700	  798.00	  800.90	-1821.90	  410.75
     29.1700	  735.00	  733.66	-1817.66	  410.43
     29.2700	  667.00	  664.04	-1816.04	  410.11
     29.3700	  575.00	  611.32	-1855.32	  409.78
     29.4700	  612.00	  578.28	-1785.28	  409.46
     29.5700	  640.00	  560.01	-1739.01	  409.14
     29.6700	  591.00	  550.35	-1778.35	  408.82
     29.7700	  622.00	  544.98	-1741.98	  408.50
     29.8700	  592.00	  541.69	-1768.69	  408.18
     29.9700	  584.00	  539.56	-1774.56	  407.87
     30.0700	  569.00	  538.32	-1788.32	  407.55
     30.1700	  609.00	  538.03	-1748.03	  407.24
     30.2700	  595.00	  539.11	-1763.11	  406.92
     30.3700	  569.00	  542.44	-1792.44	  406.61
     30.4700	  557.00	  549.43	-1811.43	  406.30
     30.5700	  564.00	  561.71	-1816.71	  405.99
     30.6700	  613.00	  580.02	-1786.02	  405.68
     30.7700	  577.00	  602.65	-1844.65	  405.38
     30.8700	  587.00	  623.99	-1855.99	  405.07
     30.9700	  626.00	  634.67	-1827.67	  404.77
     31.0700	  593.00	  626.22	-1852.22	  404.46
     31.1700	  565.00	  602.10	-1856.10	  404.16
     31.2700	  552.00	  575.24	-1842.24	  403.86
     31.3700	  550.00	  554.14	-1823.14	  403.56
     31.4700	  530.00	  540.64	-1829.64	  403.26
     31.5700	  529.00	  533.14	-1823.14	  402.96
     31.6700	  548.00	  529.22	-1800.22	  402.67
     31.7700	  523.00	  527.08	-1823.07	  402.37
     31.8700	  539.00	  525.76	-1805.76	  402.08
     31.9700	  523.00	  524.86	-1820.86	  401.79
     32.0700	  553.00	  524.22	-1790.22	  401.50
     32.1700	  541.00	  523.77	-1801.77	  401.21
     32.2700	  573.00	  523.49	-1769.49	  400.92
     32.3700	  534.00	  523.37	-1808.37	  400.64
     32.4700	  524.00	  523.41	-1818.41	  400.35
     32.5700	  511.00	  523.62	-1831.62	  400.07
     32.6700	  563.00	  524.03	-1780.03	  399.79
     32.7700	  529.00	  524.67	-1814.67	  399.51
     32.8700	  562.00	  525.62	-1782.62	  399.23
     32.9700	  521.00	  526.98	-1824.98	  398.95
     33.0700	  531.00	  528.94	-1816.94	  398.67
     33.1700	  532.00	  531.89	-1818.89	  398.40
     33.2700	  535.00	  536.72	-1820.72	  398.12
     33.3700	  575.00	  545.34	-1789.34	  397.85
     33.4700	  604.00	  561.48	-1776.48	  397.58
     33.5700	  604.00	  591.37	-1806.37	  397.31
     33.6700	  622.00	  642.68	-1839.68	  397.05
     33.7700	  748.00	  720.37	-1791.37	  396.78
     33.8700	  874.00	  819.01	-1764.01	  396.52
     33.9700	 1054.00	  916.38	-1681.38	  396.25
     34.0700	 1068.00	  973.98	-1724.98	  395.99
     34.1700	 1009.00	  954.64	-1764.64	  395.73
     34.2700	  917.00	  864.27	-1766.27	  395.47
     34.3700	  774.00	  752.53	-1797.53	  395.22
     34.4700	  691.00	  659.01	-1787.01	  394.96
     34.5700	  599.00	  596.36	-1816.36	  394.71
     34.6700	  526.00	  560.58	-1853.58	  394.46
     34.7700	  537.00	  542.04	-1824.04	  394.21
     34.8700	  498.00	  532.43	-1853.43	  393.96
     34.9700	  553.00	  526.90	-1792.90	  393.71
     35.0700	  553.00	  523.25	-1789.25	  393.47
     35.1700	  512.00	  520.53	-1827.53	  393.22
     35.2700	  472.00	  518.41	-1865.41	  392.98
     35.3700	  510.00	  516.69	-1825.69	  392.74
     35.4700	  535.00	  515.27	-1799.27	  392.50
     35.5700	  524.00	  514.08	-1809.08	  392.26
     35.6700	  508.00	  513.06	-1824.06	  392.03
     35.7700	  484.00	  512.18	-1847.18	  391.79
     35.8700	  428.00	  511.41	-1902.41	  391.56
     35.9700	  490.00	  511.20	-1840.20	  391.33
     36.0700	  524.00	  510.60	-1805.60	  391.10
     36.1700	  508.00	  510.05	-1821.05	  390.87
     36.2700	  519.00	  509.56	-1809.56	  390.65
     36.3700	  509.00	  509.12	-1819.12	  390.42
     36.4700	  522.00	  508.72	-1805.72	  390.20
     36.5700	  510.00	  508.35	-1817.35	  389.98
     36.6700	  506.00	  508.04	-1821.04	  389.76
     36.7700	  570.00	  507.76	-1756.76	  389.54
     36.8700	  560.00	  507.56	-1766.56	  389.33
     36.9700	  519.00	  507.45	-1807.45	  389.11
     37.0700	  479.00	  507.54	-1847.54	  388.90
     37.1700	  471.00	  508.02	-1856.02	  388.69
     37.2700	  539.00	  509.19	-1789.19	  388.48
     37.3700	  533.00	  511.39	-1797.39	  388.27
     37.4700	  488.00	  514.80	-1845.80	  388.07
     37.5700	  488.00	  519.10	-1850.10	  387.87
     37.6700	  554.00	  523.26	-1788.26	  387.66
     37.7700	  507.00	  525.75	-1837.75	  387.46
     37.8700	  540.00	  525.52	-1804.52	  387.26
     37.9700	  530.00	  523.14	-1812.14	  387.07
     38.0700	  521.00	  519.73	-1817.73	  386.87
     38.1700	  484.00	  515.86	-1850.86	  386.68
     38.2700	  512.00	  511.99	-1818.99	  386.49
     38.3700	  511.00	  508.73	-1816.73	  386.30
     38.4700	  514.00	  506.33	-1811.33	  386.11
     38.5700	  541.00	  504.73	-1782.73	  385.92
     38.6700	  494.00	  503.72	-1828.72	  385.74
     38.7700	  468.00	  502.99	-1853.99	  385.56
     38.8700	  497.00	  502.56	-1824.56	  385.38
     38.9700	  563.00	  502.23	-1758.23	  385.20
     39.0700	  459.00	  501.95	-1861.95	  385.02
     39.1700	  483.00	  501.71	-1837.71	  384.84
     39.2700	  514.00	  501.39	-1806.39	  384.67
     39.3700	  491.00	  501.32	-1829.32	  384.50
     39.4700	  546.00	  501.13	-1774.13	  384.33
     39.5700	  485.00	  500.96	-1834.96	  384.16
     39.6700	  479.00	  500.80	-1840.80	  383.99
     39.7700	  493.00	  500.65	-1826.65	  383.83
     39.8700	  502.00	  500.51	-1817.51	  383.66
     39.9700	  506.00	  500.38	-1813.38	  383.50
     40.0700	  477.00	  500.26	-1842.26	  383.34
     40.1700	  484.00	  500.15	-1835.15	  383.18
     40.2700	  491.00	  500.06	-1828.06	  383.03
     40.3700	  495.00	  499.97	-1823.97	  382.87
     40.4700	  465.00	  499.90	-1853.90	  382.72
     40.5700	  501.00	  499.84	-1817.84	  382.57
     40.6700	  511.00	  499.80	-1807.80	  382.42
     40.7700	  529.00	  499.78	-1789.78	  382.27
