MSG Master    CELL:    5.91916   5.91916  23.27280   90.0000   90.0000  120.0000   SPGR: P 63/m m c             TEMP:   1074.95
  1   1280     2.52000     0.00000    -0.12732     0.00000     0.00000    0
    99     0     2
       0.00000      10.00000
     125.00000     130.00000
 2Theta	Yobs	Ycal	Yobs-Ycal	Backg	Posr	(hkl)	K
      0.7700	    0.00	  552.57	-1753.50	  433.89
      0.8700	    0.00	  553.24	-1753.50	  434.56
      0.9700	   36.00	  553.90	-1753.50	  435.22
      1.0700	   39.00	  554.55	-1753.50	  435.87
      1.1700	   45.00	  555.20	-1753.50	  436.52
      1.2700	   41.00	  555.83	-1753.50	  437.15
      1.3700	   43.00	  556.45	-1753.50	  437.77
      1.4700	  119.00	  557.06	-1753.50	  438.38
      1.5700	  283.00	  557.66	-1753.50	  438.98
      1.6700	  473.00	  558.25	-1753.50	  439.57
      1.7700	  559.00	  558.83	-1753.50	  440.15
      1.8700	  686.00	  559.40	-1753.50	  440.72
      1.9700	  739.00	  559.97	-1753.50	  441.29
      2.0700	  773.00	  560.52	-1753.50	  441.84
      2.1700	  787.00	  561.06	-1753.50	  442.38
      2.2700	  783.00	  561.59	-1753.50	  442.91
      2.3700	  716.00	  562.11	-1753.50	  443.44
      2.4700	  692.00	  562.63	-1753.50	  443.95
      2.5700	  721.00	  563.13	-1753.50	  444.45
      2.6700	  661.00	  563.63	-1753.50	  444.95
      2.7700	  653.00	  564.11	-1753.50	  445.43
      2.8700	  675.00	  564.59	-1753.50	  445.91
      2.9700	  614.00	  565.06	-1753.50	  446.38
      3.0700	  640.00	  565.51	-1753.50	  446.83
      3.1700	  587.00	  565.96	-1753.50	  447.28
      3.2700	  642.00	  566.40	-1753.50	  447.72
      3.3700	  657.00	  566.83	-1753.50	  448.16
      3.4700	  778.00	  567.26	-1753.50	  448.58
      3.5700	  805.00	  567.67	-1753.50	  448.99
      3.6700	  826.00	  568.08	-1753.50	  449.40
      3.7700	  897.00	  568.47	-1753.50	  449.79
      3.8700	  922.00	  568.86	-1753.50	  450.18
      3.9700	 1004.00	  569.24	-1753.50	  450.56
      4.0700	  990.00	  569.61	-1753.50	  450.93
      4.1700	 1114.00	  569.97	-1753.50	  451.29
      4.2700	 1089.00	  570.33	-1753.50	  451.65
      4.3700	 1068.00	  570.67	-1753.50	  452.00
      4.4700	 1069.00	  571.01	-1753.50	  452.33
      4.5700	 1033.00	  571.34	-1753.50	  452.66
      4.6700	 1014.00	  571.67	-1753.50	  452.99
      4.7700	 1025.00	  571.98	-1753.50	  453.30
      4.8700	 1002.00	  572.29	-1753.50	  453.61
      4.9700	  978.00	  572.58	-1753.50	  453.90
      5.0700	  949.00	  572.87	-1753.50	  454.19
      5.1700	  896.00	  573.16	-1753.50	  454.48
      5.2700	  865.00	  573.43	-1753.50	  454.75
      5.3700	  893.00	  573.70	-1753.50	  455.02
      5.4700	  836.00	  573.96	-1753.50	  455.28
      5.5700	  853.00	  574.21	-1753.50	  455.53
      5.6700	  876.00	  574.46	-1753.50	  455.78
      5.7700	  880.00	  574.69	-1753.50	  456.01
      5.8700	  852.00	  574.92	-1753.50	  456.25
      5.9700	  831.00	  575.15	-1753.50	  456.47
      6.0700	  836.00	  575.36	-1753.50	  456.68
      6.1700	  772.00	  575.57	-1753.50	  456.89
      6.2700	  763.00	  575.77	-1753.50	  457.09
      6.3700	  775.00	  575.97	-1753.50	  457.29
      6.4700	  803.00	  576.16	-1753.50	  457.48
      6.5700	  721.00	  576.34	-1753.50	  457.66
      6.6700	  784.00	  576.51	-1753.50	  457.83
      6.7700	  731.00	  576.68	-1753.50	  458.00
      6.8700	  727.00	  576.84	-1753.50	  458.16
      6.9700	  741.00	  576.99	-1753.50	  458.31
      7.0700	  679.00	  577.14	-1753.50	  458.46
      7.1700	  716.00	  577.28	-1753.50	  458.60
      7.2700	  673.00	  577.41	-1753.50	  458.73
      7.3700	  681.00	  577.54	-1753.50	  458.86
      7.4700	  701.00	  577.66	-1753.50	  458.98
      7.5700	  636.00	  577.78	-1753.50	  459.10
      7.6700	  668.00	  577.89	-1753.50	  459.21
      7.7700	  647.00	  577.99	-1753.50	  459.31
      7.8700	  642.00	  578.08	-1753.50	  459.41
      7.9700	  642.00	  578.17	-1753.50	  459.50
      8.0700	  676.00	  578.26	-1753.50	  459.58
      8.1700	  648.00	  578.34	-1753.50	  459.66
      8.2700	  652.00	  578.41	-1753.50	  459.73
      8.3700	  651.00	  578.47	-1753.50	  459.80
      8.4700	  630.00	  578.54	-1753.50	  459.86
      8.5700	  644.00	  578.59	-1753.50	  459.91
      8.6700	  645.00	  578.64	-1753.50	  459.96
      8.7700	  620.00	  578.68	-1753.50	  460.00
      8.8700	  586.00	  578.72	-1753.50	  460.04
      8.9700	  629.00	  578.75	-1753.50	  460.07
      9.0700	  580.00	  578.78	-1753.50	  460.10
      9.1700	  605.00	  578.80	-1753.50	  460.12
      9.2700	  601.00	  578.81	-1753.50	  460.13
      9.3700	  634.00	  578.82	-1753.50	  460.14
      9.4700	  594.00	  578.83	-1753.50	  460.15
      9.5700	  618.00	  578.83	-1753.50	  460.15
      9.6700	  580.00	  578.82	-1753.50	  460.14
      9.7700	  592.00	  578.81	-1753.50	  460.13
      9.8700	  621.00	  578.79	-1753.50	  460.11
      9.9700	  601.00	  578.77	-1753.50	  460.09
     10.0700	  580.00	  579.54	-1753.04	  460.07
     10.1700	  566.00	  579.59	-1767.09	  460.04
     10.2700	  645.00	  579.66	-1688.16	  460.00
     10.3700	  558.00	  579.76	-1775.26	  459.96
     10.4700	  581.00	  579.91	-1752.41	  459.91
     10.5700	  576.00	  580.17	-1757.67	  459.86
     10.6700	  593.00	  580.65	-1741.15	  459.81
     10.7700	  621.00	  581.45	-1713.95	  459.75
     10.8700	  582.00	  582.65	-1754.15	  459.68
     10.9700	  547.00	  584.24	-1790.74	  459.61
     11.0700	  596.00	  586.18	-1743.68	  459.54
     11.1700	  576.00	  588.47	-1765.97	  459.46
     11.2700	  617.00	  591.14	-1727.64	  459.38
     11.3700	  576.00	  594.27	-1771.77	  459.29
     11.4700	  627.00	  598.01	-1724.51	  459.20
     11.5700	  591.00	  602.55	-1765.05	  459.10
     11.6700	  630.00	  608.26	-1731.76	  459.00
     11.7700	  639.00	  615.76	-1730.26	  458.90
     11.8700	  668.00	  626.03	-1711.53	  458.79
     11.9700	  668.00	  639.77	-1725.27	  458.67
     12.0700	  711.00	  655.36	-1697.86	  458.56
     12.1700	  681.00	  666.35	-1738.85	  458.44
     12.2700	  700.00	  662.57	-1716.07	  458.31
     12.3700	  619.00	  641.18	-1775.68	  458.18
     12.4700	  646.00	  615.40	-1722.90	  458.05
     12.5700	  637.00	  596.77	-1713.27	  457.91
     12.6700	  609.00	  586.79	-1731.29	  457.77
     12.7700	  546.00	  582.32	-1789.82	  457.63
     12.8700	  587.00	  580.30	-1746.80	  457.48
     12.9700	  590.00	  579.18	-1742.68	  457.33
     13.0700	  530.00	  578.41	-1801.91	  457.17
     13.1700	  564.00	  577.81	-1767.31	  457.02
     13.2700	  530.00	  577.32	-1800.82	  456.85
     13.3700	  566.00	  576.90	-1764.40	  456.69
     13.4700	  573.00	  576.53	-1757.03	  456.52
     13.5700	  575.00	  576.20	-1754.70	  456.34
     13.6700	  564.00	  575.89	-1765.39	  456.17
     13.7700	  538.00	  575.61	-1791.11	  455.99
     13.8700	  570.00	  575.34	-1758.84	  455.81
     13.9700	  574.00	  575.08	-1754.58	  455.62
     14.0700	  555.00	  574.83	-1773.33	  455.43
     14.1700	  546.00	  574.58	-1782.08	  455.24
     14.2700	  543.00	  574.34	-1784.84	  455.04
     14.3700	  610.00	  574.10	-1717.60	  454.84
     14.4700	  589.00	  573.86	-1738.36	  454.64
     14.5700	  558.00	  573.63	-1769.13	  454.44
     14.6700	  544.00	  573.39	-1782.89	  454.23
     14.7700	  621.00	  573.15	-1705.65	  454.02
     14.8700	  600.00	  572.92	-1726.42	  453.80
     14.9700	  559.00	  572.68	-1767.18	  453.59
     15.0700	  550.00	  572.45	-1775.95	  453.37
     15.1700	  567.00	  572.21	-1758.71	  453.15
     15.2700	  557.00	  571.97	-1768.47	  452.92
     15.3700	  542.00	  571.73	-1783.23	  452.69
     15.4700	  546.00	  571.49	-1778.99	  452.46
     15.5700	  574.00	  571.24	-1750.74	  452.23
     15.6700	  533.00	  571.00	-1791.50	  451.99
     15.7700	  558.00	  570.75	-1766.25	  451.76
     15.8700	  526.00	  570.50	-1798.00	  451.52
     15.9700	  564.00	  570.25	-1759.75	  451.27
     16.0700	  581.00	  570.00	-1742.50	  451.03
     16.1700	  568.00	  569.74	-1755.24	  450.78
     16.2700	  579.00	  569.51	-1744.01	  450.53
     16.3700	  561.00	  569.26	-1761.76	  450.28
     16.4700	  530.00	  569.00	-1792.50	  450.02
     16.5700	  567.00	  568.73	-1755.23	  449.76
     16.6700	  566.00	  568.47	-1755.97	  449.50
     16.7700	  567.00	  568.21	-1754.71	  449.24
     16.8700	  539.00	  567.94	-1782.44	  448.98
     16.9700	  554.00	  567.67	-1767.17	  448.71
     17.0700	  596.00	  567.40	-1724.90	  448.45
     17.1700	  567.00	  567.13	-1753.63	  448.18
     17.2700	  568.00	  566.85	-1752.35	  447.90
     17.3700	  545.00	  566.58	-1775.08	  447.63
     17.4700	  573.00	  566.30	-1746.80	  447.35
     17.5700	  531.00	  566.02	-1788.52	  447.08
     17.6700	  551.00	  565.74	-1768.24	  446.80
     17.7700	  545.00	  565.46	-1773.96	  446.51
     17.8700	  567.00	  565.17	-1751.67	  446.23
     17.9700	  591.00	  564.99	-1727.49	  445.95
     18.0700	  574.00	  564.70	-1744.20	  445.66
     18.1700	  520.00	  564.41	-1797.91	  445.37
     18.2700	  560.00	  564.13	-1757.63	  445.08
     18.3700	  544.00	  563.84	-1773.34	  444.79
     18.4700	  570.00	  563.54	-1747.04	  444.49
     18.5700	  565.00	  563.25	-1751.75	  444.20
     18.6700	  572.00	  562.96	-1744.46	  443.90
     18.7700	  576.00	  562.66	-1740.16	  443.60
     18.8700	  570.00	  562.37	-1745.87	  443.31
     18.9700	  562.00	  562.16	-1753.66	  443.00
     19.0700	  547.00	  561.86	-1768.36	  442.70
     19.1700	  561.00	  561.56	-1754.06	  442.40
     19.2700	  553.00	  561.26	-1761.76	  442.09
     19.3700	  566.00	  560.96	-1748.46	  441.79
     19.4700	  541.00	  560.66	-1773.16	  441.48
     19.5700	  545.00	  560.36	-1768.86	  441.17
     19.6700	  551.00	  560.06	-1762.56	  440.86
     19.7700	  578.00	  559.76	-1735.26	  440.55
     19.8700	  538.00	  559.45	-1774.95	  440.23
     19.9700	  551.00	  559.15	-1761.65	  439.92
     20.0700	  582.00	  558.84	-1730.34	  439.61
     20.1700	  558.00	  558.53	-1754.03	  439.29
     20.2700	  534.00	  558.23	-1777.73	  438.97
     20.3700	  574.00	  557.92	-1737.42	  438.65
     20.4700	  573.00	  557.61	-1738.11	  438.34
     20.5700	  556.00	  557.27	-1754.77	  438.02
     20.6700	  570.00	  556.97	-1740.47	  437.69
     20.7700	  542.00	  556.66	-1768.16	  437.37
     20.8700	  570.00	  556.35	-1739.85	  437.05
     20.9700	  548.00	  556.08	-1761.58	  436.73
     21.0700	  573.00	  555.77	-1736.27	  436.40
     21.1700	  532.00	  555.47	-1776.97	  436.08
     21.2700	  573.00	  555.16	-1735.66	  435.75
     21.3700	  564.00	  554.86	-1744.36	  435.42
     21.4700	  547.00	  554.55	-1761.05	  435.10
     21.5700	  541.00	  554.25	-1766.75	  434.77
     21.6700	  555.00	  553.94	-1752.44	  434.44
     21.7700	  545.00	  553.64	-1762.14	  434.11
     21.8700	  550.00	  553.34	-1756.84	  433.78
     21.9700	  572.00	  553.04	-1734.54	  433.45
     22.0700	  526.00	  552.75	-1780.25	  433.12
     22.1700	  533.00	  552.45	-1772.95	  432.79
     22.2700	  573.00	  552.16	-1732.66	  432.45
     22.3700	  546.00	  551.87	-1759.37	  432.12
     22.4700	  546.00	  551.59	-1759.09	  431.79
     22.5700	  532.00	  551.31	-1772.81	  431.45
     22.6700	  511.00	  551.04	-1793.54	  431.12
     22.7700	  559.00	  550.77	-1745.27	  430.79
     22.8700	  531.00	  550.51	-1773.01	  430.45
     22.9700	  542.00	  550.26	-1761.76	  430.12
     23.0700	  631.00	  550.03	-1672.53	  429.78
     23.1700	  530.00	  549.81	-1773.31	  429.45
     23.2700	  600.00	  549.61	-1703.11	  429.11
     23.3700	  543.00	  549.44	-1759.94	  428.77
     23.4700	  560.00	  549.30	-1742.80	  428.44
     23.5700	  549.00	  549.21	-1753.71	  428.10
     23.6700	  564.00	  549.19	-1738.69	  427.76
     23.7700	  553.00	  549.41	-1749.91	  427.43
     23.8700	  553.00	  549.71	-1750.21	  427.09
     23.9700	  555.00	  550.47	-1748.97	  426.75
     24.0700	  562.00	  552.11	-1743.61	  426.42
     24.1700	  577.00	  555.31	-1731.81	  426.08
     24.2700	  590.00	  560.96	-1724.46	  425.74
     24.3700	  586.00	  570.02	-1737.52	  425.41
     24.4700	  593.00	  583.59	-1744.09	  425.07
     24.5700	  576.00	  601.93	-1779.43	  424.73
     24.6700	  607.00	  622.16	-1768.66	  424.39
     24.7700	  622.00	  636.04	-1767.54	  424.06
     24.8700	  643.00	  632.62	-1743.12	  423.72
     24.9700	  651.00	  610.77	-1713.27	  423.38
     25.0700	  575.00	  584.58	-1763.08	  423.05
     25.1700	  612.00	  565.17	-1706.67	  422.71
     25.2700	  611.00	  554.34	-1696.84	  422.37
     25.3700	  594.00	  549.31	-1708.81	  422.04
     25.4700	  568.00	  547.04	-1732.54	  421.70
     25.5700	  548.00	  545.83	-1751.33	  421.37
     25.6700	  562.00	  545.04	-1736.54	  421.03
     25.7700	  563.00	  544.46	-1734.96	  420.70
     25.8700	  542.00	  544.02	-1755.52	  420.36
     25.9700	  545.00	  543.68	-1752.18	  420.03
     26.0700	  558.00	  543.43	-1738.93	  419.70
     26.1700	  611.00	  543.26	-1685.76	  419.36
     26.2700	  542.00	  543.17	-1754.67	  419.03
     26.3700	  534.00	  543.15	-1762.65	  418.70
     26.4700	  563.00	  543.22	-1733.72	  418.36
     26.5700	  586.00	  543.38	-1710.88	  418.03
     26.6700	  590.00	  543.66	-1707.16	  417.70
     26.7700	  555.00	  544.08	-1742.58	  417.37
     26.8700	  533.00	  544.67	-1765.17	  417.04
     26.9700	  566.00	  545.48	-1732.98	  416.71
     27.0700	  533.00	  546.59	-1767.09	  416.38
     27.1700	  552.00	  548.15	-1749.65	  416.05
     27.2700	  564.00	  550.39	-1739.89	  415.72
     27.3700	  593.00	  553.82	-1714.32	  415.40
     27.4700	  579.00	  559.42	-1733.92	  415.07
     27.5700	  564.00	  568.95	-1758.45	  414.74
     27.6700	  581.00	  585.17	-1757.67	  414.42
     27.7700	  551.00	  611.66	-1814.16	  414.09
     27.8700	  588.00	  651.46	-1816.96	  413.77
     27.9700	  665.00	  704.69	-1793.19	  413.44
     28.0700	  780.00	  765.19	-1738.69	  413.12
     28.1700	  917.00	  817.81	-1654.31	  412.80
     28.2700	  960.00	  839.93	-1633.43	  412.48
     28.3700	  916.00	  818.75	-1656.25	  412.16
     28.4700	  773.00	  776.38	-1756.88	  411.84
     28.5700	  679.00	  748.28	-1822.78	  411.52
     28.6700	  688.00	  750.31	-1815.81	  411.20
     28.7700	  692.00	  777.17	-1838.67	  410.88
     28.8700	  798.00	  807.89	-1763.39	  410.57
     28.9700	  855.00	  812.98	-1711.48	  410.25
     29.0700	  822.00	  774.05	-1705.55	  409.94
     29.1700	  682.00	  708.07	-1779.57	  409.62
     29.2700	  671.00	  645.39	-1727.89	  409.31
     29.3700	  613.00	  600.33	-1740.83	  409.00
     29.4700	  621.00	  573.19	-1705.69	  408.69
     29.5700	  566.00	  558.58	-1746.08	  408.38
     29.6700	  568.00	  550.89	-1736.39	  408.07
     29.7700	  598.00	  546.55	-1702.05	  407.76
     29.8700	  536.00	  543.83	-1761.33	  407.45
     29.9700	  589.00	  542.11	-1706.61	  407.15
     30.0700	  610.00	  541.22	-1684.72	  406.84
     30.1700	  570.00	  541.31	-1724.81	  406.54
     30.2700	  575.00	  542.95	-1721.45	  406.23
     30.3700	  561.00	  547.21	-1739.71	  405.93
     30.4700	  598.00	  555.72	-1711.22	  405.63
     30.5700	  576.00	  570.21	-1747.71	  405.33
     30.6700	  603.00	  591.16	-1741.66	  405.03
     30.7700	  613.00	  615.95	-1756.45	  404.73
     30.8700	  609.00	  637.49	-1781.99	  404.44
     30.9700	  612.00	  644.95	-1786.45	  404.14
     31.0700	  626.00	  631.10	-1758.60	  403.85
     31.1700	  645.00	  603.18	-1711.68	  403.55
     31.2700	  552.00	  575.29	-1776.79	  403.26
     31.3700	  537.00	  554.77	-1771.27	  402.97
     31.4700	  559.00	  542.33	-1736.83	  402.68
     31.5700	  497.00	  535.71	-1792.21	  402.39
     31.6700	  513.00	  532.30	-1772.80	  402.11
     31.7700	  537.00	  530.42	-1746.92	  401.82
     31.8700	  555.00	  529.22	-1727.72	  401.53
     31.9700	  546.00	  528.39	-1735.89	  401.25
     32.0700	  516.00	  527.79	-1765.29	  400.97
     32.1700	  548.00	  527.38	-1732.88	  400.69
     32.2700	  468.00	  527.13	-1812.63	  400.41
     32.3700	  567.00	  527.03	-1713.53	  400.13
     32.4700	  571.00	  527.09	-1709.59	  399.85
     32.5700	  512.00	  527.32	-1768.82	  399.58
     32.6700	  563.00	  527.74	-1718.24	  399.30
     32.7700	  588.00	  528.41	-1693.91	  399.03
     32.8700	  552.00	  529.39	-1730.89	  398.76
     32.9700	  549.00	  530.80	-1735.30	  398.49
     33.0700	  547.00	  532.84	-1739.34	  398.22
     33.1700	  573.00	  536.00	-1716.50	  397.95
     33.2700	  549.00	  541.31	-1745.81	  397.68
     33.3700	  541.00	  551.10	-1763.60	  397.42
     33.4700	  568.00	  569.80	-1755.30	  397.16
     33.5700	  644.00	  604.50	-1714.00	  396.89
     33.6700	  673.00	  663.41	-1743.91	  396.63
     33.7700	  741.00	  750.20	-1762.70	  396.38
     33.8700	  869.00	  855.41	-1739.91	  396.12
     33.9700	  991.00	  950.68	-1713.18	  395.86
     34.0700	 1111.00	  992.50	-1635.00	  395.61
     34.1700	  999.00	  949.04	-1703.54	  395.35
     34.2700	  883.00	  842.89	-1713.39	  395.10
     34.3700	  728.00	  728.99	-1754.49	  394.85
     34.4700	  632.00	  641.06	-1762.56	  394.60
     34.5700	  586.00	  585.95	-1753.45	  394.35
     34.6700	  558.00	  556.25	-1751.75	  394.11
     34.7700	  498.00	  541.39	-1796.89	  393.86
     34.8700	  535.00	  533.66	-1752.16	  393.62
     34.9700	  552.00	  529.04	-1730.54	  393.38
     35.0700	  514.00	  525.85	-1765.35	  393.14
     35.1700	  513.00	  523.44	-1763.94	  392.90
     35.2700	  551.00	  521.55	-1724.05	  392.67
     35.3700	  533.00	  520.00	-1740.50	  392.43
     35.4700	  535.00	  518.71	-1737.21	  392.20
     35.5700	  509.00	  517.62	-1762.12	  391.96
     35.6700	  505.00	  516.69	-1765.19	  391.73
     35.7700	  523.00	  515.87	-1746.37	  391.51
     35.8700	  488.00	  515.15	-1780.65	  391.28
     35.9700	  554.00	  514.99	-1714.49	  391.05
     36.0700	  521.00	  514.43	-1746.93	  390.83
     36.1700	  500.00	  513.92	-1767.42	  390.61
     36.2700	  471.00	  513.46	-1795.96	  390.38
     36.3700	  522.00	  513.05	-1744.55	  390.17
     36.4700	  486.00	  512.67	-1780.17	  389.95
     36.5700	  501.00	  512.34	-1764.84	  389.73
     36.6700	  494.00	  512.04	-1771.54	  389.52
     36.7700	  510.00	  511.80	-1755.30	  389.31
     36.8700	  488.00	  511.63	-1777.13	  389.09
     36.9700	  476.00	  511.59	-1789.09	  388.88
     37.0700	  493.00	  511.83	-1772.33	  388.68
     37.1700	  497.00	  512.61	-1769.11	  388.47
     37.2700	  509.00	  514.33	-1758.83	  388.27
     37.3700	  559.00	  517.40	-1711.90	  388.06
     37.4700	  504.00	  521.84	-1771.34	  387.86
     37.5700	  545.00	  526.90	-1735.40	  387.66
     37.6700	  547.00	  530.97	-1737.47	  387.47
     37.7700	  527.00	  532.24	-1758.74	  387.27
     37.8700	  531.00	  530.25	-1752.75	  387.08
     37.9700	  521.00	  526.46	-1758.96	  386.88
     38.0700	  525.00	  522.22	-1750.72	  386.69
     38.1700	  502.00	  518.06	-1769.56	  386.50
     38.2700	  495.00	  514.40	-1772.90	  386.31
     38.3700	  494.00	  511.58	-1771.08	  386.13
     38.4700	  524.00	  509.62	-1739.12	  385.95
     38.5700	  517.00	  508.36	-1744.86	  385.76
     38.6700	  478.00	  507.49	-1782.99	  385.58
     38.7700	  490.00	  506.98	-1770.48	  385.40
     38.8700	  516.00	  506.63	-1744.13	  385.23
     38.9700	  519.00	  506.34	-1740.84	  385.05
     39.0700	  514.00	  506.09	-1745.59	  384.88
     39.1700	  527.00	  505.78	-1732.28	  384.70
     39.2700	  509.00	  505.57	-1750.07	  384.53
     39.3700	  512.00	  505.38	-1746.88	  384.37
     39.4700	  513.00	  505.21	-1745.71	  384.20
     39.5700	  530.00	  505.16	-1728.66	  384.03
     39.6700	  495.00	  505.01	-1763.51	  383.87
     39.7700	  491.00	  504.87	-1767.37	  383.71
     39.8700	  505.00	  504.73	-1753.23	  383.55
     39.9700	  508.00	  504.61	-1750.11	  383.39
     40.0700	  485.00	  504.50	-1773.00	  383.24
     40.1700	  489.00	  504.39	-1768.89	  383.08
     40.2700	  492.00	  504.30	-1765.80	  382.93
     40.3700	  479.00	  504.22	-1778.72	  382.78
     40.4700	  499.00	  504.15	-1758.66	  382.63
     40.5700	  463.00	  504.10	-1794.60	  382.48
     40.6700	  531.00	  504.07	-1726.57	  382.33
     40.7700	  512.00	  504.05	-1745.55	  382.19
