MSG Master    CELL:    5.90141   5.90141  23.17577   90.0000   90.0000  120.0000   SPGR: P 63/m m c             TEMP:    796.35
  1   1280     2.52000     0.00000    -0.12603     0.00000     0.00000    0
    97     0     2
       0.00000      10.00000
     125.00000     130.00000
 2Theta	Yobs	Ycal	Yobs-Ycal	Backg	Posr	(hkl)	K
      0.7700	    0.00	  444.97	-1756.05	  336.28
      0.8700	    0.00	  447.25	-1756.05	  338.55
      0.9700	   30.00	  449.51	-1756.05	  340.81
      1.0700	   45.00	  451.74	-1756.05	  343.04
      1.1700	   39.00	  453.95	-1756.05	  345.25
      1.2700	   38.00	  456.14	-1756.05	  347.44
      1.3700	   45.00	  458.30	-1756.05	  349.60
      1.4700	   95.00	  460.44	-1756.05	  351.74
      1.5700	  301.00	  462.56	-1756.05	  353.86
      1.6700	  468.00	  464.66	-1756.05	  355.96
      1.7700	  567.00	  466.74	-1756.05	  358.04
      1.8700	  621.00	  468.79	-1756.05	  360.09
      1.9700	  711.00	  470.82	-1756.05	  362.13
      2.0700	  746.00	  472.84	-1756.05	  364.14
      2.1700	  761.00	  474.83	-1756.05	  366.13
      2.2700	  748.00	  476.80	-1756.05	  368.10
      2.3700	  721.00	  478.74	-1756.05	  370.04
      2.4700	  718.00	  480.67	-1756.05	  371.97
      2.5700	  703.00	  482.58	-1756.05	  373.88
      2.6700	  662.00	  484.46	-1756.05	  375.76
      2.7700	  665.00	  486.33	-1756.05	  377.63
      2.8700	  624.00	  488.17	-1756.05	  379.47
      2.9700	  623.00	  490.00	-1756.05	  381.30
      3.0700	  542.00	  491.80	-1756.05	  383.10
      3.1700	  643.00	  493.58	-1756.05	  384.88
      3.2700	  688.00	  495.35	-1756.05	  386.65
      3.3700	  790.00	  497.09	-1756.05	  388.39
      3.4700	 1013.00	  498.82	-1756.05	  390.12
      3.5700	 1101.00	  500.52	-1756.05	  391.82
      3.6700	 1153.00	  502.20	-1756.05	  393.51
      3.7700	 1267.00	  503.87	-1756.05	  395.17
      3.8700	 1295.00	  505.52	-1756.05	  396.82
      3.9700	 1380.00	  507.14	-1756.05	  398.45
      4.0700	 1460.00	  508.75	-1756.05	  400.05
      4.1700	 1472.00	  510.34	-1756.05	  401.64
      4.2700	 1429.00	  511.91	-1756.05	  403.21
      4.3700	 1386.00	  513.46	-1756.05	  404.77
      4.4700	 1372.00	  515.00	-1756.05	  406.30
      4.5700	 1364.00	  516.51	-1756.05	  407.81
      4.6700	 1307.00	  518.01	-1756.05	  409.31
      4.7700	 1277.00	  519.49	-1756.05	  410.79
      4.8700	 1185.00	  520.95	-1756.05	  412.25
      4.9700	 1159.00	  522.39	-1756.05	  413.69
      5.0700	 1165.00	  523.82	-1756.05	  415.12
      5.1700	 1156.00	  525.22	-1756.05	  416.52
      5.2700	 1094.00	  526.61	-1756.05	  417.91
      5.3700	 1056.00	  527.98	-1756.05	  419.28
      5.4700	 1050.00	  529.34	-1756.05	  420.64
      5.5700	 1060.00	  530.67	-1756.05	  421.97
      5.6700	  972.00	  531.99	-1756.05	  423.29
      5.7700	  961.00	  533.30	-1756.05	  424.60
      5.8700	  906.00	  534.58	-1756.05	  425.88
      5.9700	  929.00	  535.85	-1756.05	  427.15
      6.0700	  907.00	  537.10	-1756.05	  428.40
      6.1700	  890.00	  538.34	-1756.05	  429.64
      6.2700	  833.00	  539.56	-1756.05	  430.86
      6.3700	  909.00	  540.76	-1756.05	  432.06
      6.4700	  868.00	  541.95	-1756.05	  433.25
      6.5700	  850.00	  543.12	-1756.05	  434.42
      6.6700	  832.00	  544.27	-1756.05	  435.57
      6.7700	  844.00	  545.41	-1756.05	  436.71
      6.8700	  807.00	  546.53	-1756.05	  437.83
      6.9700	  794.00	  547.64	-1756.05	  438.94
      7.0700	  740.00	  548.73	-1756.05	  440.03
      7.1700	  754.00	  549.80	-1756.05	  441.10
      7.2700	  740.00	  550.86	-1756.05	  442.16
      7.3700	  728.00	  551.91	-1756.05	  443.21
      7.4700	  758.00	  552.94	-1756.05	  444.24
      7.5700	  745.00	  553.95	-1756.05	  445.25
      7.6700	  724.00	  554.95	-1756.05	  446.25
      7.7700	  686.00	  555.93	-1756.05	  447.23
      7.8700	  661.00	  556.90	-1756.05	  448.20
      7.9700	  726.00	  557.86	-1756.05	  449.16
      8.0700	  643.00	  558.80	-1756.05	  450.10
      8.1700	  709.00	  559.72	-1756.05	  451.02
      8.2700	  655.00	  560.63	-1756.05	  451.93
      8.3700	  657.00	  561.53	-1756.05	  452.83
      8.4700	  642.00	  562.41	-1756.05	  453.71
      8.5700	  651.00	  563.28	-1756.05	  454.58
      8.6700	  670.00	  564.13	-1756.05	  455.44
      8.7700	  682.00	  564.97	-1756.05	  456.28
      8.8700	  661.00	  565.80	-1756.05	  457.10
      8.9700	  673.00	  566.61	-1756.05	  457.91
      9.0700	  691.00	  567.41	-1756.05	  458.71
      9.1700	  692.00	  568.20	-1756.05	  459.50
      9.2700	  650.00	  568.97	-1756.05	  460.27
      9.3700	  693.00	  569.73	-1756.05	  461.03
      9.4700	  656.00	  570.48	-1756.05	  461.78
      9.5700	  664.00	  571.21	-1756.05	  462.51
      9.6700	  644.00	  571.93	-1756.05	  463.23
      9.7700	  626.00	  572.63	-1756.05	  463.94
      9.8700	  625.00	  573.33	-1756.05	  464.63
      9.9700	  659.00	  574.01	-1756.05	  465.31
     10.0700	  601.00	  577.01	-1732.06	  465.98
     10.1700	  594.00	  577.86	-1739.91	  466.64
     10.2700	  644.00	  578.75	-1690.80	  467.28
     10.3700	  598.00	  579.68	-1737.73	  467.91
     10.4700	  619.00	  580.70	-1717.75	  468.53
     10.5700	  626.00	  581.85	-1711.89	  469.13
     10.6700	  573.00	  583.20	-1766.25	  469.73
     10.7700	  610.00	  584.86	-1730.90	  470.31
     10.8700	  598.00	  586.90	-1744.95	  470.88
     10.9700	  577.00	  589.38	-1768.43	  471.44
     11.0700	  638.00	  592.31	-1710.36	  471.99
     11.1700	  618.00	  595.69	-1733.73	  472.52
     11.2700	  603.00	  599.55	-1752.60	  473.05
     11.3700	  630.00	  603.96	-1730.01	  473.56
     11.4700	  591.00	  609.05	-1774.10	  474.06
     11.5700	  595.00	  615.02	-1776.07	  474.55
     11.6700	  648.00	  622.16	-1730.20	  475.03
     11.7700	  655.00	  630.85	-1731.90	  475.50
     11.8700	  632.00	  641.41	-1765.46	  475.95
     11.9700	  663.00	  653.73	-1746.78	  476.40
     12.0700	  682.00	  666.53	-1740.58	  476.83
     12.1700	  743.00	  676.69	-1689.74	  477.26
     12.2700	  717.00	  679.01	-1718.06	  477.67
     12.3700	  681.00	  669.17	-1744.22	  478.07
     12.4700	  668.00	  650.46	-1738.51	  478.47
     12.5700	  671.00	  631.45	-1716.50	  478.85
     12.6700	  628.00	  616.96	-1745.01	  479.22
     12.7700	  591.00	  607.53	-1772.58	  479.58
     12.8700	  609.00	  601.97	-1749.02	  479.93
     12.9700	  557.00	  598.86	-1797.91	  480.27
     13.0700	  565.00	  597.09	-1788.14	  480.60
     13.1700	  628.00	  596.04	-1724.09	  480.92
     13.2700	  580.00	  595.37	-1771.42	  481.24
     13.3700	  551.00	  594.93	-1799.98	  481.54
     13.4700	  580.00	  594.65	-1770.70	  481.83
     13.5700	  570.00	  594.47	-1780.52	  482.11
     13.6700	  554.00	  594.41	-1796.46	  482.38
     13.7700	  605.00	  594.37	-1745.42	  482.65
     13.8700	  564.00	  594.37	-1786.42	  482.90
     13.9700	  604.00	  594.40	-1746.45	  483.15
     14.0700	  591.00	  594.46	-1759.51	  483.38
     14.1700	  569.00	  594.54	-1781.58	  483.61
     14.2700	  590.00	  594.62	-1760.67	  483.83
     14.3700	  588.00	  594.72	-1762.77	  484.04
     14.4700	  568.00	  594.82	-1782.87	  484.24
     14.5700	  573.00	  594.92	-1777.97	  484.43
     14.6700	  557.00	  595.03	-1794.08	  484.61
     14.7700	  615.00	  595.14	-1736.18	  484.78
     14.8700	  585.00	  595.24	-1766.29	  484.95
     14.9700	  619.00	  595.34	-1732.39	  485.11
     15.0700	  641.00	  595.44	-1710.49	  485.25
     15.1700	  594.00	  595.54	-1757.59	  485.39
     15.2700	  576.00	  595.64	-1775.68	  485.53
     15.3700	  535.00	  595.72	-1816.77	  485.65
     15.4700	  621.00	  595.81	-1730.86	  485.77
     15.5700	  645.00	  595.89	-1706.94	  485.87
     15.6700	  625.00	  595.96	-1727.01	  485.97
     15.7700	  532.00	  596.03	-1820.08	  486.07
     15.8700	  573.00	  596.09	-1779.14	  486.15
     15.9700	  547.00	  596.15	-1805.20	  486.23
     16.0700	  618.00	  596.20	-1734.25	  486.29
     16.1700	  610.00	  596.24	-1742.29	  486.36
     16.2700	  584.00	  596.28	-1768.33	  486.41
     16.3700	  569.00	  596.31	-1783.36	  486.46
     16.4700	  591.00	  596.34	-1761.39	  486.49
     16.5700	  578.00	  596.36	-1774.41	  486.53
     16.6700	  608.00	  596.37	-1744.42	  486.55
     16.7700	  566.00	  596.38	-1786.43	  486.57
     16.8700	  581.00	  596.38	-1771.43	  486.58
     16.9700	  576.00	  596.38	-1776.43	  486.58
     17.0700	  602.00	  596.37	-1750.41	  486.58
     17.1700	  617.00	  596.35	-1735.40	  486.57
     17.2700	  567.00	  596.32	-1785.37	  486.55
     17.3700	  593.00	  596.41	-1759.46	  486.53
     17.4700	  587.00	  596.38	-1765.43	  486.50
     17.5700	  576.00	  596.34	-1776.39	  486.46
     17.6700	  585.00	  596.29	-1767.34	  486.42
     17.7700	  526.00	  596.24	-1826.29	  486.37
     17.8700	  572.00	  596.31	-1780.36	  486.31
     17.9700	  569.00	  596.25	-1783.30	  486.25
     18.0700	  633.00	  596.18	-1719.23	  486.18
     18.1700	  557.00	  596.11	-1795.16	  486.10
     18.2700	  549.00	  596.03	-1803.08	  486.02
     18.3700	  589.00	  595.95	-1763.00	  485.93
     18.4700	  634.00	  595.86	-1717.91	  485.84
     18.5700	  534.00	  595.77	-1817.82	  485.74
     18.6700	  591.00	  595.67	-1760.72	  485.64
     18.7700	  601.00	  595.56	-1750.61	  485.53
     18.8700	  609.00	  595.46	-1742.50	  485.41
     18.9700	  601.00	  595.34	-1750.39	  485.29
     19.0700	  584.00	  595.22	-1767.27	  485.16
     19.1700	  575.00	  595.10	-1776.15	  485.03
     19.2700	  572.00	  594.97	-1779.02	  484.89
     19.3700	  595.00	  594.83	-1755.88	  484.74
     19.4700	  562.00	  594.74	-1788.79	  484.59
     19.5700	  544.00	  594.59	-1806.64	  484.44
     19.6700	  620.00	  594.45	-1730.50	  484.28
     19.7700	  603.00	  594.29	-1747.34	  484.11
     19.8700	  581.00	  594.14	-1769.19	  483.94
     19.9700	  559.00	  593.98	-1791.03	  483.77
     20.0700	  532.00	  593.81	-1817.86	  483.59
     20.1700	  515.00	  593.65	-1834.69	  483.40
     20.2700	  567.00	  593.47	-1782.52	  483.21
     20.3700	  591.00	  593.30	-1758.35	  483.02
     20.4700	  553.00	  593.12	-1796.17	  482.82
     20.5700	  574.00	  592.93	-1774.98	  482.62
     20.6700	  560.00	  592.75	-1788.80	  482.41
     20.7700	  578.00	  592.56	-1770.61	  482.19
     20.8700	  598.00	  592.36	-1750.41	  481.98
     20.9700	  577.00	  592.17	-1771.22	  481.75
     21.0700	  596.00	  591.97	-1752.02	  481.53
     21.1700	  583.00	  591.77	-1764.82	  481.30
     21.2700	  551.00	  591.57	-1796.61	  481.06
     21.3700	  570.00	  591.36	-1777.41	  480.82
     21.4700	  599.00	  591.15	-1748.20	  480.58
     21.5700	  567.00	  590.94	-1779.99	  480.33
     21.6700	  586.00	  590.73	-1760.78	  480.08
     21.7700	  537.00	  590.52	-1809.57	  479.82
     21.8700	  613.00	  590.31	-1733.36	  479.56
     21.9700	  553.00	  590.10	-1793.15	  479.30
     22.0700	  587.00	  590.05	-1759.10	  479.03
     22.1700	  605.00	  589.84	-1740.89	  478.76
     22.2700	  585.00	  589.63	-1760.68	  478.49
     22.3700	  605.00	  589.43	-1740.48	  478.21
     22.4700	  586.00	  589.23	-1759.28	  477.93
     22.5700	  548.00	  589.04	-1797.09	  477.64
     22.6700	  576.00	  588.86	-1768.91	  477.35
     22.7700	  588.00	  588.68	-1756.73	  477.06
     22.8700	  579.00	  588.51	-1765.56	  476.76
     22.9700	  534.00	  588.36	-1810.41	  476.46
     23.0700	  573.00	  588.22	-1771.27	  476.16
     23.1700	  591.00	  588.11	-1753.16	  475.86
     23.2700	  549.00	  587.97	-1795.02	  475.55
     23.3700	  608.00	  587.92	-1735.97	  475.23
     23.4700	  559.00	  587.92	-1784.97	  474.92
     23.5700	  546.00	  587.98	-1798.03	  474.60
     23.6700	  592.00	  588.13	-1752.18	  474.28
     23.7700	  579.00	  588.41	-1765.46	  473.96
     23.8700	  596.00	  588.90	-1748.95	  473.63
     23.9700	  590.00	  589.73	-1755.78	  473.30
     24.0700	  640.00	  591.13	-1707.18	  472.97
     24.1700	  591.00	  593.45	-1758.50	  472.63
     24.2700	  585.00	  597.20	-1768.25	  472.29
     24.3700	  605.00	  602.95	-1754.00	  471.95
     24.4700	  601.00	  611.17	-1766.22	  471.61
     24.5700	  639.00	  621.89	-1738.94	  471.26
     24.6700	  691.00	  634.35	-1699.40	  470.91
     24.7700	  705.00	  646.34	-1697.39	  470.56
     24.8700	  625.00	  653.84	-1784.89	  470.21
     24.9700	  691.00	  652.02	-1717.07	  469.85
     25.0700	  686.00	  640.24	-1710.29	  469.49
     25.1700	  662.00	  624.41	-1718.46	  469.13
     25.2700	  649.00	  610.34	-1717.39	  468.77
     25.3700	  609.00	  600.10	-1747.15	  468.41
     25.4700	  653.00	  593.47	-1696.52	  468.04
     25.5700	  642.00	  589.45	-1703.50	  467.67
     25.6700	  603.00	  587.05	-1740.10	  467.30
     25.7700	  589.00	  585.54	-1752.59	  466.93
     25.8700	  583.00	  584.52	-1757.57	  466.55
     25.9700	  638.00	  583.80	-1701.85	  466.17
     26.0700	  652.00	  583.27	-1687.32	  465.80
     26.1700	  614.00	  582.90	-1724.95	  465.41
     26.2700	  610.00	  582.66	-1728.71	  465.03
     26.3700	  629.00	  582.54	-1709.59	  464.65
     26.4700	  627.00	  582.54	-1711.59	  464.26
     26.5700	  616.00	  582.67	-1722.72	  463.87
     26.6700	  629.00	  582.95	-1710.00	  463.48
     26.7700	  673.00	  583.39	-1666.43	  463.09
     26.8700	  667.00	  584.02	-1673.07	  462.70
     26.9700	  664.00	  584.90	-1676.94	  462.31
     27.0700	  603.00	  586.09	-1739.14	  461.91
     27.1700	  587.00	  587.70	-1756.75	  461.51
     27.2700	  638.00	  589.93	-1707.98	  461.12
     27.3700	  620.00	  593.11	-1729.16	  460.72
     27.4700	  671.00	  597.90	-1682.95	  460.31
     27.5700	  662.00	  605.46	-1699.51	  459.91
     27.6700	  684.00	  617.75	-1689.80	  459.51
     27.7700	  681.00	  637.60	-1712.65	  459.10
     27.8700	  661.00	  668.22	-1763.27	  458.70
     27.9700	  688.00	  711.73	-1779.78	  458.29
     28.0700	  721.00	  766.86	-1801.91	  457.88
     28.1700	  838.00	  826.56	-1744.61	  457.47
     28.2700	  950.00	  876.30	-1682.34	  457.06
     28.3700	  955.00	  896.54	-1697.59	  456.65
     28.4700	  972.00	  879.91	-1663.96	  456.24
     28.5700	  921.00	  849.14	-1684.19	  455.83
     28.6700	  811.00	  833.99	-1779.04	  455.41
     28.7700	  842.00	  845.53	-1759.58	  455.00
     28.8700	  840.00	  876.33	-1792.38	  454.58
     28.9700	  839.00	  905.42	-1822.47	  454.17
     29.0700	  880.00	  904.98	-1781.03	  453.75
     29.1700	  926.00	  860.10	-1690.15	  453.33
     29.2700	  803.00	  788.90	-1741.95	  452.92
     29.3700	  748.00	  720.01	-1728.06	  452.50
     29.4700	  732.00	  667.41	-1691.45	  452.08
     29.5700	  708.00	  632.55	-1680.60	  451.66
     29.6700	  623.00	  611.50	-1744.55	  451.24
     29.7700	  636.00	  599.29	-1719.33	  450.82
     29.8700	  662.00	  592.07	-1686.12	  450.39
     29.9700	  654.00	  587.60	-1689.65	  449.97
     30.0700	  630.00	  584.80	-1710.85	  449.55
     30.1700	  636.00	  583.34	-1703.39	  449.13
     30.2700	  652.00	  583.32	-1687.37	  448.70
     30.3700	  672.00	  585.25	-1669.30	  448.28
     30.4700	  627.00	  590.02	-1719.07	  447.86
     30.5700	  638.00	  598.81	-1716.86	  447.43
     30.6700	  652.00	  612.50	-1716.55	  447.01
     30.7700	  639.00	  630.75	-1747.80	  446.59
     30.8700	  676.00	  650.98	-1731.03	  446.16
     30.9700	  664.00	  667.77	-1759.82	  445.74
     31.0700	  664.00	  673.37	-1765.42	  445.31
     31.1700	  664.00	  662.65	-1754.70	  444.89
     31.2700	  700.00	  640.38	-1696.43	  444.46
     31.3700	  573.00	  616.56	-1799.61	  444.04
     31.4700	  651.00	  597.19	-1702.24	  443.62
     31.5700	  645.00	  583.69	-1694.74	  443.19
     31.6700	  588.00	  575.18	-1743.23	  442.77
     31.7700	  571.00	  570.10	-1755.15	  442.34
     31.8700	  609.00	  567.05	-1714.10	  441.92
     31.9700	  547.00	  565.11	-1774.16	  441.50
     32.0700	  560.00	  563.80	-1759.85	  441.07
     32.1700	  564.00	  562.88	-1754.93	  440.65
     32.2700	  571.00	  562.25	-1747.30	  440.23
     32.3700	  543.00	  561.87	-1774.92	  439.80
     32.4700	  627.00	  561.72	-1690.77	  439.38
     32.5700	  588.00	  561.80	-1729.85	  438.96
     32.6700	  559.00	  562.14	-1759.19	  438.54
     32.7700	  561.00	  562.78	-1757.83	  438.12
     32.8700	  594.00	  563.79	-1725.84	  437.70
     32.9700	  595.00	  565.25	-1726.30	  437.28
     33.0700	  542.00	  567.36	-1781.41	  436.86
     33.1700	  590.00	  570.47	-1736.52	  436.44
     33.2700	  568.00	  575.14	-1763.19	  436.02
     33.3700	  558.00	  582.62	-1780.67	  435.60
     33.4700	  597.00	  595.08	-1754.13	  435.18
     33.5700	  632.00	  615.95	-1740.00	  434.77
     33.6700	  666.00	  649.73	-1739.77	  434.35
     33.7700	  699.00	  700.50	-1757.55	  433.93
     33.8700	  793.00	  768.82	-1731.87	  433.52
     33.9700	  871.00	  847.62	-1732.67	  433.10
     34.0700	  930.00	  919.45	-1745.50	  432.69
     34.1700	 1035.00	  957.51	-1678.55	  432.28
     34.2700	  975.00	  938.67	-1719.71	  431.87
     34.3700	  925.00	  869.60	-1700.65	  431.46
     34.4700	  803.00	  783.46	-1736.51	  431.04
     34.5700	  721.00	  706.92	-1741.96	  430.64
     34.6700	  659.00	  649.91	-1746.96	  430.23
     34.7700	  578.00	  612.14	-1790.19	  429.82
     34.8700	  574.00	  588.98	-1771.03	  429.41
     34.9700	  589.00	  575.17	-1742.22	  429.01
     35.0700	  559.00	  566.66	-1763.71	  428.60
     35.1700	  544.00	  560.99	-1773.04	  428.20
     35.2700	  515.00	  556.87	-1797.92	  427.79
     35.3700	  557.00	  554.15	-1753.20	  427.39
     35.4700	  575.00	  551.57	-1732.62	  426.99
     35.5700	  545.00	  549.43	-1760.48	  426.59
     35.6700	  540.00	  547.62	-1763.67	  426.19
     35.7700	  521.00	  546.06	-1781.11	  425.79
     35.8700	  547.00	  544.69	-1753.74	  425.40
     35.9700	  524.00	  543.49	-1775.54	  425.00
     36.0700	  525.00	  542.42	-1773.47	  424.61
     36.1700	  567.00	  541.46	-1730.51	  424.21
     36.2700	  575.00	  540.59	-1721.64	  423.82
     36.3700	  514.00	  539.80	-1781.85	  423.43
     36.4700	  508.00	  539.04	-1787.09	  423.04
     36.5700	  574.00	  538.39	-1720.44	  422.65
     36.6700	  537.00	  537.79	-1756.84	  422.26
     36.7700	  541.00	  537.27	-1752.32	  421.88
     36.8700	  485.00	  536.81	-1807.86	  421.49
     36.9700	  522.00	  536.46	-1770.51	  421.11
     37.0700	  481.00	  536.27	-1811.32	  420.73
     37.1700	  517.00	  536.31	-1775.36	  420.35
     37.2700	  516.00	  536.74	-1776.79	  419.97
     37.3700	  523.00	  537.72	-1770.77	  419.59
     37.4700	  542.00	  539.58	-1753.63	  419.21
     37.5700	  558.00	  541.97	-1740.02	  418.84
     37.6700	  532.00	  544.79	-1768.84	  418.47
     37.7700	  520.00	  547.42	-1783.47	  418.09
     37.8700	  526.00	  548.87	-1778.92	  417.72
     37.9700	  582.00	  548.35	-1722.39	  417.35
     38.0700	  525.00	  546.02	-1777.07	  416.99
     38.1700	  550.00	  542.80	-1748.85	  416.62
     38.2700	  531.00	  539.40	-1764.45	  416.25
     38.3700	  540.00	  536.25	-1752.30	  415.89
     38.4700	  499.00	  533.63	-1790.68	  415.53
     38.5700	  537.00	  531.62	-1750.66	  415.17
     38.6700	  523.00	  530.14	-1763.18	  414.81
     38.7700	  513.00	  529.05	-1772.10	  414.45
     38.8700	  514.00	  528.23	-1770.28	  414.10
     38.9700	  506.00	  527.58	-1777.62	  413.74
     39.0700	  555.00	  527.02	-1728.07	  413.39
     39.1700	  471.00	  526.53	-1811.58	  413.04
     39.2700	  499.00	  526.08	-1783.13	  412.69
     39.3700	  523.00	  525.66	-1758.71	  412.35
     39.4700	  513.00	  525.27	-1768.32	  412.00
     39.5700	  494.00	  524.78	-1786.83	  411.66
     39.6700	  509.00	  524.43	-1771.48	  411.31
     39.7700	  528.00	  524.14	-1752.19	  410.97
     39.8700	  503.00	  523.82	-1776.86	  410.63
     39.9700	  504.00	  523.50	-1775.55	  410.30
     40.0700	  534.00	  523.20	-1745.25	  409.96
     40.1700	  501.00	  523.47	-1778.52	  409.63
     40.2700	  489.00	  523.21	-1790.25	  409.30
     40.3700	  549.00	  522.96	-1730.01	  408.97
     40.4700	  486.00	  522.60	-1792.65	  408.64
     40.5700	  511.00	  522.39	-1767.44	  408.31
     40.6700	  500.00	  522.20	-1778.25	  407.99
     40.7700	  535.00	  522.03	-1743.08	  407.66
