MSG Master    CELL:    5.91925   5.91925  23.27335   90.0000   90.0000  120.0000   SPGR: P 63/m m c             TEMP:   1074.85
  1   1280     2.52000     0.00000    -0.12335     0.00000     0.00000    0
    99     0     2
       0.00000      10.00000
     125.00000     130.00000
 2Theta	Yobs	Ycal	Yobs-Ycal	Backg	Posr	(hkl)	K
      0.7700	    0.00	  561.33	-1762.50	  443.19
      0.8700	    0.00	  561.86	-1762.50	  443.72
      0.9700	   47.00	  562.37	-1762.50	  444.24
      1.0700	   32.00	  562.88	-1762.50	  444.75
      1.1700	   35.00	  563.38	-1762.50	  445.25
      1.2700	   47.00	  563.88	-1762.50	  445.74
      1.3700	   47.00	  564.36	-1762.50	  446.22
      1.4700	   93.00	  564.83	-1762.50	  446.70
      1.5700	  307.00	  565.30	-1762.50	  447.16
      1.6700	  471.00	  565.75	-1762.50	  447.62
      1.7700	  606.00	  566.20	-1762.50	  448.06
      1.8700	  641.00	  566.64	-1762.50	  448.50
      1.9700	  744.00	  567.07	-1762.50	  448.93
      2.0700	  787.00	  567.49	-1762.50	  449.35
      2.1700	  735.00	  567.90	-1762.50	  449.77
      2.2700	  784.00	  568.31	-1762.50	  450.17
      2.3700	  705.00	  568.70	-1762.50	  450.57
      2.4700	  716.00	  569.09	-1762.50	  450.95
      2.5700	  705.00	  569.47	-1762.50	  451.33
      2.6700	  666.00	  569.84	-1762.50	  451.71
      2.7700	  657.00	  570.20	-1762.50	  452.07
      2.8700	  641.00	  570.56	-1762.50	  452.42
      2.9700	  670.00	  570.91	-1762.50	  452.77
      3.0700	  564.00	  571.25	-1762.50	  453.11
      3.1700	  581.00	  571.58	-1762.50	  453.44
      3.2700	  578.00	  571.90	-1762.50	  453.76
      3.3700	  690.00	  572.22	-1762.50	  454.08
      3.4700	  776.00	  572.52	-1762.50	  454.39
      3.5700	  830.00	  572.82	-1762.50	  454.69
      3.6700	  869.00	  573.12	-1762.50	  454.98
      3.7700	  915.00	  573.40	-1762.50	  455.27
      3.8700	  971.00	  573.68	-1762.50	  455.54
      3.9700	 1002.00	  573.95	-1762.50	  455.82
      4.0700	 1042.00	  574.21	-1762.50	  456.08
      4.1700	 1114.00	  574.47	-1762.50	  456.33
      4.2700	 1087.00	  574.72	-1762.50	  456.58
      4.3700	 1107.00	  574.96	-1762.50	  456.82
      4.4700	 1093.00	  575.19	-1762.50	  457.06
      4.5700	 1070.00	  575.42	-1762.50	  457.29
      4.6700	 1039.00	  575.64	-1762.50	  457.51
      4.7700	 1024.00	  575.85	-1762.50	  457.72
      4.8700	  992.00	  576.06	-1762.50	  457.93
      4.9700	  961.00	  576.26	-1762.50	  458.12
      5.0700	  910.00	  576.45	-1762.50	  458.32
      5.1700	  892.00	  576.64	-1762.50	  458.50
      5.2700	  974.00	  576.82	-1762.50	  458.68
      5.3700	  902.00	  576.99	-1762.50	  458.86
      5.4700	  851.00	  577.16	-1762.50	  459.02
      5.5700	  818.00	  577.32	-1762.50	  459.18
      5.6700	  860.00	  577.47	-1762.50	  459.33
      5.7700	  801.00	  577.62	-1762.50	  459.48
      5.8700	  848.00	  577.76	-1762.50	  459.62
      5.9700	  790.00	  577.89	-1762.50	  459.76
      6.0700	  770.00	  578.02	-1762.50	  459.88
      6.1700	  809.00	  578.14	-1762.50	  460.01
      6.2700	  742.00	  578.26	-1762.50	  460.12
      6.3700	  763.00	  578.37	-1762.50	  460.23
      6.4700	  802.00	  578.47	-1762.50	  460.33
      6.5700	  750.00	  578.57	-1762.50	  460.43
      6.6700	  778.00	  578.66	-1762.50	  460.52
      6.7700	  686.00	  578.74	-1762.50	  460.61
      6.8700	  730.00	  578.82	-1762.50	  460.69
      6.9700	  753.00	  578.90	-1762.50	  460.76
      7.0700	  728.00	  578.97	-1762.50	  460.83
      7.1700	  657.00	  579.03	-1762.50	  460.89
      7.2700	  716.00	  579.09	-1762.50	  460.95
      7.3700	  628.00	  579.14	-1762.50	  461.00
      7.4700	  678.00	  579.18	-1762.50	  461.05
      7.5700	  656.00	  579.22	-1762.50	  461.09
      7.6700	  629.00	  579.26	-1762.50	  461.12
      7.7700	  622.00	  579.29	-1762.50	  461.15
      7.8700	  700.00	  579.31	-1762.50	  461.18
      7.9700	  659.00	  579.33	-1762.50	  461.20
      8.0700	  660.00	  579.35	-1762.50	  461.21
      8.1700	  647.00	  579.35	-1762.50	  461.22
      8.2700	  664.00	  579.36	-1762.50	  461.22
      8.3700	  645.00	  579.36	-1762.50	  461.22
      8.4700	  641.00	  579.35	-1762.50	  461.21
      8.5700	  594.00	  579.34	-1762.50	  461.20
      8.6700	  615.00	  579.32	-1762.50	  461.19
      8.7700	  643.00	  579.30	-1762.50	  461.16
      8.8700	  636.00	  579.27	-1762.50	  461.14
      8.9700	  608.00	  579.24	-1762.50	  461.11
      9.0700	  622.00	  579.21	-1762.50	  461.07
      9.1700	  614.00	  579.17	-1762.50	  461.03
      9.2700	  603.00	  579.12	-1762.50	  460.99
      9.3700	  626.00	  579.07	-1762.50	  460.94
      9.4700	  653.00	  579.02	-1762.50	  460.88
      9.5700	  621.00	  578.96	-1762.50	  460.82
      9.6700	  569.00	  578.90	-1762.50	  460.76
      9.7700	  666.00	  578.83	-1762.50	  460.69
      9.8700	  610.00	  578.76	-1762.50	  460.62
      9.9700	  585.00	  578.68	-1762.50	  460.54
     10.0700	  587.00	  579.30	-1754.80	  460.46
     10.1700	  627.00	  579.29	-1714.79	  460.38
     10.2700	  558.00	  579.29	-1783.79	  460.29
     10.3700	  546.00	  579.31	-1795.81	  460.20
     10.4700	  586.00	  579.38	-1755.88	  460.10
     10.5700	  538.00	  579.54	-1804.04	  460.00
     10.6700	  608.00	  579.88	-1734.38	  459.89
     10.7700	  574.00	  580.51	-1769.01	  459.78
     10.8700	  578.00	  581.48	-1765.98	  459.67
     10.9700	  599.00	  582.79	-1746.29	  459.55
     11.0700	  616.00	  584.41	-1730.91	  459.43
     11.1700	  551.00	  586.33	-1797.83	  459.31
     11.2700	  534.00	  588.58	-1817.08	  459.18
     11.3700	  577.00	  591.24	-1776.74	  459.04
     11.4700	  633.00	  594.40	-1723.91	  458.91
     11.5700	  598.00	  598.27	-1762.77	  458.77
     11.6700	  628.00	  603.13	-1737.63	  458.62
     11.7700	  611.00	  609.53	-1761.03	  458.48
     11.8700	  658.00	  618.32	-1722.82	  458.33
     11.9700	  694.00	  630.18	-1698.68	  458.17
     12.0700	  742.00	  643.85	-1664.35	  458.02
     12.1700	  697.00	  653.81	-1719.31	  457.86
     12.2700	  672.00	  651.09	-1741.59	  457.69
     12.3700	  670.00	  632.66	-1725.16	  457.52
     12.4700	  658.00	  609.86	-1714.36	  457.35
     12.5700	  629.00	  593.19	-1726.69	  457.18
     12.6700	  616.00	  584.23	-1730.73	  457.00
     12.7700	  585.00	  580.20	-1757.70	  456.82
     12.8700	  547.00	  578.38	-1793.88	  456.64
     12.9700	  548.00	  577.35	-1791.85	  456.45
     13.0700	  583.00	  576.62	-1756.12	  456.26
     13.1700	  587.00	  576.05	-1751.55	  456.07
     13.2700	  571.00	  575.57	-1767.07	  455.87
     13.3700	  521.00	  575.15	-1816.65	  455.68
     13.4700	  574.00	  574.78	-1763.28	  455.48
     13.5700	  533.00	  574.44	-1803.94	  455.27
     13.6700	  612.00	  574.12	-1724.62	  455.06
     13.7700	  587.00	  573.82	-1749.32	  454.85
     13.8700	  574.00	  573.54	-1762.04	  454.64
     13.9700	  572.00	  573.26	-1763.76	  454.43
     14.0700	  591.00	  572.99	-1744.49	  454.21
     14.1700	  573.00	  572.72	-1762.22	  453.99
     14.2700	  583.00	  572.46	-1751.96	  453.77
     14.3700	  586.00	  572.20	-1748.70	  453.54
     14.4700	  559.00	  571.94	-1775.44	  453.31
     14.5700	  554.00	  571.68	-1780.18	  453.08
     14.6700	  572.00	  571.42	-1761.92	  452.85
     14.7700	  541.00	  571.17	-1792.67	  452.61
     14.8700	  558.00	  570.91	-1775.41	  452.38
     14.9700	  544.00	  570.66	-1789.16	  452.14
     15.0700	  547.00	  570.40	-1785.90	  451.89
     15.1700	  560.00	  570.14	-1772.64	  451.65
     15.2700	  566.00	  569.88	-1766.38	  451.40
     15.3700	  584.00	  569.62	-1748.12	  451.15
     15.4700	  553.00	  569.36	-1778.86	  450.90
     15.5700	  549.00	  569.10	-1782.60	  450.65
     15.6700	  489.00	  568.83	-1842.33	  450.39
     15.7700	  529.00	  568.57	-1802.07	  450.14
     15.8700	  573.00	  568.30	-1757.80	  449.88
     15.9700	  619.00	  568.03	-1711.53	  449.61
     16.0700	  538.00	  567.76	-1792.26	  449.35
     16.1700	  570.00	  567.49	-1759.99	  449.09
     16.2700	  540.00	  567.24	-1789.74	  448.82
     16.3700	  571.00	  566.97	-1758.47	  448.55
     16.4700	  554.00	  566.70	-1775.20	  448.28
     16.5700	  570.00	  566.42	-1758.92	  448.00
     16.6700	  587.00	  566.14	-1741.64	  447.73
     16.7700	  595.00	  565.86	-1733.36	  447.45
     16.8700	  572.00	  565.58	-1756.08	  447.18
     16.9700	  541.00	  565.30	-1786.80	  446.90
     17.0700	  546.00	  565.02	-1781.52	  446.62
     17.1700	  541.00	  564.73	-1786.23	  446.33
     17.2700	  559.00	  564.44	-1767.94	  446.05
     17.3700	  551.00	  564.16	-1775.66	  445.76
     17.4700	  536.00	  563.87	-1790.37	  445.47
     17.5700	  592.00	  563.58	-1734.08	  445.19
     17.6700	  530.00	  563.29	-1795.79	  444.90
     17.7700	  559.00	  562.99	-1766.49	  444.60
     17.8700	  549.00	  562.70	-1776.20	  444.31
     17.9700	  544.00	  562.50	-1781.00	  444.02
     18.0700	  565.00	  562.20	-1759.70	  443.72
     18.1700	  549.00	  561.91	-1775.41	  443.42
     18.2700	  587.00	  561.61	-1737.11	  443.12
     18.3700	  547.00	  561.31	-1776.81	  442.82
     18.4700	  505.00	  561.02	-1818.52	  442.52
     18.5700	  534.00	  560.72	-1789.22	  442.22
     18.6700	  602.00	  560.41	-1720.92	  441.92
     18.7700	  580.00	  560.11	-1742.61	  441.61
     18.8700	  558.00	  559.90	-1764.40	  441.31
     18.9700	  570.00	  559.59	-1752.09	  441.00
     19.0700	  532.00	  559.29	-1789.79	  440.69
     19.1700	  586.00	  558.99	-1735.49	  440.39
     19.2700	  562.00	  558.69	-1759.19	  440.08
     19.3700	  523.00	  558.38	-1797.88	  439.77
     19.4700	  591.00	  558.08	-1729.58	  439.45
     19.5700	  539.00	  557.77	-1781.27	  439.14
     19.6700	  546.00	  557.46	-1773.96	  438.83
     19.7700	  544.00	  557.16	-1775.66	  438.51
     19.8700	  519.00	  556.85	-1800.35	  438.20
     19.9700	  520.00	  556.54	-1799.04	  437.88
     20.0700	  528.00	  556.24	-1790.74	  437.57
     20.1700	  511.00	  555.93	-1807.43	  437.25
     20.2700	  558.00	  555.62	-1760.12	  436.93
     20.3700	  558.00	  555.31	-1759.81	  436.61
     20.4700	  509.00	  555.00	-1808.50	  436.29
     20.5700	  560.00	  554.67	-1757.17	  435.97
     20.6700	  557.00	  554.36	-1759.86	  435.65
     20.7700	  517.00	  554.05	-1799.55	  435.33
     20.8700	  533.00	  553.78	-1783.28	  435.01
     20.9700	  563.00	  553.47	-1752.97	  434.69
     21.0700	  531.00	  553.16	-1784.66	  434.37
     21.1700	  545.00	  552.86	-1770.36	  434.04
     21.2700	  608.00	  552.55	-1707.05	  433.72
     21.3700	  519.00	  552.25	-1795.75	  433.39
     21.4700	  550.00	  551.94	-1764.44	  433.07
     21.5700	  550.00	  551.64	-1764.14	  432.75
     21.6700	  551.00	  551.34	-1762.84	  432.42
     21.7700	  565.00	  551.04	-1748.54	  432.09
     21.8700	  546.00	  550.74	-1767.24	  431.77
     21.9700	  571.00	  550.44	-1741.94	  431.44
     22.0700	  552.00	  550.15	-1760.65	  431.12
     22.1700	  538.00	  549.85	-1774.35	  430.79
     22.2700	  552.00	  549.56	-1760.06	  430.46
     22.3700	  523.00	  549.28	-1788.78	  430.13
     22.4700	  588.00	  548.99	-1723.49	  429.81
     22.5700	  559.00	  548.72	-1752.22	  429.48
     22.6700	  535.00	  548.44	-1775.94	  429.15
     22.7700	  544.00	  548.18	-1766.68	  428.82
     22.8700	  550.00	  547.92	-1760.42	  428.50
     22.9700	  564.00	  547.67	-1746.17	  428.17
     23.0700	  580.00	  547.43	-1729.93	  427.84
     23.1700	  541.00	  547.21	-1768.71	  427.51
     23.2700	  529.00	  547.00	-1780.50	  427.18
     23.3700	  543.00	  546.82	-1766.32	  426.86
     23.4700	  523.00	  546.66	-1786.16	  426.53
     23.5700	  574.00	  546.55	-1735.05	  426.20
     23.6700	  518.00	  546.50	-1791.00	  425.87
     23.7700	  570.00	  546.68	-1739.18	  425.54
     23.8700	  544.00	  546.92	-1765.42	  425.22
     23.9700	  568.00	  547.55	-1742.05	  424.89
     24.0700	  513.00	  548.95	-1798.45	  424.56
     24.1700	  555.00	  551.76	-1759.26	  424.23
     24.2700	  595.00	  556.74	-1724.24	  423.91
     24.3700	  557.00	  564.79	-1770.29	  423.58
     24.4700	  559.00	  576.90	-1780.40	  423.25
     24.5700	  594.00	  593.41	-1761.91	  422.93
     24.6700	  618.00	  611.82	-1756.32	  422.60
     24.7700	  614.00	  624.79	-1773.29	  422.27
     24.8700	  651.00	  622.25	-1733.75	  421.95
     24.9700	  584.00	  602.69	-1781.19	  421.62
     25.0700	  641.00	  578.77	-1700.27	  421.30
     25.1700	  558.00	  560.91	-1765.41	  420.98
     25.2700	  589.00	  550.94	-1724.44	  420.65
     25.3700	  555.00	  546.32	-1753.82	  420.33
     25.4700	  553.00	  544.24	-1753.74	  420.00
     25.5700	  581.00	  543.14	-1724.64	  419.68
     25.6700	  579.00	  542.42	-1725.92	  419.36
     25.7700	  554.00	  541.89	-1750.39	  419.04
     25.8700	  543.00	  541.48	-1760.98	  418.72
     25.9700	  588.00	  541.17	-1715.67	  418.40
     26.0700	  544.00	  540.94	-1759.44	  418.07
     26.1700	  557.00	  540.78	-1746.28	  417.76
     26.2700	  532.00	  540.69	-1771.19	  417.44
     26.3700	  549.00	  540.68	-1754.18	  417.12
     26.4700	  564.00	  540.74	-1739.24	  416.80
     26.5700	  580.00	  540.89	-1723.39	  416.48
     26.6700	  559.00	  541.14	-1744.64	  416.17
     26.7700	  571.00	  541.53	-1733.03	  415.85
     26.8700	  567.00	  542.07	-1737.57	  415.53
     26.9700	  556.00	  542.82	-1749.32	  415.22
     27.0700	  572.00	  543.86	-1734.36	  414.90
     27.1700	  569.00	  545.29	-1738.79	  414.59
     27.2700	  532.00	  547.36	-1777.86	  414.28
     27.3700	  571.00	  550.51	-1742.01	  413.97
     27.4700	  557.00	  555.65	-1761.15	  413.66
     27.5700	  562.00	  564.34	-1764.84	  413.34
     27.6700	  537.00	  579.11	-1804.61	  413.04
     27.7700	  563.00	  603.19	-1802.69	  412.73
     27.8700	  592.00	  639.41	-1809.91	  412.42
     27.9700	  682.00	  687.94	-1768.44	  412.11
     28.0700	  801.00	  743.39	-1704.89	  411.80
     28.1700	  884.00	  792.26	-1670.76	  411.50
     28.2700	  961.00	  814.13	-1615.63	  411.19
     28.3700	  885.00	  796.66	-1674.16	  410.89
     28.4700	  783.00	  759.04	-1738.54	  410.59
     28.5700	  689.00	  733.92	-1807.42	  410.29
     28.6700	  699.00	  736.57	-1800.07	  409.98
     28.7700	  711.00	  762.54	-1814.04	  409.68
     28.8700	  832.00	  792.54	-1723.04	  409.39
     28.9700	  806.00	  798.87	-1755.37	  409.09
     29.0700	  746.00	  763.27	-1779.77	  408.79
     29.1700	  701.00	  700.82	-1762.32	  408.49
     29.2700	  650.00	  640.60	-1753.10	  408.20
     29.3700	  652.00	  596.90	-1707.40	  407.90
     29.4700	  608.00	  570.38	-1724.88	  407.61
     29.5700	  593.00	  556.03	-1725.53	  407.32
     29.6700	  655.00	  548.48	-1655.98	  407.03
     29.7700	  602.00	  544.22	-1704.72	  406.74
     29.8700	  569.00	  541.57	-1735.07	  406.45
     29.9700	  532.00	  539.88	-1770.38	  406.16
     30.0700	  559.00	  538.99	-1742.49	  405.87
     30.1700	  563.00	  539.02	-1738.52	  405.59
     30.2700	  576.00	  540.48	-1726.98	  405.30
     30.3700	  546.00	  544.35	-1760.85	  405.02
     30.4700	  578.00	  552.16	-1736.66	  404.74
     30.5700	  543.00	  565.53	-1785.03	  404.46
     30.6700	  588.00	  584.98	-1759.48	  404.18
     30.7700	  607.00	  608.16	-1763.66	  403.90
     30.8700	  601.00	  628.59	-1790.09	  403.62
     30.9700	  615.00	  636.21	-1783.71	  403.34
     31.0700	  601.00	  623.88	-1785.38	  403.07
     31.1700	  547.00	  598.00	-1813.50	  402.80
     31.2700	  553.00	  571.70	-1781.20	  402.52
     31.3700	  559.00	  552.19	-1755.69	  402.25
     31.4700	  538.00	  540.29	-1764.79	  401.98
     31.5700	  568.00	  533.93	-1728.43	  401.71
     31.6700	  544.00	  530.67	-1749.17	  401.44
     31.7700	  532.00	  528.88	-1759.38	  401.18
     31.8700	  564.00	  527.75	-1726.25	  400.91
     31.9700	  550.00	  526.98	-1739.48	  400.65
     32.0700	  584.00	  526.43	-1704.93	  400.39
     32.1700	  534.00	  526.07	-1754.56	  400.13
     32.2700	  535.00	  525.85	-1753.35	  399.87
     32.3700	  574.00	  525.79	-1714.29	  399.61
     32.4700	  511.00	  525.87	-1777.37	  399.35
     32.5700	  551.00	  526.13	-1737.63	  399.09
     32.6700	  547.00	  526.58	-1742.08	  398.84
     32.7700	  545.00	  527.27	-1744.77	  398.59
     32.8700	  491.00	  528.26	-1799.76	  398.34
     32.9700	  550.00	  529.68	-1742.18	  398.09
     33.0700	  587.00	  531.73	-1707.23	  397.84
     33.1700	  535.00	  534.86	-1762.36	  397.59
     33.2700	  557.00	  540.09	-1745.59	  397.34
     33.3700	  513.00	  549.70	-1799.20	  397.10
     33.4700	  543.00	  568.04	-1787.54	  396.85
     33.5700	  632.00	  602.12	-1732.62	  396.61
     33.6700	  676.00	  660.24	-1746.74	  396.37
     33.7700	  698.00	  746.38	-1810.88	  396.13
     33.8700	  878.00	  851.64	-1736.14	  395.90
     33.9700	 1048.00	  948.26	-1662.76	  395.66
     34.0700	 1092.00	  992.83	-1663.33	  395.43
     34.1700	 1047.00	  952.18	-1667.68	  395.19
     34.2700	  896.00	  846.95	-1713.45	  394.96
     34.3700	  711.00	  732.26	-1783.76	  394.73
     34.4700	  655.00	  642.98	-1750.48	  394.50
     34.5700	  600.00	  586.74	-1749.24	  394.28
     34.6700	  561.00	  556.33	-1757.83	  394.05
     34.7700	  536.00	  541.12	-1767.62	  393.83
     34.8700	  546.00	  533.25	-1749.75	  393.60
     34.9700	  531.00	  528.58	-1760.08	  393.38
     35.0700	  518.00	  525.38	-1769.88	  393.16
     35.1700	  540.00	  522.97	-1745.47	  392.94
     35.2700	  526.00	  521.08	-1757.58	  392.73
     35.3700	  523.00	  519.54	-1759.04	  392.51
     35.4700	  546.00	  518.26	-1734.76	  392.30
     35.5700	  512.00	  517.18	-1767.68	  392.09
     35.6700	  531.00	  516.26	-1747.76	  391.88
     35.7700	  533.00	  515.46	-1744.96	  391.67
     35.8700	  486.00	  514.76	-1791.26	  391.46
     35.9700	  492.00	  514.62	-1785.12	  391.26
     36.0700	  537.00	  514.07	-1739.57	  391.05
     36.1700	  489.00	  513.58	-1787.08	  390.85
     36.2700	  512.00	  513.13	-1763.63	  390.65
     36.3700	  479.00	  512.73	-1796.23	  390.45
     36.4700	  526.00	  512.36	-1748.86	  390.25
     36.5700	  522.00	  512.03	-1752.53	  390.06
     36.6700	  552.00	  511.74	-1722.24	  389.86
     36.7700	  494.00	  511.50	-1780.00	  389.67
     36.8700	  514.00	  511.31	-1759.81	  389.48
     36.9700	  509.00	  511.23	-1764.73	  389.29
     37.0700	  522.00	  511.36	-1751.86	  389.10
     37.1700	  508.00	  511.91	-1766.41	  388.92
     37.2700	  513.00	  513.20	-1762.70	  388.73
     37.3700	  508.00	  515.55	-1770.05	  388.55
     37.4700	  522.00	  519.03	-1759.53	  388.37
     37.5700	  513.00	  523.11	-1772.61	  388.19
     37.6700	  488.00	  526.58	-1801.08	  388.01
     37.7700	  541.00	  528.00	-1749.50	  387.83
     37.8700	  572.00	  526.90	-1717.40	  387.66
     37.9700	  498.00	  524.29	-1788.79	  387.49
     38.0700	  475.00	  521.08	-1808.58	  387.31
     38.1700	  529.00	  517.59	-1751.09	  387.15
     38.2700	  497.00	  514.28	-1779.78	  386.98
     38.3700	  515.00	  511.59	-1759.09	  386.81
     38.4700	  532.00	  509.69	-1740.19	  386.65
     38.5700	  514.00	  508.45	-1756.95	  386.48
     38.6700	  487.00	  507.70	-1783.20	  386.32
     38.7700	  516.00	  507.13	-1753.63	  386.16
     38.8700	  486.00	  506.80	-1783.30	  386.00
     38.9700	  520.00	  506.54	-1749.04	  385.85
     39.0700	  488.00	  506.32	-1780.82	  385.69
     39.1700	  487.00	  506.12	-1781.62	  385.54
     39.2700	  496.00	  505.86	-1772.36	  385.39
     39.3700	  552.00	  505.69	-1716.19	  385.24
     39.4700	  464.00	  505.54	-1804.04	  385.09
     39.5700	  543.00	  505.39	-1724.89	  384.95
     39.6700	  528.00	  505.38	-1739.88	  384.80
     39.7700	  525.00	  505.26	-1742.76	  384.66
     39.8700	  551.00	  505.15	-1716.65	  384.52
     39.9700	  488.00	  505.04	-1779.54	  384.38
     40.0700	  520.00	  504.95	-1747.45	  384.24
     40.1700	  509.00	  504.87	-1758.37	  384.10
     40.2700	  473.00	  504.79	-1794.29	  383.97
     40.3700	  494.00	  504.73	-1773.23	  383.84
     40.4700	  477.00	  504.68	-1790.18	  383.71
     40.5700	  540.00	  504.65	-1727.15	  383.58
     40.6700	  486.00	  504.63	-1781.13	  383.45
     40.7700	  472.00	  504.64	-1795.14	  383.32
