MSG Master    CELL:    5.91956   5.91956  23.28170   90.0000   90.0000  120.0000   SPGR: P 63/m m c             TEMP:   1074.85
  1   1280     2.52000     0.00000    -0.11875     0.00000     0.00000    0
    99     0     2
       0.00000      10.00000
     125.00000     130.00000
 2Theta	Yobs	Ycal	Yobs-Ycal	Backg	Posr	(hkl)	K
      0.7700	    0.00	  537.81	-1739.50	  420.48
      0.8700	    0.00	  538.65	-1739.50	  421.32
      0.9700	   40.00	  539.48	-1739.50	  422.15
      1.0700	   47.00	  540.30	-1739.50	  422.97
      1.1700	   38.00	  541.11	-1739.50	  423.78
      1.2700	   35.00	  541.91	-1739.50	  424.58
      1.3700	   38.00	  542.70	-1739.50	  425.36
      1.4700	   89.00	  543.47	-1739.50	  426.14
      1.5700	  332.00	  544.23	-1739.50	  426.90
      1.6700	  468.00	  544.98	-1739.50	  427.65
      1.7700	  593.00	  545.72	-1739.50	  428.39
      1.8700	  644.00	  546.45	-1739.50	  429.12
      1.9700	  732.00	  547.17	-1739.50	  429.83
      2.0700	  790.00	  547.87	-1739.50	  430.54
      2.1700	  784.00	  548.57	-1739.50	  431.24
      2.2700	  778.00	  549.25	-1739.50	  431.92
      2.3700	  727.00	  549.92	-1739.50	  432.59
      2.4700	  702.00	  550.59	-1739.50	  433.25
      2.5700	  745.00	  551.24	-1739.50	  433.91
      2.6700	  700.00	  551.88	-1739.50	  434.55
      2.7700	  647.00	  552.51	-1739.50	  435.18
      2.8700	  626.00	  553.13	-1739.50	  435.80
      2.9700	  637.00	  553.74	-1739.50	  436.41
      3.0700	  578.00	  554.34	-1739.50	  437.01
      3.1700	  615.00	  554.93	-1739.50	  437.59
      3.2700	  599.00	  555.50	-1739.50	  438.17
      3.3700	  723.00	  556.07	-1739.50	  438.74
      3.4700	  749.00	  556.63	-1739.50	  439.30
      3.5700	  820.00	  557.18	-1739.50	  439.85
      3.6700	  908.00	  557.72	-1739.50	  440.39
      3.7700	  927.00	  558.25	-1739.50	  440.91
      3.8700	 1083.00	  558.76	-1739.50	  441.43
      3.9700	  999.00	  559.27	-1739.50	  441.94
      4.0700	 1021.00	  559.77	-1739.50	  442.44
      4.1700	 1068.00	  560.26	-1739.50	  442.93
      4.2700	 1083.00	  560.74	-1739.50	  443.41
      4.3700	 1022.00	  561.22	-1739.50	  443.88
      4.4700	 1069.00	  561.68	-1739.50	  444.35
      4.5700	 1023.00	  562.13	-1739.50	  444.80
      4.6700	 1012.00	  562.57	-1739.50	  445.24
      4.7700	 1011.00	  563.01	-1739.50	  445.67
      4.8700	  999.00	  563.43	-1739.50	  446.10
      4.9700	  947.00	  563.85	-1739.50	  446.52
      5.0700	  969.00	  564.25	-1739.50	  446.92
      5.1700	  927.00	  564.65	-1739.50	  447.32
      5.2700	  853.00	  565.04	-1739.50	  447.71
      5.3700	  851.00	  565.42	-1739.50	  448.09
      5.4700	  918.00	  565.79	-1739.50	  448.46
      5.5700	  864.00	  566.16	-1739.50	  448.83
      5.6700	  857.00	  566.51	-1739.50	  449.18
      5.7700	  838.00	  566.86	-1739.50	  449.53
      5.8700	  845.00	  567.20	-1739.50	  449.87
      5.9700	  773.00	  567.53	-1739.50	  450.20
      6.0700	  796.00	  567.85	-1739.50	  450.52
      6.1700	  810.00	  568.16	-1739.50	  450.83
      6.2700	  764.00	  568.47	-1739.50	  451.14
      6.3700	  740.00	  568.76	-1739.50	  451.43
      6.4700	  752.00	  569.05	-1739.50	  451.72
      6.5700	  768.00	  569.33	-1739.50	  452.00
      6.6700	  712.00	  569.61	-1739.50	  452.28
      6.7700	  730.00	  569.87	-1739.50	  452.54
      6.8700	  720.00	  570.13	-1739.50	  452.80
      6.9700	  727.00	  570.38	-1739.50	  453.05
      7.0700	  721.00	  570.62	-1739.50	  453.29
      7.1700	  733.00	  570.86	-1739.50	  453.53
      7.2700	  679.00	  571.09	-1739.50	  453.75
      7.3700	  692.00	  571.31	-1739.50	  453.97
      7.4700	  708.00	  571.52	-1739.50	  454.19
      7.5700	  704.00	  571.72	-1739.50	  454.39
      7.6700	  639.00	  571.92	-1739.50	  454.59
      7.7700	  631.00	  572.11	-1739.50	  454.78
      7.8700	  669.00	  572.30	-1739.50	  454.97
      7.9700	  648.00	  572.47	-1739.50	  455.14
      8.0700	  679.00	  572.64	-1739.50	  455.31
      8.1700	  669.00	  572.81	-1739.50	  455.47
      8.2700	  616.00	  572.96	-1739.50	  455.63
      8.3700	  668.00	  573.11	-1739.50	  455.78
      8.4700	  636.00	  573.25	-1739.50	  455.92
      8.5700	  603.00	  573.39	-1739.50	  456.06
      8.6700	  588.00	  573.52	-1739.50	  456.19
      8.7700	  641.00	  573.64	-1739.50	  456.31
      8.8700	  633.00	  573.76	-1739.50	  456.42
      8.9700	  609.00	  573.87	-1739.50	  456.53
      9.0700	  568.00	  573.97	-1739.50	  456.64
      9.1700	  609.00	  574.07	-1739.50	  456.73
      9.2700	  642.00	  574.16	-1739.50	  456.82
      9.3700	  619.00	  574.24	-1739.50	  456.91
      9.4700	  589.00	  574.32	-1739.50	  456.99
      9.5700	  610.00	  574.39	-1739.50	  457.06
      9.6700	  595.00	  574.46	-1739.50	  457.12
      9.7700	  648.00	  574.52	-1739.50	  457.18
      9.8700	  619.00	  574.57	-1739.50	  457.24
      9.9700	  581.00	  574.62	-1739.50	  457.29
     10.0700	  619.00	  575.53	-1696.03	  457.33
     10.1700	  547.00	  575.66	-1768.16	  457.36
     10.2700	  608.00	  575.81	-1707.31	  457.39
     10.3700	  607.00	  575.99	-1708.49	  457.42
     10.4700	  577.00	  576.22	-1738.72	  457.44
     10.5700	  566.00	  576.57	-1750.07	  457.45
     10.6700	  570.00	  577.12	-1746.62	  457.46
     10.7700	  591.00	  577.99	-1726.49	  457.46
     10.8700	  594.00	  579.23	-1724.73	  457.46
     10.9700	  595.00	  580.86	-1725.36	  457.45
     11.0700	  608.00	  582.84	-1714.34	  457.44
     11.1700	  576.00	  585.16	-1748.66	  457.42
     11.2700	  578.00	  587.87	-1749.37	  457.40
     11.3700	  599.00	  591.03	-1731.53	  457.37
     11.4700	  610.00	  594.78	-1724.28	  457.33
     11.5700	  619.00	  599.33	-1719.83	  457.30
     11.6700	  633.00	  605.01	-1711.51	  457.25
     11.7700	  592.00	  612.42	-1759.92	  457.20
     11.8700	  672.00	  622.38	-1689.88	  457.15
     11.9700	  652.00	  635.39	-1722.89	  457.09
     12.0700	  655.00	  649.81	-1734.31	  457.03
     12.1700	  680.00	  659.95	-1719.45	  456.96
     12.2700	  686.00	  656.91	-1710.41	  456.89
     12.3700	  639.00	  637.75	-1738.25	  456.81
     12.4700	  634.00	  613.81	-1719.31	  456.73
     12.5700	  602.00	  595.77	-1733.27	  456.64
     12.6700	  557.00	  585.54	-1768.04	  456.55
     12.7700	  593.00	  580.67	-1727.17	  456.45
     12.8700	  559.00	  578.41	-1758.91	  456.35
     12.9700	  562.00	  577.17	-1754.67	  456.25
     13.0700	  597.00	  576.36	-1718.86	  456.14
     13.1700	  550.00	  575.74	-1765.24	  456.03
     13.2700	  517.00	  575.25	-1797.75	  455.91
     13.3700	  566.00	  574.84	-1748.34	  455.79
     13.4700	  561.00	  574.49	-1752.99	  455.67
     13.5700	  559.00	  574.18	-1754.68	  455.54
     13.6700	  569.00	  573.90	-1744.41	  455.40
     13.7700	  576.00	  573.65	-1737.15	  455.27
     13.8700	  546.00	  573.41	-1766.91	  455.13
     13.9700	  613.00	  573.18	-1699.68	  454.98
     14.0700	  551.00	  572.96	-1761.46	  454.83
     14.1700	  588.00	  572.74	-1724.24	  454.68
     14.2700	  549.00	  572.54	-1763.04	  454.52
     14.3700	  547.00	  572.33	-1764.83	  454.37
     14.4700	  574.00	  572.13	-1737.63	  454.20
     14.5700	  548.00	  571.92	-1763.42	  454.03
     14.6700	  609.00	  571.72	-1702.22	  453.86
     14.7700	  548.00	  571.52	-1763.02	  453.69
     14.8700	  543.00	  571.32	-1767.82	  453.51
     14.9700	  545.00	  571.12	-1765.62	  453.33
     15.0700	  546.00	  570.91	-1764.41	  453.15
     15.1700	  505.00	  570.71	-1805.21	  452.96
     15.2700	  574.00	  570.50	-1736.00	  452.77
     15.3700	  595.00	  570.29	-1714.79	  452.58
     15.4700	  576.00	  570.08	-1733.58	  452.38
     15.5700	  572.00	  569.87	-1737.37	  452.18
     15.6700	  544.00	  569.65	-1765.15	  451.98
     15.7700	  550.00	  569.44	-1758.94	  451.77
     15.8700	  603.00	  569.24	-1705.74	  451.56
     15.9700	  583.00	  569.02	-1725.52	  451.35
     16.0700	  559.00	  568.80	-1749.30	  451.13
     16.1700	  553.00	  568.57	-1755.07	  450.91
     16.2700	  537.00	  568.35	-1770.85	  450.69
     16.3700	  555.00	  568.12	-1752.62	  450.47
     16.4700	  572.00	  567.89	-1735.39	  450.24
     16.5700	  571.00	  567.65	-1736.15	  450.01
     16.6700	  558.00	  567.41	-1748.91	  449.78
     16.7700	  563.00	  567.18	-1743.68	  449.54
     16.8700	  569.00	  566.93	-1737.43	  449.31
     16.9700	  554.00	  566.69	-1752.19	  449.07
     17.0700	  563.00	  566.45	-1742.95	  448.83
     17.1700	  588.00	  566.20	-1717.70	  448.58
     17.2700	  582.00	  565.95	-1723.45	  448.33
     17.3700	  556.00	  565.70	-1749.20	  448.08
     17.4700	  573.00	  565.44	-1731.94	  447.83
     17.5700	  582.00	  565.18	-1722.69	  447.58
     17.6700	  566.00	  564.93	-1738.43	  447.32
     17.7700	  554.00	  564.67	-1750.17	  447.06
     17.8700	  545.00	  564.40	-1758.90	  446.80
     17.9700	  540.00	  564.14	-1763.64	  446.54
     18.0700	  552.00	  563.98	-1751.48	  446.27
     18.1700	  541.00	  563.71	-1762.21	  446.00
     18.2700	  532.00	  563.44	-1770.94	  445.73
     18.3700	  530.00	  563.17	-1772.67	  445.46
     18.4700	  548.00	  562.90	-1754.40	  445.19
     18.5700	  540.00	  562.63	-1762.13	  444.91
     18.6700	  585.00	  562.35	-1716.85	  444.63
     18.7700	  538.00	  562.07	-1763.57	  444.35
     18.8700	  579.00	  561.88	-1722.38	  444.07
     18.9700	  554.00	  561.60	-1747.10	  443.79
     19.0700	  497.00	  561.33	-1803.83	  443.50
     19.1700	  561.00	  561.04	-1739.54	  443.22
     19.2700	  550.00	  560.76	-1750.26	  442.93
     19.3700	  525.00	  560.48	-1774.98	  442.64
     19.4700	  588.00	  560.19	-1711.69	  442.35
     19.5700	  558.00	  559.91	-1741.41	  442.05
     19.6700	  577.00	  559.62	-1722.12	  441.76
     19.7700	  548.00	  559.33	-1750.83	  441.46
     19.8700	  585.00	  559.04	-1713.54	  441.16
     19.9700	  570.00	  558.75	-1728.25	  440.86
     20.0700	  547.00	  558.46	-1750.96	  440.56
     20.1700	  535.00	  558.17	-1762.67	  440.26
     20.2700	  563.00	  557.87	-1734.37	  439.96
     20.3700	  591.00	  557.58	-1706.08	  439.65
     20.4700	  598.00	  557.29	-1698.79	  439.35
     20.5700	  542.00	  556.99	-1754.49	  439.04
     20.6700	  579.00	  556.70	-1717.20	  438.73
     20.7700	  564.00	  556.43	-1731.93	  438.42
     20.8700	  595.00	  556.14	-1700.64	  438.11
     20.9700	  531.00	  555.81	-1764.31	  437.80
     21.0700	  551.00	  555.51	-1744.01	  437.48
     21.1700	  549.00	  555.22	-1745.72	  437.17
     21.2700	  555.00	  554.92	-1739.42	  436.85
     21.3700	  617.00	  554.63	-1677.13	  436.54
     21.4700	  577.00	  554.33	-1716.83	  436.22
     21.5700	  591.00	  554.04	-1702.54	  435.90
     21.6700	  555.00	  553.75	-1738.25	  435.58
     21.7700	  599.00	  553.45	-1693.95	  435.26
     21.8700	  584.00	  553.16	-1708.66	  434.94
     21.9700	  511.00	  552.87	-1781.37	  434.62
     22.0700	  520.00	  552.59	-1772.09	  434.29
     22.1700	  569.00	  552.30	-1722.80	  433.97
     22.2700	  534.00	  552.02	-1757.52	  433.65
     22.3700	  550.00	  551.74	-1741.24	  433.32
     22.4700	  533.00	  551.47	-1757.97	  432.99
     22.5700	  555.00	  551.20	-1735.70	  432.67
     22.6700	  544.00	  550.93	-1746.43	  432.34
     22.7700	  572.00	  550.68	-1718.18	  432.01
     22.8700	  550.00	  550.43	-1739.93	  431.68
     22.9700	  545.00	  550.19	-1744.69	  431.36
     23.0700	  559.00	  549.97	-1730.47	  431.03
     23.1700	  610.00	  549.76	-1679.26	  430.70
     23.2700	  533.00	  549.57	-1756.07	  430.37
     23.3700	  550.00	  549.41	-1738.91	  430.03
     23.4700	  539.00	  549.29	-1749.79	  429.70
     23.5700	  552.00	  549.35	-1736.85	  429.37
     23.6700	  530.00	  549.35	-1758.85	  429.04
     23.7700	  546.00	  549.47	-1742.97	  428.71
     23.8700	  570.00	  549.82	-1719.32	  428.37
     23.9700	  487.00	  550.61	-1803.11	  428.04
     24.0700	  521.00	  552.25	-1770.75	  427.71
     24.1700	  588.00	  555.36	-1706.86	  427.37
     24.2700	  566.00	  560.72	-1734.22	  427.04
     24.3700	  593.00	  569.22	-1715.72	  426.71
     24.4700	  587.00	  581.69	-1734.19	  426.37
     24.5700	  562.00	  598.12	-1775.62	  426.04
     24.6700	  631.00	  615.74	-1724.24	  425.70
     24.7700	  638.00	  627.49	-1728.99	  425.37
     24.8700	  604.00	  624.25	-1759.75	  425.03
     24.9700	  650.00	  605.21	-1694.71	  424.70
     25.0700	  594.00	  582.27	-1727.77	  424.37
     25.1700	  511.00	  564.84	-1793.34	  424.03
     25.2700	  549.00	  554.67	-1745.17	  423.70
     25.3700	  579.00	  549.65	-1710.15	  423.36
     25.4700	  560.00	  547.27	-1726.77	  423.03
     25.5700	  509.00	  545.98	-1776.48	  422.69
     25.6700	  535.00	  545.15	-1749.65	  422.36
     25.7700	  594.00	  544.54	-1690.04	  422.03
     25.8700	  547.00	  544.08	-1736.58	  421.69
     25.9700	  571.00	  543.72	-1712.22	  421.36
     26.0700	  566.00	  543.46	-1716.96	  421.02
     26.1700	  572.00	  543.27	-1710.77	  420.69
     26.2700	  564.00	  543.17	-1718.67	  420.36
     26.3700	  486.00	  543.14	-1796.64	  420.03
     26.4700	  582.00	  543.19	-1700.69	  419.69
     26.5700	  635.00	  543.34	-1647.84	  419.36
     26.6700	  553.00	  543.60	-1730.10	  419.03
     26.7700	  536.00	  544.00	-1747.50	  418.70
     26.8700	  509.00	  544.57	-1775.07	  418.37
     26.9700	  562.00	  545.36	-1722.86	  418.04
     27.0700	  580.00	  546.45	-1705.95	  417.71
     27.1700	  560.00	  547.96	-1727.46	  417.38
     27.2700	  537.00	  550.13	-1752.63	  417.05
     27.3700	  567.00	  553.45	-1725.95	  416.72
     27.4700	  565.00	  558.85	-1733.35	  416.39
     27.5700	  525.00	  568.03	-1782.53	  416.06
     27.6700	  536.00	  583.70	-1787.20	  415.74
     27.7700	  557.00	  609.39	-1791.89	  415.41
     27.8700	  601.00	  648.29	-1786.79	  415.08
     27.9700	  679.00	  700.78	-1761.28	  414.76
     28.0700	  772.00	  761.23	-1728.73	  414.43
     28.1700	  872.00	  815.06	-1682.56	  414.11
     28.2700	  952.00	  839.76	-1627.26	  413.78
     28.3700	  826.00	  820.80	-1734.30	  413.46
     28.4700	  779.00	  777.93	-1738.43	  413.14
     28.5700	  792.00	  746.97	-1694.47	  412.82
     28.6700	  709.00	  745.22	-1775.72	  412.50
     28.7700	  736.00	  768.71	-1772.21	  412.18
     28.8700	  757.00	  797.90	-1780.40	  411.86
     28.9700	  821.00	  804.56	-1723.06	  411.54
     29.0700	  776.00	  769.51	-1733.01	  411.22
     29.1700	  737.00	  706.85	-1709.35	  410.91
     29.2700	  650.00	  645.80	-1735.30	  410.59
     29.3700	  596.00	  601.10	-1744.60	  410.27
     29.4700	  587.00	  573.73	-1726.23	  409.96
     29.5700	  573.00	  558.79	-1725.29	  409.65
     29.6700	  598.00	  550.87	-1692.37	  409.33
     29.7700	  611.00	  546.39	-1674.89	  409.02
     29.8700	  520.00	  543.59	-1763.09	  408.71
     29.9700	  583.00	  541.79	-1698.29	  408.40
     30.0700	  587.00	  540.79	-1693.29	  408.09
     30.1700	  576.00	  540.73	-1704.23	  407.79
     30.2700	  549.00	  542.05	-1732.55	  407.48
     30.3700	  585.00	  545.69	-1700.19	  407.17
     30.4700	  509.00	  553.05	-1783.55	  406.87
     30.5700	  580.00	  565.61	-1725.11	  406.56
     30.6700	  567.00	  583.79	-1756.29	  406.26
     30.7700	  603.00	  605.40	-1741.90	  405.96
     30.8700	  612.00	  624.47	-1751.97	  405.66
     30.9700	  649.00	  631.66	-1722.16	  405.36
     31.0700	  589.00	  620.35	-1770.85	  405.06
     31.1700	  589.00	  596.23	-1746.73	  404.76
     31.2700	  566.00	  571.52	-1745.02	  404.47
     31.3700	  551.00	  552.94	-1741.44	  404.17
     31.4700	  527.00	  541.43	-1753.93	  403.88
     31.5700	  517.00	  535.16	-1757.66	  403.59
     31.6700	  529.00	  531.88	-1742.38	  403.30
     31.7700	  574.00	  530.06	-1695.56	  403.01
     31.8700	  543.00	  528.91	-1725.41	  402.72
     31.9700	  544.00	  528.12	-1723.62	  402.43
     32.0700	  512.00	  527.56	-1755.06	  402.14
     32.1700	  527.00	  527.17	-1739.68	  401.86
     32.2700	  587.00	  526.95	-1679.45	  401.57
     32.3700	  555.00	  526.87	-1711.37	  401.29
     32.4700	  584.00	  526.95	-1682.45	  401.01
     32.5700	  542.00	  527.21	-1724.71	  400.73
     32.6700	  545.00	  527.66	-1722.16	  400.45
     32.7700	  574.00	  528.35	-1693.85	  400.17
     32.8700	  536.00	  529.37	-1732.87	  399.90
     32.9700	  524.00	  530.82	-1746.32	  399.62
     33.0700	  538.00	  532.92	-1734.42	  399.35
     33.1700	  576.00	  536.13	-1699.63	  399.08
     33.2700	  518.00	  541.51	-1763.01	  398.81
     33.3700	  597.00	  551.28	-1693.78	  398.54
     33.4700	  537.00	  569.64	-1772.14	  398.27
     33.5700	  570.00	  603.17	-1772.67	  398.00
     33.6700	  633.00	  659.30	-1765.80	  397.74
     33.7700	  741.00	  741.19	-1739.69	  397.47
     33.8700	  875.00	  840.05	-1704.55	  397.21
     33.9700	  972.00	  929.90	-1697.40	  396.95
     34.0700	 1058.00	  970.82	-1652.32	  396.69
     34.1700	  974.00	  932.52	-1698.02	  396.43
     34.2700	  842.00	  834.24	-1731.74	  396.18
     34.3700	  708.00	  726.68	-1758.18	  395.92
     34.4700	  705.00	  642.07	-1676.57	  395.67
     34.5700	  595.00	  587.79	-1732.29	  395.42
     34.6700	  551.00	  557.71	-1746.21	  395.17
     34.7700	  547.00	  542.29	-1734.79	  394.92
     34.8700	  565.00	  534.16	-1708.66	  394.67
     34.9700	  513.00	  529.34	-1755.84	  394.42
     35.0700	  524.00	  526.02	-1741.52	  394.18
     35.1700	  506.00	  523.53	-1757.03	  393.94
     35.2700	  515.00	  521.55	-1746.05	  393.70
     35.3700	  523.00	  519.95	-1736.45	  393.46
     35.4700	  512.00	  518.62	-1746.12	  393.22
     35.5700	  531.00	  517.49	-1725.99	  392.98
     35.6700	  539.00	  516.53	-1717.03	  392.75
     35.7700	  516.00	  515.69	-1739.19	  392.51
     35.8700	  490.00	  514.95	-1764.45	  392.28
     35.9700	  514.00	  514.29	-1739.79	  392.05
     36.0700	  512.00	  514.17	-1741.67	  391.82
     36.1700	  526.00	  513.65	-1727.15	  391.60
     36.2700	  525.00	  513.18	-1727.68	  391.37
     36.3700	  514.00	  512.75	-1738.25	  391.15
     36.4700	  538.00	  512.37	-1713.87	  390.93
     36.5700	  514.00	  512.02	-1737.52	  390.71
     36.6700	  503.00	  511.72	-1748.22	  390.49
     36.7700	  490.00	  511.47	-1760.97	  390.27
     36.8700	  505.00	  511.30	-1745.80	  390.06
     36.9700	  506.00	  511.28	-1744.78	  389.84
     37.0700	  566.00	  511.54	-1685.04	  389.63
     37.1700	  539.00	  512.34	-1712.84	  389.42
     37.2700	  508.00	  514.03	-1745.53	  389.21
     37.3700	  520.00	  516.91	-1736.41	  389.01
     37.4700	  566.00	  520.89	-1694.39	  388.80
     37.5700	  487.00	  525.20	-1777.70	  388.60
     37.6700	  508.00	  528.35	-1759.85	  388.40
     37.7700	  527.00	  528.72	-1741.22	  388.20
     37.8700	  536.00	  526.14	-1729.64	  388.00
     37.9700	  525.00	  522.14	-1736.64	  387.80
     38.0700	  578.00	  518.10	-1679.60	  387.61
     38.1700	  514.00	  514.58	-1740.08	  387.41
     38.2700	  549.00	  511.79	-1702.29	  387.22
     38.3700	  523.00	  509.78	-1726.28	  387.03
     38.4700	  518.00	  508.41	-1729.91	  386.85
     38.5700	  525.00	  507.41	-1721.91	  386.66
     38.6700	  515.00	  506.82	-1731.32	  386.48
     38.7700	  473.00	  506.40	-1772.90	  386.29
     38.8700	  520.00	  506.08	-1725.58	  386.11
     38.9700	  535.00	  505.81	-1710.31	  385.93
     39.0700	  492.00	  505.57	-1753.07	  385.76
     39.1700	  549.00	  505.27	-1695.77	  385.58
     39.2700	  499.00	  505.07	-1745.57	  385.41
     39.3700	  506.00	  505.02	-1738.52	  385.24
     39.4700	  504.00	  504.84	-1740.34	  385.07
     39.5700	  485.00	  504.68	-1759.18	  384.90
     39.6700	  498.00	  504.53	-1746.03	  384.73
     39.7700	  481.00	  504.38	-1762.88	  384.57
     39.8700	  488.00	  504.25	-1755.75	  384.41
     39.9700	  517.00	  504.13	-1726.63	  384.24
     40.0700	  506.00	  504.01	-1737.51	  384.09
     40.1700	  531.00	  503.91	-1712.41	  383.93
     40.2700	  493.00	  503.81	-1750.31	  383.77
     40.3700	  497.00	  503.73	-1746.23	  383.62
     40.4700	  531.00	  503.67	-1712.17	  383.47
     40.5700	  526.00	  503.61	-1717.11	  383.32
     40.6700	  484.00	  503.58	-1759.08	  383.17
     40.7700	  533.00	  503.56	-1710.06	  383.02
