MSG Master    CELL:    5.91889   5.91889  23.28275   90.0000   90.0000  120.0000   SPGR: P 63/m m c             TEMP:   1056.85
  1   1280     2.52000     0.00000    -0.12117     0.00000     0.00000    0
    99     0     2
       0.00000      10.00000
     125.00000     130.00000
 2Theta	Yobs	Ycal	Yobs-Ycal	Backg	Posr	(hkl)	K
      0.7700	    0.00	  507.27	-1725.00	  390.17
      0.8700	    0.00	  508.46	-1725.00	  391.36
      0.9700	   43.00	  509.63	-1725.00	  392.53
      1.0700	   43.00	  510.78	-1725.00	  393.68
      1.1700	   36.00	  511.92	-1725.00	  394.82
      1.2700	   41.00	  513.05	-1725.00	  395.95
      1.3700	   39.00	  514.16	-1725.00	  397.06
      1.4700	   88.00	  515.26	-1725.00	  398.16
      1.5700	  278.00	  516.34	-1725.00	  399.24
      1.6700	  449.00	  517.41	-1725.00	  400.31
      1.7700	  588.00	  518.46	-1725.00	  401.36
      1.8700	  657.00	  519.51	-1725.00	  402.41
      1.9700	  672.00	  520.54	-1725.00	  403.44
      2.0700	  798.00	  521.55	-1725.00	  404.45
      2.1700	  789.00	  522.55	-1725.00	  405.45
      2.2700	  776.00	  523.54	-1725.00	  406.44
      2.3700	  743.00	  524.52	-1725.00	  407.42
      2.4700	  745.00	  525.48	-1725.00	  408.38
      2.5700	  647.00	  526.43	-1725.00	  409.33
      2.6700	  690.00	  527.36	-1725.00	  410.26
      2.7700	  677.00	  528.28	-1725.00	  411.18
      2.8700	  639.00	  529.19	-1725.00	  412.09
      2.9700	  605.00	  530.09	-1725.00	  412.99
      3.0700	  560.00	  530.98	-1725.00	  413.88
      3.1700	  571.00	  531.85	-1725.00	  414.75
      3.2700	  609.00	  532.71	-1725.00	  415.61
      3.3700	  698.00	  533.55	-1725.00	  416.45
      3.4700	  774.00	  534.39	-1725.00	  417.29
      3.5700	  818.00	  535.21	-1725.00	  418.11
      3.6700	  888.00	  536.02	-1725.00	  418.92
      3.7700	 1004.00	  536.82	-1725.00	  419.72
      3.8700	 1007.00	  537.61	-1725.00	  420.51
      3.9700	  997.00	  538.38	-1725.00	  421.28
      4.0700	 1027.00	  539.14	-1725.00	  422.04
      4.1700	 1136.00	  539.89	-1725.00	  422.79
      4.2700	 1142.00	  540.63	-1725.00	  423.53
      4.3700	 1149.00	  541.36	-1725.00	  424.26
      4.4700	 1109.00	  542.07	-1725.00	  424.97
      4.5700	 1073.00	  542.78	-1725.00	  425.68
      4.6700	 1059.00	  543.47	-1725.00	  426.37
      4.7700	  982.00	  544.15	-1725.00	  427.05
      4.8700	 1033.00	  544.82	-1725.00	  427.72
      4.9700	  983.00	  545.48	-1725.00	  428.38
      5.0700	  934.00	  546.13	-1725.00	  429.03
      5.1700	  873.00	  546.77	-1725.00	  429.67
      5.2700	  921.00	  547.40	-1725.00	  430.30
      5.3700	  901.00	  548.01	-1725.00	  430.91
      5.4700	  926.00	  548.62	-1725.00	  431.52
      5.5700	  922.00	  549.21	-1725.00	  432.11
      5.6700	  839.00	  549.80	-1725.00	  432.70
      5.7700	  811.00	  550.37	-1725.00	  433.27
      5.8700	  848.00	  550.93	-1725.00	  433.83
      5.9700	  843.00	  551.49	-1725.00	  434.39
      6.0700	  826.00	  552.03	-1725.00	  434.93
      6.1700	  775.00	  552.56	-1725.00	  435.46
      6.2700	  746.00	  553.08	-1725.00	  435.98
      6.3700	  735.00	  553.60	-1725.00	  436.50
      6.4700	  765.00	  554.10	-1725.00	  437.00
      6.5700	  740.00	  554.59	-1725.00	  437.49
      6.6700	  770.00	  555.07	-1725.00	  437.97
      6.7700	  777.00	  555.55	-1725.00	  438.45
      6.8700	  722.00	  556.01	-1725.00	  438.91
      6.9700	  753.00	  556.46	-1725.00	  439.36
      7.0700	  710.00	  556.91	-1725.00	  439.81
      7.1700	  722.00	  557.34	-1725.00	  440.24
      7.2700	  629.00	  557.77	-1725.00	  440.67
      7.3700	  656.00	  558.18	-1725.00	  441.08
      7.4700	  702.00	  558.59	-1725.00	  441.49
      7.5700	  669.00	  558.99	-1725.00	  441.89
      7.6700	  639.00	  559.38	-1725.00	  442.28
      7.7700	  637.00	  559.76	-1725.00	  442.66
      7.8700	  617.00	  560.13	-1725.00	  443.03
      7.9700	  607.00	  560.49	-1725.00	  443.39
      8.0700	  643.00	  560.84	-1725.00	  443.74
      8.1700	  674.00	  561.19	-1725.00	  444.09
      8.2700	  634.00	  561.52	-1725.00	  444.42
      8.3700	  598.00	  561.85	-1725.00	  444.75
      8.4700	  606.00	  562.17	-1725.00	  445.07
      8.5700	  598.00	  562.48	-1725.00	  445.38
      8.6700	  605.00	  562.78	-1725.00	  445.68
      8.7700	  651.00	  563.08	-1725.00	  445.98
      8.8700	  568.00	  563.36	-1725.00	  446.26
      8.9700	  585.00	  563.64	-1725.00	  446.54
      9.0700	  597.00	  563.91	-1725.00	  446.81
      9.1700	  633.00	  564.17	-1725.00	  447.07
      9.2700	  606.00	  564.42	-1725.00	  447.32
      9.3700	  603.00	  564.67	-1725.00	  447.57
      9.4700	  606.00	  564.91	-1725.00	  447.81
      9.5700	  656.00	  565.14	-1725.00	  448.04
      9.6700	  577.00	  565.36	-1725.00	  448.26
      9.7700	  628.00	  565.57	-1725.00	  448.47
      9.8700	  580.00	  565.78	-1725.00	  448.68
      9.9700	  570.00	  565.98	-1725.00	  448.88
     10.0700	  588.00	  567.47	-1704.47	  449.07
     10.1700	  605.00	  567.80	-1687.80	  449.26
     10.2700	  605.00	  568.16	-1688.16	  449.43
     10.3700	  574.00	  568.57	-1719.57	  449.60
     10.4700	  607.00	  569.06	-1687.06	  449.77
     10.5700	  604.00	  569.70	-1690.70	  449.92
     10.6700	  583.00	  570.57	-1712.57	  450.07
     10.7700	  576.00	  571.79	-1720.79	  450.21
     10.8700	  591.00	  573.41	-1707.41	  450.35
     10.9700	  581.00	  575.44	-1719.44	  450.47
     11.0700	  549.00	  577.88	-1753.88	  450.60
     11.1700	  594.00	  580.72	-1711.72	  450.71
     11.2700	  622.00	  584.01	-1687.01	  450.82
     11.3700	  599.00	  587.84	-1713.84	  450.92
     11.4700	  636.00	  592.35	-1681.35	  451.01
     11.5700	  550.00	  597.78	-1772.78	  451.10
     11.6700	  594.00	  604.51	-1735.51	  451.18
     11.7700	  612.00	  613.09	-1726.09	  451.26
     11.8700	  698.00	  624.08	-1651.08	  451.33
     11.9700	  670.00	  637.32	-1692.32	  451.39
     12.0700	  714.00	  650.70	-1661.70	  451.45
     12.1700	  694.00	  659.03	-1690.03	  451.50
     12.2700	  646.00	  655.05	-1734.05	  451.54
     12.3700	  667.00	  637.02	-1695.02	  451.58
     12.4700	  639.00	  614.58	-1700.58	  451.61
     12.5700	  607.00	  596.67	-1714.67	  451.64
     12.6700	  561.00	  585.37	-1749.37	  451.66
     12.7700	  588.00	  579.19	-1716.19	  451.68
     12.8700	  596.00	  576.00	-1705.00	  451.69
     12.9700	  536.00	  574.25	-1763.25	  451.69
     13.0700	  523.00	  573.15	-1775.15	  451.69
     13.1700	  569.00	  572.37	-1728.37	  451.68
     13.2700	  576.00	  571.79	-1720.79	  451.67
     13.3700	  561.00	  571.34	-1735.34	  451.65
     13.4700	  515.00	  570.97	-1780.97	  451.62
     13.5700	  557.00	  570.66	-1738.66	  451.59
     13.6700	  569.00	  570.40	-1726.40	  451.56
     13.7700	  576.00	  570.18	-1719.18	  451.52
     13.8700	  598.00	  569.98	-1696.98	  451.48
     13.9700	  522.00	  569.80	-1772.80	  451.43
     14.0700	  529.00	  569.63	-1765.63	  451.37
     14.1700	  560.00	  569.48	-1734.48	  451.31
     14.2700	  544.00	  569.33	-1750.33	  451.25
     14.3700	  578.00	  569.19	-1716.19	  451.18
     14.4700	  522.00	  569.05	-1772.05	  451.10
     14.5700	  558.00	  568.92	-1735.92	  451.02
     14.6700	  554.00	  568.79	-1739.79	  450.94
     14.7700	  522.00	  568.65	-1771.65	  450.85
     14.8700	  558.00	  568.55	-1735.55	  450.75
     14.9700	  570.00	  568.42	-1723.42	  450.66
     15.0700	  539.00	  568.29	-1754.29	  450.55
     15.1700	  541.00	  568.15	-1752.15	  450.45
     15.2700	  549.00	  568.02	-1744.02	  450.34
     15.3700	  569.00	  567.88	-1723.88	  450.22
     15.4700	  557.00	  567.74	-1735.74	  450.10
     15.5700	  549.00	  567.59	-1743.59	  449.97
     15.6700	  583.00	  567.45	-1709.45	  449.85
     15.7700	  511.00	  567.30	-1781.30	  449.71
     15.8700	  566.00	  567.15	-1726.15	  449.58
     15.9700	  550.00	  566.99	-1741.99	  449.44
     16.0700	  590.00	  566.84	-1701.84	  449.29
     16.1700	  533.00	  566.68	-1758.68	  449.14
     16.2700	  564.00	  566.51	-1727.51	  448.99
     16.3700	  555.00	  566.35	-1736.35	  448.83
     16.4700	  541.00	  566.18	-1750.18	  448.67
     16.5700	  588.00	  566.01	-1703.01	  448.51
     16.6700	  583.00	  565.83	-1707.83	  448.34
     16.7700	  552.00	  565.65	-1738.65	  448.17
     16.8700	  587.00	  565.47	-1703.47	  447.99
     16.9700	  590.00	  565.29	-1700.29	  447.81
     17.0700	  546.00	  565.10	-1744.10	  447.63
     17.1700	  549.00	  564.91	-1740.91	  447.44
     17.2700	  544.00	  564.71	-1745.71	  447.25
     17.3700	  547.00	  564.52	-1742.52	  447.06
     17.4700	  565.00	  564.32	-1724.32	  446.86
     17.5700	  533.00	  564.11	-1756.11	  446.66
     17.6700	  580.00	  563.91	-1708.91	  446.46
     17.7700	  566.00	  563.70	-1722.70	  446.25
     17.8700	  575.00	  563.49	-1713.49	  446.05
     17.9700	  565.00	  563.27	-1723.27	  445.83
     18.0700	  574.00	  563.15	-1714.15	  445.62
     18.1700	  563.00	  562.94	-1724.94	  445.40
     18.2700	  579.00	  562.72	-1708.72	  445.18
     18.3700	  551.00	  562.49	-1736.49	  444.95
     18.4700	  533.00	  562.27	-1754.27	  444.72
     18.5700	  538.00	  562.04	-1749.04	  444.49
     18.6700	  577.00	  561.89	-1709.89	  444.26
     18.7700	  582.00	  561.66	-1704.66	  444.03
     18.8700	  548.00	  561.42	-1738.42	  443.79
     18.9700	  564.00	  561.19	-1722.19	  443.55
     19.0700	  577.00	  560.95	-1708.95	  443.30
     19.1700	  535.00	  560.71	-1750.71	  443.05
     19.2700	  523.00	  560.46	-1762.46	  442.81
     19.3700	  558.00	  560.22	-1727.22	  442.55
     19.4700	  530.00	  559.97	-1754.97	  442.30
     19.5700	  545.00	  559.72	-1739.72	  442.04
     19.6700	  520.00	  559.47	-1764.47	  441.78
     19.7700	  520.00	  559.22	-1764.22	  441.52
     19.8700	  557.00	  558.96	-1726.96	  441.26
     19.9700	  522.00	  558.71	-1761.71	  440.99
     20.0700	  548.00	  558.45	-1735.45	  440.72
     20.1700	  566.00	  558.19	-1717.19	  440.45
     20.2700	  544.00	  557.93	-1738.93	  440.18
     20.3700	  582.00	  557.70	-1700.70	  439.91
     20.4700	  594.00	  557.43	-1688.43	  439.63
     20.5700	  549.00	  557.17	-1733.17	  439.35
     20.6700	  586.00	  556.90	-1695.90	  439.07
     20.7700	  548.00	  556.63	-1733.63	  438.79
     20.8700	  574.00	  556.37	-1707.37	  438.50
     20.9700	  575.00	  556.10	-1706.10	  438.21
     21.0700	  558.00	  555.83	-1722.83	  437.92
     21.1700	  549.00	  555.56	-1731.56	  437.63
     21.2700	  551.00	  555.29	-1729.29	  437.34
     21.3700	  590.00	  555.02	-1690.02	  437.05
     21.4700	  549.00	  554.75	-1730.75	  436.75
     21.5700	  556.00	  554.48	-1723.48	  436.45
     21.6700	  551.00	  554.21	-1728.21	  436.15
     21.7700	  495.00	  553.94	-1783.94	  435.85
     21.8700	  552.00	  553.63	-1726.63	  435.55
     21.9700	  594.00	  553.37	-1684.37	  435.25
     22.0700	  582.00	  553.11	-1696.11	  434.94
     22.1700	  530.00	  552.85	-1747.85	  434.64
     22.2700	  569.00	  552.59	-1708.59	  434.33
     22.3700	  527.00	  552.34	-1750.34	  434.02
     22.4700	  582.00	  552.09	-1695.09	  433.71
     22.5700	  534.00	  551.85	-1742.85	  433.39
     22.6700	  547.00	  551.61	-1729.61	  433.08
     22.7700	  545.00	  551.38	-1731.38	  432.77
     22.8700	  521.00	  551.17	-1755.17	  432.45
     22.9700	  574.00	  550.97	-1701.97	  432.13
     23.0700	  577.00	  550.93	-1698.93	  431.81
     23.1700	  560.00	  550.77	-1715.77	  431.49
     23.2700	  565.00	  550.63	-1710.63	  431.17
     23.3700	  549.00	  550.54	-1726.54	  430.85
     23.4700	  597.00	  550.49	-1678.49	  430.53
     23.5700	  556.00	  550.51	-1719.51	  430.20
     23.6700	  566.00	  550.62	-1709.62	  429.88
     23.7700	  586.00	  550.91	-1689.91	  429.55
     23.8700	  563.00	  551.47	-1713.47	  429.23
     23.9700	  578.00	  552.56	-1699.56	  428.90
     24.0700	  529.00	  554.55	-1750.55	  428.57
     24.1700	  545.00	  558.01	-1738.01	  428.24
     24.2700	  588.00	  563.63	-1700.63	  427.91
     24.3700	  562.00	  572.09	-1735.09	  427.58
     24.4700	  563.00	  583.76	-1745.76	  427.25
     24.5700	  616.00	  598.00	-1707.00	  426.92
     24.6700	  613.00	  612.11	-1724.11	  426.58
     24.7700	  646.00	  620.63	-1699.63	  426.25
     24.8700	  608.00	  617.07	-1734.07	  425.92
     24.9700	  652.00	  601.49	-1674.49	  425.58
     25.0700	  600.00	  582.71	-1707.71	  425.25
     25.1700	  596.00	  567.63	-1696.63	  424.91
     25.2700	  542.00	  557.86	-1740.86	  424.58
     25.3700	  606.00	  552.34	-1671.34	  424.24
     25.4700	  501.00	  549.37	-1773.37	  423.90
     25.5700	  537.00	  547.69	-1735.69	  423.56
     25.6700	  579.00	  546.61	-1692.61	  423.23
     25.7700	  549.00	  545.83	-1721.83	  422.89
     25.8700	  565.00	  545.24	-1705.24	  422.55
     25.9700	  547.00	  544.79	-1722.79	  422.21
     26.0700	  555.00	  544.45	-1714.45	  421.87
     26.1700	  578.00	  544.19	-1691.19	  421.53
     26.2700	  513.00	  544.02	-1756.02	  421.19
     26.3700	  543.00	  543.93	-1725.93	  420.85
     26.4700	  542.00	  543.94	-1726.94	  420.51
     26.5700	  533.00	  544.03	-1736.03	  420.17
     26.6700	  546.00	  544.24	-1723.24	  419.83
     26.7700	  548.00	  544.58	-1721.58	  419.49
     26.8700	  542.00	  545.09	-1728.09	  419.15
     26.9700	  558.00	  545.82	-1712.82	  418.81
     27.0700	  552.00	  546.82	-1719.82	  418.47
     27.1700	  575.00	  548.23	-1698.23	  418.13
     27.2700	  559.00	  550.28	-1716.28	  417.79
     27.3700	  529.00	  553.42	-1749.42	  417.45
     27.4700	  582.00	  558.56	-1701.56	  417.11
     27.5700	  553.00	  567.32	-1739.32	  416.77
     27.6700	  563.00	  582.33	-1744.33	  416.43
     27.7700	  572.00	  607.03	-1760.03	  416.09
     27.8700	  602.00	  644.56	-1767.56	  415.75
     27.9700	  647.00	  695.39	-1773.39	  415.41
     28.0700	  788.00	  754.16	-1691.16	  415.07
     28.1700	  900.00	  806.73	-1631.73	  414.74
     28.2700	  920.00	  831.10	-1636.10	  414.40
     28.3700	  876.00	  812.67	-1661.67	  414.06
     28.4700	  773.00	  770.15	-1722.15	  413.72
     28.5700	  703.00	  738.21	-1760.21	  413.38
     28.6700	  714.00	  733.62	-1744.62	  413.05
     28.7700	  724.00	  752.81	-1753.81	  412.71
     28.8700	  749.00	  777.91	-1753.91	  412.37
     28.9700	  862.00	  783.40	-1646.40	  412.04
     29.0700	  747.00	  751.91	-1729.91	  411.70
     29.1700	  652.00	  695.50	-1768.50	  411.37
     29.2700	  629.00	  640.01	-1736.01	  411.03
     29.3700	  589.00	  598.79	-1734.79	  410.70
     29.4700	  596.00	  573.03	-1702.03	  410.37
     29.5700	  565.00	  558.63	-1718.63	  410.03
     29.6700	  580.00	  550.86	-1695.86	  409.70
     29.7700	  601.00	  546.44	-1670.44	  409.37
     29.8700	  563.00	  543.69	-1705.69	  409.04
     29.9700	  558.00	  541.94	-1708.94	  408.71
     30.0700	  575.00	  541.01	-1691.01	  408.38
     30.1700	  511.00	  541.03	-1755.03	  408.05
     30.2700	  548.00	  542.37	-1719.37	  407.72
     30.3700	  591.00	  545.88	-1679.88	  407.39
     30.4700	  540.00	  552.77	-1737.77	  407.07
     30.5700	  571.00	  564.20	-1718.20	  406.74
     30.6700	  603.00	  580.34	-1702.34	  406.41
     30.7700	  604.00	  599.13	-1720.13	  406.09
     30.8700	  623.00	  615.43	-1717.43	  405.77
     30.9700	  623.00	  621.48	-1723.48	  405.44
     31.0700	  622.00	  611.74	-1714.74	  405.12
     31.1700	  586.00	  590.93	-1729.93	  404.80
     31.2700	  560.00	  569.27	-1734.27	  404.48
     31.3700	  596.00	  552.58	-1681.58	  404.16
     31.4700	  499.00	  541.82	-1767.82	  403.84
     31.5700	  566.00	  535.68	-1694.68	  403.52
     31.6700	  528.00	  532.35	-1729.35	  403.21
     31.7700	  539.00	  530.47	-1716.47	  402.89
     31.8700	  530.00	  529.31	-1724.31	  402.58
     31.9700	  560.00	  528.52	-1693.52	  402.26
     32.0700	  540.00	  527.99	-1712.99	  401.95
     32.1700	  553.00	  527.65	-1699.65	  401.64
     32.2700	  530.00	  527.48	-1722.48	  401.33
     32.3700	  613.00	  527.48	-1639.48	  401.02
     32.4700	  552.00	  527.66	-1700.66	  400.71
     32.5700	  543.00	  528.04	-1710.04	  400.40
     32.6700	  543.00	  528.65	-1710.65	  400.09
     32.7700	  512.00	  529.55	-1742.55	  399.79
     32.8700	  563.00	  530.82	-1692.82	  399.49
     32.9700	  535.00	  532.62	-1722.62	  399.18
     33.0700	  535.00	  535.21	-1725.21	  398.88
     33.1700	  561.00	  539.16	-1703.16	  398.58
     33.2700	  534.00	  545.65	-1736.65	  398.28
     33.3700	  553.00	  557.05	-1729.05	  397.98
     33.4700	  569.00	  577.54	-1733.54	  397.69
     33.5700	  594.00	  613.14	-1744.14	  397.39
     33.6700	  653.00	  670.01	-1742.01	  397.09
     33.7700	  804.00	  749.72	-1670.72	  396.80
     33.8700	  862.00	  843.05	-1706.05	  396.51
     33.9700	  962.00	  926.11	-1689.11	  396.22
     34.0700	 1039.00	  963.12	-1649.12	  395.93
     34.1700	 1010.00	  927.46	-1642.46	  395.64
     34.2700	  794.00	  836.44	-1767.44	  395.35
     34.3700	  807.00	  735.16	-1653.16	  395.07
     34.4700	  645.00	  653.00	-1733.00	  394.78
     34.5700	  567.00	  597.71	-1755.71	  394.50
     34.6700	  521.00	  565.10	-1769.10	  394.22
     34.7700	  556.00	  547.25	-1716.25	  393.94
     34.8700	  526.00	  537.45	-1736.45	  393.66
     34.9700	  503.00	  531.55	-1753.55	  393.38
     35.0700	  545.00	  527.55	-1707.55	  393.11
     35.1700	  553.00	  524.56	-1696.56	  392.83
     35.2700	  517.00	  522.22	-1730.22	  392.56
     35.3700	  575.00	  520.31	-1670.31	  392.29
     35.4700	  501.00	  518.73	-1742.73	  392.02
     35.5700	  529.00	  517.40	-1713.40	  391.75
     35.6700	  529.00	  516.25	-1712.25	  391.48
     35.7700	  565.00	  515.26	-1675.26	  391.22
     35.8700	  512.00	  514.39	-1727.39	  390.96
     35.9700	  526.00	  513.62	-1712.62	  390.69
     36.0700	  481.00	  513.38	-1757.38	  390.43
     36.1700	  522.00	  512.77	-1715.77	  390.17
     36.2700	  504.00	  512.22	-1733.22	  389.91
     36.3700	  523.00	  511.72	-1713.72	  389.66
     36.4700	  495.00	  511.27	-1741.27	  389.40
     36.5700	  495.00	  510.88	-1740.88	  389.15
     36.6700	  515.00	  510.55	-1720.55	  388.90
     36.7700	  483.00	  510.28	-1752.28	  388.65
     36.8700	  525.00	  510.11	-1710.11	  388.40
     36.9700	  542.00	  510.13	-1693.13	  388.15
     37.0700	  513.00	  510.47	-1722.47	  387.91
     37.1700	  544.00	  511.36	-1692.36	  387.66
     37.2700	  486.00	  513.03	-1752.03	  387.42
     37.3700	  541.00	  515.63	-1699.63	  387.18
     37.4700	  522.00	  518.97	-1721.97	  386.94
     37.5700	  538.00	  522.35	-1709.35	  386.71
     37.6700	  549.00	  524.55	-1700.55	  386.47
     37.7700	  510.00	  524.35	-1739.35	  386.24
     37.8700	  537.00	  521.73	-1709.73	  386.00
     37.9700	  512.00	  517.99	-1730.99	  385.77
     38.0700	  509.00	  514.31	-1730.31	  385.54
     38.1700	  520.00	  511.22	-1716.22	  385.32
     38.2700	  540.00	  508.86	-1693.86	  385.09
     38.3700	  493.00	  507.19	-1739.19	  384.87
     38.4700	  493.00	  506.21	-1738.21	  384.65
     38.5700	  536.00	  505.33	-1694.33	  384.43
     38.6700	  505.00	  504.77	-1724.77	  384.21
     38.7700	  515.00	  504.34	-1714.34	  383.99
     38.8700	  555.00	  503.99	-1673.99	  383.78
     38.9700	  463.00	  503.68	-1765.68	  383.56
     39.0700	  542.00	  503.40	-1686.40	  383.35
     39.1700	  478.00	  503.15	-1750.15	  383.14
     39.2700	  469.00	  502.91	-1758.91	  382.93
     39.3700	  542.00	  502.61	-1685.61	  382.73
     39.4700	  519.00	  502.40	-1708.40	  382.52
     39.5700	  542.00	  502.20	-1685.20	  382.32
     39.6700	  524.00	  502.02	-1703.02	  382.12
     39.7700	  498.00	  501.85	-1728.85	  381.92
     39.8700	  479.00	  501.68	-1747.68	  381.72
     39.9700	  475.00	  501.53	-1751.53	  381.53
     40.0700	  524.00	  501.39	-1702.39	  381.33
     40.1700	  512.00	  501.27	-1714.27	  381.14
     40.2700	  508.00	  501.15	-1718.15	  380.95
     40.3700	  516.00	  501.05	-1710.05	  380.76
     40.4700	  466.00	  500.97	-1759.97	  380.58
     40.5700	  467.00	  500.91	-1758.91	  380.39
     40.6700	  487.00	  500.86	-1738.86	  380.21
     40.7700	  500.00	  500.84	-1725.84	  380.03
