MSG Master    CELL:    5.89383   5.89383  23.16297   90.0000   90.0000  120.0000   SPGR: P 63/m m c             TEMP:    693.05
  2   1280     2.52000     0.00000    -0.10240     0.00000     0.00000    0
    96    96     0     0     2
       0.00000      10.00000
     125.00000     130.00000
 2Theta	Yobs	Ycal	Yobs-Ycal	Backg	Posr	(hkl)	K
      0.7700	    0.00	  673.99	-1826.67	  556.18
      0.8700	    0.00	  673.85	-1826.67	  556.04
      0.9700	   44.00	  673.71	-1826.67	  555.90
      1.0700	   35.00	  673.56	-1826.67	  555.75
      1.1700	   49.00	  673.41	-1826.67	  555.60
      1.2700	   50.00	  673.25	-1826.67	  555.44
      1.3700	   45.00	  673.09	-1826.67	  555.28
      1.4700	   94.00	  672.92	-1826.67	  555.11
      1.5700	  307.00	  672.75	-1826.67	  554.94
      1.6700	  508.00	  672.58	-1826.67	  554.77
      1.7700	  605.00	  672.40	-1826.67	  554.59
      1.8700	  649.00	  672.22	-1826.67	  554.41
      1.9700	  760.00	  672.03	-1826.67	  554.22
      2.0700	  757.00	  671.84	-1826.67	  554.03
      2.1700	  775.00	  671.64	-1826.67	  553.83
      2.2700	  780.00	  671.44	-1826.67	  553.63
      2.3700	  739.00	  671.24	-1826.67	  553.43
      2.4700	  721.00	  671.03	-1826.67	  553.22
      2.5700	  675.00	  670.82	-1826.67	  553.01
      2.6700	  671.00	  670.60	-1826.67	  552.79
      2.7700	  659.00	  670.39	-1826.67	  552.58
      2.8700	  641.00	  670.16	-1826.67	  552.35
      2.9700	  618.00	  669.94	-1826.67	  552.13
      3.0700	  612.00	  669.70	-1826.67	  551.89
      3.1700	  639.00	  669.47	-1826.67	  551.66
      3.2700	  693.00	  669.23	-1826.67	  551.42
      3.3700	  932.00	  668.99	-1826.67	  551.18
      3.4700	 1021.00	  668.75	-1826.67	  550.94
      3.5700	 1161.00	  668.50	-1826.67	  550.69
      3.6700	 1278.00	  668.24	-1826.67	  550.43
      3.7700	 1393.00	  667.99	-1826.67	  550.18
      3.8700	 1460.00	  667.73	-1826.67	  549.92
      3.9700	 1477.00	  667.47	-1826.67	  549.66
      4.0700	 1525.00	  667.20	-1826.67	  549.39
      4.1700	 1589.00	  666.93	-1826.67	  549.12
      4.2700	 1567.00	  666.66	-1826.67	  548.85
      4.3700	 1584.00	  666.38	-1826.67	  548.57
      4.4700	 1488.00	  666.10	-1826.67	  548.29
      4.5700	 1476.00	  665.82	-1826.67	  548.01
      4.6700	 1416.00	  665.54	-1826.67	  547.73
      4.7700	 1366.00	  665.25	-1826.67	  547.44
      4.8700	 1295.00	  664.96	-1826.67	  547.15
      4.9700	 1299.00	  664.66	-1826.67	  546.85
      5.0700	 1158.00	  664.36	-1826.67	  546.55
      5.1700	 1290.00	  664.06	-1826.67	  546.25
      5.2700	 1169.00	  663.76	-1826.67	  545.95
      5.3700	 1129.00	  663.45	-1826.67	  545.64
      5.4700	 1119.00	  663.15	-1826.67	  545.34
      5.5700	 1049.00	  662.83	-1826.67	  545.02
      5.6700	 1129.00	  662.52	-1826.67	  544.71
      5.7700	 1048.00	  662.20	-1826.67	  544.39
      5.8700	 1018.00	  661.88	-1826.67	  544.07
      5.9700	  974.00	  661.56	-1826.67	  543.75
      6.0700	 1012.00	  661.23	-1826.67	  543.42
      6.1700	  954.00	  660.90	-1826.67	  543.09
      6.2700	  977.00	  660.57	-1826.67	  542.76
      6.3700	  901.00	  660.24	-1826.67	  542.43
      6.4700	  935.00	  659.90	-1826.67	  542.09
      6.5700	  907.00	  659.56	-1826.67	  541.75
      6.6700	  894.00	  659.22	-1826.67	  541.41
      6.7700	  905.00	  658.88	-1826.67	  541.07
      6.8700	  844.00	  658.53	-1826.67	  540.72
      6.9700	  880.00	  658.19	-1826.67	  540.38
      7.0700	  801.00	  657.83	-1826.67	  540.02
      7.1700	  843.00	  657.48	-1826.67	  539.67
      7.2700	  824.00	  657.13	-1826.67	  539.32
      7.3700	  762.00	  656.77	-1826.67	  538.96
      7.4700	  812.00	  656.41	-1826.67	  538.60
      7.5700	  765.00	  656.05	-1826.67	  538.24
      7.6700	  795.00	  655.68	-1826.67	  537.87
      7.7700	  783.00	  655.32	-1826.67	  537.51
      7.8700	  745.00	  654.95	-1826.67	  537.14
      7.9700	  773.00	  654.58	-1826.67	  536.77
      8.0700	  707.00	  654.21	-1826.67	  536.40
      8.1700	  754.00	  653.83	-1826.67	  536.02
      8.2700	  727.00	  653.46	-1826.67	  535.65
      8.3700	  746.00	  653.08	-1826.67	  535.27
      8.4700	  764.00	  652.70	-1826.67	  534.89
      8.5700	  648.00	  652.32	-1826.67	  534.51
      8.6700	  702.00	  651.93	-1826.67	  534.12
      8.7700	  719.00	  651.55	-1826.67	  533.74
      8.8700	  755.00	  651.16	-1826.67	  533.35
      8.9700	  705.00	  650.77	-1826.67	  532.96
      9.0700	  678.00	  650.38	-1826.67	  532.57
      9.1700	  663.00	  649.99	-1826.67	  532.18
      9.2700	  695.00	  649.59	-1826.67	  531.78
      9.3700	  735.00	  649.20	-1826.67	  531.39
      9.4700	  722.00	  648.80	-1826.67	  530.99
      9.5700	  672.00	  648.40	-1826.67	  530.59
      9.6700	  663.00	  648.00	-1826.67	  530.19
      9.7700	  648.00	  647.60	-1826.67	  529.79
      9.8700	  695.00	  647.20	-1826.67	  529.39
      9.9700	  707.00	  646.79	-1826.67	  528.98
     10.0700	  668.00	  648.69	-1807.36	  528.57
     10.1700	  651.00	  648.55	-1824.22	  528.17
     10.2700	  670.00	  648.45	-1805.12	  527.76
     10.3700	  645.00	  648.43	-1830.10	  527.35
     10.4700	  684.00	  648.52	-1791.19	  526.93
     10.5700	  696.00	  648.76	-1779.44	  526.52
     10.6700	  689.00	  649.24	-1786.91	  526.11
     10.7700	  645.00	  650.03	-1831.71	  525.69
     10.8700	  663.00	  651.25	-1814.92	  525.27
     10.9700	  658.00	  652.94	-1821.61	  524.85
     11.0700	  627.00	  655.15	-1854.82	  524.44
     11.1700	  583.00	  657.90	-1901.57	  524.01
     11.2700	  692.00	  661.20	-1795.87	  523.59
     11.3700	  689.00	  665.14	-1802.81	  523.17
     11.4700	  685.00	  669.83	-1811.50	  522.75
     11.5700	  700.00	  675.46	-1802.13	  522.32
     11.6700	  650.00	  682.29	-1858.96	  521.89
     11.7700	  670.00	  690.62	-1847.29	  521.47
     11.8700	  731.00	  700.63	-1796.30	  521.04
     11.9700	  702.00	  712.12	-1836.79	  520.61
     12.0700	  780.00	  724.02	-1770.69	  520.18
     12.1700	  789.00	  733.85	-1771.52	  519.75
     12.2700	  815.00	  737.40	-1749.07	  519.32
     12.3700	  788.00	  730.30	-1768.97	  518.89
     12.4700	  722.00	  713.24	-1817.91	  518.45
     12.5700	  711.00	  693.08	-1808.75	  518.02
     12.6700	  693.00	  675.64	-1809.31	  517.58
     12.7700	  632.00	  662.75	-1857.42	  517.15
     12.8700	  662.00	  653.99	-1818.66	  516.71
     12.9700	  649.00	  648.26	-1825.93	  516.27
     13.0700	  601.00	  644.47	-1870.14	  515.84
     13.1700	  657.00	  641.83	-1811.50	  515.40
     13.2700	  663.00	  639.87	-1803.54	  514.96
     13.3700	  600.00	  638.31	-1864.98	  514.52
     13.4700	  597.00	  637.00	-1866.67	  514.08
     13.5700	  611.00	  635.88	-1851.55	  513.64
     13.6700	  614.00	  634.88	-1847.55	  513.20
     13.7700	  617.00	  633.99	-1843.66	  512.75
     13.8700	  599.00	  633.17	-1860.84	  512.31
     13.9700	  608.00	  632.42	-1851.09	  511.87
     14.0700	  640.00	  631.71	-1818.38	  511.42
     14.1700	  649.00	  631.04	-1808.71	  510.98
     14.2700	  598.00	  630.40	-1859.07	  510.54
     14.3700	  636.00	  629.79	-1820.46	  510.09
     14.4700	  652.00	  629.19	-1803.86	  509.65
     14.5700	  643.00	  628.62	-1812.29	  509.20
     14.6700	  598.00	  628.06	-1856.73	  508.75
     14.7700	  619.00	  627.51	-1835.18	  508.31
     14.8700	  610.00	  626.98	-1843.65	  507.86
     14.9700	  579.00	  626.45	-1874.12	  507.41
     15.0700	  623.00	  625.93	-1829.60	  506.97
     15.1700	  664.00	  625.42	-1788.09	  506.52
     15.2700	  602.00	  624.91	-1849.58	  506.07
     15.3700	  638.00	  624.41	-1813.08	  505.62
     15.4700	  627.00	  623.92	-1823.59	  505.18
     15.5700	  618.00	  623.43	-1832.10	  504.73
     15.6700	  634.00	  622.94	-1815.61	  504.28
     15.7700	  609.00	  622.45	-1840.12	  503.83
     15.8700	  607.00	  621.97	-1841.64	  503.38
     15.9700	  604.00	  621.49	-1844.16	  502.94
     16.0700	  652.00	  621.02	-1795.69	  502.49
     16.1700	  567.00	  620.54	-1880.21	  502.04
     16.2700	  595.00	  620.07	-1851.74	  501.59
     16.3700	  602.00	  619.60	-1844.27	  501.14
     16.4700	  669.00	  619.13	-1776.80	  500.69
     16.5700	  617.00	  618.66	-1828.33	  500.24
     16.6700	  617.00	  618.20	-1827.87	  499.80
     16.7700	  647.00	  617.73	-1797.40	  499.35
     16.8700	  631.00	  617.27	-1812.94	  498.90
     16.9700	  613.00	  616.81	-1830.48	  498.45
     17.0700	  618.00	  616.35	-1825.02	  498.00
     17.1700	  593.00	  615.89	-1849.56	  497.56
     17.2700	  582.00	  615.43	-1860.10	  497.11
     17.3700	  644.00	  614.97	-1797.64	  496.66
     17.4700	  622.00	  614.51	-1819.18	  496.21
     17.5700	  576.00	  614.06	-1864.73	  495.77
     17.6700	  569.00	  613.60	-1871.27	  495.32
     17.7700	  563.00	  613.15	-1876.82	  494.87
     17.8700	  622.00	  612.70	-1817.37	  494.43
     17.9700	  602.00	  613.01	-1837.68	  493.98
     18.0700	  619.00	  613.03	-1820.70	  493.53
     18.1700	  632.00	  612.61	-1807.28	  493.09
     18.2700	  594.00	  612.18	-1844.85	  492.64
     18.3700	  628.00	  611.76	-1810.43	  492.20
     18.4700	  563.00	  611.34	-1875.01	  491.75
     18.5700	  619.00	  610.92	-1818.59	  491.31
     18.6700	  623.00	  610.50	-1814.17	  490.87
     18.7700	  603.00	  610.08	-1833.75	  490.42
     18.8700	  565.00	  609.67	-1871.34	  489.98
     18.9700	  564.00	  609.25	-1871.92	  489.54
     19.0700	  658.00	  608.84	-1777.51	  489.09
     19.1700	  586.00	  608.43	-1849.10	  488.65
     19.2700	  609.00	  608.02	-1825.69	  488.21
     19.3700	  609.00	  607.62	-1825.29	  487.77
     19.4700	  573.00	  607.28	-1860.95	  487.33
     19.5700	  584.00	  606.88	-1849.55	  486.89
     19.6700	  619.00	  606.49	-1814.16	  486.45
     19.7700	  562.00	  606.09	-1870.76	  486.01
     19.8700	  561.00	  605.70	-1871.37	  485.58
     19.9700	  614.00	  605.31	-1817.98	  485.14
     20.0700	  558.00	  604.92	-1873.59	  484.70
     20.1700	  598.00	  604.54	-1833.21	  484.27
     20.2700	  557.00	  604.15	-1873.82	  483.83
     20.3700	  636.00	  603.78	-1794.45	  483.40
     20.4700	  607.00	  603.40	-1823.07	  482.96
     20.5700	  582.00	  603.03	-1847.70	  482.53
     20.6700	  581.00	  602.66	-1848.33	  482.10
     20.7700	  577.00	  602.30	-1851.97	  481.67
     20.8700	  612.00	  601.94	-1816.61	  481.23
     20.9700	  599.00	  601.58	-1829.25	  480.80
     21.0700	  583.00	  601.23	-1844.90	  480.37
     21.1700	  557.00	  600.88	-1870.55	  479.94
     21.2700	  580.00	  600.54	-1847.21	  479.52
     21.3700	  597.00	  600.20	-1829.87	  479.09
     21.4700	  622.00	  599.87	-1804.54	  478.66
     21.5700	  610.00	  599.54	-1816.22	  478.24
     21.6700	  591.00	  599.23	-1834.90	  477.81
     21.7700	  587.00	  599.09	-1838.76	  477.39
     21.8700	  601.00	  598.79	-1824.46	  476.96
     21.9700	  537.00	  598.50	-1888.17	  476.54
     22.0700	  604.00	  598.21	-1820.88	  476.12
     22.1700	  574.00	  597.94	-1850.61	  475.70
     22.2700	  603.00	  597.68	-1821.35	  475.28
     22.3700	  595.00	  597.42	-1829.09	  474.86
     22.4700	  621.00	  597.19	-1802.86	  474.44
     22.5700	  616.00	  596.96	-1807.63	  474.02
     22.6700	  613.00	  596.75	-1810.42	  473.61
     22.7700	  633.00	  596.56	-1790.24	  473.19
     22.8700	  583.00	  596.40	-1840.07	  472.78
     22.9700	  598.00	  596.25	-1824.92	  472.37
     23.0700	  613.00	  596.14	-1809.81	  471.95
     23.1700	  614.00	  596.06	-1808.73	  471.54
     23.2700	  646.00	  596.02	-1776.69	  471.13
     23.3700	  600.00	  596.02	-1822.69	  470.72
     23.4700	  583.00	  596.09	-1839.76	  470.31
     23.5700	  596.00	  596.23	-1826.90	  469.91
     23.6700	  603.00	  596.47	-1820.14	  469.50
     23.7700	  611.00	  596.86	-1812.53	  469.10
     23.8700	  583.00	  597.45	-1841.12	  468.69
     23.9700	  614.00	  598.34	-1811.01	  468.29
     24.0700	  568.00	  599.72	-1858.39	  467.89
     24.1700	  619.00	  601.85	-1809.52	  467.49
     24.2700	  600.00	  605.02	-1831.69	  467.09
     24.3700	  622.00	  609.78	-1814.45	  466.69
     24.4700	  627.00	  616.38	-1816.05	  466.29
     24.5700	  658.00	  624.86	-1793.53	  465.89
     24.6700	  663.00	  634.73	-1798.40	  465.50
     24.7700	  653.00	  644.66	-1818.33	  465.10
     24.8700	  674.00	  652.20	-1804.87	  464.71
     24.9700	  697.00	  653.92	-1783.59	  464.32
     25.0700	  713.00	  647.99	-1761.66	  463.93
     25.1700	  670.00	  637.05	-1793.72	  463.54
     25.2700	  650.00	  625.71	-1802.38	  463.15
     25.3700	  623.00	  616.60	-1820.27	  462.76
     25.4700	  586.00	  610.26	-1850.93	  462.38
     25.5700	  626.00	  606.31	-1806.98	  461.99
     25.6700	  625.00	  604.12	-1805.80	  461.61
     25.7700	  593.00	  603.11	-1836.78	  461.23
     25.8700	  693.00	  602.86	-1736.53	  460.85
     25.9700	  645.00	  603.13	-1784.80	  460.47
     26.0700	  568.00	  603.80	-1862.47	  460.09
     26.1700	  657.00	  604.84	-1774.51	  459.71
     26.2700	  656.00	  606.23	-1776.90	  459.34
     26.3700	  630.00	  608.00	-1804.67	  458.96
     26.4700	  650.00	  610.19	-1786.87	  458.59
     26.5700	  681.00	  612.88	-1758.55	  458.22
     26.6700	  675.00	  616.15	-1767.82	  457.85
     26.7700	  630.00	  620.13	-1816.80	  457.48
     26.8700	  683.00	  624.98	-1768.65	  457.11
     26.9700	  629.00	  630.95	-1828.62	  456.74
     27.0700	  688.00	  638.35	-1777.02	  456.38
     27.1700	  641.00	  647.68	-1833.35	  456.01
     27.2700	  694.00	  659.70	-1792.37	  455.65
     27.3700	  732.00	  675.80	-1770.47	  455.29
     27.4700	  713.00	  698.69	-1812.36	  454.93
     27.5700	  717.00	  733.70	-1843.37	  454.57
     27.6700	  735.00	  790.69	-1882.36	  454.21
     27.7700	  824.00	  886.20	-1888.87	  453.86
     27.8700	  877.00	 1043.81	-1993.48	  453.50
     27.9700	 1047.00	 1288.70	-2068.37	  453.15
     28.0700	 1389.00	 1633.36	-2071.03	  452.80
     28.1700	 1902.00	 2056.42	-1981.09	  452.45
     28.2700	 2730.00	 2480.35	-1577.02	  452.10
     28.3700	 3036.00	 2761.46	-1552.13	  451.75
     28.4700	 3127.00	 2743.19	-1442.86	  451.40
     28.5700	 2584.00	 2441.45	-1684.13	  451.06
     28.6700	 1985.00	 2087.31	-1928.98	  450.72
     28.7700	 1694.00	 1865.81	-1998.48	  450.37
     28.8700	 1583.00	 1815.10	-2058.77	  450.03
     28.9700	 1877.00	 1872.30	-1821.97	  449.69
     29.0700	 2035.00	 1918.78	-1710.45	  449.36
     29.1700	 1893.00	 1835.12	-1768.79	  449.02
     29.2700	 1630.00	 1601.56	-1798.23	  448.69
     29.3700	 1313.00	 1317.92	-1831.59	  448.35
     29.4700	 1056.00	 1075.20	-1845.87	  448.02
     29.5700	  947.00	  903.14	-1782.81	  447.69
     29.6700	  810.00	  795.13	-1811.80	  447.36
     29.7700	  798.00	  731.86	-1760.53	  447.03
     29.8700	  738.00	  694.93	-1783.60	  446.71
     29.9700	  745.00	  672.07	-1753.74	  446.38
     30.0700	  747.00	  656.82	-1736.49	  446.06
     30.1700	  670.00	  646.29	-1802.96	  445.74
     30.2700	  713.00	  639.40	-1753.07	  445.42
     30.3700	  717.00	  636.12	-1745.79	  445.10
     30.4700	  706.00	  637.20	-1757.87	  444.79
     30.5700	  694.00	  644.02	-1776.69	  444.47
     30.6700	  666.00	  658.18	-1818.85	  444.16
     30.7700	  691.00	  680.33	-1816.00	  443.84
     30.8700	  731.00	  708.64	-1804.31	  443.53
     30.9700	  721.00	  737.45	-1843.12	  443.22
     31.0700	  747.00	  756.72	-1836.40	  442.92
     31.1700	  760.00	  754.78	-1821.45	  442.61
     31.2700	  709.00	  728.94	-1846.61	  442.31
     31.3700	  720.00	  691.50	-1798.17	  442.00
     31.4700	  638.00	  656.26	-1844.93	  441.70
     31.5700	  628.00	  629.28	-1827.95	  441.40
     31.6700	  614.00	  611.06	-1823.73	  441.10
     31.7700	  650.00	  599.67	-1776.34	  440.81
     31.8700	  613.00	  592.75	-1806.42	  440.51
     31.9700	  634.00	  588.41	-1781.08	  440.22
     32.0700	  619.00	  585.50	-1793.18	  439.93
     32.1700	  582.00	  583.44	-1828.11	  439.63
     32.2700	  621.00	  581.94	-1787.61	  439.35
     32.3700	  620.00	  580.89	-1787.56	  439.06
     32.4700	  585.00	  580.19	-1821.86	  438.77
     32.5700	  599.00	  579.82	-1807.49	  438.49
     32.6700	  613.00	  579.81	-1793.48	  438.20
     32.7700	  611.00	  580.16	-1795.83	  437.92
     32.8700	  596.00	  580.93	-1811.61	  437.64
     32.9700	  658.00	  582.22	-1750.89	  437.37
     33.0700	  625.00	  584.16	-1785.83	  437.09
     33.1700	  580.00	  587.02	-1833.69	  436.81
     33.2700	  631.00	  591.31	-1786.98	  436.54
     33.3700	  595.00	  597.98	-1829.65	  436.27
     33.4700	  620.00	  608.76	-1815.43	  436.00
     33.5700	  619.00	  626.53	-1834.20	  435.73
     33.6700	  582.00	  655.37	-1900.04	  435.46
     33.7700	  667.00	  699.88	-1859.56	  435.20
     33.8700	  706.00	  762.93	-1883.60	  434.93
     33.9700	  866.00	  841.98	-1802.66	  434.67
     34.0700	  984.00	  925.40	-1768.07	  434.41
     34.1700	 1076.00	  990.67	-1741.34	  434.15
     34.2700	 1075.00	 1009.02	-1760.69	  433.89
     34.3700	 1028.00	  966.01	-1764.68	  433.64
     34.4700	  904.00	  882.22	-1804.89	  433.38
     34.5700	  794.00	  792.44	-1825.11	  433.13
     34.6700	  655.00	  717.59	-1889.26	  432.88
     34.7700	  636.00	  663.43	-1854.10	  432.63
     34.8700	  657.00	  627.89	-1797.56	  432.38
     34.9700	  566.00	  605.92	-1866.59	  432.14
     35.0700	  648.00	  592.52	-1771.19	  431.89
     35.1700	  610.00	  584.03	-1800.70	  431.65
     35.2700	  564.00	  578.23	-1840.90	  431.41
     35.3700	  573.00	  573.97	-1827.64	  431.17
     35.4700	  562.00	  570.66	-1835.34	  430.93
     35.5700	  542.00	  568.01	-1852.68	  430.69
     35.6700	  604.00	  565.82	-1788.49	  430.46
     35.7700	  524.00	  564.00	-1866.67	  430.22
     35.8700	  550.00	  562.47	-1839.14	  429.99
     35.9700	  527.00	  561.17	-1860.84	  429.76
     36.0700	  562.00	  560.55	-1825.22	  429.53
     36.1700	  530.00	  559.60	-1856.27	  429.30
     36.2700	  551.00	  558.80	-1834.47	  429.08
     36.3700	  557.00	  558.11	-1827.78	  428.85
     36.4700	  572.00	  557.54	-1812.21	  428.63
     36.5700	  515.00	  557.28	-1868.95	  428.41
     36.6700	  570.00	  556.93	-1813.60	  428.19
     36.7700	  550.00	  556.70	-1833.37	  427.97
     36.8700	  542.00	  556.61	-1841.28	  427.76
     36.9700	  521.00	  556.70	-1862.37	  427.54
     37.0700	  521.00	  557.03	-1862.70	  427.33
     37.1700	  550.00	  557.72	-1834.39	  427.12
     37.2700	  575.00	  558.92	-1810.59	  426.91
     37.3700	  547.00	  560.96	-1840.63	  426.70
     37.4700	  601.00	  564.22	-1789.89	  426.49
     37.5700	  584.00	  569.17	-1811.84	  426.29
     37.6700	  528.00	  576.31	-1874.98	  426.08
     37.7700	  593.00	  585.90	-1819.57	  425.88
     37.8700	  580.00	  597.62	-1844.29	  425.68
     37.9700	  628.00	  610.34	-1809.01	  425.48
     38.0700	  596.00	  622.13	-1852.80	  425.28
     38.1700	  673.00	  630.02	-1783.69	  425.09
     38.2700	  633.00	  630.58	-1824.25	  424.89
     38.3700	  588.00	  622.16	-1860.83	  424.70
     38.4700	  597.00	  607.69	-1837.36	  424.51
     38.5700	  569.00	  592.15	-1849.82	  424.32
     38.6700	  558.00	  578.74	-1847.41	  424.13
     38.7700	  542.00	  568.56	-1853.24	  423.95
     38.8700	  560.00	  561.49	-1828.16	  423.76
     38.9700	  544.00	  556.10	-1838.77	  423.58
     39.0700	  596.00	  553.13	-1783.80	  423.40
     39.1700	  526.00	  551.18	-1851.85	  423.22
     39.2700	  538.00	  549.83	-1838.50	  423.04
     39.3700	  542.00	  548.82	-1833.49	  422.86
     39.4700	  564.00	  548.02	-1810.69	  422.68
     39.5700	  555.00	  547.37	-1819.04	  422.51
     39.6700	  569.00	  546.82	-1804.49	  422.34
     39.7700	  577.00	  546.36	-1796.03	  422.17
     39.8700	  546.00	  545.95	-1826.62	  422.00
     39.9700	  533.00	  546.15	-1839.82	  421.83
     40.0700	  580.00	  545.85	-1792.52	  421.66
     40.1700	  564.00	  545.59	-1808.27	  421.50
     40.2700	  531.00	  544.93	-1840.60	  421.33
     40.3700	  547.00	  544.75	-1824.42	  421.17
     40.4700	  524.00	  544.60	-1847.27	  421.01
     40.5700	  537.00	  544.48	-1834.15	  420.85
     40.6700	  524.00	  544.40	-1847.07	  420.69
     40.7700	  512.00	  544.34	-1859.01	  420.54
