MSG Master    CELL:    5.91511   5.91511  23.25675   90.0000   90.0000  120.0000   SPGR: P 63/m m c             TEMP:   1003.15
  1   1280     2.52000     0.00000    -0.13124     0.00000     0.00000    0
    99     0     2
       0.00000      10.00000
     125.00000     130.00000
 2Theta	Yobs	Ycal	Yobs-Ycal	Backg	Posr	(hkl)	K
      0.7700	    0.00	  508.84	-1715.83	  394.82
      0.8700	    0.00	  509.99	-1715.83	  395.97
      0.9700	   47.00	  511.13	-1715.83	  397.11
      1.0700	   48.00	  512.26	-1715.83	  398.24
      1.1700	   44.00	  513.37	-1715.83	  399.35
      1.2700	   37.00	  514.47	-1715.83	  400.44
      1.3700	   51.00	  515.55	-1715.83	  401.53
      1.4700	   89.00	  516.62	-1715.83	  402.60
      1.5700	  295.00	  517.68	-1715.83	  403.65
      1.6700	  492.00	  518.72	-1715.83	  404.69
      1.7700	  549.00	  519.75	-1715.83	  405.72
      1.8700	  675.00	  520.76	-1715.83	  406.73
      1.9700	  718.00	  521.76	-1715.83	  407.74
      2.0700	  724.00	  522.75	-1715.83	  408.72
      2.1700	  773.00	  523.72	-1715.83	  409.70
      2.2700	  756.00	  524.68	-1715.83	  410.66
      2.3700	  692.00	  525.63	-1715.83	  411.60
      2.4700	  714.00	  526.56	-1715.83	  412.54
      2.5700	  723.00	  527.48	-1715.83	  413.46
      2.6700	  678.00	  528.39	-1715.83	  414.37
      2.7700	  620.00	  529.29	-1715.83	  415.26
      2.8700	  643.00	  530.17	-1715.83	  416.14
      2.9700	  606.00	  531.04	-1715.83	  417.01
      3.0700	  635.00	  531.89	-1715.83	  417.87
      3.1700	  587.00	  532.74	-1715.83	  418.71
      3.2700	  642.00	  533.57	-1715.83	  419.55
      3.3700	  751.00	  534.39	-1715.83	  420.37
      3.4700	  808.00	  535.20	-1715.83	  421.17
      3.5700	  866.00	  535.99	-1715.83	  421.97
      3.6700	  912.00	  536.78	-1715.83	  422.75
      3.7700	 1013.00	  537.55	-1715.83	  423.52
      3.8700	 1040.00	  538.31	-1715.83	  424.28
      3.9700	 1072.00	  539.06	-1715.83	  425.03
      4.0700	 1121.00	  539.79	-1715.83	  425.77
      4.1700	 1139.00	  540.52	-1715.83	  426.49
      4.2700	 1163.00	  541.23	-1715.83	  427.20
      4.3700	 1180.00	  541.93	-1715.83	  427.90
      4.4700	 1138.00	  542.62	-1715.83	  428.59
      4.5700	 1102.00	  543.30	-1715.83	  429.27
      4.6700	 1063.00	  543.96	-1715.83	  429.94
      4.7700	 1060.00	  544.62	-1715.83	  430.59
      4.8700	 1014.00	  545.26	-1715.83	  431.24
      4.9700	 1021.00	  545.90	-1715.83	  431.87
      5.0700	 1028.00	  546.52	-1715.83	  432.50
      5.1700	  950.00	  547.13	-1715.83	  433.11
      5.2700	  933.00	  547.73	-1715.83	  433.71
      5.3700	  964.00	  548.32	-1715.83	  434.30
      5.4700	  874.00	  548.90	-1715.83	  434.88
      5.5700	  839.00	  549.47	-1715.83	  435.45
      5.6700	  850.00	  550.03	-1715.83	  436.01
      5.7700	  857.00	  550.58	-1715.83	  436.56
      5.8700	  873.00	  551.12	-1715.83	  437.09
      5.9700	  764.00	  551.65	-1715.83	  437.62
      6.0700	  868.00	  552.16	-1715.83	  438.14
      6.1700	  829.00	  552.67	-1715.83	  438.65
      6.2700	  771.00	  553.17	-1715.83	  439.14
      6.3700	  785.00	  553.66	-1715.83	  439.63
      6.4700	  814.00	  554.13	-1715.83	  440.11
      6.5700	  751.00	  554.60	-1715.83	  440.58
      6.6700	  753.00	  555.06	-1715.83	  441.04
      6.7700	  675.00	  555.51	-1715.83	  441.48
      6.8700	  753.00	  555.95	-1715.83	  441.92
      6.9700	  719.00	  556.38	-1715.83	  442.35
      7.0700	  690.00	  556.80	-1715.83	  442.77
      7.1700	  680.00	  557.21	-1715.83	  443.18
      7.2700	  678.00	  557.61	-1715.83	  443.59
      7.3700	  645.00	  558.00	-1715.83	  443.98
      7.4700	  660.00	  558.39	-1715.83	  444.36
      7.5700	  679.00	  558.76	-1715.83	  444.74
      7.6700	  634.00	  559.13	-1715.83	  445.10
      7.7700	  633.00	  559.48	-1715.83	  445.46
      7.8700	  648.00	  559.83	-1715.83	  445.80
      7.9700	  652.00	  560.17	-1715.83	  446.14
      8.0700	  590.00	  560.50	-1715.83	  446.47
      8.1700	  615.00	  560.82	-1715.83	  446.80
      8.2700	  625.00	  561.13	-1715.83	  447.11
      8.3700	  581.00	  561.44	-1715.83	  447.41
      8.4700	  612.00	  561.73	-1715.83	  447.71
      8.5700	  595.00	  562.02	-1715.83	  448.00
      8.6700	  656.00	  562.30	-1715.83	  448.28
      8.7700	  637.00	  562.57	-1715.83	  448.55
      8.8700	  611.00	  562.84	-1715.83	  448.81
      8.9700	  616.00	  563.09	-1715.83	  449.07
      9.0700	  646.00	  563.34	-1715.83	  449.31
      9.1700	  642.00	  563.58	-1715.83	  449.55
      9.2700	  569.00	  563.81	-1715.83	  449.78
      9.3700	  578.00	  564.03	-1715.83	  450.01
      9.4700	  591.00	  564.25	-1715.83	  450.22
      9.5700	  639.00	  564.46	-1715.83	  450.43
      9.6700	  564.00	  564.66	-1715.83	  450.63
      9.7700	  604.00	  564.85	-1715.83	  450.83
      9.8700	  603.00	  565.04	-1715.83	  451.01
      9.9700	  561.00	  565.21	-1715.83	  451.19
     10.0700	  595.00	  566.62	-1687.46	  451.36
     10.1700	  572.00	  566.92	-1710.75	  451.52
     10.2700	  575.00	  567.24	-1708.08	  451.68
     10.3700	  549.00	  567.61	-1734.44	  451.83
     10.4700	  570.00	  568.05	-1713.88	  451.97
     10.5700	  583.00	  568.62	-1701.45	  452.11
     10.6700	  545.00	  569.41	-1740.25	  452.24
     10.7700	  580.00	  570.53	-1706.36	  452.36
     10.8700	  582.00	  572.04	-1705.87	  452.47
     10.9700	  594.00	  573.94	-1695.77	  452.58
     11.0700	  592.00	  576.23	-1700.06	  452.68
     11.1700	  590.00	  578.90	-1704.73	  452.77
     11.2700	  584.00	  581.99	-1713.83	  452.86
     11.3700	  610.00	  585.59	-1691.43	  452.94
     11.4700	  610.00	  589.84	-1695.67	  453.02
     11.5700	  618.00	  594.95	-1692.78	  453.09
     11.6700	  593.00	  601.28	-1724.11	  453.15
     11.7700	  620.00	  609.38	-1705.21	  453.21
     11.8700	  633.00	  619.84	-1702.67	  453.26
     11.9700	  610.00	  632.63	-1738.46	  453.30
     12.0700	  645.00	  645.83	-1716.66	  453.34
     12.1700	  694.00	  654.44	-1676.27	  453.37
     12.2700	  734.00	  651.20	-1633.03	  453.40
     12.3700	  636.00	  633.88	-1713.72	  453.41
     12.4700	  637.00	  611.84	-1690.67	  453.43
     12.5700	  593.00	  594.20	-1717.03	  453.44
     12.6700	  586.00	  583.15	-1712.99	  453.44
     12.7700	  562.00	  577.21	-1731.04	  453.44
     12.8700	  562.00	  574.18	-1728.02	  453.43
     12.9700	  550.00	  572.53	-1738.36	  453.41
     13.0700	  581.00	  571.50	-1706.33	  453.39
     13.1700	  600.00	  570.76	-1686.59	  453.37
     13.2700	  572.00	  570.20	-1714.04	  453.34
     13.3700	  511.00	  569.76	-1774.60	  453.30
     13.4700	  597.00	  569.40	-1688.24	  453.26
     13.5700	  561.00	  569.10	-1723.94	  453.21
     13.6700	  604.00	  568.84	-1680.68	  453.16
     13.7700	  561.00	  568.62	-1723.45	  453.10
     13.8700	  556.00	  568.41	-1728.25	  453.04
     13.9700	  565.00	  568.23	-1719.06	  452.98
     14.0700	  538.00	  568.05	-1745.89	  452.90
     14.1700	  542.00	  567.89	-1741.72	  452.83
     14.2700	  579.00	  567.73	-1704.57	  452.74
     14.3700	  518.00	  567.58	-1765.41	  452.66
     14.4700	  566.00	  567.43	-1717.27	  452.57
     14.5700	  554.00	  567.29	-1729.12	  452.47
     14.6700	  571.00	  567.14	-1711.97	  452.37
     14.7700	  593.00	  567.00	-1689.83	  452.27
     14.8700	  559.00	  566.85	-1723.69	  452.16
     14.9700	  508.00	  566.71	-1774.54	  452.04
     15.0700	  552.00	  566.59	-1730.42	  451.92
     15.1700	  575.00	  566.44	-1707.27	  451.80
     15.2700	  640.00	  566.29	-1642.12	  451.67
     15.3700	  529.00	  566.14	-1752.97	  451.54
     15.4700	  566.00	  565.99	-1715.82	  451.41
     15.5700	  535.00	  565.83	-1746.66	  451.27
     15.6700	  570.00	  565.67	-1711.50	  451.12
     15.7700	  553.00	  565.51	-1728.34	  450.98
     15.8700	  553.00	  565.34	-1728.18	  450.82
     15.9700	  540.00	  565.17	-1741.01	  450.67
     16.0700	  548.00	  565.00	-1732.84	  450.51
     16.1700	  561.00	  564.83	-1719.66	  450.35
     16.2700	  539.00	  564.65	-1741.49	  450.18
     16.3700	  553.00	  564.47	-1727.31	  450.01
     16.4700	  550.00	  564.29	-1730.12	  449.83
     16.5700	  555.00	  564.11	-1724.94	  449.65
     16.6700	  579.00	  563.92	-1700.75	  449.47
     16.7700	  588.00	  563.73	-1691.56	  449.29
     16.8700	  587.00	  563.53	-1692.36	  449.10
     16.9700	  503.00	  563.33	-1776.17	  448.90
     17.0700	  583.00	  563.13	-1695.97	  448.71
     17.1700	  552.00	  562.93	-1726.76	  448.51
     17.2700	  539.00	  562.72	-1739.56	  448.30
     17.3700	  584.00	  562.51	-1694.35	  448.10
     17.4700	  564.00	  562.30	-1714.13	  447.89
     17.5700	  546.00	  562.08	-1731.92	  447.68
     17.6700	  595.00	  561.87	-1682.70	  447.46
     17.7700	  595.00	  561.64	-1682.48	  447.24
     17.8700	  606.00	  561.52	-1671.35	  447.02
     17.9700	  557.00	  561.30	-1720.13	  446.79
     18.0700	  564.00	  561.07	-1712.90	  446.57
     18.1700	  547.00	  560.84	-1729.67	  446.34
     18.2700	  520.00	  560.61	-1756.44	  446.10
     18.3700	  592.00	  560.37	-1684.20	  445.87
     18.4700	  511.00	  560.13	-1764.97	  445.63
     18.5700	  550.00	  559.99	-1725.82	  445.38
     18.6700	  569.00	  559.75	-1706.58	  445.14
     18.7700	  543.00	  559.50	-1732.34	  444.89
     18.8700	  534.00	  559.26	-1741.09	  444.64
     18.9700	  558.00	  559.01	-1716.84	  444.39
     19.0700	  580.00	  558.76	-1694.59	  444.13
     19.1700	  562.00	  558.51	-1712.34	  443.87
     19.2700	  551.00	  558.25	-1723.09	  443.61
     19.3700	  557.00	  558.00	-1716.83	  443.35
     19.4700	  549.00	  557.74	-1724.57	  443.09
     19.5700	  526.00	  557.48	-1747.31	  442.82
     19.6700	  550.00	  557.22	-1723.05	  442.55
     19.7700	  600.00	  556.96	-1672.79	  442.28
     19.8700	  544.00	  556.69	-1728.52	  442.00
     19.9700	  526.00	  556.42	-1746.26	  441.73
     20.0700	  537.00	  556.16	-1734.99	  441.45
     20.1700	  577.00	  555.89	-1694.72	  441.17
     20.2700	  544.00	  555.62	-1727.45	  440.88
     20.3700	  535.00	  555.38	-1736.21	  440.60
     20.4700	  557.00	  555.10	-1713.94	  440.31
     20.5700	  522.00	  554.83	-1748.66	  440.02
     20.6700	  528.00	  554.55	-1742.39	  439.73
     20.7700	  525.00	  554.28	-1745.11	  439.44
     20.8700	  559.00	  554.00	-1710.83	  439.15
     20.9700	  529.00	  553.72	-1740.56	  438.85
     21.0700	  508.00	  553.45	-1761.28	  438.55
     21.1700	  548.00	  553.17	-1721.00	  438.25
     21.2700	  583.00	  552.89	-1685.72	  437.95
     21.3700	  539.00	  552.61	-1729.44	  437.65
     21.4700	  548.00	  552.33	-1720.17	  437.34
     21.5700	  531.00	  552.05	-1736.89	  437.04
     21.6700	  542.00	  551.78	-1725.61	  436.73
     21.7700	  589.00	  551.46	-1678.29	  436.42
     21.8700	  532.00	  551.19	-1735.02	  436.11
     21.9700	  531.00	  550.91	-1735.75	  435.80
     22.0700	  507.00	  550.64	-1759.47	  435.48
     22.1700	  553.00	  550.37	-1713.20	  435.17
     22.2700	  545.00	  550.11	-1720.94	  434.85
     22.3700	  548.00	  549.84	-1717.68	  434.53
     22.4700	  571.00	  549.59	-1694.42	  434.21
     22.5700	  552.00	  549.33	-1713.17	  433.89
     22.6700	  560.00	  549.09	-1704.92	  433.57
     22.7700	  567.00	  548.85	-1697.68	  433.25
     22.8700	  506.00	  548.62	-1758.46	  432.93
     22.9700	  571.00	  548.41	-1693.24	  432.60
     23.0700	  553.00	  548.36	-1711.19	  432.28
     23.1700	  551.00	  548.18	-1713.01	  431.95
     23.2700	  543.00	  548.03	-1720.86	  431.62
     23.3700	  514.00	  547.91	-1749.74	  431.29
     23.4700	  566.00	  547.84	-1697.67	  430.96
     23.5700	  564.00	  547.82	-1699.65	  430.63
     23.6700	  548.00	  547.89	-1715.73	  430.30
     23.7700	  535.00	  548.11	-1728.94	  429.97
     23.8700	  530.00	  548.57	-1734.40	  429.64
     23.9700	  550.00	  549.48	-1715.31	  429.30
     24.0700	  546.00	  551.19	-1721.02	  428.97
     24.1700	  547.00	  554.24	-1723.07	  428.63
     24.2700	  573.00	  559.32	-1702.15	  428.30
     24.3700	  634.00	  567.13	-1648.96	  427.96
     24.4700	  550.00	  578.19	-1744.02	  427.62
     24.5700	  563.00	  592.19	-1745.03	  427.29
     24.6700	  605.00	  606.91	-1717.74	  426.95
     24.7700	  655.00	  617.23	-1678.06	  426.61
     24.8700	  646.00	  616.24	-1686.07	  426.27
     24.9700	  622.00	  602.07	-1695.91	  425.93
     25.0700	  604.00	  582.88	-1694.72	  425.59
     25.1700	  563.00	  566.75	-1719.59	  425.25
     25.2700	  579.00	  556.11	-1692.95	  424.91
     25.3700	  545.00	  550.09	-1720.92	  424.57
     25.4700	  554.00	  546.91	-1708.74	  424.22
     25.5700	  555.00	  545.16	-1705.99	  423.88
     25.6700	  573.00	  544.06	-1686.89	  423.54
     25.7700	  538.00	  543.29	-1721.12	  423.20
     25.8700	  574.00	  542.71	-1684.55	  422.85
     25.9700	  575.00	  542.28	-1683.11	  422.51
     26.0700	  576.00	  541.95	-1681.78	  422.17
     26.1700	  585.00	  541.71	-1672.54	  421.82
     26.2700	  533.00	  541.56	-1724.40	  421.48
     26.3700	  557.00	  541.50	-1700.34	  421.14
     26.4700	  598.00	  541.53	-1659.36	  420.79
     26.5700	  568.00	  541.66	-1689.49	  420.45
     26.6700	  542.00	  541.91	-1715.74	  420.11
     26.7700	  529.00	  542.29	-1729.13	  419.76
     26.8700	  521.00	  542.85	-1737.69	  419.42
     26.9700	  551.00	  543.63	-1708.47	  419.08
     27.0700	  567.00	  544.71	-1693.54	  418.73
     27.1700	  551.00	  546.20	-1711.04	  418.39
     27.2700	  583.00	  548.35	-1681.18	  418.04
     27.3700	  591.00	  551.58	-1676.42	  417.70
     27.4700	  510.00	  556.79	-1762.62	  417.36
     27.5700	  545.00	  565.53	-1736.36	  417.02
     27.6700	  592.00	  580.28	-1704.12	  416.67
     27.7700	  587.00	  604.35	-1733.18	  416.33
     27.8700	  649.00	  640.73	-1707.56	  415.99
     27.9700	  640.00	  689.95	-1765.79	  415.65
     28.0700	  753.00	  747.24	-1710.08	  415.31
     28.1700	  879.00	  799.82	-1636.65	  414.97
     28.2700	  875.00	  827.31	-1668.14	  414.62
     28.3700	  834.00	  814.64	-1696.47	  414.28
     28.4700	  805.00	  777.14	-1687.97	  413.94
     28.5700	  784.00	  748.32	-1680.15	  413.61
     28.6700	  729.00	  746.11	-1732.94	  413.27
     28.7700	  751.00	  768.12	-1732.95	  412.93
     28.8700	  760.00	  797.02	-1752.85	  412.59
     28.9700	  856.00	  806.45	-1666.28	  412.25
     29.0700	  787.00	  776.24	-1705.08	  411.92
     29.1700	  750.00	  716.39	-1682.23	  411.58
     29.2700	  612.00	  654.95	-1758.79	  411.24
     29.3700	  592.00	  608.00	-1731.83	  410.91
     29.4700	  618.00	  577.93	-1675.76	  410.57
     29.5700	  575.00	  560.78	-1701.61	  410.24
     29.6700	  544.00	  551.43	-1723.27	  409.91
     29.7700	  630.00	  546.14	-1631.97	  409.57
     29.8700	  618.00	  542.88	-1640.72	  409.24
     29.9700	  582.00	  540.80	-1674.63	  408.91
     30.0700	  569.00	  539.61	-1686.44	  408.58
     30.1700	  538.00	  539.39	-1717.22	  408.25
     30.2700	  601.00	  540.56	-1655.40	  407.92
     30.3700	  560.00	  543.86	-1699.69	  407.59
     30.4700	  537.00	  550.50	-1729.34	  407.27
     30.5700	  523.00	  561.74	-1754.57	  406.94
     30.6700	  567.00	  577.90	-1726.73	  406.61
     30.7700	  584.00	  597.19	-1729.03	  406.29
     30.8700	  611.00	  614.74	-1719.57	  405.97
     30.9700	  609.00	  622.76	-1729.59	  405.64
     31.0700	  626.00	  614.75	-1704.58	  405.32
     31.1700	  604.00	  594.11	-1705.94	  405.00
     31.2700	  612.00	  571.35	-1675.18	  404.68
     31.3700	  560.00	  553.22	-1709.05	  404.36
     31.4700	  526.00	  541.25	-1731.08	  404.04
     31.5700	  541.00	  534.29	-1709.12	  403.72
     31.6700	  572.00	  530.48	-1674.31	  403.41
     31.7700	  557.00	  528.35	-1687.18	  403.09
     31.8700	  525.00	  527.04	-1717.87	  402.78
     31.9700	  544.00	  526.16	-1697.99	  402.47
     32.0700	  538.00	  525.56	-1703.39	  402.15
     32.1700	  565.00	  525.17	-1676.00	  401.84
     32.2700	  552.00	  524.95	-1688.78	  401.53
     32.3700	  548.00	  524.91	-1692.75	  401.22
     32.4700	  538.00	  525.05	-1702.88	  400.92
     32.5700	  541.00	  525.39	-1700.22	  400.61
     32.6700	  512.00	  525.96	-1729.79	  400.31
     32.7700	  567.00	  526.81	-1675.64	  400.00
     32.8700	  549.00	  528.03	-1694.86	  399.70
     32.9700	  537.00	  529.74	-1708.57	  399.40
     33.0700	  561.00	  532.20	-1687.03	  399.10
     33.1700	  530.00	  535.89	-1721.73	  398.80
     33.2700	  482.00	  541.89	-1775.73	  398.50
     33.3700	  597.00	  552.34	-1671.17	  398.20
     33.4700	  570.00	  571.09	-1716.93	  397.91
     33.5700	  589.00	  604.00	-1730.83	  397.62
     33.6700	  617.00	  657.50	-1756.34	  397.32
     33.7700	  711.00	  734.47	-1739.30	  397.03
     33.8700	  850.00	  827.87	-1693.70	  396.74
     33.9700	  998.00	  916.19	-1634.02	  396.45
     34.0700	 1055.00	  964.55	-1625.38	  396.17
     34.1700	 1056.00	  941.65	-1601.48	  395.88
     34.2700	  894.00	  856.14	-1677.97	  395.60
     34.3700	  786.00	  752.56	-1682.39	  395.31
     34.4700	  651.00	  664.89	-1729.72	  395.03
     34.5700	  606.00	  604.15	-1713.99	  394.75
     34.6700	  552.00	  567.60	-1731.44	  394.47
     34.7700	  553.00	  547.45	-1710.28	  394.19
     34.8700	  535.00	  536.42	-1717.25	  393.92
     34.9700	  526.00	  529.94	-1719.77	  393.64
     35.0700	  474.00	  525.63	-1767.46	  393.37
     35.1700	  517.00	  522.46	-1721.29	  393.10
     35.2700	  523.00	  519.98	-1712.81	  392.83
     35.3700	  483.00	  517.98	-1750.82	  392.56
     35.4700	  517.00	  516.33	-1715.16	  392.29
     35.5700	  551.00	  514.94	-1679.77	  392.03
     35.6700	  473.00	  513.75	-1756.59	  391.76
     35.7700	  529.00	  512.72	-1699.56	  391.50
     35.8700	  532.00	  512.28	-1696.12	  391.24
     35.9700	  523.00	  511.49	-1704.32	  390.98
     36.0700	  526.00	  510.78	-1700.61	  390.72
     36.1700	  516.00	  510.15	-1709.98	  390.47
     36.2700	  555.00	  509.57	-1670.40	  390.21
     36.3700	  480.00	  509.05	-1744.88	  389.96
     36.4700	  459.00	  508.58	-1765.41	  389.71
     36.5700	  479.00	  508.15	-1744.99	  389.46
     36.6700	  481.00	  507.78	-1742.61	  389.21
     36.7700	  525.00	  507.46	-1698.29	  388.97
     36.8700	  511.00	  507.23	-1712.06	  388.72
     36.9700	  515.00	  507.11	-1707.95	  388.48
     37.0700	  497.00	  507.22	-1726.06	  388.24
     37.1700	  510.00	  507.73	-1713.56	  388.00
     37.2700	  491.00	  508.85	-1733.69	  387.76
     37.3700	  519.00	  510.77	-1707.60	  387.52
     37.4700	  512.00	  513.45	-1717.28	  387.29
     37.5700	  499.00	  516.41	-1733.24	  387.05
     37.6700	  512.00	  518.70	-1722.53	  386.82
     37.7700	  508.00	  519.13	-1726.96	  386.59
     37.8700	  507.00	  517.22	-1726.06	  386.37
     37.9700	  503.00	  513.90	-1726.74	  386.14
     38.0700	  506.00	  510.45	-1720.29	  385.92
     38.1700	  510.00	  507.57	-1713.40	  385.69
     38.2700	  493.00	  505.44	-1728.27	  385.47
     38.3700	  489.00	  503.99	-1730.82	  385.25
     38.4700	  497.00	  503.03	-1721.87	  385.04
     38.5700	  475.00	  502.38	-1743.21	  384.82
     38.6700	  502.00	  502.06	-1715.89	  384.61
     38.7700	  528.00	  501.68	-1689.52	  384.39
     38.8700	  478.00	  501.27	-1739.10	  384.18
     38.9700	  464.00	  500.99	-1752.82	  383.97
     39.0700	  534.00	  500.73	-1682.56	  383.77
     39.1700	  495.00	  500.49	-1721.32	  383.56
     39.2700	  500.00	  500.26	-1716.09	  383.36
     39.3700	  495.00	  500.05	-1720.88	  383.16
     39.4700	  579.00	  499.85	-1636.68	  382.96
     39.5700	  516.00	  499.66	-1699.49	  382.76
     39.6700	  490.00	  499.39	-1725.23	  382.57
     39.7700	  516.00	  499.23	-1699.06	  382.37
     39.8700	  470.00	  499.07	-1744.90	  382.18
     39.9700	  500.00	  498.92	-1714.75	  381.99
     40.0700	  499.00	  498.79	-1715.62	  381.80
     40.1700	  526.00	  498.66	-1688.49	  381.61
     40.2700	  487.00	  498.55	-1727.38	  381.43
     40.3700	  486.00	  498.45	-1728.28	  381.24
     40.4700	  484.00	  498.37	-1730.20	  381.06
     40.5700	  470.00	  498.30	-1744.13	  380.88
     40.6700	  503.00	  498.25	-1711.09	  380.71
     40.7700	  437.00	  498.23	-1777.06	  380.53
