MSG Master    CELL:    5.91939   5.91939  23.27211   90.0000   90.0000  120.0000   SPGR: P 63/m m c             TEMP:   1074.85
  1   1280     2.52000     0.00000    -0.12280     0.00000     0.00000    0
    99     0     2
       0.00000      10.00000
     125.00000     130.00000
 2Theta	Yobs	Ycal	Yobs-Ycal	Backg	Posr	(hkl)	K
      0.7700	    0.00	  519.15	-1766.00	  402.70
      0.8700	    1.00	  520.23	-1766.00	  403.78
      0.9700	   38.00	  521.29	-1766.00	  404.84
      1.0700	   42.00	  522.34	-1766.00	  405.89
      1.1700	   49.00	  523.37	-1766.00	  406.92
      1.2700	   51.00	  524.39	-1766.00	  407.94
      1.3700	   39.00	  525.40	-1766.00	  408.95
      1.4700	   94.00	  526.39	-1766.00	  409.94
      1.5700	  292.00	  527.37	-1766.00	  410.92
      1.6700	  429.00	  528.34	-1766.00	  411.89
      1.7700	  600.00	  529.29	-1766.00	  412.84
      1.8700	  630.00	  530.23	-1766.00	  413.78
      1.9700	  749.00	  531.16	-1766.00	  414.71
      2.0700	  761.00	  532.07	-1766.00	  415.62
      2.1700	  805.00	  532.97	-1766.00	  416.52
      2.2700	  775.00	  533.86	-1766.00	  417.41
      2.3700	  719.00	  534.74	-1766.00	  418.29
      2.4700	  724.00	  535.60	-1766.00	  419.15
      2.5700	  725.00	  536.45	-1766.00	  420.00
      2.6700	  679.00	  537.29	-1766.00	  420.84
      2.7700	  664.00	  538.11	-1766.00	  421.66
      2.8700	  612.00	  538.93	-1766.00	  422.48
      2.9700	  589.00	  539.73	-1766.00	  423.28
      3.0700	  594.00	  540.52	-1766.00	  424.07
      3.1700	  609.00	  541.29	-1766.00	  424.84
      3.2700	  602.00	  542.06	-1766.00	  425.61
      3.3700	  658.00	  542.81	-1766.00	  426.36
      3.4700	  726.00	  543.55	-1766.00	  427.10
      3.5700	  800.00	  544.28	-1766.00	  427.83
      3.6700	  847.00	  545.00	-1766.00	  428.55
      3.7700	  907.00	  545.70	-1766.00	  429.25
      3.8700	  950.00	  546.40	-1766.00	  429.95
      3.9700	 1041.00	  547.08	-1766.00	  430.63
      4.0700	 1019.00	  547.75	-1766.00	  431.30
      4.1700	 1090.00	  548.42	-1766.00	  431.97
      4.2700	 1068.00	  549.06	-1766.00	  432.62
      4.3700	 1106.00	  549.70	-1766.00	  433.25
      4.4700	 1090.00	  550.33	-1766.00	  433.88
      4.5700	 1085.00	  550.95	-1766.00	  434.50
      4.6700	 1038.00	  551.55	-1766.00	  435.10
      4.7700	  986.00	  552.15	-1766.00	  435.70
      4.8700	  923.00	  552.73	-1766.00	  436.28
      4.9700	  940.00	  553.31	-1766.00	  436.86
      5.0700	  968.00	  553.87	-1766.00	  437.42
      5.1700	  910.00	  554.42	-1766.00	  437.97
      5.2700	  933.00	  554.97	-1766.00	  438.52
      5.3700	  883.00	  555.50	-1766.00	  439.05
      5.4700	  926.00	  556.02	-1766.00	  439.57
      5.5700	  863.00	  556.53	-1766.00	  440.08
      5.6700	  839.00	  557.03	-1766.00	  440.58
      5.7700	  826.00	  557.53	-1766.00	  441.08
      5.8700	  852.00	  558.01	-1766.00	  441.56
      5.9700	  806.00	  558.48	-1766.00	  442.03
      6.0700	  862.00	  558.94	-1766.00	  442.49
      6.1700	  788.00	  559.40	-1766.00	  442.95
      6.2700	  762.00	  559.84	-1766.00	  443.39
      6.3700	  787.00	  560.27	-1766.00	  443.82
      6.4700	  744.00	  560.70	-1766.00	  444.25
      6.5700	  723.00	  561.11	-1766.00	  444.66
      6.6700	  712.00	  561.52	-1766.00	  445.07
      6.7700	  716.00	  561.91	-1766.00	  445.46
      6.8700	  698.00	  562.30	-1766.00	  445.85
      6.9700	  719.00	  562.68	-1766.00	  446.23
      7.0700	  686.00	  563.05	-1766.00	  446.60
      7.1700	  669.00	  563.41	-1766.00	  446.96
      7.2700	  678.00	  563.76	-1766.00	  447.31
      7.3700	  684.00	  564.10	-1766.00	  447.65
      7.4700	  636.00	  564.43	-1766.00	  447.98
      7.5700	  653.00	  564.76	-1766.00	  448.31
      7.6700	  647.00	  565.08	-1766.00	  448.63
      7.7700	  674.00	  565.38	-1766.00	  448.93
      7.8700	  652.00	  565.68	-1766.00	  449.23
      7.9700	  635.00	  565.97	-1766.00	  449.52
      8.0700	  599.00	  566.26	-1766.00	  449.81
      8.1700	  634.00	  566.53	-1766.00	  450.08
      8.2700	  678.00	  566.80	-1766.00	  450.35
      8.3700	  636.00	  567.06	-1766.00	  450.61
      8.4700	  646.00	  567.31	-1766.00	  450.86
      8.5700	  627.00	  567.55	-1766.00	  451.10
      8.6700	  655.00	  567.78	-1766.00	  451.33
      8.7700	  619.00	  568.01	-1766.00	  451.56
      8.8700	  658.00	  568.23	-1766.00	  451.78
      8.9700	  616.00	  568.44	-1766.00	  451.99
      9.0700	  611.00	  568.64	-1766.00	  452.19
      9.1700	  623.00	  568.84	-1766.00	  452.39
      9.2700	  645.00	  569.03	-1766.00	  452.58
      9.3700	  588.00	  569.21	-1766.00	  452.76
      9.4700	  618.00	  569.38	-1766.00	  452.93
      9.5700	  600.00	  569.55	-1766.00	  453.10
      9.6700	  566.00	  569.71	-1766.00	  453.26
      9.7700	  592.00	  569.86	-1766.00	  453.41
      9.8700	  602.00	  570.01	-1766.00	  453.56
      9.9700	  589.00	  570.14	-1766.00	  453.69
     10.0700	  587.00	  571.04	-1750.04	  453.82
     10.1700	  601.00	  571.25	-1736.25	  453.95
     10.2700	  609.00	  571.46	-1728.46	  454.07
     10.3700	  616.00	  571.70	-1721.70	  454.18
     10.4700	  559.00	  571.99	-1778.99	  454.28
     10.5700	  589.00	  572.38	-1749.38	  454.38
     10.6700	  631.00	  572.97	-1707.97	  454.47
     10.7700	  590.00	  573.87	-1749.87	  454.55
     10.8700	  572.00	  575.16	-1769.16	  454.63
     10.9700	  550.00	  576.83	-1792.83	  454.70
     11.0700	  626.00	  578.84	-1718.84	  454.76
     11.1700	  585.00	  581.18	-1762.18	  454.82
     11.2700	  536.00	  583.90	-1813.90	  454.87
     11.3700	  578.00	  587.05	-1775.05	  454.92
     11.4700	  573.00	  590.79	-1783.79	  454.96
     11.5700	  624.00	  595.29	-1737.29	  454.99
     11.6700	  622.00	  600.91	-1744.91	  455.02
     11.7700	  638.00	  608.23	-1736.23	  455.04
     11.8700	  630.00	  618.22	-1754.22	  455.06
     11.9700	  641.00	  631.63	-1756.63	  455.07
     12.0700	  648.00	  647.09	-1765.09	  455.07
     12.1700	  704.00	  658.50	-1720.50	  455.07
     12.2700	  660.00	  655.86	-1761.86	  455.06
     12.3700	  620.00	  635.60	-1781.60	  455.05
     12.4700	  626.00	  610.24	-1750.24	  455.03
     12.5700	  613.00	  591.66	-1744.66	  455.01
     12.6700	  596.00	  581.70	-1751.70	  454.98
     12.7700	  567.00	  577.30	-1776.30	  454.94
     12.8700	  595.00	  575.40	-1746.40	  454.90
     12.9700	  600.00	  574.40	-1740.40	  454.86
     13.0700	  538.00	  573.74	-1801.74	  454.81
     13.1700	  564.00	  573.26	-1775.26	  454.75
     13.2700	  554.00	  572.88	-1784.88	  454.69
     13.3700	  575.00	  572.57	-1763.57	  454.63
     13.4700	  506.00	  572.30	-1832.30	  454.56
     13.5700	  556.00	  572.08	-1782.08	  454.48
     13.6700	  582.00	  571.87	-1755.87	  454.40
     13.7700	  591.00	  571.68	-1746.68	  454.32
     13.8700	  593.00	  571.51	-1744.51	  454.23
     13.9700	  530.00	  571.34	-1807.34	  454.13
     14.0700	  551.00	  571.18	-1786.18	  454.03
     14.1700	  563.00	  571.03	-1774.03	  453.93
     14.2700	  584.00	  570.87	-1752.87	  453.82
     14.3700	  562.00	  570.72	-1774.72	  453.71
     14.4700	  544.00	  570.57	-1792.57	  453.59
     14.5700	  561.00	  570.42	-1775.42	  453.47
     14.6700	  540.00	  570.27	-1796.27	  453.34
     14.7700	  591.00	  570.11	-1745.11	  453.21
     14.8700	  556.00	  569.96	-1779.96	  453.08
     14.9700	  559.00	  569.80	-1776.80	  452.94
     15.0700	  538.00	  569.64	-1797.64	  452.79
     15.1700	  553.00	  569.48	-1782.48	  452.65
     15.2700	  536.00	  569.31	-1799.31	  452.50
     15.3700	  542.00	  569.14	-1793.14	  452.34
     15.4700	  536.00	  568.97	-1798.97	  452.18
     15.5700	  572.00	  568.80	-1762.80	  452.02
     15.6700	  568.00	  568.62	-1766.62	  451.85
     15.7700	  539.00	  568.44	-1795.44	  451.68
     15.8700	  532.00	  568.26	-1802.26	  451.51
     15.9700	  557.00	  568.08	-1777.08	  451.33
     16.0700	  526.00	  567.89	-1807.89	  451.15
     16.1700	  598.00	  567.70	-1735.70	  450.96
     16.2700	  560.00	  567.53	-1773.53	  450.77
     16.3700	  534.00	  567.33	-1799.33	  450.58
     16.4700	  581.00	  567.13	-1752.13	  450.39
     16.5700	  597.00	  566.93	-1735.93	  450.19
     16.6700	  583.00	  566.72	-1749.72	  449.99
     16.7700	  598.00	  566.51	-1734.51	  449.78
     16.8700	  582.00	  566.30	-1750.30	  449.57
     16.9700	  565.00	  566.09	-1767.09	  449.36
     17.0700	  582.00	  565.87	-1749.87	  449.14
     17.1700	  577.00	  565.65	-1754.65	  448.92
     17.2700	  549.00	  565.42	-1782.42	  448.70
     17.3700	  556.00	  565.20	-1775.20	  448.48
     17.4700	  528.00	  564.97	-1802.97	  448.25
     17.5700	  514.00	  564.74	-1816.74	  448.02
     17.6700	  551.00	  564.50	-1779.50	  447.79
     17.7700	  566.00	  564.26	-1764.26	  447.55
     17.8700	  567.00	  564.02	-1763.02	  447.31
     17.9700	  569.00	  563.88	-1760.88	  447.07
     18.0700	  580.00	  563.63	-1749.63	  446.82
     18.1700	  522.00	  563.39	-1807.39	  446.58
     18.2700	  607.00	  563.14	-1722.14	  446.33
     18.3700	  568.00	  562.89	-1760.89	  446.07
     18.4700	  504.00	  562.63	-1824.63	  445.82
     18.5700	  574.00	  562.38	-1754.38	  445.56
     18.6700	  593.00	  562.12	-1735.12	  445.30
     18.7700	  542.00	  561.86	-1785.86	  445.04
     18.8700	  569.00	  561.69	-1758.69	  444.77
     18.9700	  578.00	  561.43	-1749.43	  444.50
     19.0700	  556.00	  561.17	-1771.17	  444.23
     19.1700	  521.00	  560.90	-1805.90	  443.96
     19.2700	  574.00	  560.63	-1752.63	  443.69
     19.3700	  556.00	  560.36	-1770.36	  443.41
     19.4700	  610.00	  560.09	-1716.09	  443.13
     19.5700	  574.00	  559.82	-1751.82	  442.85
     19.6700	  576.00	  559.54	-1749.54	  442.57
     19.7700	  528.00	  559.26	-1797.26	  442.28
     19.8700	  555.00	  558.98	-1769.98	  442.00
     19.9700	  565.00	  558.70	-1759.70	  441.71
     20.0700	  575.00	  558.42	-1749.42	  441.42
     20.1700	  558.00	  558.14	-1766.14	  441.12
     20.2700	  544.00	  557.86	-1779.86	  440.83
     20.3700	  562.00	  557.57	-1761.57	  440.53
     20.4700	  522.00	  557.28	-1801.28	  440.23
     20.5700	  562.00	  556.97	-1760.97	  439.93
     20.6700	  528.00	  556.68	-1794.68	  439.63
     20.7700	  551.00	  556.39	-1771.39	  439.33
     20.8700	  563.00	  556.14	-1759.14	  439.03
     20.9700	  551.00	  555.85	-1770.85	  438.72
     21.0700	  566.00	  555.56	-1755.56	  438.41
     21.1700	  553.00	  555.27	-1768.27	  438.10
     21.2700	  588.00	  554.97	-1732.97	  437.79
     21.3700	  560.00	  554.68	-1760.68	  437.48
     21.4700	  562.00	  554.39	-1758.39	  437.16
     21.5700	  570.00	  554.10	-1750.10	  436.85
     21.6700	  546.00	  553.81	-1773.81	  436.53
     21.7700	  550.00	  553.52	-1769.52	  436.21
     21.8700	  550.00	  553.23	-1769.23	  435.90
     21.9700	  565.00	  552.94	-1753.94	  435.57
     22.0700	  536.00	  552.65	-1782.65	  435.25
     22.1700	  551.00	  552.37	-1767.37	  434.93
     22.2700	  544.00	  552.08	-1774.08	  434.61
     22.3700	  524.00	  551.80	-1793.80	  434.28
     22.4700	  526.00	  551.53	-1791.53	  433.96
     22.5700	  518.00	  551.25	-1799.25	  433.63
     22.6700	  529.00	  550.99	-1787.99	  433.30
     22.7700	  559.00	  550.72	-1757.72	  432.97
     22.8700	  554.00	  550.47	-1762.47	  432.64
     22.9700	  539.00	  550.23	-1777.23	  432.31
     23.0700	  515.00	  549.99	-1800.99	  431.98
     23.1700	  535.00	  549.78	-1780.78	  431.65
     23.2700	  597.00	  549.58	-1718.58	  431.31
     23.3700	  586.00	  549.41	-1729.41	  430.98
     23.4700	  525.00	  549.27	-1790.27	  430.64
     23.5700	  557.00	  549.17	-1758.17	  430.31
     23.6700	  553.00	  549.14	-1762.14	  429.97
     23.7700	  568.00	  549.36	-1747.36	  429.64
     23.8700	  562.00	  549.65	-1753.65	  429.30
     23.9700	  555.00	  550.37	-1761.37	  428.96
     24.0700	  553.00	  551.96	-1764.96	  428.62
     24.1700	  553.00	  555.09	-1768.09	  428.28
     24.2700	  560.00	  560.65	-1766.65	  427.94
     24.3700	  598.00	  569.63	-1737.63	  427.60
     24.4700	  535.00	  583.14	-1814.14	  427.26
     24.5700	  603.00	  601.61	-1764.61	  426.92
     24.6700	  616.00	  622.35	-1772.35	  426.58
     24.7700	  645.00	  637.23	-1758.23	  426.24
     24.8700	  629.00	  634.91	-1771.91	  425.90
     24.9700	  620.00	  613.27	-1759.27	  425.55
     25.0700	  559.00	  586.35	-1793.35	  425.21
     25.1700	  560.00	  566.07	-1772.07	  424.87
     25.2700	  585.00	  554.67	-1735.67	  424.53
     25.3700	  553.00	  549.38	-1762.38	  424.18
     25.4700	  511.00	  547.00	-1802.00	  423.84
     25.5700	  591.00	  545.75	-1720.75	  423.49
     25.6700	  523.00	  544.93	-1787.93	  423.15
     25.7700	  608.00	  544.33	-1702.33	  422.81
     25.8700	  565.00	  543.87	-1744.87	  422.46
     25.9700	  591.00	  543.52	-1718.52	  422.12
     26.0700	  564.00	  543.25	-1745.25	  421.78
     26.1700	  544.00	  543.06	-1765.06	  421.43
     26.2700	  514.00	  542.95	-1794.95	  421.09
     26.3700	  546.00	  542.91	-1762.91	  420.74
     26.4700	  567.00	  542.95	-1741.95	  420.40
     26.5700	  550.00	  543.08	-1759.08	  420.06
     26.6700	  558.00	  543.33	-1751.33	  419.71
     26.7700	  538.00	  543.70	-1771.70	  419.37
     26.8700	  554.00	  544.24	-1756.24	  419.03
     26.9700	  483.00	  545.00	-1828.00	  418.68
     27.0700	  552.00	  546.04	-1760.04	  418.34
     27.1700	  538.00	  547.50	-1775.50	  418.00
     27.2700	  556.00	  549.60	-1759.60	  417.66
     27.3700	  564.00	  552.82	-1754.82	  417.32
     27.4700	  534.00	  558.04	-1790.04	  416.98
     27.5700	  525.00	  566.86	-1807.86	  416.63
     27.6700	  565.00	  581.79	-1782.79	  416.29
     27.7700	  584.00	  606.06	-1788.06	  415.95
     27.8700	  562.00	  642.47	-1846.47	  415.61
     27.9700	  659.00	  691.15	-1798.15	  415.27
     28.0700	  769.00	  746.69	-1743.69	  414.94
     28.1700	  898.00	  795.72	-1663.72	  414.60
     28.2700	  959.00	  818.11	-1625.11	  414.26
     28.3700	  915.00	  801.90	-1652.90	  413.92
     28.4700	  817.00	  766.49	-1715.49	  413.59
     28.5700	  707.00	  744.54	-1803.54	  413.25
     28.6700	  701.00	  751.19	-1816.19	  412.91
     28.7700	  731.00	  781.50	-1816.50	  412.58
     28.8700	  790.00	  815.03	-1791.03	  412.24
     28.9700	  814.00	  822.31	-1774.31	  411.91
     29.0700	  788.00	  784.00	-1762.00	  411.58
     29.1700	  713.00	  716.53	-1769.53	  411.25
     29.2700	  656.00	  651.38	-1761.38	  410.91
     29.3700	  603.00	  603.98	-1766.98	  410.58
     29.4700	  630.00	  575.14	-1711.14	  410.25
     29.5700	  621.00	  559.49	-1704.49	  409.92
     29.6700	  621.00	  551.23	-1696.23	  409.60
     29.7700	  619.00	  546.58	-1693.58	  409.27
     29.8700	  645.00	  543.69	-1664.69	  408.94
     29.9700	  589.00	  541.85	-1718.85	  408.62
     30.0700	  531.00	  540.88	-1775.88	  408.29
     30.1700	  571.00	  540.92	-1735.92	  407.97
     30.2700	  562.00	  542.51	-1746.51	  407.64
     30.3700	  566.00	  546.72	-1746.72	  407.32
     30.4700	  621.00	  555.19	-1700.19	  407.00
     30.5700	  562.00	  569.67	-1773.67	  406.68
     30.6700	  568.00	  590.69	-1788.69	  406.36
     30.7700	  597.00	  615.73	-1784.73	  406.04
     30.8700	  624.00	  637.77	-1779.77	  405.72
     30.9700	  567.00	  645.98	-1844.98	  405.41
     31.0700	  650.00	  632.68	-1748.68	  405.09
     31.1700	  566.00	  604.72	-1804.72	  404.78
     31.2700	  545.00	  576.28	-1797.28	  404.47
     31.3700	  570.00	  555.11	-1751.11	  404.15
     31.4700	  531.00	  542.16	-1777.16	  403.84
     31.5700	  579.00	  535.20	-1722.20	  403.53
     31.6700	  553.00	  531.60	-1744.60	  403.22
     31.7700	  554.00	  529.61	-1741.61	  402.92
     31.8700	  548.00	  528.35	-1746.35	  402.61
     31.9700	  564.00	  527.47	-1729.47	  402.31
     32.0700	  581.00	  526.84	-1711.84	  402.00
     32.1700	  535.00	  526.40	-1757.40	  401.70
     32.2700	  539.00	  526.13	-1753.13	  401.40
     32.3700	  561.00	  526.02	-1731.02	  401.10
     32.4700	  537.00	  526.06	-1755.06	  400.80
     32.5700	  556.00	  526.28	-1736.28	  400.50
     32.6700	  544.00	  526.70	-1748.70	  400.20
     32.7700	  548.00	  527.38	-1745.38	  399.91
     32.8700	  576.00	  528.37	-1718.37	  399.62
     32.9700	  546.00	  529.80	-1749.80	  399.32
     33.0700	  531.00	  531.89	-1766.89	  399.03
     33.1700	  521.00	  535.09	-1780.09	  398.74
     33.2700	  539.00	  540.48	-1767.48	  398.45
     33.3700	  578.00	  550.36	-1738.36	  398.17
     33.4700	  583.00	  569.23	-1752.23	  397.88
     33.5700	  583.00	  604.27	-1787.27	  397.60
     33.6700	  638.00	  663.94	-1791.94	  397.32
     33.7700	  719.00	  752.31	-1799.31	  397.03
     33.8700	  886.00	  860.27	-1740.27	  396.76
     33.9700	 1046.00	  959.44	-1679.44	  396.48
     34.0700	 1089.00	 1005.44	-1682.44	  396.20
     34.1700	  998.00	  964.16	-1732.16	  395.92
     34.2700	  867.00	  856.41	-1755.41	  395.65
     34.3700	  774.00	  738.61	-1730.61	  395.38
     34.4700	  692.00	  646.66	-1720.66	  395.11
     34.5700	  561.00	  588.53	-1793.53	  394.84
     34.6700	  576.00	  556.96	-1746.96	  394.57
     34.7700	  581.00	  541.11	-1726.11	  394.30
     34.8700	  504.00	  532.87	-1794.87	  394.04
     34.9700	  520.00	  527.98	-1773.98	  393.78
     35.0700	  525.00	  524.61	-1765.61	  393.52
     35.1700	  523.00	  522.07	-1765.07	  393.26
     35.2700	  491.00	  520.08	-1795.08	  393.00
     35.3700	  577.00	  518.44	-1707.44	  392.74
     35.4700	  476.00	  517.08	-1807.08	  392.49
     35.5700	  559.00	  515.92	-1722.92	  392.23
     35.6700	  553.00	  514.93	-1727.93	  391.98
     35.7700	  517.00	  514.07	-1763.07	  391.73
     35.8700	  476.00	  513.31	-1803.31	  391.48
     35.9700	  527.00	  513.13	-1752.13	  391.24
     36.0700	  536.00	  512.53	-1742.53	  390.99
     36.1700	  516.00	  511.98	-1761.98	  390.75
     36.2700	  525.00	  511.49	-1752.49	  390.51
     36.3700	  494.00	  511.04	-1783.04	  390.27
     36.4700	  519.00	  510.63	-1757.63	  390.03
     36.5700	  501.00	  510.26	-1775.26	  389.79
     36.6700	  517.00	  509.94	-1758.94	  389.56
     36.7700	  488.00	  509.66	-1787.66	  389.32
     36.8700	  516.00	  509.45	-1759.45	  389.09
     36.9700	  504.00	  509.36	-1771.36	  388.86
     37.0700	  525.00	  509.53	-1750.53	  388.63
     37.1700	  505.00	  510.20	-1771.20	  388.41
     37.2700	  554.00	  511.77	-1723.77	  388.18
     37.3700	  487.00	  514.63	-1793.63	  387.96
     37.4700	  546.00	  518.84	-1738.84	  387.74
     37.5700	  526.00	  523.72	-1763.72	  387.52
     37.6700	  549.00	  527.72	-1744.72	  387.30
     37.7700	  518.00	  529.03	-1777.03	  387.09
     37.8700	  539.00	  527.10	-1754.10	  386.88
     37.9700	  545.00	  523.31	-1744.31	  386.66
     38.0700	  511.00	  519.11	-1774.11	  386.45
     38.1700	  538.00	  515.05	-1743.05	  386.25
     38.2700	  502.00	  511.54	-1775.54	  386.04
     38.3700	  490.00	  508.85	-1784.85	  385.84
     38.4700	  477.00	  506.98	-1795.98	  385.63
     38.5700	  540.00	  505.77	-1731.77	  385.43
     38.6700	  523.00	  505.00	-1748.00	  385.23
     38.7700	  532.00	  504.41	-1738.41	  385.04
     38.8700	  504.00	  504.04	-1766.04	  384.84
     38.9700	  497.00	  503.74	-1772.74	  384.65
     39.0700	  493.00	  503.48	-1776.48	  384.46
     39.1700	  493.00	  503.24	-1776.24	  384.27
     39.2700	  476.00	  502.93	-1792.93	  384.08
     39.3700	  528.00	  502.72	-1740.72	  383.90
     39.4700	  457.00	  502.53	-1811.53	  383.71
     39.5700	  491.00	  502.35	-1777.35	  383.53
     39.6700	  532.00	  502.30	-1736.30	  383.35
     39.7700	  517.00	  502.14	-1751.14	  383.17
     39.8700	  505.00	  501.99	-1762.99	  383.00
     39.9700	  477.00	  501.85	-1790.85	  382.82
     40.0700	  531.00	  501.72	-1736.72	  382.65
     40.1700	  496.00	  501.60	-1771.60	  382.48
     40.2700	  489.00	  501.49	-1778.49	  382.31
     40.3700	  474.00	  501.40	-1793.40	  382.14
     40.4700	  511.00	  501.31	-1756.31	  381.98
     40.5700	  536.00	  501.25	-1731.25	  381.82
     40.6700	  504.00	  501.19	-1763.19	  381.66
     40.7700	  521.00	  501.16	-1746.16	  381.50
