MSG Master    CELL:    5.92009   5.92009  23.28436   90.0000   90.0000  120.0000   SPGR: P 63/m m c             TEMP:   1074.85
  1   1280     2.52000     0.00000    -0.12375     0.00000     0.00000    0
    99     0     2
       0.00000      10.00000
     125.00000     130.00000
 2Theta	Yobs	Ycal	Yobs-Ycal	Backg	Posr	(hkl)	K
      0.7700	    0.00	  558.62	-1707.16	  439.70
      0.8700	    0.00	  559.23	-1707.16	  440.30
      0.9700	   43.00	  559.82	-1707.16	  440.90
      1.0700	   57.00	  560.41	-1707.16	  441.48
      1.1700	   47.00	  560.99	-1707.16	  442.06
      1.2700	   50.00	  561.55	-1707.16	  442.62
      1.3700	   47.00	  562.11	-1707.16	  443.18
      1.4700	   79.00	  562.65	-1707.16	  443.73
      1.5700	  280.00	  563.19	-1707.16	  444.26
      1.6700	  457.00	  563.71	-1707.16	  444.79
      1.7700	  589.00	  564.23	-1707.16	  445.30
      1.8700	  614.00	  564.74	-1707.16	  445.81
      1.9700	  738.00	  565.23	-1707.16	  446.31
      2.0700	  741.00	  565.72	-1707.16	  446.80
      2.1700	  803.00	  566.20	-1707.16	  447.27
      2.2700	  803.00	  566.67	-1707.16	  447.74
      2.3700	  723.00	  567.13	-1707.16	  448.20
      2.4700	  720.00	  567.58	-1707.16	  448.66
      2.5700	  683.00	  568.02	-1707.16	  449.10
      2.6700	  645.00	  568.46	-1707.16	  449.53
      2.7700	  630.00	  568.88	-1707.16	  449.96
      2.8700	  644.00	  569.30	-1707.16	  450.37
      2.9700	  663.00	  569.70	-1707.16	  450.78
      3.0700	  602.00	  570.10	-1707.16	  451.17
      3.1700	  604.00	  570.49	-1707.16	  451.56
      3.2700	  543.00	  570.87	-1707.16	  451.94
      3.3700	  701.00	  571.24	-1707.16	  452.32
      3.4700	  790.00	  571.61	-1707.16	  452.68
      3.5700	  864.00	  571.96	-1707.16	  453.03
      3.6700	  978.00	  572.31	-1707.16	  453.38
      3.7700	  921.00	  572.65	-1707.16	  453.72
      3.8700	  951.00	  572.98	-1707.16	  454.05
      3.9700	 1034.00	  573.30	-1707.16	  454.37
      4.0700	 1000.00	  573.61	-1707.16	  454.68
      4.1700	 1059.00	  573.92	-1707.16	  454.99
      4.2700	 1082.00	  574.21	-1707.16	  455.29
      4.3700	 1030.00	  574.50	-1707.16	  455.58
      4.4700	 1061.00	  574.79	-1707.16	  455.86
      4.5700	 1068.00	  575.06	-1707.16	  456.13
      4.6700	  998.00	  575.33	-1707.16	  456.40
      4.7700	  980.00	  575.59	-1707.16	  456.66
      4.8700	  932.00	  575.84	-1707.16	  456.91
      4.9700	  971.00	  576.08	-1707.16	  457.15
      5.0700	  934.00	  576.32	-1707.16	  457.39
      5.1700	  914.00	  576.55	-1707.16	  457.62
      5.2700	  918.00	  576.77	-1707.16	  457.84
      5.3700	  937.00	  576.98	-1707.16	  458.05
      5.4700	  885.00	  577.19	-1707.16	  458.26
      5.5700	  845.00	  577.39	-1707.16	  458.46
      5.6700	  856.00	  577.58	-1707.16	  458.65
      5.7700	  887.00	  577.77	-1707.16	  458.84
      5.8700	  823.00	  577.94	-1707.16	  459.02
      5.9700	  829.00	  578.11	-1707.16	  459.19
      6.0700	  859.00	  578.28	-1707.16	  459.35
      6.1700	  778.00	  578.44	-1707.16	  459.51
      6.2700	  827.00	  578.59	-1707.16	  459.66
      6.3700	  744.00	  578.73	-1707.16	  459.81
      6.4700	  757.00	  578.87	-1707.16	  459.94
      6.5700	  763.00	  579.00	-1707.16	  460.07
      6.6700	  760.00	  579.12	-1707.16	  460.20
      6.7700	  714.00	  579.24	-1707.16	  460.32
      6.8700	  753.00	  579.35	-1707.16	  460.43
      6.9700	  724.00	  579.46	-1707.16	  460.53
      7.0700	  717.00	  579.56	-1707.16	  460.63
      7.1700	  667.00	  579.65	-1707.16	  460.72
      7.2700	  682.00	  579.74	-1707.16	  460.81
      7.3700	  722.00	  579.82	-1707.16	  460.89
      7.4700	  676.00	  579.89	-1707.16	  460.96
      7.5700	  699.00	  579.96	-1707.16	  461.03
      7.6700	  652.00	  580.02	-1707.16	  461.09
      7.7700	  641.00	  580.07	-1707.16	  461.15
      7.8700	  648.00	  580.12	-1707.16	  461.20
      7.9700	  641.00	  580.17	-1707.16	  461.24
      8.0700	  675.00	  580.21	-1707.16	  461.28
      8.1700	  654.00	  580.24	-1707.16	  461.31
      8.2700	  614.00	  580.27	-1707.16	  461.34
      8.3700	  611.00	  580.29	-1707.16	  461.36
      8.4700	  653.00	  580.30	-1707.16	  461.38
      8.5700	  642.00	  580.31	-1707.16	  461.39
      8.6700	  636.00	  580.32	-1707.16	  461.39
      8.7700	  631.00	  580.32	-1707.16	  461.39
      8.8700	  617.00	  580.31	-1707.16	  461.38
      8.9700	  645.00	  580.30	-1707.16	  461.37
      9.0700	  640.00	  580.28	-1707.16	  461.36
      9.1700	  636.00	  580.26	-1707.16	  461.33
      9.2700	  584.00	  580.23	-1707.16	  461.31
      9.3700	  597.00	  580.20	-1707.16	  461.27
      9.4700	  599.00	  580.16	-1707.16	  461.24
      9.5700	  600.00	  580.12	-1707.16	  461.19
      9.6700	  610.00	  580.07	-1707.16	  461.15
      9.7700	  612.00	  580.02	-1707.16	  461.10
      9.8700	  566.00	  579.96	-1707.16	  461.04
      9.9700	  616.00	  579.90	-1707.16	  460.98
     10.0700	  581.00	  580.97	-1707.12	  460.91
     10.1700	  602.00	  581.02	-1686.18	  460.84
     10.2700	  598.00	  581.11	-1690.26	  460.76
     10.3700	  603.00	  581.23	-1685.39	  460.68
     10.4700	  556.00	  581.44	-1732.60	  460.60
     10.5700	  573.00	  581.79	-1715.95	  460.51
     10.6700	  622.00	  582.39	-1667.54	  460.41
     10.7700	  604.00	  583.33	-1686.49	  460.31
     10.8700	  603.00	  584.70	-1688.86	  460.21
     10.9700	  594.00	  586.49	-1699.64	  460.10
     11.0700	  528.00	  588.68	-1767.83	  459.99
     11.1700	  618.00	  591.26	-1680.42	  459.87
     11.2700	  610.00	  594.30	-1691.45	  459.75
     11.3700	  562.00	  597.87	-1743.02	  459.63
     11.4700	  635.00	  602.12	-1674.27	  459.50
     11.5700	  614.00	  607.30	-1700.45	  459.37
     11.6700	  644.00	  613.79	-1676.95	  459.23
     11.7700	  607.00	  622.24	-1722.40	  459.09
     11.8700	  679.00	  633.37	-1661.53	  458.95
     11.9700	  628.00	  647.28	-1726.43	  458.80
     12.0700	  699.00	  661.75	-1669.91	  458.65
     12.1700	  697.00	  670.84	-1681.00	  458.49
     12.2700	  645.00	  666.07	-1728.23	  458.33
     12.3700	  643.00	  645.68	-1709.84	  458.17
     12.4700	  621.00	  621.14	-1707.30	  458.00
     12.5700	  636.00	  602.35	-1673.51	  457.83
     12.6700	  594.00	  591.11	-1704.26	  457.66
     12.7700	  609.00	  585.30	-1683.46	  457.48
     12.8700	  601.00	  582.38	-1688.54	  457.30
     12.9700	  604.00	  580.72	-1683.88	  457.11
     13.0700	  564.00	  579.60	-1722.76	  456.92
     13.1700	  608.00	  578.75	-1677.91	  456.73
     13.2700	  571.00	  578.07	-1714.22	  456.54
     13.3700	  551.00	  577.49	-1733.65	  456.34
     13.4700	  564.00	  577.00	-1720.15	  456.14
     13.5700	  589.00	  576.55	-1694.71	  455.93
     13.6700	  537.00	  576.15	-1746.31	  455.72
     13.7700	  561.00	  575.78	-1721.94	  455.51
     13.8700	  589.00	  575.44	-1693.59	  455.30
     13.9700	  653.00	  575.11	-1629.27	  455.08
     14.0700	  577.00	  574.79	-1704.95	  454.86
     14.1700	  593.00	  574.49	-1688.65	  454.64
     14.2700	  537.00	  574.19	-1744.35	  454.41
     14.3700	  580.00	  573.90	-1701.06	  454.18
     14.4700	  548.00	  573.62	-1732.77	  453.95
     14.5700	  571.00	  573.34	-1709.49	  453.72
     14.6700	  581.00	  573.06	-1699.21	  453.48
     14.7700	  572.00	  572.78	-1707.94	  453.24
     14.8700	  564.00	  572.51	-1715.66	  453.00
     14.9700	  612.00	  572.23	-1667.39	  452.75
     15.0700	  527.00	  571.96	-1752.11	  452.51
     15.1700	  567.00	  571.68	-1711.84	  452.26
     15.2700	  568.00	  571.41	-1710.56	  452.00
     15.3700	  622.00	  571.16	-1656.32	  451.75
     15.4700	  566.00	  570.88	-1712.04	  451.49
     15.5700	  540.00	  570.61	-1737.76	  451.23
     15.6700	  556.00	  570.33	-1721.49	  450.97
     15.7700	  602.00	  570.05	-1675.21	  450.70
     15.8700	  556.00	  569.77	-1720.93	  450.43
     15.9700	  537.00	  569.49	-1739.65	  450.17
     16.0700	  567.00	  569.21	-1709.37	  449.89
     16.1700	  587.00	  568.93	-1689.08	  449.62
     16.2700	  511.00	  568.64	-1764.80	  449.34
     16.3700	  546.00	  568.36	-1729.51	  449.07
     16.4700	  508.00	  568.07	-1767.23	  448.79
     16.5700	  516.00	  567.78	-1758.94	  448.50
     16.6700	  602.00	  567.49	-1672.65	  448.22
     16.7700	  521.00	  567.20	-1753.35	  447.93
     16.8700	  551.00	  566.90	-1723.06	  447.64
     16.9700	  586.00	  566.61	-1687.77	  447.35
     17.0700	  541.00	  566.31	-1732.47	  447.06
     17.1700	  534.00	  566.02	-1739.17	  446.77
     17.2700	  569.00	  565.72	-1703.87	  446.47
     17.3700	  503.00	  565.42	-1769.57	  446.17
     17.4700	  581.00	  565.11	-1691.27	  445.88
     17.5700	  534.00	  564.81	-1737.97	  445.57
     17.6700	  553.00	  564.50	-1718.66	  445.27
     17.7700	  555.00	  564.20	-1716.35	  444.97
     17.8700	  570.00	  563.89	-1701.05	  444.66
     17.9700	  584.00	  563.58	-1686.74	  444.35
     18.0700	  594.00	  563.37	-1676.53	  444.05
     18.1700	  592.00	  563.07	-1678.22	  443.73
     18.2700	  582.00	  562.75	-1687.91	  443.42
     18.3700	  528.00	  562.44	-1741.60	  443.11
     18.4700	  541.00	  562.13	-1728.29	  442.79
     18.5700	  550.00	  561.82	-1718.97	  442.48
     18.6700	  534.00	  561.50	-1734.66	  442.16
     18.7700	  519.00	  561.27	-1749.42	  441.84
     18.8700	  553.00	  560.95	-1715.11	  441.52
     18.9700	  524.00	  560.64	-1743.79	  441.20
     19.0700	  572.00	  560.32	-1695.47	  440.88
     19.1700	  516.00	  560.00	-1751.16	  440.55
     19.2700	  594.00	  559.68	-1672.84	  440.23
     19.3700	  537.00	  559.36	-1729.52	  439.90
     19.4700	  540.00	  559.04	-1726.20	  439.58
     19.5700	  566.00	  558.72	-1699.88	  439.25
     19.6700	  561.00	  558.40	-1704.55	  438.92
     19.7700	  553.00	  558.08	-1712.23	  438.59
     19.8700	  557.00	  557.75	-1707.91	  438.26
     19.9700	  592.00	  557.43	-1672.59	  437.92
     20.0700	  548.00	  557.11	-1716.26	  437.59
     20.1700	  579.00	  556.78	-1684.94	  437.26
     20.2700	  586.00	  556.46	-1677.62	  436.92
     20.3700	  577.00	  556.14	-1686.29	  436.59
     20.4700	  532.00	  555.81	-1730.97	  436.25
     20.5700	  565.00	  555.52	-1697.68	  435.91
     20.6700	  519.00	  555.20	-1743.35	  435.57
     20.7700	  561.00	  554.87	-1701.03	  435.23
     20.8700	  537.00	  554.55	-1724.71	  434.89
     20.9700	  557.00	  554.23	-1704.38	  434.55
     21.0700	  552.00	  553.90	-1709.06	  434.21
     21.1700	  524.00	  553.58	-1736.74	  433.87
     21.2700	  584.00	  553.26	-1676.42	  433.53
     21.3700	  591.00	  552.90	-1669.06	  433.19
     21.4700	  531.00	  552.58	-1728.74	  432.84
     21.5700	  538.00	  552.27	-1721.42	  432.50
     21.6700	  551.00	  551.95	-1708.11	  432.15
     21.7700	  572.00	  551.64	-1686.80	  431.81
     21.8700	  562.00	  551.33	-1696.49	  431.46
     21.9700	  576.00	  551.02	-1682.18	  431.12
     22.0700	  535.00	  550.71	-1722.87	  430.77
     22.1700	  503.00	  550.41	-1754.57	  430.43
     22.2700	  571.00	  550.11	-1686.27	  430.08
     22.3700	  593.00	  549.82	-1663.98	  429.73
     22.4700	  538.00	  549.53	-1718.69	  429.38
     22.5700	  542.00	  549.25	-1714.40	  429.04
     22.6700	  518.00	  548.97	-1738.13	  428.69
     22.7700	  511.00	  548.71	-1744.86	  428.34
     22.8700	  528.00	  548.45	-1727.61	  427.99
     22.9700	  546.00	  548.21	-1709.37	  427.64
     23.0700	  531.00	  547.99	-1724.14	  427.30
     23.1700	  586.00	  547.78	-1668.94	  426.95
     23.2700	  514.00	  547.60	-1740.76	  426.60
     23.3700	  598.00	  547.61	-1656.76	  426.25
     23.4700	  507.00	  547.51	-1747.67	  425.90
     23.5700	  563.00	  547.48	-1691.63	  425.55
     23.6700	  576.00	  547.53	-1678.69	  425.20
     23.7700	  569.00	  547.74	-1685.90	  424.85
     23.8700	  525.00	  548.23	-1730.38	  424.50
     23.9700	  564.00	  549.23	-1692.38	  424.15
     24.0700	  542.00	  551.17	-1716.32	  423.81
     24.1700	  559.00	  554.66	-1702.81	  423.46
     24.2700	  565.00	  560.47	-1702.63	  423.11
     24.3700	  591.00	  569.41	-1685.57	  422.76
     24.4700	  641.00	  582.05	-1648.21	  422.41
     24.5700	  593.00	  597.91	-1712.06	  422.06
     24.6700	  589.00	  613.92	-1732.08	  421.72
     24.7700	  661.00	  623.53	-1669.68	  421.37
     24.8700	  625.00	  618.98	-1701.14	  421.02
     24.9700	  638.00	  600.77	-1669.92	  420.67
     25.0700	  573.00	  579.64	-1713.80	  420.33
     25.1700	  602.00	  563.40	-1668.56	  419.98
     25.2700	  592.00	  553.49	-1668.64	  419.63
     25.3700	  547.00	  548.25	-1708.40	  419.29
     25.4700	  604.00	  545.59	-1648.74	  418.94
     25.5700	  565.00	  544.10	-1686.26	  418.60
     25.6700	  584.00	  543.14	-1666.29	  418.25
     25.7700	  558.00	  542.44	-1691.59	  417.91
     25.8700	  569.00	  541.90	-1680.06	  417.56
     25.9700	  576.00	  541.49	-1672.65	  417.22
     26.0700	  527.00	  541.18	-1721.34	  416.88
     26.1700	  541.00	  540.96	-1707.12	  416.54
     26.2700	  541.00	  540.82	-1706.98	  416.19
     26.3700	  513.00	  540.77	-1734.92	  415.85
     26.4700	  578.00	  540.80	-1669.96	  415.51
     26.5700	  542.00	  540.94	-1706.10	  415.17
     26.6700	  580.00	  541.20	-1668.35	  414.83
     26.7700	  529.00	  541.59	-1719.74	  414.49
     26.8700	  527.00	  542.16	-1722.31	  414.16
     26.9700	  561.00	  542.95	-1689.11	  413.82
     27.0700	  553.00	  544.05	-1698.21	  413.48
     27.1700	  535.00	  545.59	-1717.75	  413.14
     27.2700	  562.00	  547.82	-1692.98	  412.81
     27.3700	  506.00	  551.26	-1752.42	  412.47
     27.4700	  563.00	  556.90	-1701.06	  412.14
     27.5700	  548.00	  566.54	-1725.69	  411.81
     27.6700	  551.00	  582.98	-1739.14	  411.47
     27.7700	  576.00	  609.88	-1741.04	  411.14
     27.8700	  602.00	  650.36	-1755.51	  410.81
     27.9700	  712.00	  704.49	-1699.65	  410.48
     28.0700	  814.00	  765.96	-1659.12	  410.15
     28.1700	  896.00	  819.11	-1630.27	  409.82
     28.2700	  919.00	  840.67	-1628.83	  409.50
     28.3700	  882.00	  817.47	-1642.62	  409.17
     28.4700	  755.00	  771.97	-1724.12	  408.84
     28.5700	  705.00	  739.72	-1741.88	  408.52
     28.6700	  653.00	  736.39	-1790.55	  408.19
     28.7700	  779.00	  756.95	-1685.11	  407.87
     28.8700	  761.00	  781.94	-1728.10	  407.55
     28.9700	  776.00	  784.69	-1715.84	  407.23
     29.0700	  786.00	  749.02	-1670.18	  406.91
     29.1700	  717.00	  689.98	-1680.14	  406.59
     29.2700	  599.00	  633.93	-1742.09	  406.27
     29.3700	  617.00	  593.28	-1683.43	  405.95
     29.4700	  625.00	  568.40	-1650.56	  405.64
     29.5700	  588.00	  554.73	-1673.89	  405.32
     29.6700	  583.00	  547.39	-1671.54	  405.01
     29.7700	  552.00	  543.18	-1698.34	  404.69
     29.8700	  559.00	  540.54	-1688.69	  404.38
     29.9700	  550.00	  538.84	-1696.00	  404.07
     30.0700	  538.00	  537.93	-1707.09	  403.76
     30.1700	  548.00	  537.95	-1697.10	  403.45
     30.2700	  609.00	  539.34	-1637.50	  403.15
     30.3700	  549.00	  542.98	-1701.14	  402.84
     30.4700	  549.00	  550.19	-1708.34	  402.54
     30.5700	  562.00	  562.10	-1707.26	  402.23
     30.6700	  579.00	  578.89	-1707.05	  401.93
     30.7700	  547.00	  598.27	-1758.42	  401.63
     30.8700	  637.00	  614.62	-1684.78	  401.33
     30.9700	  627.00	  619.72	-1699.88	  401.03
     31.0700	  590.00	  608.36	-1725.51	  400.73
     31.1700	  586.00	  586.42	-1707.58	  400.43
     31.2700	  586.00	  564.52	-1685.68	  400.14
     31.3700	  551.00	  548.15	-1704.30	  399.85
     31.4700	  621.00	  537.93	-1624.09	  399.55
     31.5700	  579.00	  532.27	-1660.43	  399.26
     31.6700	  528.00	  529.27	-1708.42	  398.97
     31.7700	  562.00	  527.58	-1672.74	  398.68
     31.8700	  560.00	  526.53	-1673.69	  398.39
     31.9700	  549.00	  525.83	-1683.98	  398.11
     32.0700	  545.00	  525.35	-1687.51	  397.82
     32.1700	  556.00	  525.06	-1676.21	  397.54
     32.2700	  514.00	  524.93	-1718.08	  397.26
     32.3700	  532.00	  524.96	-1700.12	  396.98
     32.4700	  558.00	  525.16	-1674.32	  396.70
     32.5700	  532.00	  525.56	-1700.72	  396.42
     32.6700	  550.00	  526.19	-1683.35	  396.14
     32.7700	  518.00	  527.10	-1716.26	  395.87
     32.8700	  574.00	  528.39	-1661.55	  395.60
     32.9700	  537.00	  530.19	-1700.35	  395.32
     33.0700	  534.00	  532.79	-1705.95	  395.05
     33.1700	  534.00	  536.75	-1709.91	  394.78
     33.2700	  557.00	  543.34	-1693.50	  394.52
     33.3700	  566.00	  555.13	-1696.28	  394.25
     33.4700	  569.00	  576.72	-1714.88	  393.98
     33.5700	  605.00	  614.92	-1717.08	  393.72
     33.6700	  684.00	  676.72	-1699.87	  393.46
     33.7700	  761.00	  763.81	-1709.97	  393.20
     33.8700	  852.00	  865.35	-1720.50	  392.94
     33.9700	 1069.00	  953.72	-1591.88	  392.68
     34.0700	 1070.00	  988.63	-1625.78	  392.43
     34.1700	  979.00	  943.06	-1671.22	  392.17
     34.2700	  844.00	  840.72	-1703.88	  391.92
     34.3700	  761.00	  731.93	-1678.08	  391.67
     34.4700	  646.00	  646.63	-1707.78	  391.42
     34.5700	  561.00	  591.33	-1737.48	  391.17
     34.6700	  602.00	  559.97	-1665.12	  390.93
     34.7700	  526.00	  543.40	-1724.55	  390.68
     34.8700	  473.00	  534.44	-1768.60	  390.44
     34.9700	  508.00	  529.03	-1728.19	  390.20
     35.0700	  563.00	  525.32	-1669.47	  389.96
     35.1700	  495.00	  522.53	-1734.68	  389.72
     35.2700	  506.00	  520.33	-1721.49	  389.48
     35.3700	  484.00	  518.55	-1741.70	  389.24
     35.4700	  500.00	  517.07	-1724.23	  389.01
     35.5700	  498.00	  515.83	-1724.98	  388.78
     35.6700	  529.00	  514.76	-1692.92	  388.55
     35.7700	  528.00	  513.84	-1693.00	  388.32
     35.8700	  518.00	  513.04	-1702.20	  388.09
     35.9700	  448.00	  512.33	-1771.48	  387.87
     36.0700	  519.00	  512.15	-1700.31	  387.64
     36.1700	  488.00	  511.59	-1730.75	  387.42
     36.2700	  507.00	  511.09	-1711.25	  387.20
     36.3700	  510.00	  510.64	-1707.80	  386.98
     36.4700	  538.00	  510.24	-1679.40	  386.76
     36.5700	  496.00	  509.89	-1721.04	  386.55
     36.6700	  480.00	  509.59	-1736.74	  386.34
     36.7700	  501.00	  509.35	-1715.51	  386.12
     36.8700	  519.00	  509.22	-1697.38	  385.91
     36.9700	  543.00	  509.28	-1673.43	  385.70
     37.0700	  501.00	  509.67	-1715.83	  385.50
     37.1700	  484.00	  510.69	-1733.85	  385.29
     37.2700	  479.00	  512.62	-1740.78	  385.09
     37.3700	  508.00	  515.68	-1714.84	  384.89
     37.4700	  502.00	  519.64	-1724.80	  384.69
     37.5700	  524.00	  523.63	-1706.79	  384.49
     37.6700	  552.00	  526.12	-1681.28	  384.29
     37.7700	  510.00	  525.67	-1722.83	  384.10
     37.8700	  495.00	  522.37	-1734.53	  383.90
     37.9700	  506.00	  517.92	-1719.07	  383.71
     38.0700	  498.00	  513.76	-1722.91	  383.52
     38.1700	  504.00	  510.47	-1713.63	  383.33
     38.2700	  536.00	  508.14	-1679.30	  383.15
     38.3700	  552.00	  506.61	-1661.76	  382.96
     38.4700	  520.00	  505.61	-1692.77	  382.78
     38.5700	  499.00	  504.85	-1713.01	  382.60
     38.6700	  541.00	  504.38	-1670.54	  382.42
     38.7700	  510.00	  504.02	-1701.18	  382.24
     38.8700	  524.00	  503.88	-1687.04	  382.07
     38.9700	  482.00	  503.62	-1728.78	  381.89
     39.0700	  511.00	  503.39	-1699.55	  381.72
     39.1700	  497.00	  503.18	-1713.33	  381.55
     39.2700	  466.00	  502.90	-1744.06	  381.38
     39.3700	  518.00	  502.72	-1691.88	  381.22
     39.4700	  533.00	  502.55	-1676.71	  381.05
     39.5700	  509.00	  502.39	-1700.55	  380.89
     39.6700	  527.00	  502.24	-1682.40	  380.73
     39.7700	  503.00	  502.10	-1706.26	  380.57
     39.8700	  457.00	  501.97	-1752.13	  380.41
     39.9700	  539.00	  501.85	-1670.01	  380.25
     40.0700	  489.00	  501.74	-1719.90	  380.10
     40.1700	  492.00	  501.65	-1716.80	  379.95
     40.2700	  518.00	  501.56	-1690.72	  379.79
     40.3700	  522.00	  501.49	-1686.64	  379.65
     40.4700	  505.00	  501.43	-1703.58	  379.50
     40.5700	  534.00	  501.38	-1674.54	  379.35
     40.6700	  539.00	  501.36	-1669.51	  379.21
     40.7700	  494.00	  501.35	-1714.51	  379.07
