MSG Master    CELL:    5.87820   5.87820  23.08764   90.0000   90.0000  120.0000   SPGR: P 63/m m c             TEMP:    488.45
  2   1280     2.52000     0.00000    -0.08889     0.00000     0.00000    0
    95    95     0     0     2
       0.00000      10.00000
     125.00000     130.00000
 2Theta	Yobs	Ycal	Yobs-Ycal	Backg	Posr	(hkl)	K
      0.7700	    0.00	  957.26	-2186.75	  819.85
      0.8700	    0.00	  954.14	-2186.75	  816.74
      0.9700	   48.00	  951.04	-2186.75	  813.64
      1.0700	   52.00	  947.96	-2186.75	  810.56
      1.1700	   48.00	  944.90	-2186.75	  807.49
      1.2700	   47.00	  941.85	-2186.75	  804.45
      1.3700	   63.00	  938.83	-2186.75	  801.43
      1.4700	  104.00	  935.83	-2186.75	  798.42
      1.5700	  302.00	  932.84	-2186.75	  795.44
      1.6700	  454.00	  929.87	-2186.75	  792.47
      1.7700	  595.00	  926.92	-2186.75	  789.52
      1.8700	  682.00	  923.99	-2186.75	  786.59
      1.9700	  716.00	  921.08	-2186.75	  783.68
      2.0700	  764.00	  918.19	-2186.75	  780.78
      2.1700	  811.00	  915.31	-2186.75	  777.91
      2.2700	  739.00	  912.45	-2186.75	  775.05
      2.3700	  737.00	  909.61	-2186.75	  772.21
      2.4700	  741.00	  906.79	-2186.75	  769.39
      2.5700	  751.00	  903.99	-2186.75	  766.58
      2.6700	  629.00	  901.20	-2186.75	  763.80
      2.7700	  655.00	  898.43	-2186.75	  761.03
      2.8700	  651.00	  895.68	-2186.75	  758.28
      2.9700	  576.00	  892.95	-2186.75	  755.55
      3.0700	  621.00	  890.23	-2186.75	  752.83
      3.1700	  614.00	  887.53	-2186.75	  750.13
      3.2700	  707.00	  884.85	-2186.75	  747.45
      3.3700	  911.00	  882.19	-2186.75	  744.79
      3.4700	 1054.00	  879.54	-2186.75	  742.14
      3.5700	 1224.00	  876.92	-2186.75	  739.51
      3.6700	 1273.00	  874.30	-2186.75	  736.90
      3.7700	 1476.00	  871.71	-2186.75	  734.31
      3.8700	 1473.00	  869.13	-2186.75	  731.73
      3.9700	 1576.00	  866.57	-2186.75	  729.17
      4.0700	 1607.00	  864.03	-2186.75	  726.62
      4.1700	 1767.00	  861.50	-2186.75	  724.10
      4.2700	 1666.00	  858.99	-2186.75	  721.59
      4.3700	 1677.00	  856.49	-2186.75	  719.09
      4.4700	 1605.00	  854.02	-2186.75	  716.61
      4.5700	 1536.00	  851.55	-2186.75	  714.15
      4.6700	 1480.00	  849.11	-2186.75	  711.71
      4.7700	 1438.00	  846.68	-2186.75	  709.28
      4.8700	 1386.00	  844.27	-2186.75	  706.87
      4.9700	 1379.00	  841.87	-2186.75	  704.47
      5.0700	 1293.00	  839.49	-2186.75	  702.09
      5.1700	 1402.00	  837.13	-2186.75	  699.73
      5.2700	 1299.00	  834.78	-2186.75	  697.38
      5.3700	 1231.00	  832.45	-2186.75	  695.04
      5.4700	 1212.00	  830.13	-2186.75	  692.73
      5.5700	 1205.00	  827.83	-2186.75	  690.43
      5.6700	 1167.00	  825.54	-2186.75	  688.14
      5.7700	 1123.00	  823.27	-2186.75	  685.87
      5.8700	 1075.00	  821.02	-2186.75	  683.62
      5.9700	 1097.00	  818.78	-2186.75	  681.38
      6.0700	 1041.00	  816.56	-2186.75	  679.16
      6.1700	 1061.00	  814.35	-2186.75	  676.95
      6.2700	 1004.00	  812.16	-2186.75	  674.76
      6.3700	 1051.00	  809.98	-2186.75	  672.58
      6.4700	 1039.00	  807.82	-2186.75	  670.42
      6.5700	 1002.00	  805.67	-2186.75	  668.27
      6.6700	  971.00	  803.54	-2186.75	  666.14
      6.7700	  902.00	  801.42	-2186.75	  664.02
      6.8700	  900.00	  799.32	-2186.75	  661.92
      6.9700	  901.00	  797.23	-2186.75	  659.83
      7.0700	  952.00	  795.16	-2186.75	  657.76
      7.1700	  939.00	  793.10	-2186.75	  655.70
      7.2700	  885.00	  791.06	-2186.75	  653.65
      7.3700	  864.00	  789.03	-2186.75	  651.62
      7.4700	  926.00	  787.01	-2186.75	  649.61
      7.5700	  863.00	  785.01	-2186.75	  647.61
      7.6700	  884.00	  783.02	-2186.75	  645.62
      7.7700	  830.00	  781.05	-2186.75	  643.65
      7.8700	  837.00	  779.09	-2186.75	  641.69
      7.9700	  803.00	  777.15	-2186.75	  639.75
      8.0700	  876.00	  775.22	-2186.75	  637.82
      8.1700	  855.00	  773.31	-2186.75	  635.90
      8.2700	  797.00	  771.40	-2186.75	  634.00
      8.3700	  794.00	  769.52	-2186.75	  632.11
      8.4700	  832.00	  767.64	-2186.75	  630.24
      8.5700	  805.00	  765.78	-2186.75	  628.38
      8.6700	  759.00	  763.93	-2186.75	  626.53
      8.7700	  753.00	  762.10	-2186.75	  624.70
      8.8700	  766.00	  760.28	-2186.75	  622.88
      8.9700	  774.00	  758.48	-2186.75	  621.07
      9.0700	  783.00	  756.68	-2186.75	  619.28
      9.1700	  764.00	  754.90	-2186.75	  617.50
      9.2700	  750.00	  753.14	-2186.75	  615.74
      9.3700	  809.00	  751.38	-2186.75	  613.98
      9.4700	  791.00	  749.64	-2186.75	  612.24
      9.5700	  764.00	  747.92	-2186.75	  610.52
      9.6700	  730.00	  746.20	-2186.75	  608.80
      9.7700	  745.00	  744.50	-2186.75	  607.10
      9.8700	  740.00	  742.82	-2186.75	  605.41
      9.9700	  749.00	  741.14	-2186.75	  603.74
     10.0700	  733.00	  741.72	-2195.47	  602.08
     10.1700	  721.00	  740.31	-2206.06	  600.43
     10.2700	  757.00	  738.97	-2168.72	  598.79
     10.3700	  764.00	  737.70	-2160.45	  597.17
     10.4700	  703.00	  736.54	-2220.29	  595.56
     10.5700	  736.00	  735.51	-2186.26	  593.96
     10.6700	  719.00	  734.69	-2202.44	  592.37
     10.7700	  733.00	  734.14	-2187.89	  590.80
     10.8700	  765.00	  733.96	-2155.71	  589.23
     10.9700	  714.00	  734.23	-2206.98	  587.68
     11.0700	  772.00	  735.01	-2149.76	  586.15
     11.1700	  765.00	  736.31	-2158.06	  584.62
     11.2700	  719.00	  738.17	-2205.92	  583.11
     11.3700	  720.00	  740.63	-2207.38	  581.61
     11.4700	  763.00	  743.78	-2167.53	  580.12
     11.5700	  752.00	  747.76	-2182.51	  578.64
     11.6700	  759.00	  752.78	-2180.53	  577.17
     11.7700	  758.00	  759.08	-2187.83	  575.72
     11.8700	  755.00	  766.90	-2198.65	  574.28
     11.9700	  824.00	  776.23	-2138.98	  572.84
     12.0700	  889.00	  786.49	-2084.24	  571.43
     12.1700	  855.00	  796.11	-2127.86	  570.02
     12.2700	  876.00	  802.08	-2112.83	  568.62
     12.3700	  855.00	  800.05	-2131.80	  567.24
     12.4700	  892.00	  787.65	-2082.40	  565.86
     12.5700	  819.00	  768.51	-2136.26	  564.50
     12.6700	  708.00	  749.25	-2228.00	  563.15
     12.7700	  714.00	  733.55	-2206.30	  561.81
     12.8700	  685.00	  721.99	-2223.74	  560.48
     12.9700	  691.00	  713.87	-2209.62	  559.16
     13.0700	  653.00	  708.18	-2241.93	  557.86
     13.1700	  685.00	  704.04	-2205.79	  556.56
     13.2700	  671.00	  700.83	-2216.58	  555.28
     13.3700	  646.00	  698.18	-2238.93	  554.00
     13.4700	  681.00	  695.89	-2201.64	  552.74
     13.5700	  650.00	  693.83	-2230.58	  551.49
     13.6700	  638.00	  691.95	-2240.70	  550.25
     13.7700	  667.00	  690.20	-2209.95	  549.01
     13.8700	  674.00	  688.55	-2201.30	  547.79
     13.9700	  662.00	  686.98	-2211.73	  546.58
     14.0700	  691.00	  685.48	-2181.23	  545.38
     14.1700	  685.00	  684.03	-2185.78	  544.20
     14.2700	  669.00	  682.63	-2200.38	  543.02
     14.3700	  661.00	  681.27	-2207.02	  541.85
     14.4700	  677.00	  679.95	-2189.70	  540.69
     14.5700	  676.00	  678.66	-2189.41	  539.54
     14.6700	  680.00	  677.39	-2184.14	  538.40
     14.7700	  658.00	  676.15	-2204.90	  537.27
     14.8700	  654.00	  674.93	-2207.68	  536.16
     14.9700	  668.00	  673.74	-2192.49	  535.05
     15.0700	  697.00	  672.56	-2162.31	  533.95
     15.1700	  643.00	  671.40	-2215.15	  532.86
     15.2700	  675.00	  670.26	-2182.01	  531.78
     15.3700	  683.00	  669.13	-2172.88	  530.71
     15.4700	  687.00	  668.02	-2167.77	  529.66
     15.5700	  660.00	  666.92	-2193.67	  528.61
     15.6700	  679.00	  665.84	-2173.59	  527.57
     15.7700	  684.00	  664.77	-2167.52	  526.54
     15.8700	  687.00	  663.71	-2163.46	  525.51
     15.9700	  677.00	  662.67	-2172.42	  524.50
     16.0700	  637.00	  661.63	-2211.38	  523.50
     16.1700	  687.00	  660.61	-2160.36	  522.51
     16.2700	  651.00	  659.60	-2195.35	  521.52
     16.3700	  656.00	  658.60	-2189.35	  520.55
     16.4700	  640.00	  657.62	-2204.37	  519.58
     16.5700	  678.00	  656.64	-2165.39	  518.63
     16.6700	  612.00	  655.67	-2230.42	  517.68
     16.7700	  687.00	  654.72	-2154.47	  516.74
     16.8700	  707.00	  653.77	-2133.52	  515.81
     16.9700	  659.00	  652.84	-2180.59	  514.89
     17.0700	  627.00	  651.91	-2211.66	  513.98
     17.1700	  723.00	  651.00	-2114.75	  513.08
     17.2700	  598.00	  650.09	-2238.84	  512.19
     17.3700	  631.00	  649.19	-2204.94	  511.30
     17.4700	  708.00	  648.31	-2127.06	  510.43
     17.5700	  648.00	  647.43	-2186.18	  509.56
     17.6700	  644.00	  646.56	-2189.31	  508.70
     17.7700	  621.00	  645.70	-2211.45	  507.85
     17.8700	  662.00	  644.85	-2169.60	  507.01
     17.9700	  625.00	  644.01	-2205.76	  506.17
     18.0700	  634.00	  643.18	-2195.93	  505.35
     18.1700	  599.00	  642.36	-2230.11	  504.53
     18.2700	  690.00	  641.55	-2138.30	  503.72
     18.3700	  680.00	  640.74	-2147.49	  502.92
     18.4700	  663.00	  639.94	-2163.69	  502.13
     18.5700	  658.00	  639.16	-2167.91	  501.34
     18.6700	  665.00	  638.38	-2160.13	  500.57
     18.7700	  670.00	  637.61	-2154.36	  499.80
     18.8700	  623.00	  636.84	-2200.59	  499.04
     18.9700	  660.00	  636.09	-2162.84	  498.29
     19.0700	  629.00	  636.57	-2194.32	  497.54
     19.1700	  695.00	  637.86	-2129.61	  496.81
     19.2700	  643.00	  637.20	-2180.95	  496.08
     19.3700	  617.00	  636.55	-2206.30	  495.36
     19.4700	  624.00	  635.91	-2198.66	  494.64
     19.5700	  611.00	  635.29	-2211.04	  493.94
     19.6700	  604.00	  634.67	-2217.42	  493.24
     19.7700	  619.00	  634.06	-2201.81	  492.55
     19.8700	  666.00	  633.47	-2154.22	  491.87
     19.9700	  608.00	  632.88	-2211.63	  491.19
     20.0700	  633.00	  632.36	-2186.11	  490.52
     20.1700	  599.00	  631.80	-2219.55	  489.86
     20.2700	  606.00	  631.25	-2212.00	  489.21
     20.3700	  641.00	  630.71	-2176.46	  488.56
     20.4700	  627.00	  630.18	-2189.93	  487.92
     20.5700	  649.00	  629.67	-2167.42	  487.29
     20.6700	  618.00	  629.16	-2197.91	  486.67
     20.7700	  635.00	  628.67	-2180.42	  486.05
     20.8700	  612.00	  628.19	-2202.94	  485.44
     20.9700	  633.00	  627.73	-2181.48	  484.84
     21.0700	  665.00	  627.27	-2149.02	  484.24
     21.1700	  608.00	  626.83	-2205.58	  483.65
     21.2700	  615.00	  626.41	-2198.16	  483.07
     21.3700	  600.00	  626.00	-2212.75	  482.49
     21.4700	  620.00	  625.60	-2192.35	  481.92
     21.5700	  629.00	  625.22	-2182.97	  481.36
     21.6700	  636.00	  624.85	-2175.60	  480.80
     21.7700	  589.00	  624.50	-2222.25	  480.25
     21.8700	  665.00	  624.17	-2145.92	  479.71
     21.9700	  624.00	  623.86	-2186.61	  479.18
     22.0700	  667.00	  623.56	-2143.31	  478.65
     22.1700	  616.00	  623.50	-2194.25	  478.12
     22.2700	  582.00	  623.24	-2227.99	  477.61
     22.3700	  603.00	  623.01	-2206.76	  477.10
     22.4700	  629.00	  622.81	-2180.56	  476.59
     22.5700	  651.00	  622.62	-2158.37	  476.10
     22.6700	  631.00	  622.47	-2178.22	  475.61
     22.7700	  660.00	  622.34	-2149.09	  475.12
     22.8700	  620.00	  622.25	-2189.00	  474.64
     22.9700	  632.00	  622.19	-2176.94	  474.17
     23.0700	  630.00	  622.17	-2178.92	  473.70
     23.1700	  615.00	  622.19	-2193.94	  473.24
     23.2700	  637.00	  622.27	-2172.02	  472.79
     23.3700	  647.00	  622.40	-2162.15	  472.34
     23.4700	  613.00	  622.60	-2196.35	  471.90
     23.5700	  635.00	  622.88	-2174.63	  471.46
     23.6700	  644.00	  623.25	-2166.00	  471.03
     23.7700	  602.00	  623.75	-2208.50	  470.61
     23.8700	  604.00	  624.41	-2207.16	  470.19
     23.9700	  610.00	  625.31	-2202.06	  469.78
     24.0700	  651.00	  626.55	-2162.30	  469.37
     24.1700	  595.00	  628.31	-2220.06	  468.97
     24.2700	  651.00	  630.84	-2166.59	  468.57
     24.3700	  655.00	  634.49	-2166.24	  468.18
     24.4700	  653.00	  639.64	-2173.39	  467.80
     24.5700	  673.00	  646.57	-2160.32	  467.42
     24.6700	  625.00	  655.25	-2217.00	  467.04
     24.7700	  706.00	  665.17	-2145.92	  466.67
     24.8700	  692.00	  674.98	-2169.73	  466.31
     24.9700	  726.00	  682.45	-2143.20	  465.95
     25.0700	  748.00	  684.47	-2123.22	  465.60
     25.1700	  785.00	  679.59	-2081.33	  465.25
     25.2700	  701.00	  670.15	-2155.90	  464.91
     25.3700	  665.00	  660.41	-2182.16	  464.57
     25.4700	  630.00	  652.74	-2209.49	  464.24
     25.5700	  618.00	  647.70	-2216.45	  463.91
     25.6700	  651.00	  644.99	-2180.74	  463.59
     25.7700	  654.00	  644.07	-2176.82	  463.28
     25.8700	  634.00	  644.44	-2197.19	  462.96
     25.9700	  641.00	  645.73	-2191.48	  462.66
     26.0700	  658.00	  647.73	-2176.48	  462.36
     26.1700	  641.00	  650.36	-2196.11	  462.06
     26.2700	  654.00	  653.61	-2186.36	  461.77
     26.3700	  676.00	  657.52	-2168.27	  461.48
     26.4700	  621.00	  662.17	-2227.92	  461.20
     26.5700	  675.00	  667.67	-2179.42	  460.92
     26.6700	  672.00	  674.19	-2188.94	  460.65
     26.7700	  675.00	  681.94	-2193.69	  460.38
     26.8700	  680.00	  691.19	-2197.94	  460.11
     26.9700	  625.00	  702.33	-2264.08	  459.86
     27.0700	  681.00	  715.89	-2221.64	  459.60
     27.1700	  669.00	  732.57	-2250.32	  459.35
     27.2700	  719.00	  753.44	-2221.19	  459.11
     27.3700	  763.00	  780.16	-2203.91	  458.86
     27.4700	  786.00	  815.76	-2216.51	  458.63
     27.5700	  792.00	  866.72	-2261.47	  458.40
     27.6700	  852.00	  947.48	-2282.23	  458.17
     27.7700	  919.00	 1088.17	-2355.92	  457.94
     27.8700	  998.00	 1343.88	-2532.63	  457.73
     27.9700	 1327.00	 1800.40	-2660.15	  457.51
     28.0700	 1985.00	 2563.26	-2765.01	  457.30
     28.1700	 3299.00	 3712.28	-2600.03	  457.09
     28.2700	 5491.00	 5206.07	-1901.82	  456.89
     28.3700	 7564.00	 6747.39	-1370.14	  456.69
     28.4700	 8747.00	 7726.12	-1165.87	  456.50
     28.5700	 8201.00	 7490.92	-1476.67	  456.31
     28.6700	 6210.00	 6180.43	-2157.18	  456.12
     28.7700	 4429.00	 4787.04	-2544.79	  455.94
     28.8700	 3782.00	 4007.21	-2411.96	  455.76
     28.9700	 3792.00	 3926.65	-2321.40	  455.59
     29.0700	 4561.00	 4243.35	-1869.10	  455.41
     29.1700	 4901.00	 4489.29	-1775.04	  455.25
     29.2700	 4527.00	 4244.66	-1904.41	  455.09
     29.3700	 3498.00	 3480.86	-2169.61	  454.93
     29.4700	 2335.00	 2580.40	-2432.15	  454.77
     29.5700	 1629.00	 1849.48	-2407.23	  454.62
     29.6700	 1322.00	 1368.68	-2233.43	  454.47
     29.7700	 1078.00	 1093.82	-2202.57	  454.33
     29.8700	  999.00	  946.78	-2134.53	  454.18
     29.9700	  838.00	  865.46	-2214.21	  454.05
     30.0700	  762.00	  815.16	-2239.91	  453.91
     30.1700	  773.00	  780.37	-2194.12	  453.78
     30.2700	  745.00	  754.75	-2196.50	  453.66
     30.3700	  781.00	  735.66	-2141.41	  453.53
     30.4700	  761.00	  722.05	-2147.80	  453.41
     30.5700	  727.00	  713.89	-2173.64	  453.30
     30.6700	  766.00	  711.99	-2132.74	  453.18
     30.7700	  720.00	  717.62	-2184.37	  453.07
     30.8700	  700.00	  731.50	-2218.25	  452.97
     30.9700	  732.00	  752.19	-2206.94	  452.86
     31.0700	  772.00	  774.68	-2189.43	  452.76
     31.1700	  819.00	  789.74	-2157.49	  452.67
     31.2700	  798.00	  786.25	-2175.00	  452.57
     31.3700	  740.00	  761.18	-2207.93	  452.48
     31.4700	  704.00	  725.92	-2208.67	  452.39
     31.5700	  758.00	  693.33	-2122.08	  452.31
     31.6700	  723.00	  668.86	-2132.61	  452.23
     31.7700	  678.00	  652.65	-2161.40	  452.15
     31.8700	  717.00	  642.63	-2112.38	  452.08
     31.9700	  651.00	  636.46	-2172.21	  452.00
     32.0700	  679.00	  632.42	-2140.17	  451.93
     32.1700	  677.00	  629.56	-2139.31	  451.87
     32.2700	  680.00	  627.43	-2134.18	  451.80
     32.3700	  623.00	  625.82	-2189.57	  451.74
     32.4700	  647.00	  624.67	-2164.42	  451.68
     32.5700	  641.00	  623.88	-2169.63	  451.63
     32.6700	  651.00	  623.46	-2159.21	  451.58
     32.7700	  642.00	  623.43	-2168.18	  451.53
     32.8700	  623.00	  623.81	-2187.56	  451.48
     32.9700	  684.00	  624.67	-2127.42	  451.43
     33.0700	  654.00	  626.10	-2158.85	  451.39
     33.1700	  663.00	  628.26	-2152.01	  451.35
     33.2700	  675.00	  631.42	-2143.17	  451.32
     33.3700	  667.00	  636.12	-2155.87	  451.28
     33.4700	  666.00	  643.35	-2164.10	  451.25
     33.5700	  692.00	  655.04	-2149.79	  451.22
     33.6700	  704.00	  674.57	-2157.32	  451.20
     33.7700	  732.00	  707.08	-2161.83	  451.17
     33.8700	  780.00	  758.84	-2165.59	  451.15
     33.9700	  871.00	  834.77	-2150.52	  451.13
     34.0700	  982.00	  933.58	-2138.33	  451.11
     34.1700	 1142.00	 1042.40	-2087.15	  451.10
     34.2700	 1231.00	 1133.71	-2089.46	  451.09
     34.3700	 1296.00	 1169.36	-2060.11	  451.08
     34.4700	 1244.00	 1124.55	-2067.30	  451.07
     34.5700	 1045.00	 1020.27	-2162.02	  451.06
     34.6700	  906.00	  903.37	-2184.12	  451.06
     34.7700	  855.00	  804.60	-2136.35	  451.06
     34.8700	  714.00	  733.34	-2206.09	  451.06
     34.9700	  730.00	  687.24	-2143.99	  451.06
     35.0700	  710.00	  659.42	-2136.17	  451.07
     35.1700	  704.00	  642.96	-2125.71	  451.08
     35.2700	  664.00	  632.84	-2155.59	  451.08
     35.3700	  646.00	  626.11	-2166.86	  451.10
     35.4700	  648.00	  621.27	-2160.02	  451.11
     35.5700	  615.00	  617.58	-2189.33	  451.12
     35.6700	  608.00	  614.69	-2193.44	  451.14
     35.7700	  625.00	  612.38	-2174.12	  451.16
     35.8700	  615.00	  610.51	-2182.26	  451.18
     35.9700	  598.00	  609.05	-2197.80	  451.21
     36.0700	  619.00	  607.82	-2175.57	  451.23
     36.1700	  610.00	  606.82	-2183.57	  451.26
     36.2700	  621.00	  606.03	-2171.78	  451.29
     36.3700	  600.00	  605.42	-2192.17	  451.32
     36.4700	  600.00	  604.98	-2191.73	  451.35
     36.5700	  637.00	  604.69	-2154.44	  451.38
     36.6700	  587.00	  604.75	-2204.50	  451.42
     36.7700	  642.00	  604.78	-2149.53	  451.45
     36.8700	  632.00	  604.98	-2159.73	  451.49
     36.9700	  602.00	  605.40	-2190.15	  451.53
     37.0700	  613.00	  606.06	-2179.81	  451.57
     37.1700	  614.00	  607.08	-2179.83	  451.62
     37.2700	  622.00	  609.08	-2173.83	  451.66
     37.3700	  659.00	  611.33	-2139.08	  451.71
     37.4700	  589.00	  614.74	-2212.49	  451.76
     37.5700	  672.00	  620.02	-2134.77	  451.81
     37.6700	  608.00	  628.22	-2206.97	  451.86
     37.7700	  610.00	  640.73	-2217.48	  451.91
     37.8700	  675.00	  658.97	-2170.72	  451.97
     37.9700	  634.00	  683.71	-2236.46	  452.02
     38.0700	  761.00	  712.12	-2137.87	  452.08
     38.1700	  759.00	  744.37	-2172.12	  452.14
     38.2700	  773.00	  771.46	-2185.21	  452.19
     38.3700	  761.00	  783.63	-2209.38	  452.26
     38.4700	  750.00	  773.54	-2210.29	  452.32
     38.5700	  744.00	  744.66	-2187.41	  452.38
     38.6700	  690.00	  708.96	-2205.71	  452.45
     38.7700	  657.00	  676.23	-2205.98	  452.51
     38.8700	  631.00	  650.65	-2206.40	  452.58
     38.9700	  615.00	  632.71	-2204.46	  452.65
     39.0700	  597.00	  621.06	-2210.81	  452.72
     39.1700	  621.00	  613.85	-2179.60	  452.79
     39.2700	  586.00	  609.39	-2210.14	  452.86
     39.3700	  579.00	  606.53	-2214.28	  452.93
     39.4700	  618.00	  604.58	-2173.33	  453.00
     39.5700	  654.00	  601.99	-2134.74	  453.08
     39.6700	  611.00	  600.93	-2176.68	  453.16
     39.7700	  576.00	  600.11	-2210.86	  453.23
     39.8700	  641.00	  599.46	-2145.21	  453.31
     39.9700	  613.00	  598.95	-2172.70	  453.39
     40.0700	  632.00	  598.56	-2153.31	  453.47
     40.1700	  585.00	  598.25	-2200.00	  453.55
     40.2700	  623.00	  598.02	-2161.77	  453.63
     40.3700	  610.00	  597.85	-2174.60	  453.71
     40.4700	  613.00	  597.74	-2171.49	  453.80
     40.5700	  591.00	  597.68	-2193.43	  453.88
     40.6700	  593.00	  598.21	-2191.96	  453.97
     40.7700	  570.00	  598.25	-2215.00	  454.05
