MSG Master    CELL:    5.90817   5.90817  23.22030   90.0000   90.0000  120.0000   SPGR: P 63/m m c             TEMP:    889.95
  1   1280     2.52000     0.00000    -0.12893     0.00000     0.00000    0
    98     0     2
       0.00000      10.00000
     125.00000     130.00000
 2Theta	Yobs	Ycal	Yobs-Ycal	Backg	Posr	(hkl)	K
      0.7700	    0.00	  454.71	-1741.75	  346.46
      0.8700	    0.00	  456.45	-1741.75	  348.21
      0.9700	   46.00	  458.17	-1741.75	  349.93
      1.0700	   35.00	  459.87	-1741.75	  351.63
      1.1700	   31.00	  461.56	-1741.75	  353.32
      1.2700	   52.00	  463.22	-1741.75	  354.98
      1.3700	   49.00	  464.87	-1741.75	  356.63
      1.4700	   82.00	  466.50	-1741.75	  358.26
      1.5700	  299.00	  468.11	-1741.75	  359.87
      1.6700	  457.00	  469.70	-1741.75	  361.46
      1.7700	  547.00	  471.28	-1741.75	  363.03
      1.8700	  637.00	  472.83	-1741.75	  364.59
      1.9700	  710.00	  474.37	-1741.75	  366.13
      2.0700	  769.00	  475.89	-1741.75	  367.65
      2.1700	  773.00	  477.39	-1741.75	  369.15
      2.2700	  761.00	  478.88	-1741.75	  370.63
      2.3700	  761.00	  480.34	-1741.75	  372.10
      2.4700	  727.00	  481.79	-1741.75	  373.55
      2.5700	  716.00	  483.22	-1741.75	  374.98
      2.6700	  647.00	  484.64	-1741.75	  376.40
      2.7700	  669.00	  486.04	-1741.75	  377.80
      2.8700	  635.00	  487.42	-1741.75	  379.18
      2.9700	  628.00	  488.78	-1741.75	  380.54
      3.0700	  606.00	  490.13	-1741.75	  381.89
      3.1700	  614.00	  491.46	-1741.75	  383.22
      3.2700	  674.00	  492.77	-1741.75	  384.53
      3.3700	  759.00	  494.07	-1741.75	  385.83
      3.4700	  855.00	  495.35	-1741.75	  387.11
      3.5700	  923.00	  496.62	-1741.75	  388.38
      3.6700	 1097.00	  497.87	-1741.75	  389.63
      3.7700	 1086.00	  499.10	-1741.75	  390.86
      3.8700	 1092.00	  500.32	-1741.75	  392.08
      3.9700	 1131.00	  501.52	-1741.75	  393.28
      4.0700	 1206.00	  502.70	-1741.75	  394.46
      4.1700	 1306.00	  503.87	-1741.75	  395.63
      4.2700	 1276.00	  505.03	-1741.75	  396.79
      4.3700	 1246.00	  506.17	-1741.75	  397.93
      4.4700	 1184.00	  507.29	-1741.75	  399.05
      4.5700	 1128.00	  508.40	-1741.75	  400.16
      4.6700	 1141.00	  509.49	-1741.75	  401.25
      4.7700	 1137.00	  510.57	-1741.75	  402.33
      4.8700	 1083.00	  511.63	-1741.75	  403.39
      4.9700	 1042.00	  512.68	-1741.75	  404.44
      5.0700	 1070.00	  513.72	-1741.75	  405.48
      5.1700	  996.00	  514.74	-1741.75	  406.50
      5.2700	  908.00	  515.74	-1741.75	  407.50
      5.3700	  925.00	  516.73	-1741.75	  408.49
      5.4700	  907.00	  517.71	-1741.75	  409.47
      5.5700	  896.00	  518.67	-1741.75	  410.43
      5.6700	  859.00	  519.62	-1741.75	  411.38
      5.7700	  840.00	  520.56	-1741.75	  412.31
      5.8700	  879.00	  521.48	-1741.75	  413.23
      5.9700	  831.00	  522.38	-1741.75	  414.14
      6.0700	  808.00	  523.28	-1741.75	  415.03
      6.1700	  815.00	  524.15	-1741.75	  415.91
      6.2700	  777.00	  525.02	-1741.75	  416.78
      6.3700	  814.00	  525.87	-1741.75	  417.63
      6.4700	  764.00	  526.71	-1741.75	  418.47
      6.5700	  830.00	  527.54	-1741.75	  419.30
      6.6700	  729.00	  528.35	-1741.75	  420.11
      6.7700	  698.00	  529.15	-1741.75	  420.91
      6.8700	  752.00	  529.94	-1741.75	  421.70
      6.9700	  713.00	  530.71	-1741.75	  422.47
      7.0700	  722.00	  531.47	-1741.75	  423.23
      7.1700	  706.00	  532.22	-1741.75	  423.98
      7.2700	  725.00	  532.96	-1741.75	  424.72
      7.3700	  675.00	  533.68	-1741.75	  425.44
      7.4700	  687.00	  534.39	-1741.75	  426.15
      7.5700	  658.00	  535.09	-1741.75	  426.85
      7.6700	  628.00	  535.78	-1741.75	  427.54
      7.7700	  662.00	  536.46	-1741.75	  428.21
      7.8700	  631.00	  537.12	-1741.75	  428.88
      7.9700	  657.00	  537.77	-1741.75	  429.53
      8.0700	  611.00	  538.41	-1741.75	  430.17
      8.1700	  654.00	  539.04	-1741.75	  430.79
      8.2700	  620.00	  539.65	-1741.75	  431.41
      8.3700	  612.00	  540.26	-1741.75	  432.01
      8.4700	  615.00	  540.85	-1741.75	  432.61
      8.5700	  611.00	  541.43	-1741.75	  433.19
      8.6700	  610.00	  542.00	-1741.75	  433.76
      8.7700	  581.00	  542.56	-1741.75	  434.32
      8.8700	  623.00	  543.11	-1741.75	  434.87
      8.9700	  614.00	  543.64	-1741.75	  435.40
      9.0700	  557.00	  544.17	-1741.75	  435.93
      9.1700	  569.00	  544.69	-1741.75	  436.44
      9.2700	  586.00	  545.19	-1741.75	  436.95
      9.3700	  596.00	  545.68	-1741.75	  437.44
      9.4700	  574.00	  546.17	-1741.75	  437.93
      9.5700	  620.00	  546.64	-1741.75	  438.40
      9.6700	  540.00	  547.10	-1741.75	  438.86
      9.7700	  587.00	  547.55	-1741.75	  439.31
      9.8700	  591.00	  547.99	-1741.75	  439.75
      9.9700	  583.00	  548.43	-1741.75	  440.18
     10.0700	  606.00	  550.49	-1686.24	  440.61
     10.1700	  624.00	  551.07	-1668.82	  441.02
     10.2700	  597.00	  551.68	-1696.43	  441.42
     10.3700	  590.00	  552.34	-1704.09	  441.81
     10.4700	  652.00	  553.07	-1642.82	  442.19
     10.5700	  562.00	  553.94	-1733.69	  442.56
     10.6700	  602.00	  555.02	-1694.77	  442.93
     10.7700	  550.00	  556.41	-1748.16	  443.28
     10.8700	  584.00	  558.17	-1715.92	  443.62
     10.9700	  555.00	  560.34	-1747.09	  443.96
     11.0700	  565.00	  562.92	-1739.67	  444.28
     11.1700	  529.00	  565.90	-1778.65	  444.60
     11.2700	  552.00	  569.33	-1759.08	  444.90
     11.3700	  596.00	  573.28	-1719.03	  445.20
     11.4700	  553.00	  577.88	-1766.63	  445.49
     11.5700	  570.00	  583.34	-1755.09	  445.77
     11.6700	  565.00	  589.97	-1766.72	  446.04
     11.7700	  596.00	  598.20	-1743.95	  446.30
     11.8700	  630.00	  608.39	-1720.14	  446.55
     11.9700	  627.00	  620.37	-1735.12	  446.80
     12.0700	  645.00	  632.58	-1729.33	  447.04
     12.1700	  690.00	  641.27	-1693.02	  447.26
     12.2700	  680.00	  640.72	-1702.47	  447.48
     12.3700	  677.00	  627.73	-1692.48	  447.69
     12.4700	  610.00	  608.16	-1739.91	  447.90
     12.5700	  547.00	  590.54	-1785.29	  448.09
     12.6700	  603.00	  578.17	-1716.92	  448.28
     12.7700	  551.00	  570.67	-1761.42	  448.46
     12.8700	  550.00	  566.50	-1758.25	  448.63
     12.9700	  596.00	  564.21	-1709.96	  448.79
     13.0700	  541.00	  562.87	-1763.62	  448.95
     13.1700	  551.00	  562.01	-1752.76	  449.09
     13.2700	  600.00	  561.41	-1703.16	  449.23
     13.3700	  537.00	  560.98	-1765.73	  449.37
     13.4700	  515.00	  560.66	-1787.42	  449.49
     13.5700	  528.00	  560.43	-1774.18	  449.61
     13.6700	  516.00	  560.26	-1786.01	  449.72
     13.7700	  571.00	  560.13	-1730.88	  449.82
     13.8700	  607.00	  560.03	-1694.78	  449.92
     13.9700	  544.00	  559.95	-1757.70	  450.01
     14.0700	  526.00	  559.89	-1775.64	  450.09
     14.1700	  576.00	  559.88	-1725.63	  450.16
     14.2700	  533.00	  559.84	-1768.59	  450.23
     14.3700	  562.00	  559.82	-1739.57	  450.29
     14.4700	  517.00	  559.79	-1784.54	  450.35
     14.5700	  544.00	  559.77	-1757.52	  450.39
     14.6700	  539.00	  559.75	-1762.50	  450.43
     14.7700	  527.00	  559.73	-1774.48	  450.47
     14.8700	  586.00	  559.71	-1715.46	  450.50
     14.9700	  512.00	  559.69	-1789.44	  450.52
     15.0700	  575.00	  559.67	-1726.42	  450.53
     15.1700	  557.00	  559.64	-1744.39	  450.54
     15.2700	  520.00	  559.61	-1781.36	  450.54
     15.3700	  548.00	  559.58	-1753.33	  450.54
     15.4700	  540.00	  559.55	-1761.30	  450.53
     15.5700	  570.00	  559.51	-1731.26	  450.51
     15.6700	  573.00	  559.46	-1728.21	  450.49
     15.7700	  557.00	  559.42	-1744.17	  450.46
     15.8700	  549.00	  559.37	-1752.12	  450.43
     15.9700	  571.00	  559.31	-1730.06	  450.39
     16.0700	  546.00	  559.25	-1755.00	  450.34
     16.1700	  544.00	  559.18	-1756.93	  450.29
     16.2700	  559.00	  559.12	-1741.87	  450.23
     16.3700	  534.00	  559.04	-1766.79	  450.17
     16.4700	  581.00	  558.96	-1719.71	  450.10
     16.5700	  553.00	  558.88	-1747.63	  450.03
     16.6700	  518.00	  558.79	-1782.54	  449.95
     16.7700	  516.00	  558.70	-1784.45	  449.87
     16.8700	  596.00	  558.60	-1704.35	  449.78
     16.9700	  512.00	  558.50	-1788.25	  449.68
     17.0700	  506.00	  558.40	-1794.15	  449.58
     17.1700	  568.00	  558.29	-1732.04	  449.48
     17.2700	  566.00	  558.17	-1733.92	  449.37
     17.3700	  571.00	  558.05	-1728.80	  449.26
     17.4700	  561.00	  557.93	-1738.68	  449.14
     17.5700	  543.00	  557.91	-1756.66	  449.01
     17.6700	  551.00	  557.78	-1748.53	  448.88
     17.7700	  550.00	  557.65	-1749.40	  448.75
     17.8700	  529.00	  557.51	-1770.26	  448.61
     17.9700	  559.00	  557.36	-1740.11	  448.47
     18.0700	  552.00	  557.32	-1747.07	  448.32
     18.1700	  532.00	  557.17	-1766.92	  448.17
     18.2700	  567.00	  557.01	-1731.76	  448.01
     18.3700	  572.00	  556.86	-1726.61	  447.85
     18.4700	  512.00	  556.70	-1786.45	  447.69
     18.5700	  549.00	  556.53	-1749.28	  447.52
     18.6700	  566.00	  556.36	-1732.11	  447.34
     18.7700	  577.00	  556.19	-1720.94	  447.17
     18.8700	  511.00	  556.01	-1786.76	  446.98
     18.9700	  535.00	  555.83	-1762.58	  446.80
     19.0700	  554.00	  555.65	-1743.40	  446.61
     19.1700	  536.00	  555.46	-1761.21	  446.42
     19.2700	  569.00	  555.27	-1728.02	  446.22
     19.3700	  551.00	  555.08	-1745.83	  446.02
     19.4700	  519.00	  554.88	-1777.63	  445.81
     19.5700	  551.00	  554.68	-1745.43	  445.60
     19.6700	  522.00	  554.48	-1774.23	  445.39
     19.7700	  561.00	  554.32	-1735.07	  445.17
     19.8700	  500.00	  554.11	-1795.86	  444.95
     19.9700	  545.00	  553.90	-1750.65	  444.73
     20.0700	  537.00	  553.68	-1758.43	  444.50
     20.1700	  586.00	  553.47	-1709.22	  444.27
     20.2700	  530.00	  553.25	-1765.00	  444.04
     20.3700	  579.00	  553.03	-1715.78	  443.80
     20.4700	  563.00	  552.81	-1731.56	  443.56
     20.5700	  522.00	  552.58	-1772.33	  443.32
     20.6700	  512.00	  552.35	-1782.10	  443.07
     20.7700	  547.00	  552.12	-1746.87	  442.82
     20.8700	  514.00	  551.89	-1779.64	  442.57
     20.9700	  497.00	  551.66	-1796.41	  442.32
     21.0700	  561.00	  551.42	-1732.17	  442.06
     21.1700	  581.00	  551.19	-1711.94	  441.80
     21.2700	  530.00	  550.95	-1762.70	  441.53
     21.3700	  557.00	  550.71	-1735.46	  441.26
     21.4700	  564.00	  550.47	-1728.22	  440.99
     21.5700	  545.00	  550.23	-1746.98	  440.72
     21.6700	  560.00	  550.00	-1731.75	  440.45
     21.7700	  540.00	  549.76	-1751.51	  440.17
     21.8700	  519.00	  549.52	-1772.27	  439.89
     21.9700	  537.00	  549.28	-1754.03	  439.60
     22.0700	  522.00	  549.04	-1768.79	  439.32
     22.1700	  544.00	  548.81	-1746.56	  439.03
     22.2700	  527.00	  548.58	-1763.33	  438.74
     22.3700	  544.00	  548.35	-1746.10	  438.45
     22.4700	  506.00	  548.28	-1784.03	  438.15
     22.5700	  530.00	  548.03	-1759.78	  437.85
     22.6700	  541.00	  547.82	-1748.57	  437.55
     22.7700	  522.00	  547.62	-1767.37	  437.25
     22.8700	  525.00	  547.43	-1764.18	  436.95
     22.9700	  509.00	  547.26	-1780.01	  436.64
     23.0700	  595.00	  547.11	-1693.86	  436.33
     23.1700	  535.00	  546.97	-1753.72	  436.02
     23.2700	  552.00	  546.87	-1736.62	  435.71
     23.3700	  566.00	  546.80	-1722.55	  435.40
     23.4700	  538.00	  546.77	-1750.52	  435.08
     23.5700	  532.00	  546.82	-1756.57	  434.76
     23.6700	  552.00	  546.95	-1736.70	  434.45
     23.7700	  560.00	  547.23	-1728.98	  434.12
     23.8700	  561.00	  547.74	-1728.49	  433.80
     23.9700	  521.00	  548.65	-1769.40	  433.48
     24.0700	  570.00	  550.24	-1721.99	  433.15
     24.1700	  619.00	  552.94	-1675.69	  432.82
     24.2700	  605.00	  557.33	-1694.08	  432.49
     24.3700	  580.00	  564.00	-1725.75	  432.16
     24.4700	  590.00	  573.35	-1725.10	  431.83
     24.5700	  590.00	  585.20	-1736.95	  431.49
     24.6700	  649.00	  598.18	-1690.93	  431.16
     24.7700	  618.00	  609.02	-1732.77	  430.82
     24.8700	  639.00	  612.52	-1715.27	  430.48
     24.9700	  599.00	  604.78	-1747.53	  430.14
     25.0700	  603.00	  589.27	-1728.02	  429.80
     25.1700	  598.00	  573.45	-1717.20	  429.46
     25.2700	  562.00	  561.33	-1741.08	  429.12
     25.3700	  613.00	  553.42	-1682.17	  428.77
     25.4700	  561.00	  548.72	-1729.47	  428.43
     25.5700	  570.00	  546.02	-1717.77	  428.08
     25.6700	  600.00	  544.40	-1686.15	  427.74
     25.7700	  585.00	  543.34	-1700.09	  427.39
     25.8700	  559.00	  542.59	-1725.34	  427.04
     25.9700	  542.00	  542.03	-1741.78	  426.69
     26.0700	  558.00	  541.62	-1725.37	  426.34
     26.1700	  580.00	  541.33	-1703.08	  425.98
     26.2700	  565.00	  541.15	-1717.90	  425.63
     26.3700	  565.00	  541.08	-1717.83	  425.28
     26.4700	  602.00	  541.11	-1680.85	  424.92
     26.5700	  535.00	  541.25	-1748.00	  424.57
     26.6700	  547.00	  541.52	-1736.27	  424.21
     26.7700	  546.00	  541.95	-1737.70	  423.86
     26.8700	  535.00	  542.56	-1749.31	  423.50
     26.9700	  573.00	  543.41	-1712.16	  423.14
     27.0700	  607.00	  544.56	-1679.31	  422.78
     27.1700	  529.00	  546.15	-1758.90	  422.43
     27.2700	  586.00	  548.36	-1704.11	  422.07
     27.3700	  598.00	  551.62	-1695.36	  421.71
     27.4700	  575.00	  556.66	-1723.41	  421.35
     27.5700	  569.00	  564.87	-1737.62	  420.99
     27.6700	  622.00	  578.46	-1698.21	  420.63
     27.7700	  613.00	  600.51	-1729.26	  420.26
     27.8700	  618.00	  634.19	-1757.94	  419.90
     27.9700	  624.00	  680.88	-1798.63	  419.54
     28.0700	  680.00	  737.65	-1799.40	  419.18
     28.1700	  893.00	  794.75	-1643.50	  418.82
     28.2700	  885.00	  834.45	-1691.20	  418.46
     28.3700	  960.00	  837.64	-1619.39	  418.09
     28.4700	  811.00	  806.87	-1737.62	  417.73
     28.5700	  790.00	  772.34	-1724.09	  417.37
     28.6700	  733.00	  758.82	-1767.57	  417.01
     28.7700	  751.00	  770.67	-1761.42	  416.64
     28.8700	  743.00	  796.32	-1795.07	  416.28
     28.9700	  832.00	  813.38	-1723.13	  415.92
     29.0700	  834.00	  798.15	-1705.90	  415.55
     29.1700	  738.00	  747.75	-1751.50	  415.19
     29.2700	  709.00	  685.44	-1718.19	  414.83
     29.3700	  666.00	  632.12	-1707.87	  414.47
     29.4700	  594.00	  594.63	-1742.38	  414.11
     29.5700	  584.00	  571.37	-1729.12	  413.74
     29.6700	  557.00	  558.00	-1742.75	  413.38
     29.7700	  626.00	  550.40	-1666.15	  413.02
     29.8700	  619.00	  545.88	-1668.63	  412.66
     29.9700	  591.00	  543.08	-1693.83	  412.30
     30.0700	  597.00	  541.47	-1686.22	  411.94
     30.1700	  530.00	  540.99	-1752.74	  411.58
     30.2700	  566.00	  541.95	-1717.70	  411.22
     30.3700	  543.00	  545.07	-1743.82	  410.86
     30.4700	  559.00	  551.49	-1734.24	  410.50
     30.5700	  592.00	  562.48	-1712.23	  410.14
     30.6700	  558.00	  578.72	-1762.47	  409.78
     30.7700	  646.00	  599.10	-1694.85	  409.42
     30.8700	  602.00	  619.73	-1759.48	  409.07
     30.9700	  678.00	  633.56	-1697.31	  408.71
     31.0700	  651.00	  632.39	-1723.14	  408.36
     31.1700	  629.00	  614.77	-1727.52	  408.00
     31.2700	  610.00	  589.82	-1721.57	  407.65
     31.3700	  573.00	  567.06	-1735.81	  407.29
     31.4700	  532.00	  550.29	-1760.04	  406.94
     31.5700	  602.00	  539.52	-1679.27	  406.59
     31.6700	  595.00	  533.17	-1679.92	  406.23
     31.7700	  530.00	  529.54	-1741.29	  405.88
     31.8700	  573.00	  527.37	-1696.12	  405.53
     31.9700	  541.00	  525.98	-1726.73	  405.18
     32.0700	  558.00	  525.03	-1708.78	  404.83
     32.1700	  531.00	  524.39	-1735.14	  404.48
     32.2700	  547.00	  523.99	-1718.74	  404.14
     32.3700	  579.00	  523.82	-1686.57	  403.79
     32.4700	  558.00	  523.86	-1707.61	  403.44
     32.5700	  556.00	  524.13	-1709.88	  403.10
     32.6700	  505.00	  524.66	-1761.41	  402.76
     32.7700	  542.00	  525.49	-1725.24	  402.41
     32.8700	  577.00	  526.71	-1691.46	  402.07
     32.9700	  567.00	  528.44	-1703.19	  401.73
     33.0700	  591.00	  530.90	-1681.65	  401.39
     33.1700	  550.00	  534.51	-1726.26	  401.05
     33.2700	  575.00	  540.13	-1706.88	  400.71
     33.3700	  594.00	  549.42	-1697.17	  400.38
     33.4700	  544.00	  565.32	-1763.07	  400.04
     33.5700	  564.00	  592.34	-1770.09	  399.71
     33.6700	  609.00	  635.78	-1768.53	  399.37
     33.7700	  700.00	  699.34	-1741.09	  399.04
     33.8700	  785.00	  780.42	-1737.17	  398.71
     33.9700	  853.00	  865.80	-1754.55	  398.38
     34.0700	  950.00	  930.00	-1721.75	  398.05
     34.1700	 1025.00	  941.59	-1658.34	  397.72
     34.2700	  967.00	  888.54	-1663.29	  397.40
     34.3700	  836.00	  798.29	-1704.04	  397.07
     34.4700	  689.00	  708.17	-1760.92	  396.75
     34.5700	  641.00	  637.40	-1738.15	  396.42
     34.6700	  594.00	  589.50	-1737.25	  396.10
     34.7700	  556.00	  560.24	-1745.99	  395.78
     34.8700	  566.00	  543.32	-1719.07	  395.46
     34.9700	  565.00	  533.40	-1710.15	  395.15
     35.0700	  508.00	  527.14	-1760.89	  394.83
     35.1700	  485.00	  522.77	-1779.52	  394.52
     35.2700	  492.00	  519.48	-1769.23	  394.20
     35.3700	  532.00	  516.86	-1726.61	  393.89
     35.4700	  493.00	  514.72	-1763.47	  393.58
     35.5700	  504.00	  513.39	-1751.14	  393.27
     35.6700	  477.00	  511.88	-1776.63	  392.96
     35.7700	  517.00	  510.59	-1735.34	  392.66
     35.8700	  513.00	  509.46	-1738.21	  392.35
     35.9700	  479.00	  508.47	-1771.22	  392.05
     36.0700	  491.00	  507.60	-1758.35	  391.75
     36.1700	  530.00	  506.81	-1718.56	  391.45
     36.2700	  464.00	  506.10	-1783.85	  391.15
     36.3700	  502.00	  505.46	-1745.21	  390.85
     36.4700	  514.00	  504.89	-1732.64	  390.55
     36.5700	  513.00	  504.37	-1733.12	  390.26
     36.6700	  462.00	  503.91	-1783.66	  389.97
     36.7700	  504.00	  503.52	-1741.27	  389.67
     36.8700	  474.00	  503.21	-1770.96	  389.39
     36.9700	  482.00	  503.03	-1762.78	  389.10
     37.0700	  448.00	  503.05	-1796.80	  388.81
     37.1700	  491.00	  503.39	-1754.14	  388.53
     37.2700	  464.00	  504.25	-1782.00	  388.24
     37.3700	  475.00	  505.80	-1772.55	  387.96
     37.4700	  542.00	  508.12	-1707.87	  387.68
     37.5700	  489.00	  511.01	-1763.76	  387.40
     37.6700	  547.00	  513.89	-1708.64	  387.13
     37.7700	  513.00	  515.78	-1744.53	  386.85
     37.8700	  546.00	  515.86	-1711.61	  386.58
     37.9700	  502.00	  513.77	-1753.52	  386.31
     38.0700	  472.00	  510.62	-1780.37	  386.04
     38.1700	  501.00	  507.32	-1748.07	  385.77
     38.2700	  516.00	  504.29	-1730.04	  385.50
     38.3700	  453.00	  501.80	-1790.55	  385.24
     38.4700	  497.00	  499.92	-1744.67	  384.98
     38.5700	  528.00	  498.57	-1712.32	  384.72
     38.6700	  457.00	  497.61	-1782.36	  384.46
     38.7700	  481.00	  496.92	-1757.67	  384.20
     38.8700	  507.00	  496.38	-1731.13	  383.94
     38.9700	  450.00	  495.95	-1787.70	  383.69
     39.0700	  493.00	  495.57	-1744.32	  383.44
     39.1700	  470.00	  495.23	-1766.98	  383.19
     39.2700	  482.00	  494.82	-1754.57	  382.94
     39.3700	  499.00	  494.53	-1737.28	  382.69
     39.4700	  499.00	  494.26	-1737.01	  382.45
     39.5700	  496.00	  494.01	-1739.76	  382.21
     39.6700	  448.00	  493.77	-1787.52	  381.97
     39.7700	  501.00	  493.55	-1734.30	  381.73
     39.8700	  499.00	  493.34	-1736.09	  381.49
     39.9700	  473.00	  493.14	-1761.89	  381.26
     40.0700	  458.00	  492.95	-1776.70	  381.02
     40.1700	  488.00	  492.69	-1746.44	  380.79
     40.2700	  442.00	  492.53	-1792.28	  380.56
     40.3700	  475.00	  492.39	-1759.14	  380.33
     40.4700	  491.00	  492.78	-1743.53	  380.11
     40.5700	  506.00	  492.69	-1728.44	  379.88
     40.6700	  489.00	  492.61	-1745.36	  379.66
     40.7700	  478.00	  492.56	-1756.31	  379.44
