MSG Master    CELL:    5.91883   5.91883  23.26832   90.0000   90.0000  120.0000   SPGR: P 63/m m c             TEMP:   1074.85
  1   1280     2.52000     0.00000    -0.13689     0.00000     0.00000    0
    99     0     2
       0.00000      10.00000
     125.00000     130.00000
 2Theta	Yobs	Ycal	Yobs-Ycal	Backg	Posr	(hkl)	K
      0.7700	    0.00	  546.31	-1770.00	  427.47
      0.8700	    0.00	  547.05	-1770.00	  428.21
      0.9700	   48.00	  547.78	-1770.00	  428.94
      1.0700	   42.00	  548.50	-1770.00	  429.66
      1.1700	   51.00	  549.21	-1770.00	  430.37
      1.2700	   55.00	  549.90	-1770.00	  431.07
      1.3700	   50.00	  550.59	-1770.00	  431.75
      1.4700	   72.00	  551.27	-1770.00	  432.43
      1.5700	  274.00	  551.93	-1770.00	  433.10
      1.6700	  507.00	  552.59	-1770.00	  433.75
      1.7700	  557.00	  553.23	-1770.00	  434.40
      1.8700	  648.00	  553.87	-1770.00	  435.03
      1.9700	  739.00	  554.49	-1770.00	  435.66
      2.0700	  759.00	  555.11	-1770.00	  436.27
      2.1700	  798.00	  555.71	-1770.00	  436.88
      2.2700	  743.00	  556.31	-1770.00	  437.47
      2.3700	  703.00	  556.89	-1770.00	  438.06
      2.4700	  675.00	  557.47	-1770.00	  438.63
      2.5700	  666.00	  558.03	-1770.00	  439.20
      2.6700	  672.00	  558.59	-1770.00	  439.75
      2.7700	  655.00	  559.13	-1770.00	  440.30
      2.8700	  675.00	  559.67	-1770.00	  440.83
      2.9700	  608.00	  560.19	-1770.00	  441.36
      3.0700	  612.00	  560.71	-1770.00	  441.88
      3.1700	  604.00	  561.22	-1770.00	  442.38
      3.2700	  589.00	  561.72	-1770.00	  442.88
      3.3700	  657.00	  562.20	-1770.00	  443.37
      3.4700	  691.00	  562.68	-1770.00	  443.85
      3.5700	  802.00	  563.15	-1770.00	  444.32
      3.6700	  832.00	  563.62	-1770.00	  444.78
      3.7700	  918.00	  564.07	-1770.00	  445.23
      3.8700	  979.00	  564.51	-1770.00	  445.68
      3.9700	 1065.00	  564.95	-1770.00	  446.11
      4.0700	 1035.00	  565.37	-1770.00	  446.54
      4.1700	 1063.00	  565.79	-1770.00	  446.95
      4.2700	 1130.00	  566.20	-1770.00	  447.36
      4.3700	 1073.00	  566.60	-1770.00	  447.76
      4.4700	 1046.00	  566.99	-1770.00	  448.15
      4.5700	 1004.00	  567.37	-1770.00	  448.53
      4.6700	 1021.00	  567.74	-1770.00	  448.91
      4.7700	  997.00	  568.11	-1770.00	  449.27
      4.8700	  990.00	  568.47	-1770.00	  449.63
      4.9700	  929.00	  568.82	-1770.00	  449.98
      5.0700	  949.00	  569.16	-1770.00	  450.32
      5.1700	  902.00	  569.49	-1770.00	  450.65
      5.2700	  925.00	  569.81	-1770.00	  450.98
      5.3700	  892.00	  570.13	-1770.00	  451.30
      5.4700	  834.00	  570.44	-1770.00	  451.60
      5.5700	  836.00	  570.74	-1770.00	  451.91
      5.6700	  840.00	  571.03	-1770.00	  452.20
      5.7700	  861.00	  571.32	-1770.00	  452.48
      5.8700	  820.00	  571.60	-1770.00	  452.76
      5.9700	  829.00	  571.87	-1770.00	  453.03
      6.0700	  787.00	  572.13	-1770.00	  453.30
      6.1700	  738.00	  572.39	-1770.00	  453.55
      6.2700	  786.00	  572.63	-1770.00	  453.80
      6.3700	  759.00	  572.87	-1770.00	  454.04
      6.4700	  751.00	  573.11	-1770.00	  454.27
      6.5700	  739.00	  573.33	-1770.00	  454.50
      6.6700	  720.00	  573.55	-1770.00	  454.72
      6.7700	  768.00	  573.76	-1770.00	  454.93
      6.8700	  692.00	  573.97	-1770.00	  455.13
      6.9700	  712.00	  574.17	-1770.00	  455.33
      7.0700	  747.00	  574.36	-1770.00	  455.52
      7.1700	  698.00	  574.54	-1770.00	  455.70
      7.2700	  687.00	  574.72	-1770.00	  455.88
      7.3700	  681.00	  574.89	-1770.00	  456.05
      7.4700	  697.00	  575.05	-1770.00	  456.21
      7.5700	  656.00	  575.21	-1770.00	  456.37
      7.6700	  708.00	  575.35	-1770.00	  456.52
      7.7700	  656.00	  575.50	-1770.00	  456.66
      7.8700	  651.00	  575.63	-1770.00	  456.80
      7.9700	  637.00	  575.77	-1770.00	  456.93
      8.0700	  660.00	  575.89	-1770.00	  457.05
      8.1700	  621.00	  576.01	-1770.00	  457.17
      8.2700	  642.00	  576.12	-1770.00	  457.28
      8.3700	  615.00	  576.22	-1770.00	  457.39
      8.4700	  628.00	  576.32	-1770.00	  457.49
      8.5700	  587.00	  576.41	-1770.00	  457.58
      8.6700	  632.00	  576.50	-1770.00	  457.67
      8.7700	  620.00	  576.58	-1770.00	  457.75
      8.8700	  618.00	  576.66	-1770.00	  457.82
      8.9700	  621.00	  576.73	-1770.00	  457.89
      9.0700	  604.00	  576.79	-1770.00	  457.95
      9.1700	  612.00	  576.85	-1770.00	  458.01
      9.2700	  647.00	  576.90	-1770.00	  458.06
      9.3700	  595.00	  576.94	-1770.00	  458.11
      9.4700	  572.00	  576.98	-1770.00	  458.15
      9.5700	  569.00	  577.02	-1770.00	  458.18
      9.6700	  586.00	  577.05	-1770.00	  458.21
      9.7700	  585.00	  577.07	-1770.00	  458.23
      9.8700	  586.00	  577.09	-1770.00	  458.25
      9.9700	  574.00	  577.10	-1770.00	  458.26
     10.0700	  561.00	  577.92	-1786.92	  458.27
     10.1700	  627.00	  578.01	-1721.01	  458.27
     10.2700	  591.00	  578.12	-1757.12	  458.27
     10.3700	  596.00	  578.25	-1752.25	  458.26
     10.4700	  605.00	  578.44	-1743.44	  458.25
     10.5700	  612.00	  578.75	-1736.75	  458.23
     10.6700	  615.00	  579.28	-1734.28	  458.21
     10.7700	  594.00	  580.12	-1756.12	  458.18
     10.8700	  581.00	  581.35	-1770.35	  458.14
     10.9700	  602.00	  582.94	-1750.94	  458.11
     11.0700	  598.00	  584.88	-1756.88	  458.06
     11.1700	  620.00	  587.15	-1737.15	  458.01
     11.2700	  589.00	  589.80	-1770.80	  457.96
     11.3700	  579.00	  592.90	-1783.90	  457.90
     11.4700	  568.00	  596.60	-1798.60	  457.84
     11.5700	  565.00	  601.10	-1806.10	  457.78
     11.6700	  645.00	  606.75	-1731.75	  457.70
     11.7700	  593.00	  614.20	-1791.20	  457.63
     11.8700	  628.00	  624.33	-1766.33	  457.55
     11.9700	  683.00	  637.66	-1724.66	  457.46
     12.0700	  682.00	  652.29	-1740.29	  457.37
     12.1700	  703.00	  661.83	-1728.83	  457.28
     12.2700	  671.00	  656.91	-1755.91	  457.18
     12.3700	  672.00	  635.98	-1733.98	  457.08
     12.4700	  606.00	  611.91	-1775.91	  456.98
     12.5700	  584.00	  594.78	-1780.78	  456.87
     12.6700	  561.00	  585.58	-1794.58	  456.75
     12.7700	  567.00	  581.40	-1784.40	  456.63
     12.8700	  561.00	  579.48	-1788.48	  456.51
     12.9700	  550.00	  578.40	-1798.40	  456.39
     13.0700	  583.00	  577.65	-1764.65	  456.26
     13.1700	  563.00	  577.08	-1784.08	  456.12
     13.2700	  577.00	  576.62	-1769.62	  455.98
     13.3700	  541.00	  576.22	-1805.22	  455.84
     13.4700	  597.00	  575.88	-1748.88	  455.70
     13.5700	  585.00	  575.57	-1760.57	  455.55
     13.6700	  551.00	  575.29	-1794.29	  455.40
     13.7700	  567.00	  575.03	-1778.03	  455.24
     13.8700	  594.00	  574.78	-1750.78	  455.08
     13.9700	  557.00	  574.54	-1787.54	  454.92
     14.0700	  557.00	  574.32	-1787.32	  454.75
     14.1700	  541.00	  574.09	-1803.09	  454.58
     14.2700	  576.00	  573.87	-1767.87	  454.41
     14.3700	  568.00	  573.65	-1775.65	  454.23
     14.4700	  557.00	  573.44	-1786.44	  454.05
     14.5700	  556.00	  573.22	-1787.22	  453.87
     14.6700	  570.00	  573.01	-1773.01	  453.68
     14.7700	  627.00	  572.80	-1715.80	  453.49
     14.8700	  532.00	  572.58	-1810.58	  453.30
     14.9700	  585.00	  572.37	-1757.36	  453.11
     15.0700	  567.00	  572.15	-1775.15	  452.91
     15.1700	  556.00	  571.93	-1785.93	  452.70
     15.2700	  563.00	  571.71	-1778.71	  452.50
     15.3700	  599.00	  571.49	-1742.49	  452.29
     15.4700	  543.00	  571.27	-1798.27	  452.08
     15.5700	  510.00	  571.04	-1831.04	  451.87
     15.6700	  569.00	  570.82	-1771.82	  451.65
     15.7700	  551.00	  570.59	-1789.59	  451.43
     15.8700	  580.00	  570.36	-1760.36	  451.21
     15.9700	  563.00	  570.13	-1777.13	  450.99
     16.0700	  570.00	  569.92	-1769.92	  450.76
     16.1700	  590.00	  569.68	-1749.68	  450.53
     16.2700	  550.00	  569.44	-1789.44	  450.30
     16.3700	  553.00	  569.20	-1786.20	  450.06
     16.4700	  567.00	  568.96	-1771.96	  449.83
     16.5700	  562.00	  568.72	-1776.72	  449.59
     16.6700	  550.00	  568.47	-1788.47	  449.34
     16.7700	  562.00	  568.22	-1776.22	  449.10
     16.8700	  544.00	  567.97	-1793.97	  448.85
     16.9700	  567.00	  567.72	-1770.72	  448.60
     17.0700	  552.00	  567.47	-1785.47	  448.35
     17.1700	  605.00	  567.21	-1732.21	  448.10
     17.2700	  532.00	  566.95	-1804.95	  447.84
     17.3700	  548.00	  566.69	-1788.69	  447.58
     17.4700	  592.00	  566.43	-1744.43	  447.32
     17.5700	  547.00	  566.17	-1789.17	  447.06
     17.6700	  552.00	  565.90	-1783.90	  446.80
     17.7700	  571.00	  565.63	-1764.63	  446.53
     17.8700	  509.00	  565.36	-1826.36	  446.26
     17.9700	  529.00	  565.09	-1806.09	  445.99
     18.0700	  507.00	  564.92	-1827.92	  445.72
     18.1700	  554.00	  564.65	-1780.65	  445.44
     18.2700	  603.00	  564.37	-1731.37	  445.17
     18.3700	  552.00	  564.10	-1782.10	  444.89
     18.4700	  556.00	  563.82	-1777.82	  444.61
     18.5700	  593.00	  563.54	-1740.54	  444.33
     18.6700	  566.00	  563.26	-1767.26	  444.05
     18.7700	  504.00	  562.98	-1828.98	  443.76
     18.8700	  543.00	  562.78	-1789.78	  443.47
     18.9700	  566.00	  562.49	-1766.49	  443.19
     19.0700	  572.00	  562.21	-1760.21	  442.90
     19.1700	  587.00	  561.92	-1744.92	  442.60
     19.2700	  491.00	  561.64	-1840.64	  442.31
     19.3700	  529.00	  561.35	-1802.35	  442.02
     19.4700	  558.00	  561.06	-1773.06	  441.72
     19.5700	  569.00	  560.77	-1761.77	  441.42
     19.6700	  585.00	  560.48	-1745.48	  441.13
     19.7700	  577.00	  560.18	-1753.18	  440.83
     19.8700	  563.00	  559.89	-1766.89	  440.52
     19.9700	  550.00	  559.60	-1779.60	  440.22
     20.0700	  564.00	  559.30	-1765.30	  439.92
     20.1700	  549.00	  559.01	-1780.01	  439.61
     20.2700	  531.00	  558.71	-1797.71	  439.31
     20.3700	  527.00	  558.41	-1801.41	  439.00
     20.4700	  543.00	  558.12	-1785.12	  438.69
     20.5700	  597.00	  557.82	-1730.82	  438.38
     20.6700	  549.00	  557.49	-1778.49	  438.07
     20.7700	  542.00	  557.19	-1785.19	  437.76
     20.8700	  551.00	  556.93	-1775.93	  437.44
     20.9700	  518.00	  556.63	-1808.63	  437.13
     21.0700	  582.00	  556.33	-1744.33	  436.81
     21.1700	  564.00	  556.03	-1762.03	  436.50
     21.2700	  618.00	  555.73	-1707.73	  436.18
     21.3700	  591.00	  555.44	-1734.44	  435.86
     21.4700	  572.00	  555.14	-1753.14	  435.55
     21.5700	  578.00	  554.84	-1746.84	  435.23
     21.6700	  561.00	  554.55	-1763.55	  434.91
     21.7700	  563.00	  554.25	-1761.25	  434.58
     21.8700	  577.00	  553.96	-1746.96	  434.26
     21.9700	  581.00	  553.67	-1742.67	  433.94
     22.0700	  513.00	  553.38	-1810.38	  433.62
     22.1700	  534.00	  553.09	-1789.09	  433.29
     22.2700	  552.00	  552.81	-1770.81	  432.97
     22.3700	  556.00	  552.53	-1766.53	  432.64
     22.4700	  568.00	  552.25	-1754.25	  432.32
     22.5700	  528.00	  551.98	-1793.98	  431.99
     22.6700	  574.00	  551.71	-1747.71	  431.66
     22.7700	  549.00	  551.45	-1772.45	  431.34
     22.8700	  562.00	  551.20	-1759.20	  431.01
     22.9700	  561.00	  550.95	-1759.95	  430.68
     23.0700	  541.00	  550.72	-1779.72	  430.35
     23.1700	  584.00	  550.51	-1736.51	  430.02
     23.2700	  551.00	  550.31	-1769.31	  429.69
     23.3700	  531.00	  550.15	-1789.15	  429.36
     23.4700	  556.00	  550.01	-1764.01	  429.03
     23.5700	  548.00	  549.92	-1771.92	  428.70
     23.6700	  518.00	  550.04	-1802.04	  428.37
     23.7700	  580.00	  550.13	-1740.13	  428.04
     23.8700	  530.00	  550.44	-1790.44	  427.71
     23.9700	  569.00	  551.19	-1752.19	  427.38
     24.0700	  532.00	  552.80	-1790.80	  427.05
     24.1700	  570.00	  555.89	-1755.89	  426.71
     24.2700	  561.00	  561.28	-1770.28	  426.38
     24.3700	  566.00	  569.86	-1773.86	  426.05
     24.4700	  622.00	  582.57	-1730.57	  425.72
     24.5700	  601.00	  599.48	-1768.48	  425.38
     24.6700	  620.00	  617.67	-1767.67	  425.05
     24.7700	  615.00	  629.55	-1784.55	  424.72
     24.8700	  633.00	  625.48	-1762.48	  424.39
     24.9700	  612.00	  605.21	-1763.21	  424.05
     25.0700	  555.00	  581.61	-1796.61	  423.72
     25.1700	  596.00	  564.23	-1738.23	  423.39
     25.2700	  535.00	  554.46	-1789.46	  423.06
     25.3700	  571.00	  549.83	-1748.83	  422.73
     25.4700	  577.00	  547.69	-1740.69	  422.39
     25.5700	  546.00	  546.53	-1770.53	  422.06
     25.6700	  560.00	  545.77	-1755.77	  421.73
     25.7700	  569.00	  545.20	-1746.20	  421.40
     25.8700	  556.00	  544.78	-1758.78	  421.07
     25.9700	  531.00	  544.45	-1783.45	  420.74
     26.0700	  525.00	  544.21	-1789.21	  420.41
     26.1700	  590.00	  544.04	-1724.04	  420.07
     26.2700	  536.00	  543.95	-1777.95	  419.74
     26.3700	  556.00	  543.94	-1757.94	  419.41
     26.4700	  590.00	  544.01	-1724.01	  419.08
     26.5700	  558.00	  544.17	-1756.17	  418.76
     26.6700	  538.00	  544.45	-1776.45	  418.43
     26.7700	  545.00	  544.87	-1769.87	  418.10
     26.8700	  545.00	  545.46	-1770.46	  417.77
     26.9700	  604.00	  546.29	-1712.29	  417.44
     27.0700	  556.00	  547.42	-1761.42	  417.12
     27.1700	  562.00	  549.00	-1757.00	  416.79
     27.2700	  598.00	  551.29	-1723.29	  416.46
     27.3700	  589.00	  554.84	-1735.84	  416.14
     27.4700	  571.00	  560.67	-1759.67	  415.81
     27.5700	  563.00	  570.65	-1777.65	  415.49
     27.6700	  555.00	  587.66	-1802.66	  415.16
     27.7700	  599.00	  615.35	-1786.35	  414.84
     27.8700	  596.00	  656.71	-1830.71	  414.52
     27.9700	  719.00	  711.48	-1762.48	  414.19
     28.0700	  807.00	  772.75	-1735.75	  413.87
     28.1700	  854.00	  824.22	-1740.22	  413.55
     28.2700	  928.00	  842.47	-1684.47	  413.23
     28.3700	  899.00	  816.23	-1687.23	  412.91
     28.4700	  794.00	  770.23	-1746.23	  412.59
     28.5700	  710.00	  739.41	-1799.41	  412.27
     28.6700	  702.00	  738.06	-1806.06	  411.96
     28.7700	  728.00	  760.13	-1802.13	  411.64
     28.8700	  795.00	  785.25	-1760.25	  411.32
     28.9700	  811.00	  786.19	-1745.19	  411.01
     29.0700	  799.00	  747.94	-1718.94	  410.69
     29.1700	  710.00	  687.72	-1747.72	  410.38
     29.2700	  597.00	  632.11	-1805.11	  410.07
     29.3700	  566.00	  592.72	-1796.72	  409.75
     29.4700	  618.00	  569.19	-1721.19	  409.44
     29.5700	  593.00	  556.54	-1733.54	  409.13
     29.6700	  639.00	  549.82	-1680.82	  408.82
     29.7700	  571.00	  545.97	-1744.97	  408.51
     29.8700	  573.00	  543.54	-1740.54	  408.21
     29.9700	  564.00	  541.99	-1747.99	  407.90
     30.0700	  594.00	  541.21	-1717.21	  407.59
     30.1700	  578.00	  541.37	-1733.37	  407.29
     30.2700	  611.00	  543.01	-1702.01	  406.99
     30.3700	  589.00	  547.16	-1728.16	  406.68
     30.4700	  622.00	  555.33	-1703.33	  406.38
     30.5700	  554.00	  569.07	-1785.07	  406.08
     30.6700	  580.00	  588.64	-1778.65	  405.78
     30.7700	  581.00	  611.37	-1800.37	  405.48
     30.8700	  575.00	  630.47	-1825.47	  405.18
     30.9700	  597.00	  635.99	-1808.99	  404.89
     31.0700	  659.00	  622.03	-1733.03	  404.59
     31.1700	  625.00	  596.09	-1741.09	  404.30
     31.2700	  542.00	  570.87	-1798.87	  404.00
     31.3700	  584.00	  552.55	-1738.55	  403.71
     31.4700	  530.00	  541.53	-1781.53	  403.42
     31.5700	  571.00	  535.66	-1734.66	  403.13
     31.6700	  529.00	  532.63	-1773.63	  402.84
     31.7700	  542.00	  530.94	-1758.94	  402.55
     31.8700	  536.00	  529.86	-1763.86	  402.27
     31.9700	  543.00	  529.11	-1756.11	  401.98
     32.0700	  548.00	  528.59	-1750.59	  401.70
     32.1700	  529.00	  528.24	-1769.24	  401.42
     32.2700	  538.00	  528.05	-1760.05	  401.13
     32.3700	  524.00	  528.01	-1774.01	  400.85
     32.4700	  588.00	  528.12	-1710.12	  400.58
     32.5700	  540.00	  528.42	-1758.42	  400.30
     32.6700	  584.00	  528.92	-1714.92	  400.02
     32.7700	  536.00	  529.67	-1763.67	  399.75
     32.8700	  552.00	  530.76	-1748.76	  399.47
     32.9700	  553.00	  532.30	-1749.30	  399.20
     33.0700	  575.00	  534.54	-1729.54	  398.93
     33.1700	  529.00	  537.99	-1778.99	  398.66
     33.2700	  552.00	  543.82	-1761.82	  398.39
     33.3700	  554.00	  554.52	-1770.52	  398.12
     33.4700	  612.00	  574.85	-1732.85	  397.86
     33.5700	  579.00	  612.19	-1803.19	  397.59
     33.6700	  643.00	  674.74	-1801.74	  397.33
     33.7700	  714.00	  765.47	-1821.47	  397.07
     33.8700	  894.00	  873.53	-1749.53	  396.81
     33.9700	 1029.00	  968.80	-1709.80	  396.55
     34.0700	 1085.00	 1006.62	-1691.62	  396.29
     34.1700	 1060.00	  957.01	-1667.01	  396.03
     34.2700	  954.00	  846.56	-1662.56	  395.78
     34.3700	  735.00	  730.98	-1765.98	  395.52
     34.4700	  644.00	  642.73	-1768.73	  395.27
     34.5700	  578.00	  587.69	-1779.69	  395.02
     34.6700	  571.00	  558.00	-1757.00	  394.77
     34.7700	  561.00	  543.04	-1752.04	  394.52
     34.8700	  507.00	  535.19	-1798.19	  394.28
     34.9700	  556.00	  530.45	-1744.45	  394.03
     35.0700	  535.00	  527.16	-1762.16	  393.79
     35.1700	  508.00	  524.69	-1786.69	  393.55
     35.2700	  547.00	  522.71	-1745.71	  393.31
     35.3700	  524.00	  521.10	-1767.10	  393.07
     35.4700	  540.00	  519.77	-1749.77	  392.83
     35.5700	  513.00	  518.64	-1775.64	  392.60
     35.6700	  580.00	  517.67	-1707.67	  392.36
     35.7700	  515.00	  516.82	-1771.82	  392.13
     35.8700	  490.00	  516.08	-1796.08	  391.90
     35.9700	  506.00	  515.41	-1779.41	  391.67
     36.0700	  504.00	  515.30	-1781.30	  391.44
     36.1700	  495.00	  514.77	-1789.77	  391.22
     36.2700	  513.00	  514.29	-1771.29	  390.99
     36.3700	  525.00	  513.86	-1758.86	  390.77
     36.4700	  518.00	  513.46	-1765.46	  390.55
     36.5700	  539.00	  513.10	-1744.10	  390.33
     36.6700	  506.00	  512.79	-1776.79	  390.11
     36.7700	  533.00	  512.52	-1749.52	  389.89
     36.8700	  513.00	  512.31	-1769.31	  389.68
     36.9700	  509.00	  512.23	-1773.23	  389.47
     37.0700	  511.00	  512.39	-1771.39	  389.25
     37.1700	  524.00	  513.02	-1759.02	  389.04
     37.2700	  516.00	  514.46	-1768.46	  388.83
     37.3700	  532.00	  516.99	-1754.99	  388.63
     37.4700	  489.00	  520.60	-1801.60	  388.42
     37.5700	  527.00	  524.60	-1767.60	  388.22
     37.6700	  500.00	  527.59	-1797.59	  388.02
     37.7700	  521.00	  528.07	-1777.07	  387.82
     37.8700	  554.00	  525.78	-1741.78	  387.62
     37.9700	  537.00	  522.08	-1755.08	  387.42
     38.0700	  454.00	  518.31	-1834.31	  387.23
     38.1700	  486.00	  515.01	-1799.01	  387.03
     38.2700	  504.00	  512.41	-1778.41	  386.84
     38.3700	  499.00	  510.54	-1781.54	  386.65
     38.4700	  502.00	  509.28	-1777.28	  386.46
     38.5700	  465.00	  508.46	-1813.46	  386.27
     38.6700	  519.00	  507.82	-1758.82	  386.09
     38.7700	  525.00	  507.43	-1752.43	  385.91
     38.8700	  492.00	  507.13	-1785.13	  385.72
     38.9700	  483.00	  506.87	-1793.87	  385.54
     39.0700	  486.00	  506.64	-1790.64	  385.37
     39.1700	  470.00	  506.43	-1806.43	  385.19
     39.2700	  511.00	  506.16	-1765.16	  385.01
     39.3700	  503.00	  505.97	-1772.97	  384.84
     39.4700	  497.00	  505.93	-1778.93	  384.67
     39.5700	  534.00	  505.77	-1741.77	  384.50
     39.6700	  486.00	  505.61	-1789.61	  384.33
     39.7700	  478.00	  505.47	-1797.47	  384.17
     39.8700	  518.00	  505.34	-1757.34	  384.00
     39.9700	  523.00	  505.21	-1752.21	  383.84
     40.0700	  517.00	  505.10	-1758.10	  383.68
     40.1700	  493.00	  504.99	-1781.99	  383.52
     40.2700	  500.00	  504.90	-1774.90	  383.36
     40.3700	  500.00	  504.81	-1774.81	  383.20
     40.4700	  518.00	  504.75	-1756.75	  383.05
     40.5700	  522.00	  504.69	-1752.69	  382.90
     40.6700	  518.00	  504.65	-1756.65	  382.75
     40.7700	  536.00	  504.63	-1738.63	  382.60
