MSG Master    CELL:    5.91920   5.91920  23.27336   90.0000   90.0000  120.0000   SPGR: P 63/m m c             TEMP:   1074.85
  1   1280     2.52000     0.00000    -0.12440     0.00000     0.00000    0
    99     0     2
       0.00000      10.00000
     125.00000     130.00000
 2Theta	Yobs	Ycal	Yobs-Ycal	Backg	Posr	(hkl)	K
      0.7700	    0.00	  545.98	-1770.75	  429.40
      0.8700	    1.00	  546.70	-1770.75	  430.12
      0.9700	   46.00	  547.41	-1770.75	  430.83
      1.0700	   55.00	  548.11	-1770.75	  431.53
      1.1700	   35.00	  548.79	-1770.75	  432.21
      1.2700	   39.00	  549.47	-1770.75	  432.89
      1.3700	   51.00	  550.14	-1770.75	  433.56
      1.4700	   97.00	  550.79	-1770.75	  434.21
      1.5700	  276.00	  551.44	-1770.75	  434.86
      1.6700	  502.00	  552.07	-1770.75	  435.49
      1.7700	  563.00	  552.70	-1770.75	  436.12
      1.8700	  682.00	  553.31	-1770.75	  436.73
      1.9700	  667.00	  553.92	-1770.75	  437.34
      2.0700	  744.00	  554.51	-1770.75	  437.93
      2.1700	  781.00	  555.10	-1770.75	  438.52
      2.2700	  754.00	  555.67	-1770.75	  439.09
      2.3700	  742.00	  556.24	-1770.75	  439.66
      2.4700	  712.00	  556.79	-1770.75	  440.21
      2.5700	  698.00	  557.34	-1770.75	  440.76
      2.6700	  683.00	  557.87	-1770.75	  441.29
      2.7700	  700.00	  558.40	-1770.75	  441.82
      2.8700	  623.00	  558.92	-1770.75	  442.34
      2.9700	  615.00	  559.43	-1770.75	  442.85
      3.0700	  570.00	  559.92	-1770.75	  443.34
      3.1700	  559.00	  560.41	-1770.75	  443.83
      3.2700	  601.00	  560.89	-1770.75	  444.31
      3.3700	  647.00	  561.36	-1770.75	  444.78
      3.4700	  723.00	  561.82	-1770.75	  445.24
      3.5700	  807.00	  562.28	-1770.75	  445.70
      3.6700	  868.00	  562.72	-1770.75	  446.14
      3.7700	  887.00	  563.16	-1770.75	  446.58
      3.8700	  927.00	  563.58	-1770.75	  447.00
      3.9700	 1077.00	  564.00	-1770.75	  447.42
      4.0700	 1021.00	  564.41	-1770.75	  447.83
      4.1700	 1046.00	  564.81	-1770.75	  448.23
      4.2700	 1093.00	  565.20	-1770.75	  448.62
      4.3700	 1088.00	  565.58	-1770.75	  449.00
      4.4700	 1062.00	  565.96	-1770.75	  449.38
      4.5700	 1015.00	  566.32	-1770.75	  449.74
      4.6700	 1015.00	  566.68	-1770.75	  450.10
      4.7700	  968.00	  567.03	-1770.75	  450.45
      4.8700	 1002.00	  567.37	-1770.75	  450.79
      4.9700	  983.00	  567.70	-1770.75	  451.12
      5.0700	  985.00	  568.03	-1770.75	  451.45
      5.1700	  945.00	  568.35	-1770.75	  451.77
      5.2700	  894.00	  568.66	-1770.75	  452.08
      5.3700	  884.00	  568.96	-1770.75	  452.38
      5.4700	  834.00	  569.25	-1770.75	  452.67
      5.5700	  855.00	  569.54	-1770.75	  452.96
      5.6700	  849.00	  569.82	-1770.75	  453.24
      5.7700	  825.00	  570.09	-1770.75	  453.51
      5.8700	  830.00	  570.35	-1770.75	  453.77
      5.9700	  747.00	  570.61	-1770.75	  454.03
      6.0700	  810.00	  570.85	-1770.75	  454.28
      6.1700	  788.00	  571.10	-1770.75	  454.52
      6.2700	  776.00	  571.33	-1770.75	  454.75
      6.3700	  828.00	  571.56	-1770.75	  454.98
      6.4700	  759.00	  571.78	-1770.75	  455.20
      6.5700	  748.00	  571.99	-1770.75	  455.41
      6.6700	  740.00	  572.19	-1770.75	  455.61
      6.7700	  724.00	  572.39	-1770.75	  455.81
      6.8700	  702.00	  572.58	-1770.75	  456.00
      6.9700	  721.00	  572.77	-1770.75	  456.19
      7.0700	  691.00	  572.94	-1770.75	  456.36
      7.1700	  697.00	  573.11	-1770.75	  456.53
      7.2700	  675.00	  573.28	-1770.75	  456.70
      7.3700	  686.00	  573.44	-1770.75	  456.86
      7.4700	  673.00	  573.59	-1770.75	  457.01
      7.5700	  663.00	  573.73	-1770.75	  457.15
      7.6700	  702.00	  573.87	-1770.75	  457.29
      7.7700	  614.00	  574.00	-1770.75	  457.42
      7.8700	  666.00	  574.12	-1770.75	  457.54
      7.9700	  634.00	  574.24	-1770.75	  457.66
      8.0700	  649.00	  574.35	-1770.75	  457.78
      8.1700	  661.00	  574.46	-1770.75	  457.88
      8.2700	  604.00	  574.56	-1770.75	  457.98
      8.3700	  598.00	  574.65	-1770.75	  458.08
      8.4700	  656.00	  574.74	-1770.75	  458.16
      8.5700	  640.00	  574.82	-1770.75	  458.24
      8.6700	  643.00	  574.90	-1770.75	  458.32
      8.7700	  623.00	  574.97	-1770.75	  458.39
      8.8700	  587.00	  575.03	-1770.75	  458.45
      8.9700	  639.00	  575.09	-1770.75	  458.51
      9.0700	  619.00	  575.15	-1770.75	  458.57
      9.1700	  615.00	  575.19	-1770.75	  458.61
      9.2700	  602.00	  575.23	-1770.75	  458.65
      9.3700	  603.00	  575.27	-1770.75	  458.69
      9.4700	  596.00	  575.30	-1770.75	  458.72
      9.5700	  601.00	  575.32	-1770.75	  458.74
      9.6700	  600.00	  575.34	-1770.75	  458.76
      9.7700	  666.00	  575.36	-1770.75	  458.78
      9.8700	  636.00	  575.37	-1770.75	  458.79
      9.9700	  563.00	  575.37	-1770.75	  458.79
     10.0700	  649.00	  576.12	-1697.87	  458.79
     10.1700	  637.00	  576.19	-1709.94	  458.78
     10.2700	  595.00	  576.28	-1752.03	  458.77
     10.3700	  595.00	  576.39	-1752.14	  458.75
     10.4700	  574.00	  576.55	-1773.30	  458.73
     10.5700	  579.00	  576.81	-1768.56	  458.70
     10.6700	  573.00	  577.26	-1775.01	  458.67
     10.7700	  558.00	  578.02	-1790.77	  458.64
     10.8700	  576.00	  579.15	-1773.90	  458.59
     10.9700	  573.00	  580.64	-1778.39	  458.55
     11.0700	  587.00	  582.46	-1766.21	  458.50
     11.1700	  579.00	  584.60	-1776.35	  458.44
     11.2700	  569.00	  587.10	-1788.85	  458.38
     11.3700	  575.00	  590.02	-1785.77	  458.32
     11.4700	  574.00	  593.50	-1790.25	  458.25
     11.5700	  610.00	  597.73	-1758.48	  458.17
     11.6700	  612.00	  603.03	-1761.78	  458.09
     11.7700	  638.00	  609.99	-1742.74	  458.01
     11.8700	  609.00	  619.50	-1781.25	  457.93
     11.9700	  644.00	  632.26	-1759.01	  457.83
     12.0700	  626.00	  646.84	-1791.59	  457.74
     12.1700	  690.00	  657.36	-1738.11	  457.64
     12.2700	  666.00	  654.31	-1759.06	  457.54
     12.3700	  692.00	  634.67	-1713.42	  457.43
     12.4700	  645.00	  610.54	-1736.29	  457.32
     12.5700	  631.00	  592.93	-1732.69	  457.20
     12.6700	  604.00	  583.46	-1750.21	  457.08
     12.7700	  588.00	  579.21	-1761.96	  456.96
     12.8700	  586.00	  577.31	-1762.06	  456.83
     12.9700	  588.00	  576.27	-1759.02	  456.70
     13.0700	  558.00	  575.55	-1788.30	  456.56
     13.1700	  566.00	  575.00	-1779.75	  456.42
     13.2700	  568.00	  574.55	-1777.30	  456.28
     13.3700	  582.00	  574.16	-1762.91	  456.13
     13.4700	  509.00	  573.83	-1835.58	  455.98
     13.5700	  543.00	  573.53	-1801.28	  455.83
     13.6700	  567.00	  573.25	-1777.00	  455.67
     13.7700	  538.00	  572.99	-1805.74	  455.51
     13.8700	  557.00	  572.75	-1786.50	  455.35
     13.9700	  593.00	  572.51	-1750.26	  455.18
     14.0700	  552.00	  572.28	-1791.03	  455.01
     14.1700	  575.00	  572.06	-1767.81	  454.84
     14.2700	  541.00	  571.84	-1801.59	  454.66
     14.3700	  563.00	  571.62	-1779.37	  454.48
     14.4700	  583.00	  571.40	-1759.15	  454.30
     14.5700	  530.00	  571.19	-1811.94	  454.11
     14.6700	  532.00	  570.97	-1809.72	  453.92
     14.7700	  554.00	  570.75	-1787.50	  453.73
     14.8700	  547.00	  570.54	-1794.29	  453.53
     14.9700	  548.00	  570.32	-1793.07	  453.33
     15.0700	  545.00	  570.10	-1795.85	  453.13
     15.1700	  591.00	  569.88	-1749.63	  452.93
     15.2700	  549.00	  569.66	-1791.41	  452.72
     15.3700	  590.00	  569.44	-1750.19	  452.51
     15.4700	  577.00	  569.22	-1762.97	  452.30
     15.5700	  546.00	  568.99	-1793.74	  452.08
     15.6700	  603.00	  568.76	-1736.51	  451.86
     15.7700	  547.00	  568.53	-1792.28	  451.64
     15.8700	  589.00	  568.30	-1750.05	  451.42
     15.9700	  591.00	  568.07	-1747.82	  451.19
     16.0700	  565.00	  567.83	-1773.58	  450.96
     16.1700	  574.00	  567.60	-1764.35	  450.73
     16.2700	  555.00	  567.38	-1783.13	  450.50
     16.3700	  548.00	  567.14	-1789.89	  450.26
     16.4700	  595.00	  566.90	-1742.65	  450.02
     16.5700	  549.00	  566.65	-1788.40	  449.78
     16.6700	  582.00	  566.41	-1755.16	  449.54
     16.7700	  586.00	  566.16	-1750.91	  449.29
     16.8700	  565.00	  565.91	-1771.66	  449.04
     16.9700	  582.00	  565.65	-1754.40	  448.79
     17.0700	  555.00	  565.40	-1781.15	  448.54
     17.1700	  525.00	  565.14	-1810.89	  448.29
     17.2700	  563.00	  564.88	-1772.63	  448.03
     17.3700	  521.00	  564.62	-1814.37	  447.77
     17.4700	  517.00	  564.36	-1818.11	  447.51
     17.5700	  539.00	  564.10	-1795.85	  447.25
     17.6700	  536.00	  563.83	-1798.58	  446.99
     17.7700	  563.00	  563.56	-1771.31	  446.72
     17.8700	  528.00	  563.29	-1806.04	  446.45
     17.9700	  539.00	  563.13	-1794.88	  446.18
     18.0700	  546.00	  562.86	-1787.61	  445.91
     18.1700	  549.00	  562.59	-1784.34	  445.63
     18.2700	  501.00	  562.31	-1832.06	  445.36
     18.3700	  523.00	  562.04	-1809.79	  445.08
     18.4700	  565.00	  561.76	-1767.51	  444.80
     18.5700	  549.00	  561.48	-1783.23	  444.52
     18.6700	  556.00	  561.21	-1775.96	  444.24
     18.7700	  565.00	  560.92	-1766.67	  443.96
     18.8700	  558.00	  560.72	-1773.47	  443.67
     18.9700	  535.00	  560.44	-1796.19	  443.38
     19.0700	  600.00	  560.16	-1730.91	  443.10
     19.1700	  558.00	  559.88	-1772.63	  442.81
     19.2700	  535.00	  559.59	-1795.34	  442.51
     19.3700	  588.00	  559.30	-1742.05	  442.22
     19.4700	  556.00	  559.02	-1773.77	  441.93
     19.5700	  573.00	  558.73	-1756.48	  441.63
     19.6700	  576.00	  558.44	-1753.19	  441.34
     19.7700	  532.00	  558.15	-1796.90	  441.04
     19.8700	  555.00	  557.86	-1773.61	  440.74
     19.9700	  534.00	  557.57	-1794.32	  440.44
     20.0700	  560.00	  557.28	-1768.03	  440.14
     20.1700	  598.00	  556.98	-1729.73	  439.83
     20.2700	  605.00	  556.69	-1722.44	  439.53
     20.3700	  552.00	  556.39	-1775.14	  439.23
     20.4700	  513.00	  556.10	-1813.85	  438.92
     20.5700	  576.00	  555.78	-1750.53	  438.61
     20.6700	  573.00	  555.48	-1753.23	  438.30
     20.7700	  528.00	  555.19	-1797.94	  438.00
     20.8700	  541.00	  554.93	-1784.68	  437.69
     20.9700	  567.00	  554.63	-1758.38	  437.37
     21.0700	  542.00	  554.34	-1783.09	  437.06
     21.1700	  493.00	  554.04	-1831.79	  436.75
     21.2700	  560.00	  553.75	-1764.50	  436.44
     21.3700	  593.00	  553.46	-1731.21	  436.12
     21.4700	  546.00	  553.16	-1777.91	  435.81
     21.5700	  537.00	  552.87	-1786.62	  435.49
     21.6700	  532.00	  552.58	-1791.33	  435.18
     21.7700	  547.00	  552.29	-1776.04	  434.86
     21.8700	  538.00	  552.00	-1784.75	  434.54
     21.9700	  555.00	  551.71	-1767.46	  434.22
     22.0700	  559.00	  551.43	-1763.18	  433.90
     22.1700	  564.00	  551.14	-1757.90	  433.58
     22.2700	  580.00	  550.86	-1741.61	  433.26
     22.3700	  552.00	  550.59	-1769.34	  432.94
     22.4700	  533.00	  550.31	-1788.06	  432.62
     22.5700	  540.00	  550.05	-1780.80	  432.30
     22.6700	  611.00	  549.78	-1709.53	  431.98
     22.7700	  530.00	  549.52	-1790.27	  431.66
     22.8700	  568.00	  549.28	-1752.03	  431.33
     22.9700	  589.00	  549.04	-1730.79	  431.01
     23.0700	  558.00	  548.81	-1761.56	  430.69
     23.1700	  555.00	  548.60	-1764.35	  430.36
     23.2700	  531.00	  548.40	-1788.15	  430.04
     23.3700	  531.00	  548.23	-1787.98	  429.71
     23.4700	  559.00	  548.10	-1759.85	  429.39
     23.5700	  570.00	  548.01	-1748.76	  429.06
     23.6700	  538.00	  547.98	-1780.73	  428.74
     23.7700	  575.00	  548.18	-1743.93	  428.41
     23.8700	  533.00	  548.47	-1786.22	  428.09
     23.9700	  601.00	  549.16	-1718.91	  427.76
     24.0700	  548.00	  550.69	-1773.44	  427.44
     24.1700	  601.00	  553.68	-1723.43	  427.11
     24.2700	  554.00	  558.97	-1775.72	  426.78
     24.3700	  604.00	  567.49	-1734.24	  426.46
     24.4700	  635.00	  580.27	-1716.02	  426.13
     24.5700	  645.00	  597.61	-1723.36	  425.81
     24.6700	  618.00	  616.87	-1769.62	  425.48
     24.7700	  654.00	  630.34	-1747.09	  425.15
     24.8700	  622.00	  627.56	-1776.31	  424.83
     24.9700	  652.00	  607.07	-1725.82	  424.50
     25.0700	  590.00	  582.10	-1762.85	  424.18
     25.1700	  573.00	  563.46	-1761.21	  423.85
     25.2700	  551.00	  553.01	-1772.76	  423.53
     25.3700	  573.00	  548.15	-1745.90	  423.20
     25.4700	  580.00	  545.96	-1736.71	  422.88
     25.5700	  586.00	  544.80	-1729.55	  422.55
     25.6700	  573.00	  544.05	-1741.80	  422.23
     25.7700	  534.00	  543.51	-1780.26	  421.90
     25.8700	  588.00	  543.10	-1725.85	  421.58
     25.9700	  561.00	  542.79	-1752.54	  421.26
     26.0700	  561.00	  542.56	-1752.31	  420.93
     26.1700	  545.00	  542.41	-1768.16	  420.61
     26.2700	  534.00	  542.34	-1779.09	  420.29
     26.3700	  539.00	  542.35	-1774.10	  419.96
     26.4700	  554.00	  542.44	-1759.19	  419.64
     26.5700	  571.00	  542.63	-1742.38	  419.32
     26.6700	  575.00	  542.94	-1738.69	  419.00
     26.7700	  522.00	  543.38	-1792.13	  418.68
     26.8700	  532.00	  544.01	-1782.76	  418.36
     26.9700	  555.00	  544.86	-1760.61	  418.04
     27.0700	  562.00	  546.03	-1754.78	  417.72
     27.1700	  494.00	  547.64	-1824.39	  417.40
     27.2700	  530.00	  549.97	-1790.72	  417.09
     27.3700	  540.00	  553.52	-1784.27	  416.77
     27.4700	  579.00	  559.30	-1751.05	  416.45
     27.5700	  548.00	  569.12	-1791.87	  416.14
     27.6700	  582.00	  585.82	-1774.57	  415.82
     27.7700	  576.00	  613.07	-1807.82	  415.50
     27.8700	  629.00	  654.04	-1795.79	  415.19
     27.9700	  618.00	  708.85	-1861.60	  414.88
     28.0700	  796.00	  771.27	-1746.02	  414.56
     28.1700	  942.00	  825.76	-1654.51	  414.25
     28.2700	  936.00	  848.89	-1683.64	  413.94
     28.3700	  923.00	  826.47	-1674.22	  413.63
     28.4700	  815.00	  779.98	-1735.73	  413.32
     28.5700	  747.00	  745.81	-1769.56	  413.01
     28.6700	  754.00	  740.97	-1757.72	  412.70
     28.7700	  713.00	  761.25	-1819.00	  412.40
     28.8700	  772.00	  787.29	-1786.04	  412.09
     28.9700	  821.00	  791.64	-1741.39	  411.78
     29.0700	  754.00	  756.45	-1773.20	  411.48
     29.1700	  671.00	  696.09	-1795.84	  411.17
     29.2700	  689.00	  638.21	-1719.96	  410.87
     29.3700	  591.00	  596.26	-1776.01	  410.57
     29.4700	  622.00	  570.78	-1719.53	  410.27
     29.5700	  608.00	  556.94	-1719.69	  409.97
     29.6700	  596.00	  549.61	-1724.36	  409.67
     29.7700	  601.00	  545.46	-1715.21	  409.37
     29.8700	  585.00	  542.87	-1728.62	  409.07
     29.9700	  577.00	  541.22	-1734.97	  408.77
     30.0700	  584.00	  540.38	-1727.13	  408.48
     30.1700	  540.00	  540.49	-1771.24	  408.18
     30.2700	  559.00	  542.09	-1753.84	  407.89
     30.3700	  571.00	  546.22	-1745.97	  407.60
     30.4700	  607.00	  554.48	-1718.23	  407.31
     30.5700	  575.00	  568.54	-1764.29	  407.02
     30.6700	  599.00	  588.92	-1760.67	  406.73
     30.7700	  588.00	  613.14	-1795.89	  406.44
     30.8700	  619.00	  634.39	-1786.14	  406.15
     30.9700	  603.00	  642.16	-1809.91	  405.87
     31.0700	  584.00	  629.15	-1815.90	  405.58
     31.1700	  583.00	  602.05	-1789.80	  405.30
     31.2700	  609.00	  574.65	-1736.40	  405.02
     31.3700	  569.00	  554.33	-1756.08	  404.73
     31.4700	  550.00	  541.94	-1762.69	  404.45
     31.5700	  514.00	  535.31	-1792.06	  404.18
     31.6700	  509.00	  531.90	-1793.65	  403.90
     31.7700	  524.00	  530.01	-1776.76	  403.62
     31.8700	  581.00	  528.82	-1718.57	  403.35
     31.9700	  522.00	  528.00	-1776.75	  403.07
     32.0700	  534.00	  527.41	-1764.16	  402.80
     32.1700	  522.00	  527.00	-1775.75	  402.53
     32.2700	  509.00	  526.75	-1788.50	  402.26
     32.3700	  550.00	  526.65	-1747.40	  401.99
     32.4700	  580.00	  526.70	-1717.45	  401.72
     32.5700	  479.00	  526.92	-1818.67	  401.45
     32.6700	  518.00	  527.33	-1780.08	  401.19
     32.7700	  533.00	  527.98	-1765.73	  400.93
     32.8700	  547.00	  528.93	-1752.68	  400.66
     32.9700	  555.00	  530.30	-1746.05	  400.40
     33.0700	  540.00	  532.28	-1763.03	  400.14
     33.1700	  568.00	  535.33	-1738.08	  399.88
     33.2700	  552.00	  540.46	-1759.21	  399.63
     33.3700	  586.00	  549.87	-1734.62	  399.37
     33.4700	  586.00	  567.83	-1752.58	  399.12
     33.5700	  565.00	  601.15	-1806.90	  398.86
     33.6700	  617.00	  657.76	-1811.51	  398.61
     33.7700	  726.00	  741.42	-1786.17	  398.36
     33.8700	  899.00	  843.33	-1715.08	  398.11
     33.9700	 1045.00	  936.45	-1662.20	  397.87
     34.0700	 1061.00	  978.79	-1688.54	  397.62
     34.1700	 1009.00	  938.69	-1700.44	  397.38
     34.2700	  885.00	  836.61	-1722.36	  397.14
     34.3700	  771.00	  725.76	-1725.51	  396.89
     34.4700	  647.00	  639.56	-1763.31	  396.65
     34.5700	  604.00	  585.23	-1751.98	  396.42
     34.6700	  535.00	  555.78	-1791.53	  396.18
     34.7700	  503.00	  541.02	-1808.77	  395.94
     34.8700	  543.00	  533.35	-1761.10	  395.71
     34.9700	  502.00	  528.78	-1797.53	  395.48
     35.0700	  507.00	  525.64	-1789.39	  395.25
     35.1700	  521.00	  523.28	-1773.03	  395.02
     35.2700	  525.00	  521.42	-1767.17	  394.79
     35.3700	  543.00	  519.90	-1747.65	  394.56
     35.4700	  523.00	  518.64	-1766.39	  394.34
     35.5700	  521.00	  517.57	-1767.32	  394.12
     35.6700	  521.00	  516.66	-1766.41	  393.90
     35.7700	  483.00	  515.86	-1803.61	  393.68
     35.8700	  553.00	  515.16	-1732.91	  393.46
     35.9700	  520.00	  515.03	-1765.78	  393.24
     36.0700	  567.00	  514.48	-1718.23	  393.03
     36.1700	  529.00	  513.99	-1755.74	  392.81
     36.2700	  551.00	  513.54	-1733.29	  392.60
     36.3700	  491.00	  513.14	-1792.89	  392.39
     36.4700	  464.00	  512.78	-1819.53	  392.18
     36.5700	  517.00	  512.45	-1766.20	  391.98
     36.6700	  500.00	  512.17	-1782.92	  391.77
     36.7700	  502.00	  511.94	-1780.69	  391.57
     36.8700	  517.00	  511.77	-1765.52	  391.36
     36.9700	  510.00	  511.73	-1772.48	  391.16
     37.0700	  488.00	  511.94	-1794.69	  390.97
     37.1700	  517.00	  512.65	-1766.40	  390.77
     37.2700	  510.00	  514.25	-1775.00	  390.57
     37.3700	  534.00	  517.10	-1753.85	  390.38
     37.4700	  558.00	  521.29	-1734.04	  390.19
     37.5700	  505.00	  526.18	-1791.93	  390.00
     37.6700	  517.00	  530.34	-1784.09	  389.81
     37.7700	  510.00	  532.10	-1792.85	  389.62
     37.8700	  574.00	  530.92	-1727.67	  389.44
     37.9700	  489.00	  527.95	-1809.70	  389.25
     38.0700	  490.00	  524.21	-1804.96	  389.07
     38.1700	  513.00	  520.06	-1777.81	  388.89
     38.2700	  496.00	  516.06	-1790.81	  388.71
     38.3700	  507.00	  512.80	-1776.55	  388.53
     38.4700	  528.00	  510.49	-1753.24	  388.36
     38.5700	  536.00	  509.00	-1743.75	  388.19
     38.6700	  520.00	  508.09	-1758.84	  388.01
     38.7700	  528.00	  507.43	-1750.18	  387.84
     38.8700	  494.00	  507.05	-1783.80	  387.68
     38.9700	  509.00	  506.76	-1768.51	  387.51
     39.0700	  533.00	  506.51	-1744.26	  387.34
     39.1700	  525.00	  506.28	-1752.03	  387.18
     39.2700	  493.00	  506.00	-1783.75	  387.02
     39.3700	  527.00	  505.82	-1749.57	  386.86
     39.4700	  469.00	  505.65	-1807.40	  386.70
     39.5700	  483.00	  505.61	-1793.36	  386.55
     39.6700	  469.00	  505.46	-1807.21	  386.39
     39.7700	  486.00	  505.33	-1790.08	  386.24
     39.8700	  514.00	  505.20	-1761.95	  386.09
     39.9700	  525.00	  505.09	-1750.84	  385.94
     40.0700	  485.00	  504.98	-1790.73	  385.79
     40.1700	  523.00	  504.89	-1752.64	  385.65
     40.2700	  509.00	  504.80	-1766.55	  385.50
     40.3700	  524.00	  504.73	-1751.48	  385.36
     40.4700	  463.00	  504.67	-1812.42	  385.22
     40.5700	  496.00	  504.63	-1779.38	  385.08
     40.6700	  468.00	  504.60	-1807.35	  384.94
     40.7700	  546.00	  504.60	-1729.35	  384.81
