MSG Master    CELL:    5.87992   5.87992  23.10008   90.0000   90.0000  120.0000   SPGR: P 63/m m c             TEMP:    521.85
  2   1280     2.52000     0.00000    -0.08925     0.00000     0.00000    0
    96    96     0     0     2
       0.00000      10.00000
     125.00000     130.00000
 2Theta	Yobs	Ycal	Yobs-Ycal	Backg	Posr	(hkl)	K
      0.7700	    0.00	  930.41	-2014.75	  795.61
      0.8700	    0.00	  927.55	-2014.75	  792.74
      0.9700	   53.00	  924.70	-2014.75	  789.89
      1.0700	   44.00	  921.86	-2014.75	  787.06
      1.1700	   39.00	  919.05	-2014.75	  784.24
      1.2700	   49.00	  916.25	-2014.75	  781.44
      1.3700	   44.00	  913.46	-2014.75	  778.66
      1.4700	  105.00	  910.70	-2014.75	  775.90
      1.5700	  302.00	  907.95	-2014.75	  773.15
      1.6700	  440.00	  905.22	-2014.75	  770.41
      1.7700	  576.00	  902.50	-2014.75	  767.70
      1.8700	  674.00	  899.80	-2014.75	  765.00
      1.9700	  747.00	  897.12	-2014.75	  762.32
      2.0700	  718.00	  894.45	-2014.75	  759.65
      2.1700	  775.00	  891.80	-2014.75	  757.00
      2.2700	  762.00	  889.17	-2014.75	  754.36
      2.3700	  759.00	  886.55	-2014.75	  751.75
      2.4700	  723.00	  883.95	-2014.75	  749.14
      2.5700	  689.00	  881.36	-2014.75	  746.56
      2.6700	  639.00	  878.79	-2014.75	  743.99
      2.7700	  662.00	  876.24	-2014.75	  741.43
      2.8700	  645.00	  873.70	-2014.75	  738.90
      2.9700	  602.00	  871.18	-2014.75	  736.37
      3.0700	  637.00	  868.67	-2014.75	  733.87
      3.1700	  646.00	  866.18	-2014.75	  731.38
      3.2700	  727.00	  863.70	-2014.75	  728.90
      3.3700	  884.00	  861.24	-2014.75	  726.44
      3.4700	 1060.00	  858.80	-2014.75	  724.00
      3.5700	 1183.00	  856.37	-2014.75	  721.57
      3.6700	 1342.00	  853.96	-2014.75	  719.15
      3.7700	 1470.00	  851.56	-2014.75	  716.75
      3.8700	 1448.00	  849.17	-2014.75	  714.37
      3.9700	 1561.00	  846.81	-2014.75	  712.00
      4.0700	 1717.00	  844.45	-2014.75	  709.65
      4.1700	 1678.00	  842.12	-2014.75	  707.31
      4.2700	 1687.00	  839.79	-2014.75	  704.99
      4.3700	 1718.00	  837.48	-2014.75	  702.68
      4.4700	 1597.00	  835.19	-2014.75	  700.39
      4.5700	 1508.00	  832.91	-2014.75	  698.11
      4.6700	 1430.00	  830.65	-2014.75	  695.84
      4.7700	 1467.00	  828.40	-2014.75	  693.59
      4.8700	 1405.00	  826.16	-2014.75	  691.36
      4.9700	 1399.00	  823.94	-2014.75	  689.14
      5.0700	 1318.00	  821.74	-2014.75	  686.93
      5.1700	 1299.00	  819.55	-2014.75	  684.74
      5.2700	 1292.00	  817.37	-2014.75	  682.56
      5.3700	 1271.00	  815.20	-2014.75	  680.40
      5.4700	 1176.00	  813.06	-2014.75	  678.25
      5.5700	 1202.00	  810.92	-2014.75	  676.12
      5.6700	 1168.00	  808.80	-2014.75	  674.00
      5.7700	 1177.00	  806.69	-2014.75	  671.89
      5.8700	 1153.00	  804.60	-2014.75	  669.80
      5.9700	 1124.00	  802.52	-2014.75	  667.72
      6.0700	 1061.00	  800.46	-2014.75	  665.65
      6.1700	 1081.00	  798.41	-2014.75	  663.60
      6.2700	 1022.00	  796.37	-2014.75	  661.57
      6.3700	 1026.00	  794.35	-2014.75	  659.54
      6.4700	 1047.00	  792.34	-2014.75	  657.53
      6.5700	  945.00	  790.34	-2014.75	  655.54
      6.6700	  976.00	  788.36	-2014.75	  653.55
      6.7700	  896.00	  786.39	-2014.75	  651.58
      6.8700	  896.00	  784.43	-2014.75	  649.63
      6.9700	  884.00	  782.49	-2014.75	  647.68
      7.0700	  932.00	  780.56	-2014.75	  645.75
      7.1700	  875.00	  778.64	-2014.75	  643.84
      7.2700	  842.00	  776.74	-2014.75	  641.93
      7.3700	  831.00	  774.85	-2014.75	  640.04
      7.4700	  888.00	  772.97	-2014.75	  638.17
      7.5700	  841.00	  771.11	-2014.75	  636.30
      7.6700	  842.00	  769.26	-2014.75	  634.45
      7.7700	  872.00	  767.42	-2014.75	  632.61
      7.8700	  769.00	  765.59	-2014.75	  630.79
      7.9700	  816.00	  763.78	-2014.75	  628.97
      8.0700	  783.00	  761.98	-2014.75	  627.17
      8.1700	  776.00	  760.19	-2014.75	  625.39
      8.2700	  789.00	  758.41	-2014.75	  623.61
      8.3700	  746.00	  756.65	-2014.75	  621.85
      8.4700	  745.00	  754.90	-2014.75	  620.10
      8.5700	  767.00	  753.16	-2014.75	  618.36
      8.6700	  810.00	  751.44	-2014.75	  616.63
      8.7700	  755.00	  749.72	-2014.75	  614.92
      8.8700	  765.00	  748.02	-2014.75	  613.22
      8.9700	  744.00	  746.34	-2014.75	  611.53
      9.0700	  719.00	  744.66	-2014.75	  609.85
      9.1700	  741.00	  742.99	-2014.75	  608.19
      9.2700	  768.00	  741.34	-2014.75	  606.54
      9.3700	  771.00	  739.70	-2014.75	  604.90
      9.4700	  774.00	  738.07	-2014.75	  603.27
      9.5700	  700.00	  736.45	-2014.75	  601.65
      9.6700	  776.00	  734.85	-2014.75	  600.05
      9.7700	  683.00	  733.26	-2014.75	  598.45
      9.8700	  735.00	  731.67	-2014.75	  596.87
      9.9700	  744.00	  730.10	-2014.75	  595.30
     10.0700	  743.00	  730.72	-2002.47	  593.74
     10.1700	  750.00	  729.41	-1994.16	  592.19
     10.2700	  749.00	  728.16	-1993.91	  590.66
     10.3700	  689.00	  726.98	-2052.73	  589.13
     10.4700	  749.00	  725.89	-1991.64	  587.62
     10.5700	  699.00	  724.95	-2040.70	  586.12
     10.6700	  708.00	  724.21	-2030.96	  584.63
     10.7700	  761.00	  723.75	-1977.50	  583.15
     10.8700	  726.00	  723.68	-2012.43	  581.68
     10.9700	  769.00	  724.06	-1969.81	  580.22
     11.0700	  706.00	  724.97	-2033.72	  578.78
     11.1700	  734.00	  726.41	-2007.16	  577.34
     11.2700	  750.00	  728.41	-1993.16	  575.92
     11.3700	  677.00	  731.02	-2068.77	  574.51
     11.4700	  783.00	  734.32	-1966.07	  573.10
     11.5700	  731.00	  738.48	-2022.23	  571.71
     11.6700	  798.00	  743.71	-1960.46	  570.33
     11.7700	  789.00	  750.31	-1976.06	  568.96
     11.8700	  813.00	  758.54	-1960.29	  567.60
     11.9700	  783.00	  768.46	-2000.21	  566.25
     12.0700	  843.00	  779.48	-1951.23	  564.91
     12.1700	  851.00	  789.86	-1953.61	  563.59
     12.2700	  840.00	  796.20	-1970.95	  562.27
     12.3700	  829.00	  793.72	-1979.47	  560.96
     12.4700	  808.00	  779.95	-1986.70	  559.66
     12.5700	  725.00	  759.41	-2049.16	  558.38
     12.6700	  773.00	  739.40	-1981.15	  557.10
     12.7700	  679.00	  723.51	-2059.26	  555.83
     12.8700	  727.00	  712.13	-1999.88	  554.58
     12.9700	  638.00	  704.34	-2081.09	  553.33
     13.0700	  675.00	  698.98	-2038.73	  552.09
     13.1700	  673.00	  695.12	-2036.87	  550.87
     13.2700	  693.00	  692.13	-2013.88	  549.65
     13.3700	  659.00	  689.65	-2045.40	  548.45
     13.4700	  679.00	  687.49	-2023.24	  547.25
     13.5700	  685.00	  685.55	-2015.30	  546.06
     13.6700	  665.00	  683.77	-2033.52	  544.88
     13.7700	  645.00	  682.12	-2051.87	  543.72
     13.8700	  678.00	  680.55	-2017.30	  542.56
     13.9700	  702.00	  679.07	-1991.82	  541.41
     14.0700	  695.00	  677.65	-1997.40	  540.27
     14.1700	  676.00	  676.28	-2015.03	  539.14
     14.2700	  693.00	  674.95	-1996.70	  538.02
     14.3700	  646.00	  673.66	-2042.41	  536.91
     14.4700	  698.00	  672.41	-1989.16	  535.81
     14.5700	  644.00	  671.18	-2041.93	  534.72
     14.6700	  646.00	  669.98	-2038.73	  533.63
     14.7700	  713.00	  668.80	-1970.55	  532.56
     14.8700	  680.00	  667.64	-2002.39	  531.50
     14.9700	  621.00	  666.50	-2060.25	  530.44
     15.0700	  678.00	  665.38	-2002.13	  529.39
     15.1700	  603.00	  664.28	-2076.03	  528.36
     15.2700	  620.00	  663.19	-2057.94	  527.33
     15.3700	  666.00	  662.12	-2010.87	  526.31
     15.4700	  689.00	  661.06	-1986.81	  525.30
     15.5700	  614.00	  660.01	-2060.76	  524.29
     15.6700	  700.00	  658.97	-1973.72	  523.30
     15.7700	  664.00	  657.95	-2008.70	  522.32
     15.8700	  631.00	  656.94	-2040.69	  521.34
     15.9700	  661.00	  655.94	-2009.69	  520.37
     16.0700	  637.00	  654.96	-2032.71	  519.41
     16.1700	  634.00	  653.98	-2034.73	  518.46
     16.2700	  659.00	  653.01	-2008.76	  517.52
     16.3700	  647.00	  652.06	-2019.81	  516.59
     16.4700	  646.00	  651.11	-2019.86	  515.66
     16.5700	  671.00	  650.17	-1993.92	  514.75
     16.6700	  700.00	  649.25	-1964.00	  513.84
     16.7700	  593.00	  648.33	-2070.08	  512.94
     16.8700	  642.00	  647.42	-2020.17	  512.05
     16.9700	  649.00	  646.53	-2012.28	  511.16
     17.0700	  603.00	  645.64	-2057.39	  510.29
     17.1700	  656.00	  644.76	-2003.51	  509.42
     17.2700	  620.00	  643.89	-2038.64	  508.56
     17.3700	  618.00	  643.03	-2039.78	  507.71
     17.4700	  567.00	  642.17	-2089.92	  506.86
     17.5700	  612.00	  641.33	-2044.08	  506.03
     17.6700	  677.00	  640.49	-1978.24	  505.20
     17.7700	  617.00	  639.66	-2037.41	  504.38
     17.8700	  677.00	  638.84	-1976.59	  503.57
     17.9700	  641.00	  638.03	-2011.78	  502.76
     18.0700	  638.00	  637.23	-2013.98	  501.97
     18.1700	  633.00	  636.44	-2018.19	  501.18
     18.2700	  637.00	  635.65	-2013.40	  500.40
     18.3700	  623.00	  634.87	-2026.62	  499.62
     18.4700	  657.00	  634.10	-1991.85	  498.86
     18.5700	  647.00	  633.34	-2001.09	  498.10
     18.6700	  614.00	  632.58	-2033.33	  497.34
     18.7700	  632.00	  631.84	-2014.59	  496.60
     18.8700	  632.00	  631.10	-2013.85	  495.86
     18.9700	  645.00	  630.37	-2000.12	  495.13
     19.0700	  629.00	  630.77	-2016.52	  494.41
     19.1700	  627.00	  631.98	-2019.73	  493.70
     19.2700	  623.00	  631.33	-2023.08	  492.99
     19.3700	  661.00	  630.70	-1984.45	  492.29
     19.4700	  627.00	  630.08	-2017.83	  491.59
     19.5700	  640.00	  629.46	-2004.21	  490.90
     19.6700	  630.00	  628.86	-2013.61	  490.22
     19.7700	  605.00	  628.26	-2038.01	  489.55
     19.8700	  627.00	  627.68	-2015.43	  488.89
     19.9700	  644.00	  627.10	-1997.85	  488.23
     20.0700	  582.00	  626.54	-2059.29	  487.57
     20.1700	  598.00	  626.03	-2042.78	  486.93
     20.2700	  635.00	  625.49	-2005.24	  486.29
     20.3700	  586.00	  624.96	-2053.71	  485.66
     20.4700	  598.00	  624.44	-2041.19	  485.03
     20.5700	  620.00	  623.93	-2018.68	  484.41
     20.6700	  638.00	  623.43	-2000.18	  483.80
     20.7700	  581.00	  622.95	-2056.70	  483.20
     20.8700	  615.00	  622.47	-2022.22	  482.60
     20.9700	  646.00	  622.01	-1990.76	  482.00
     21.0700	  636.00	  621.56	-2000.31	  481.42
     21.1700	  644.00	  621.12	-1991.87	  480.84
     21.2700	  608.00	  620.69	-2027.44	  480.26
     21.3700	  639.00	  620.28	-1996.03	  479.70
     21.4700	  630.00	  619.88	-2004.63	  479.14
     21.5700	  657.00	  619.50	-1977.25	  478.58
     21.6700	  596.00	  619.13	-2037.88	  478.03
     21.7700	  616.00	  618.77	-2017.52	  477.49
     21.8700	  610.00	  618.43	-2023.18	  476.95
     21.9700	  638.00	  618.11	-1994.86	  476.42
     22.0700	  666.00	  617.81	-1966.56	  475.90
     22.1700	  606.00	  617.52	-2026.27	  475.38
     22.2700	  621.00	  617.26	-2011.01	  474.87
     22.3700	  635.00	  617.21	-1996.96	  474.36
     22.4700	  647.00	  616.99	-1984.74	  473.86
     22.5700	  651.00	  616.79	-1980.54	  473.37
     22.6700	  643.00	  616.62	-1988.37	  472.88
     22.7700	  604.00	  616.48	-2027.23	  472.40
     22.8700	  627.00	  616.36	-2004.11	  471.92
     22.9700	  630.00	  616.28	-2001.03	  471.45
     23.0700	  629.00	  616.24	-2001.99	  470.98
     23.1700	  613.00	  616.24	-2017.99	  470.52
     23.2700	  598.00	  616.29	-2033.04	  470.07
     23.3700	  605.00	  616.39	-2026.14	  469.62
     23.4700	  653.00	  616.55	-1978.30	  469.18
     23.5700	  623.00	  616.80	-2008.55	  468.74
     23.6700	  622.00	  617.13	-2009.88	  468.31
     23.7700	  617.00	  617.59	-2015.34	  467.88
     23.8700	  607.00	  618.22	-2025.97	  467.46
     23.9700	  663.00	  619.08	-1970.83	  467.04
     24.0700	  630.00	  620.28	-2005.03	  466.63
     24.1700	  624.00	  622.03	-2012.78	  466.22
     24.2700	  584.00	  624.59	-2055.34	  465.82
     24.3700	  639.00	  628.35	-2004.10	  465.43
     24.4700	  592.00	  633.67	-2056.42	  465.04
     24.5700	  659.00	  640.96	-1996.71	  464.65
     24.6700	  668.00	  650.14	-1996.89	  464.27
     24.7700	  685.00	  660.61	-1990.36	  463.90
     24.8700	  698.00	  670.88	-1987.63	  463.53
     24.9700	  718.00	  678.25	-1975.00	  463.16
     25.0700	  745.00	  679.33	-1949.08	  462.80
     25.1700	  701.00	  672.91	-1986.66	  462.45
     25.2700	  706.00	  662.29	-1971.04	  462.10
     25.3700	  687.00	  652.04	-1979.79	  461.75
     25.4700	  632.00	  644.24	-2026.99	  461.41
     25.5700	  642.00	  639.29	-2012.04	  461.08
     25.6700	  678.00	  636.73	-1973.48	  460.75
     25.7700	  623.00	  635.93	-2027.68	  460.42
     25.8700	  642.00	  636.34	-2009.09	  460.10
     25.9700	  640.00	  637.60	-2012.35	  459.78
     26.0700	  619.00	  639.51	-2035.26	  459.47
     26.1700	  664.00	  642.01	-1992.76	  459.16
     26.2700	  633.00	  645.08	-2026.83	  458.86
     26.3700	  647.00	  648.78	-2016.53	  458.56
     26.4700	  615.00	  653.19	-2052.94	  458.27
     26.5700	  639.00	  658.41	-2034.16	  457.98
     26.6700	  647.00	  664.60	-2032.35	  457.69
     26.7700	  684.00	  671.96	-2002.71	  457.41
     26.8700	  689.00	  680.78	-2006.53	  457.13
     26.9700	  701.00	  691.41	-2005.16	  456.86
     27.0700	  683.00	  704.37	-2036.12	  456.59
     27.1700	  684.00	  720.35	-2051.10	  456.33
     27.2700	  718.00	  740.39	-2037.14	  456.07
     27.3700	  663.00	  766.13	-2117.88	  455.81
     27.4700	  768.00	  800.63	-2047.38	  455.56
     27.5700	  757.00	  850.44	-2108.19	  455.32
     27.6700	  828.00	  930.05	-2116.80	  455.07
     27.7700	  942.00	 1069.13	-2141.88	  454.83
     27.8700	 1025.00	 1321.01	-2310.76	  454.60
     27.9700	 1276.00	 1766.98	-2505.73	  454.37
     28.0700	 2046.00	 2503.43	-2472.18	  454.14
     28.1700	 3161.00	 3596.09	-2449.84	  453.92
     28.2700	 5230.00	 4988.56	-1773.31	  453.70
     28.3700	 7085.00	 6381.91	-1311.66	  453.48
     28.4700	 8059.00	 7199.22	-1154.97	  453.27
     28.5700	 7472.00	 6875.85	-1418.60	  453.06
     28.6700	 5810.00	 5631.50	-1836.25	  452.86
     28.7700	 4035.00	 4388.76	-2368.51	  452.66
     28.8700	 3401.00	 3733.76	-2347.51	  452.46
     28.9700	 3631.00	 3706.76	-2090.51	  452.27
     29.0700	 4287.00	 4010.97	-1738.72	  452.08
     29.1700	 4542.00	 4208.46	-1681.21	  451.90
     29.2700	 4172.00	 3926.99	-1769.74	  451.72
     29.3700	 3104.00	 3185.58	-2096.33	  451.54
     29.4700	 2226.00	 2353.61	-2142.36	  451.36
     29.5700	 1473.00	 1695.81	-2237.56	  451.19
     29.6700	 1239.00	 1271.23	-2046.98	  451.02
     29.7700	 1026.00	 1031.80	-2020.55	  450.86
     29.8700	  868.00	  904.27	-2051.02	  450.70
     29.9700	  819.00	  833.21	-2028.96	  450.54
     30.0700	  790.00	  788.65	-2013.40	  450.39
     30.1700	  776.00	  757.51	-1996.26	  450.24
     30.2700	  775.00	  734.45	-1974.20	  450.09
     30.3700	  715.00	  717.25	-2017.00	  449.95
     30.4700	  700.00	  705.06	-2019.81	  449.81
     30.5700	  685.00	  697.94	-2027.69	  449.67
     30.6700	  699.00	  696.74	-2012.49	  449.53
     30.7700	  710.00	  702.71	-2007.46	  449.40
     30.8700	  690.00	  716.46	-2041.21	  449.27
     30.9700	  744.00	  736.40	-2007.15	  449.15
     31.0700	  755.00	  757.39	-2017.14	  449.03
     31.1700	  780.00	  770.29	-2005.04	  448.91
     31.2700	  764.00	  764.74	-2015.49	  448.79
     31.3700	  744.00	  739.33	-2010.08	  448.68
     31.4700	  699.00	  705.89	-2021.64	  448.57
     31.5700	  728.00	  676.02	-1962.77	  448.46
     31.6700	  688.00	  654.11	-1980.86	  448.36
     31.7700	  654.00	  639.88	-2000.63	  448.26
     31.8700	  689.00	  631.19	-1956.94	  448.16
     31.9700	  670.00	  625.83	-1970.58	  448.06
     32.0700	  665.00	  622.28	-1972.03	  447.97
     32.1700	  642.00	  619.74	-1992.49	  447.88
     32.2700	  606.00	  617.82	-2026.57	  447.79
     32.3700	  637.00	  616.36	-1994.11	  447.71
     32.4700	  687.00	  615.29	-1943.04	  447.63
     32.5700	  663.00	  614.58	-1966.33	  447.55
     32.6700	  647.00	  614.21	-1981.96	  447.47
     32.7700	  661.00	  614.22	-1967.97	  447.40
     32.8700	  664.00	  614.60	-1965.35	  447.33
     32.9700	  676.00	  615.42	-1954.17	  447.26
     33.0700	  627.00	  616.78	-2004.53	  447.19
     33.1700	  700.00	  618.84	-1933.59	  447.13
     33.2700	  638.00	  621.86	-1998.61	  447.07
     33.3700	  692.00	  626.38	-1949.13	  447.01
     33.4700	  641.00	  633.41	-2007.16	  446.95
     33.5700	  652.00	  644.92	-2007.67	  446.90
     33.6700	  683.00	  664.40	-1996.15	  446.85
     33.7700	  682.00	  697.14	-2029.89	  446.80
     33.8700	  756.00	  749.54	-2008.29	  446.75
     33.9700	  881.00	  826.32	-1960.07	  446.71
     34.0700	  950.00	  925.36	-1990.11	  446.67
     34.1700	 1187.00	 1032.22	-1859.97	  446.63
     34.2700	 1186.00	 1117.74	-1946.49	  446.59
     34.3700	 1233.00	 1143.45	-1925.20	  446.56
     34.4700	 1240.00	 1089.00	-1863.75	  446.52
     34.5700	 1025.00	  981.52	-1971.27	  446.49
     34.6700	  841.00	  867.62	-2041.37	  446.46
     34.7700	  836.00	  774.60	-1953.35	  446.44
     34.8700	  721.00	  709.41	-2003.16	  446.41
     34.9700	  724.00	  668.35	-1959.10	  446.39
     35.0700	  657.00	  644.12	-2001.87	  446.37
     35.1700	  667.00	  629.92	-1977.67	  446.35
     35.2700	  666.00	  621.15	-1969.90	  446.34
     35.3700	  677.00	  615.24	-1952.99	  446.32
     35.4700	  634.00	  610.94	-1991.69	  446.31
     35.5700	  635.00	  607.64	-1987.39	  446.30
     35.6700	  611.00	  605.03	-2008.78	  446.29
     35.7700	  576.00	  602.94	-2041.69	  446.28
     35.8700	  642.00	  601.25	-1974.00	  446.28
     35.9700	  594.00	  599.87	-2020.62	  446.28
     36.0700	  615.00	  598.75	-1998.50	  446.28
     36.1700	  609.00	  597.85	-2003.60	  446.28
     36.2700	  654.00	  597.13	-1957.88	  446.28
     36.3700	  646.00	  596.57	-1965.32	  446.28
     36.4700	  569.00	  596.17	-2041.92	  446.29
     36.5700	  599.00	  595.91	-2011.66	  446.30
     36.6700	  634.00	  595.80	-1976.55	  446.31
     36.7700	  596.00	  595.84	-2014.59	  446.32
     36.8700	  619.00	  596.10	-1991.85	  446.33
     36.9700	  570.00	  596.72	-2041.47	  446.35
     37.0700	  588.00	  597.39	-2024.14	  446.36
     37.1700	  641.00	  598.41	-1972.16	  446.38
     37.2700	  609.00	  600.42	-2006.17	  446.40
     37.3700	  636.00	  602.72	-1981.47	  446.42
     37.4700	  614.00	  606.25	-2007.00	  446.44
     37.5700	  627.00	  611.74	-1999.49	  446.47
     37.6700	  608.00	  620.38	-2027.13	  446.49
     37.7700	  605.00	  633.63	-2043.38	  446.52
     37.8700	  651.00	  652.97	-2016.72	  446.55
     37.9700	  653.00	  679.08	-2040.83	  446.58
     38.0700	  698.00	  708.89	-2025.64	  446.61
     38.1700	  707.00	  741.72	-2049.47	  446.64
     38.2700	  749.00	  767.92	-2033.67	  446.67
     38.3700	  694.00	  777.15	-2097.90	  446.71
     38.4700	  721.00	  762.92	-2056.67	  446.74
     38.5700	  682.00	  730.95	-2063.70	  446.78
     38.6700	  691.00	  694.13	-2017.88	  446.82
     38.7700	  671.00	  661.71	-2005.46	  446.86
     38.8700	  659.00	  637.16	-1992.91	  446.90
     38.9700	  575.00	  620.44	-2060.19	  446.94
     39.0700	  565.00	  609.87	-2059.62	  446.99
     39.1700	  576.00	  603.45	-2042.20	  447.03
     39.2700	  627.00	  599.51	-1987.26	  447.08
     39.3700	  616.00	  596.96	-1995.71	  447.13
     39.4700	  568.00	  595.19	-2041.94	  447.17
     39.5700	  596.00	  592.83	-2011.58	  447.22
     39.6700	  597.00	  591.84	-2009.59	  447.27
     39.7700	  633.00	  591.07	-1972.82	  447.33
     39.8700	  597.00	  590.46	-2008.21	  447.38
     39.9700	  563.00	  589.98	-2041.73	  447.43
     40.0700	  588.00	  589.60	-2016.35	  447.49
     40.1700	  568.00	  589.30	-2036.05	  447.54
     40.2700	  602.00	  589.08	-2001.83	  447.60
     40.3700	  611.00	  588.91	-1992.66	  447.66
     40.4700	  577.00	  588.80	-2026.55	  447.72
     40.5700	  608.00	  588.73	-1995.48	  447.77
     40.6700	  581.00	  588.70	-2022.45	  447.84
     40.7700	  591.00	  589.25	-2013.00	  447.90
