MSG Master    CELL:    5.91792   5.91792  23.26033   90.0000   90.0000  120.0000   SPGR: P 63/m m c             TEMP:   1041.75
  1   1280     2.52000     0.00000    -0.12602     0.00000     0.00000    0
    99     0     2
       0.00000      10.00000
     125.00000     130.00000
 2Theta	Yobs	Ycal	Yobs-Ycal	Backg	Posr	(hkl)	K
      0.7700	    0.00	  522.30	-1813.50	  405.83
      0.8700	    0.00	  523.35	-1813.50	  406.87
      0.9700	   46.00	  524.38	-1813.50	  407.90
      1.0700	   54.00	  525.39	-1813.50	  408.92
      1.1700	   44.00	  526.39	-1813.50	  409.92
      1.2700	   50.00	  527.38	-1813.50	  410.91
      1.3700	   53.00	  528.36	-1813.50	  411.88
      1.4700	  102.00	  529.32	-1813.50	  412.85
      1.5700	  280.00	  530.27	-1813.50	  413.80
      1.6700	  434.00	  531.21	-1813.50	  414.73
      1.7700	  550.00	  532.13	-1813.50	  415.66
      1.8700	  643.00	  533.04	-1813.50	  416.57
      1.9700	  715.00	  533.94	-1813.50	  417.46
      2.0700	  771.00	  534.82	-1813.50	  418.35
      2.1700	  761.00	  535.69	-1813.50	  419.22
      2.2700	  741.00	  536.55	-1813.50	  420.08
      2.3700	  727.00	  537.40	-1813.50	  420.93
      2.4700	  721.00	  538.24	-1813.50	  421.76
      2.5700	  669.00	  539.06	-1813.50	  422.58
      2.6700	  679.00	  539.87	-1813.50	  423.39
      2.7700	  645.00	  540.67	-1813.50	  424.19
      2.8700	  680.00	  541.45	-1813.50	  424.98
      2.9700	  620.00	  542.23	-1813.50	  425.75
      3.0700	  584.00	  542.99	-1813.50	  426.51
      3.1700	  541.00	  543.74	-1813.50	  427.26
      3.2700	  633.00	  544.48	-1813.50	  428.00
      3.3700	  692.00	  545.20	-1813.50	  428.73
      3.4700	  763.00	  545.92	-1813.50	  429.44
      3.5700	  791.00	  546.62	-1813.50	  430.15
      3.6700	  854.00	  547.32	-1813.50	  430.84
      3.7700	  865.00	  548.00	-1813.50	  431.52
      3.8700	  956.00	  548.67	-1813.50	  432.19
      3.9700	 1031.00	  549.33	-1813.50	  432.85
      4.0700	 1039.00	  549.97	-1813.50	  433.50
      4.1700	 1113.00	  550.61	-1813.50	  434.14
      4.2700	 1123.00	  551.24	-1813.50	  434.76
      4.3700	 1091.00	  551.85	-1813.50	  435.38
      4.4700	 1058.00	  552.46	-1813.50	  435.98
      4.5700	 1058.00	  553.05	-1813.50	  436.57
      4.6700	 1022.00	  553.63	-1813.50	  437.16
      4.7700	  961.00	  554.20	-1813.50	  437.73
      4.8700	  927.00	  554.77	-1813.50	  438.29
      4.9700	  963.00	  555.32	-1813.50	  438.84
      5.0700	  943.00	  555.86	-1813.50	  439.38
      5.1700	  910.00	  556.39	-1813.50	  439.91
      5.2700	  867.00	  556.91	-1813.50	  440.44
      5.3700	  847.00	  557.42	-1813.50	  440.95
      5.4700	  867.00	  557.92	-1813.50	  441.45
      5.5700	  853.00	  558.41	-1813.50	  441.94
      5.6700	  866.00	  558.89	-1813.50	  442.42
      5.7700	  825.00	  559.37	-1813.50	  442.89
      5.8700	  792.00	  559.83	-1813.50	  443.35
      5.9700	  808.00	  560.28	-1813.50	  443.80
      6.0700	  786.00	  560.72	-1813.50	  444.25
      6.1700	  786.00	  561.15	-1813.50	  444.68
      6.2700	  782.00	  561.58	-1813.50	  445.10
      6.3700	  776.00	  561.99	-1813.50	  445.52
      6.4700	  748.00	  562.40	-1813.50	  445.92
      6.5700	  733.00	  562.79	-1813.50	  446.32
      6.6700	  735.00	  563.18	-1813.50	  446.70
      6.7700	  673.00	  563.56	-1813.50	  447.08
      6.8700	  704.00	  563.92	-1813.50	  447.45
      6.9700	  683.00	  564.28	-1813.50	  447.81
      7.0700	  723.00	  564.64	-1813.50	  448.16
      7.1700	  675.00	  564.98	-1813.50	  448.50
      7.2700	  680.00	  565.31	-1813.50	  448.84
      7.3700	  679.00	  565.64	-1813.50	  449.16
      7.4700	  701.00	  565.95	-1813.50	  449.48
      7.5700	  658.00	  566.26	-1813.50	  449.78
      7.6700	  710.00	  566.56	-1813.50	  450.08
      7.7700	  688.00	  566.85	-1813.50	  450.37
      7.8700	  618.00	  567.13	-1813.50	  450.66
      7.9700	  662.00	  567.41	-1813.50	  450.93
      8.0700	  652.00	  567.67	-1813.50	  451.20
      8.1700	  674.00	  567.93	-1813.50	  451.46
      8.2700	  615.00	  568.18	-1813.50	  451.71
      8.3700	  624.00	  568.42	-1813.50	  451.95
      8.4700	  619.00	  568.66	-1813.50	  452.18
      8.5700	  622.00	  568.89	-1813.50	  452.41
      8.6700	  621.00	  569.10	-1813.50	  452.63
      8.7700	  568.00	  569.32	-1813.50	  452.84
      8.8700	  593.00	  569.52	-1813.50	  453.04
      8.9700	  621.00	  569.72	-1813.50	  453.24
      9.0700	  592.00	  569.90	-1813.50	  453.43
      9.1700	  613.00	  570.09	-1813.50	  453.61
      9.2700	  607.00	  570.26	-1813.50	  453.78
      9.3700	  586.00	  570.43	-1813.50	  453.95
      9.4700	  590.00	  570.59	-1813.50	  454.11
      9.5700	  590.00	  570.74	-1813.50	  454.26
      9.6700	  605.00	  570.88	-1813.50	  454.41
      9.7700	  582.00	  571.02	-1813.50	  454.55
      9.8700	  570.00	  571.15	-1813.50	  454.68
      9.9700	  600.00	  571.28	-1813.50	  454.80
     10.0700	  615.00	  572.04	-1770.54	  454.92
     10.1700	  616.00	  572.22	-1769.72	  455.03
     10.2700	  563.00	  572.40	-1822.90	  455.13
     10.3700	  569.00	  572.60	-1817.10	  455.23
     10.4700	  543.00	  572.83	-1843.33	  455.32
     10.5700	  583.00	  573.15	-1803.65	  455.41
     10.6700	  634.00	  573.65	-1753.15	  455.48
     10.7700	  605.00	  574.44	-1782.94	  455.55
     10.8700	  591.00	  575.58	-1798.08	  455.62
     10.9700	  579.00	  577.08	-1811.58	  455.68
     11.0700	  553.00	  578.89	-1839.39	  455.73
     11.1700	  623.00	  581.01	-1771.51	  455.78
     11.2700	  610.00	  583.45	-1786.95	  455.82
     11.3700	  558.00	  586.30	-1841.80	  455.85
     11.4700	  633.00	  589.66	-1770.16	  455.88
     11.5700	  601.00	  593.71	-1806.21	  455.90
     11.6700	  597.00	  598.77	-1815.27	  455.92
     11.7700	  621.00	  605.38	-1797.88	  455.93
     11.8700	  638.00	  614.49	-1789.99	  455.93
     11.9700	  653.00	  627.07	-1787.57	  455.93
     12.0700	  673.00	  642.20	-1782.70	  455.93
     12.1700	  696.00	  654.05	-1771.55	  455.91
     12.2700	  698.00	  652.31	-1767.81	  455.90
     12.3700	  651.00	  632.77	-1795.27	  455.87
     12.4700	  611.00	  607.87	-1810.37	  455.84
     12.5700	  599.00	  589.93	-1804.43	  455.81
     12.6700	  613.00	  580.75	-1781.25	  455.77
     12.7700	  550.00	  576.96	-1840.46	  455.73
     12.8700	  554.00	  575.40	-1834.90	  455.68
     12.9700	  579.00	  574.59	-1809.09	  455.62
     13.0700	  533.00	  574.05	-1854.55	  455.56
     13.1700	  552.00	  573.65	-1835.15	  455.50
     13.2700	  597.00	  573.32	-1789.82	  455.43
     13.3700	  570.00	  573.05	-1816.55	  455.35
     13.4700	  566.00	  572.82	-1820.32	  455.27
     13.5700	  542.00	  572.61	-1844.11	  455.19
     13.6700	  537.00	  572.43	-1848.93	  455.10
     13.7700	  506.00	  572.25	-1879.75	  455.00
     13.8700	  534.00	  572.09	-1851.59	  454.90
     13.9700	  530.00	  571.93	-1855.43	  454.80
     14.0700	  588.00	  571.77	-1797.27	  454.69
     14.1700	  575.00	  571.62	-1810.12	  454.58
     14.2700	  519.00	  571.47	-1865.97	  454.46
     14.3700	  537.00	  571.31	-1847.81	  454.34
     14.4700	  533.00	  571.16	-1851.66	  454.22
     14.5700	  566.00	  571.01	-1818.51	  454.09
     14.6700	  593.00	  570.85	-1791.35	  453.95
     14.7700	  569.00	  570.70	-1815.20	  453.81
     14.8700	  536.00	  570.54	-1848.04	  453.67
     14.9700	  505.00	  570.37	-1878.87	  453.52
     15.0700	  566.00	  570.21	-1817.71	  453.37
     15.1700	  514.00	  570.04	-1869.54	  453.22
     15.2700	  568.00	  569.87	-1815.37	  453.06
     15.3700	  580.00	  569.70	-1803.20	  452.90
     15.4700	  568.00	  569.53	-1815.03	  452.73
     15.5700	  594.00	  569.35	-1788.85	  452.56
     15.6700	  626.00	  569.17	-1756.67	  452.39
     15.7700	  574.00	  568.98	-1808.48	  452.21
     15.8700	  582.00	  568.79	-1800.29	  452.03
     15.9700	  579.00	  568.60	-1803.10	  451.84
     16.0700	  542.00	  568.41	-1839.91	  451.65
     16.1700	  555.00	  568.21	-1826.71	  451.46
     16.2700	  555.00	  568.01	-1826.51	  451.27
     16.3700	  558.00	  567.81	-1823.31	  451.07
     16.4700	  574.00	  567.60	-1807.10	  450.86
     16.5700	  560.00	  567.42	-1820.92	  450.66
     16.6700	  600.00	  567.20	-1780.70	  450.45
     16.7700	  583.00	  566.99	-1797.49	  450.24
     16.8700	  540.00	  566.77	-1840.27	  450.02
     16.9700	  541.00	  566.55	-1839.05	  449.80
     17.0700	  548.00	  566.33	-1831.83	  449.58
     17.1700	  545.00	  566.10	-1834.60	  449.36
     17.2700	  544.00	  565.87	-1835.37	  449.13
     17.3700	  571.00	  565.64	-1808.14	  448.90
     17.4700	  553.00	  565.40	-1825.90	  448.66
     17.5700	  542.00	  565.17	-1836.67	  448.43
     17.6700	  568.00	  564.92	-1810.42	  448.19
     17.7700	  587.00	  564.79	-1791.29	  447.95
     17.8700	  537.00	  564.55	-1841.05	  447.70
     17.9700	  599.00	  564.30	-1778.80	  447.45
     18.0700	  518.00	  564.05	-1859.55	  447.20
     18.1700	  543.00	  563.80	-1834.30	  446.95
     18.2700	  580.00	  563.55	-1797.05	  446.69
     18.3700	  558.00	  563.29	-1818.79	  446.43
     18.4700	  547.00	  563.03	-1829.53	  446.17
     18.5700	  585.00	  562.77	-1791.27	  445.91
     18.6700	  480.00	  562.51	-1896.01	  445.65
     18.7700	  558.00	  562.24	-1817.74	  445.38
     18.8700	  569.00	  562.07	-1806.57	  445.11
     18.9700	  586.00	  561.80	-1789.30	  444.83
     19.0700	  507.00	  561.53	-1868.03	  444.56
     19.1700	  597.00	  561.26	-1777.76	  444.28
     19.2700	  583.00	  560.99	-1791.49	  444.00
     19.3700	  562.00	  560.72	-1812.22	  443.72
     19.4700	  556.00	  560.44	-1817.94	  443.44
     19.5700	  547.00	  560.16	-1826.66	  443.15
     19.6700	  582.00	  559.88	-1791.38	  442.86
     19.7700	  535.00	  559.60	-1838.10	  442.57
     19.8700	  511.00	  559.32	-1861.82	  442.28
     19.9700	  564.00	  559.03	-1808.53	  441.99
     20.0700	  562.00	  558.74	-1810.24	  441.69
     20.1700	  587.00	  558.46	-1784.96	  441.40
     20.2700	  551.00	  558.14	-1820.64	  441.10
     20.3700	  558.00	  557.85	-1813.35	  440.80
     20.4700	  548.00	  557.56	-1823.06	  440.49
     20.5700	  541.00	  557.27	-1829.77	  440.19
     20.6700	  548.00	  556.98	-1822.48	  439.88
     20.7700	  586.00	  556.68	-1784.18	  439.58
     20.8700	  579.00	  556.39	-1790.89	  439.27
     20.9700	  526.00	  556.13	-1843.63	  438.96
     21.0700	  549.00	  555.83	-1820.33	  438.64
     21.1700	  564.00	  555.54	-1805.04	  438.33
     21.2700	  616.00	  555.24	-1752.74	  438.01
     21.3700	  551.00	  554.95	-1817.45	  437.70
     21.4700	  568.00	  554.65	-1800.15	  437.38
     21.5700	  569.00	  554.35	-1798.85	  437.06
     21.6700	  591.00	  554.05	-1776.55	  436.74
     21.7700	  578.00	  553.76	-1789.26	  436.42
     21.8700	  563.00	  553.46	-1803.96	  436.09
     21.9700	  560.00	  553.17	-1806.67	  435.77
     22.0700	  548.00	  552.87	-1818.37	  435.44
     22.1700	  543.00	  552.58	-1823.08	  435.12
     22.2700	  528.00	  552.29	-1837.79	  434.79
     22.3700	  553.00	  552.00	-1812.50	  434.46
     22.4700	  550.00	  551.71	-1815.21	  434.13
     22.5700	  528.00	  551.43	-1836.93	  433.80
     22.6700	  581.00	  551.15	-1783.65	  433.47
     22.7700	  538.00	  550.87	-1826.37	  433.14
     22.8700	  538.00	  550.60	-1826.10	  432.80
     22.9700	  573.00	  550.34	-1790.84	  432.47
     23.0700	  569.00	  550.09	-1794.59	  432.13
     23.1700	  554.00	  549.85	-1809.35	  431.80
     23.2700	  574.00	  549.62	-1789.12	  431.46
     23.3700	  550.00	  549.42	-1812.92	  431.12
     23.4700	  538.00	  549.24	-1824.74	  430.78
     23.5700	  553.00	  549.09	-1809.59	  430.44
     23.6700	  542.00	  548.99	-1820.49	  430.11
     23.7700	  513.00	  548.97	-1849.47	  429.76
     23.8700	  546.00	  549.23	-1816.73	  429.42
     23.9700	  562.00	  549.70	-1801.20	  429.08
     24.0700	  539.00	  550.87	-1825.37	  428.74
     24.1700	  566.00	  553.34	-1800.84	  428.40
     24.2700	  550.00	  557.93	-1821.43	  428.05
     24.3700	  557.00	  565.52	-1822.02	  427.71
     24.4700	  588.00	  577.23	-1802.73	  427.37
     24.5700	  590.00	  593.85	-1817.35	  427.02
     24.6700	  601.00	  613.52	-1826.02	  426.68
     24.7700	  621.00	  628.90	-1821.40	  426.33
     24.8700	  633.00	  628.69	-1809.19	  425.99
     24.9700	  557.00	  609.22	-1865.72	  425.64
     25.0700	  606.00	  583.44	-1790.94	  425.30
     25.1700	  590.00	  563.88	-1787.38	  424.95
     25.2700	  599.00	  553.17	-1767.67	  424.60
     25.3700	  562.00	  548.44	-1799.94	  424.26
     25.4700	  540.00	  546.44	-1819.94	  423.91
     25.5700	  543.00	  545.42	-1815.92	  423.56
     25.6700	  583.00	  544.75	-1775.25	  423.22
     25.7700	  539.00	  544.27	-1818.77	  422.87
     25.8700	  571.00	  543.90	-1786.40	  422.52
     25.9700	  538.00	  543.63	-1819.13	  422.17
     26.0700	  520.00	  543.43	-1836.93	  421.83
     26.1700	  559.00	  543.30	-1797.80	  421.48
     26.2700	  501.00	  543.25	-1855.75	  421.13
     26.3700	  574.00	  543.28	-1782.78	  420.79
     26.4700	  552.00	  543.39	-1804.89	  420.44
     26.5700	  596.00	  543.61	-1761.11	  420.09
     26.6700	  588.00	  543.94	-1769.44	  419.75
     26.7700	  533.00	  544.42	-1824.92	  419.40
     26.8700	  551.00	  545.08	-1807.58	  419.05
     26.9700	  548.00	  545.99	-1811.49	  418.71
     27.0700	  576.00	  547.21	-1784.71	  418.36
     27.1700	  575.00	  548.91	-1787.41	  418.02
     27.2700	  549.00	  551.34	-1815.84	  417.67
     27.3700	  582.00	  555.02	-1786.52	  417.33
     27.4700	  571.00	  560.95	-1803.45	  416.98
     27.5700	  555.00	  570.88	-1829.38	  416.64
     27.6700	  535.00	  587.57	-1866.07	  416.30
     27.7700	  573.00	  614.55	-1855.05	  415.95
     27.8700	  619.00	  654.79	-1849.29	  415.61
     27.9700	  662.00	  708.38	-1859.88	  415.27
     28.0700	  775.00	  769.44	-1807.94	  414.93
     28.1700	  930.00	  823.52	-1707.02	  414.58
     28.2700	  987.00	  848.64	-1675.14	  414.24
     28.3700	  968.00	  830.69	-1676.19	  413.90
     28.4700	  836.00	  789.02	-1766.52	  413.56
     28.5700	  669.00	  759.00	-1903.50	  413.22
     28.6700	  713.00	  758.14	-1858.64	  412.88
     28.7700	  715.00	  782.73	-1881.23	  412.55
     28.8700	  817.00	  813.15	-1809.65	  412.21
     28.9700	  864.00	  820.36	-1769.86	  411.87
     29.0700	  833.00	  784.04	-1764.54	  411.54
     29.1700	  709.00	  718.26	-1822.76	  411.20
     29.2700	  579.00	  653.69	-1888.19	  410.87
     29.3700	  601.00	  606.11	-1818.61	  410.53
     29.4700	  600.00	  576.80	-1790.30	  410.20
     29.5700	  623.00	  560.69	-1751.19	  409.87
     29.6700	  637.00	  552.11	-1728.61	  409.54
     29.7700	  618.00	  547.25	-1742.75	  409.21
     29.8700	  616.00	  544.23	-1741.73	  408.88
     29.9700	  599.00	  542.27	-1756.77	  408.55
     30.0700	  596.00	  541.18	-1758.68	  408.22
     30.1700	  585.00	  541.09	-1769.59	  407.89
     30.2700	  582.00	  542.51	-1774.01	  407.56
     30.3700	  553.00	  546.49	-1806.99	  407.24
     30.4700	  549.00	  554.67	-1819.17	  406.91
     30.5700	  595.00	  568.85	-1787.35	  406.59
     30.6700	  582.00	  589.76	-1821.26	  406.27
     30.7700	  619.00	  615.08	-1809.58	  405.95
     30.8700	  590.00	  637.98	-1861.48	  405.63
     30.9700	  574.00	  647.51	-1887.01	  405.31
     31.0700	  622.00	  635.24	-1826.74	  404.99
     31.1700	  627.00	  607.19	-1793.69	  404.67
     31.2700	  566.00	  577.99	-1825.49	  404.35
     31.3700	  527.00	  556.05	-1842.55	  404.04
     31.4700	  522.00	  542.53	-1834.03	  403.73
     31.5700	  586.00	  535.25	-1762.75	  403.41
     31.6700	  510.00	  531.50	-1835.00	  403.10
     31.7700	  529.00	  529.43	-1813.93	  402.79
     31.8700	  516.00	  528.12	-1825.62	  402.48
     31.9700	  575.00	  527.19	-1765.69	  402.17
     32.0700	  520.00	  526.51	-1820.01	  401.86
     32.1700	  553.00	  526.02	-1786.52	  401.56
     32.2700	  523.00	  525.69	-1816.19	  401.25
     32.3700	  587.00	  525.51	-1752.01	  400.95
     32.4700	  589.00	  525.48	-1749.98	  400.65
     32.5700	  566.00	  525.61	-1773.11	  400.35
     32.6700	  502.00	  525.92	-1837.42	  400.05
     32.7700	  549.00	  526.47	-1790.97	  399.75
     32.8700	  536.00	  527.29	-1804.79	  399.45
     32.9700	  592.00	  528.51	-1750.01	  399.16
     33.0700	  547.00	  530.30	-1796.80	  398.86
     33.1700	  526.00	  533.06	-1820.56	  398.57
     33.2700	  579.00	  537.69	-1772.19	  398.28
     33.3700	  526.00	  546.23	-1833.73	  397.99
     33.4700	  542.00	  562.77	-1834.27	  397.70
     33.5700	  616.00	  594.05	-1791.55	  397.41
     33.6700	  619.00	  648.42	-1842.92	  397.12
     33.7700	  766.00	  730.84	-1778.34	  396.84
     33.8700	  866.00	  834.22	-1781.72	  396.56
     33.9700	  973.00	  932.60	-1773.10	  396.27
     34.0700	 1061.00	  983.33	-1735.83	  395.99
     34.1700	 1018.00	  950.38	-1745.88	  395.71
     34.2700	  888.00	  849.07	-1774.57	  395.44
     34.3700	  791.00	  734.20	-1756.70	  395.16
     34.4700	  635.00	  643.31	-1821.81	  394.89
     34.5700	  533.00	  585.66	-1866.16	  394.61
     34.6700	  584.00	  554.52	-1784.02	  394.34
     34.7700	  537.00	  539.08	-1815.58	  394.07
     34.8700	  527.00	  531.19	-1817.69	  393.80
     34.9700	  548.00	  526.56	-1792.06	  393.54
     35.0700	  547.00	  523.40	-1789.90	  393.27
     35.1700	  483.00	  521.01	-1851.51	  393.01
     35.2700	  523.00	  519.11	-1809.61	  392.75
     35.3700	  510.00	  517.57	-1821.07	  392.49
     35.4700	  532.00	  516.28	-1797.78	  392.23
     35.5700	  516.00	  515.21	-1812.71	  391.97
     35.6700	  582.00	  514.27	-1745.77	  391.72
     35.7700	  495.00	  513.95	-1832.45	  391.46
     35.8700	  514.00	  513.23	-1812.73	  391.21
     35.9700	  486.00	  512.58	-1840.08	  390.96
     36.0700	  497.00	  512.00	-1828.50	  390.71
     36.1700	  529.00	  511.47	-1795.97	  390.46
     36.2700	  532.00	  510.99	-1792.49	  390.22
     36.3700	  523.00	  510.55	-1801.05	  389.97
     36.4700	  557.00	  510.14	-1766.64	  389.73
     36.5700	  483.00	  509.78	-1840.28	  389.49
     36.6700	  538.00	  509.44	-1784.94	  389.25
     36.7700	  527.00	  509.15	-1795.65	  389.01
     36.8700	  554.00	  508.91	-1768.41	  388.78
     36.9700	  506.00	  508.76	-1816.26	  388.55
     37.0700	  484.00	  508.79	-1838.29	  388.31
     37.1700	  518.00	  509.21	-1804.71	  388.08
     37.2700	  495.00	  510.37	-1828.87	  387.86
     37.3700	  509.00	  512.68	-1817.18	  387.63
     37.4700	  505.00	  516.37	-1824.87	  387.40
     37.5700	  533.00	  521.01	-1801.51	  387.18
     37.6700	  512.00	  525.35	-1826.85	  386.96
     37.7700	  516.00	  527.67	-1825.17	  386.74
     37.8700	  507.00	  527.06	-1833.56	  386.52
     37.9700	  499.00	  524.39	-1838.89	  386.31
     38.0700	  490.00	  520.81	-1844.31	  386.09
     38.1700	  534.00	  516.78	-1796.28	  385.88
     38.2700	  516.00	  512.82	-1810.32	  385.67
     38.3700	  526.00	  509.55	-1797.05	  385.46
     38.4700	  484.00	  507.19	-1836.69	  385.25
     38.5700	  477.00	  505.66	-1842.16	  385.05
     38.6700	  518.00	  504.73	-1800.23	  384.85
     38.7700	  511.00	  504.15	-1806.65	  384.65
     38.8700	  524.00	  503.65	-1793.15	  384.45
     38.9700	  498.00	  503.33	-1818.83	  384.25
     39.0700	  539.00	  503.06	-1777.56	  384.05
     39.1700	  506.00	  502.81	-1810.31	  383.86
     39.2700	  478.00	  502.50	-1838.00	  383.67
     39.3700	  509.00	  502.29	-1806.79	  383.48
     39.4700	  475.00	  502.09	-1840.59	  383.29
     39.5700	  514.00	  501.90	-1801.40	  383.10
     39.6700	  555.00	  501.73	-1760.23	  382.92
     39.7700	  505.00	  501.56	-1810.06	  382.74
     39.8700	  517.00	  501.51	-1798.01	  382.55
     39.9700	  569.00	  501.37	-1745.87	  382.38
     40.0700	  493.00	  501.23	-1821.73	  382.20
     40.1700	  499.00	  501.10	-1815.60	  382.02
     40.2700	  469.00	  500.99	-1845.49	  381.85
     40.3700	  519.00	  500.88	-1795.38	  381.68
     40.4700	  469.00	  500.79	-1845.29	  381.51
     40.5700	  494.00	  500.71	-1820.21	  381.34
     40.6700	  493.00	  500.64	-1821.14	  381.18
     40.7700	  518.00	  500.59	-1796.09	  381.01
