MSG Master    CELL:    5.88540   5.88540  23.13353   90.0000   90.0000  120.0000   SPGR: P 63/m m c             TEMP:    595.15
  2   1280     2.52000     0.00000    -0.08876     0.00000     0.00000    0
    96    96     0     0     2
       0.00000      10.00000
     125.00000     130.00000
 2Theta	Yobs	Ycal	Yobs-Ycal	Backg	Posr	(hkl)	K
      0.7700	    0.00	  844.92	-1916.50	  714.93
      0.8700	    0.00	  842.81	-1916.50	  712.82
      0.9700	   35.00	  840.71	-1916.50	  710.72
      1.0700	   60.00	  838.63	-1916.50	  708.63
      1.1700	   53.00	  836.55	-1916.50	  706.56
      1.2700	   53.00	  834.49	-1916.50	  704.49
      1.3700	   40.00	  832.43	-1916.50	  702.44
      1.4700	   92.00	  830.39	-1916.50	  700.39
      1.5700	  309.00	  828.36	-1916.50	  698.36
      1.6700	  471.00	  826.34	-1916.50	  696.34
      1.7700	  584.00	  824.33	-1916.50	  694.33
      1.8700	  666.00	  822.33	-1916.50	  692.33
      1.9700	  697.00	  820.34	-1916.50	  690.35
      2.0700	  809.00	  818.36	-1916.50	  688.37
      2.1700	  829.00	  816.40	-1916.50	  686.40
      2.2700	  745.00	  814.44	-1916.50	  684.45
      2.3700	  721.00	  812.50	-1916.50	  682.50
      2.4700	  757.00	  810.56	-1916.50	  680.57
      2.5700	  695.00	  808.64	-1916.50	  678.65
      2.6700	  695.00	  806.73	-1916.50	  676.73
      2.7700	  624.00	  804.83	-1916.50	  674.83
      2.8700	  643.00	  802.94	-1916.50	  672.94
      2.9700	  612.00	  801.05	-1916.50	  671.06
      3.0700	  614.00	  799.18	-1916.50	  669.19
      3.1700	  605.00	  797.32	-1916.50	  667.33
      3.2700	  709.00	  795.47	-1916.50	  665.48
      3.3700	  895.00	  793.63	-1916.50	  663.64
      3.4700	 1053.00	  791.81	-1916.50	  661.81
      3.5700	 1220.00	  789.99	-1916.50	  659.99
      3.6700	 1341.00	  788.18	-1916.50	  658.18
      3.7700	 1435.00	  786.38	-1916.50	  656.39
      3.8700	 1539.00	  784.59	-1916.50	  654.60
      3.9700	 1586.00	  782.81	-1916.50	  652.82
      4.0700	 1568.00	  781.05	-1916.50	  651.05
      4.1700	 1652.00	  779.29	-1916.50	  649.29
      4.2700	 1732.00	  777.54	-1916.50	  647.55
      4.3700	 1621.00	  775.80	-1916.50	  645.81
      4.4700	 1623.00	  774.08	-1916.50	  644.08
      4.5700	 1506.00	  772.36	-1916.50	  642.36
      4.6700	 1490.00	  770.65	-1916.50	  640.65
      4.7700	 1443.00	  768.95	-1916.50	  638.96
      4.8700	 1405.00	  767.26	-1916.50	  637.27
      4.9700	 1364.00	  765.58	-1916.50	  635.59
      5.0700	 1243.00	  763.92	-1916.50	  633.92
      5.1700	 1279.00	  762.26	-1916.50	  632.26
      5.2700	 1203.00	  760.61	-1916.50	  630.61
      5.3700	 1221.00	  758.97	-1916.50	  628.97
      5.4700	 1199.00	  757.34	-1916.50	  627.34
      5.5700	 1149.00	  755.72	-1916.50	  625.72
      5.6700	 1135.00	  754.11	-1916.50	  624.11
      5.7700	 1066.00	  752.50	-1916.50	  622.51
      5.8700	 1138.00	  750.91	-1916.50	  620.92
      5.9700	 1053.00	  749.33	-1916.50	  619.33
      6.0700	 1057.00	  747.76	-1916.50	  617.76
      6.1700	  998.00	  746.19	-1916.50	  616.20
      6.2700	  971.00	  744.64	-1916.50	  614.64
      6.3700	 1004.00	  743.09	-1916.50	  613.10
      6.4700	 1004.00	  741.56	-1916.50	  611.56
      6.5700	  941.00	  740.03	-1916.50	  610.03
      6.6700	  886.00	  738.51	-1916.50	  608.52
      6.7700	  945.00	  737.00	-1916.50	  607.01
      6.8700	  967.00	  735.50	-1916.50	  605.51
      6.9700	  911.00	  734.01	-1916.50	  604.02
      7.0700	  929.00	  732.53	-1916.50	  602.54
      7.1700	  855.00	  731.06	-1916.50	  601.06
      7.2700	  889.00	  729.60	-1916.50	  599.60
      7.3700	  808.00	  728.14	-1916.50	  598.15
      7.4700	  813.00	  726.70	-1916.50	  596.70
      7.5700	  800.00	  725.26	-1916.50	  595.26
      7.6700	  763.00	  723.83	-1916.50	  593.84
      7.7700	  799.00	  722.41	-1916.50	  592.42
      7.8700	  811.00	  721.00	-1916.50	  591.01
      7.9700	  779.00	  719.60	-1916.50	  589.60
      8.0700	  757.00	  718.21	-1916.50	  588.21
      8.1700	  775.00	  716.82	-1916.50	  586.83
      8.2700	  746.00	  715.45	-1916.50	  585.45
      8.3700	  719.00	  714.08	-1916.50	  584.09
      8.4700	  753.00	  712.72	-1916.50	  582.73
      8.5700	  746.00	  711.37	-1916.50	  581.38
      8.6700	  770.00	  710.03	-1916.50	  580.04
      8.7700	  764.00	  708.70	-1916.50	  578.70
      8.8700	  727.00	  707.37	-1916.50	  577.38
      8.9700	  716.00	  706.06	-1916.50	  576.06
      9.0700	  700.00	  704.75	-1916.50	  574.75
      9.1700	  726.00	  703.45	-1916.50	  573.46
      9.2700	  696.00	  702.16	-1916.50	  572.16
      9.3700	  703.00	  700.88	-1916.50	  570.88
      9.4700	  721.00	  699.60	-1916.50	  569.61
      9.5700	  704.00	  698.34	-1916.50	  568.34
      9.6700	  711.00	  697.08	-1916.50	  567.08
      9.7700	  719.00	  695.83	-1916.50	  565.83
      9.8700	  777.00	  694.59	-1916.50	  564.59
      9.9700	  735.00	  693.35	-1916.50	  563.36
     10.0700	  692.00	  694.28	-1918.78	  562.13
     10.1700	  668.00	  693.30	-1941.80	  560.91
     10.2700	  718.00	  692.37	-1890.88	  559.70
     10.3700	  691.00	  691.52	-1917.02	  558.50
     10.4700	  711.00	  690.77	-1896.27	  557.31
     10.5700	  726.00	  690.16	-1880.67	  556.12
     10.6700	  709.00	  689.77	-1897.27	  554.94
     10.7700	  644.00	  689.66	-1962.16	  553.77
     10.8700	  685.00	  689.95	-1921.46	  552.61
     10.9700	  697.00	  690.72	-1910.22	  551.46
     11.0700	  738.00	  692.00	-1870.50	  550.31
     11.1700	  717.00	  693.81	-1893.32	  549.17
     11.2700	  688.00	  696.18	-1924.68	  548.04
     11.3700	  684.00	  699.16	-1931.66	  546.91
     11.4700	  737.00	  702.85	-1882.35	  545.80
     11.5700	  678.00	  707.42	-1945.92	  544.69
     11.6700	  741.00	  713.10	-1888.60	  543.59
     11.7700	  737.00	  720.21	-1899.71	  542.49
     11.8700	  810.00	  729.01	-1835.51	  541.40
     11.9700	  803.00	  739.49	-1852.99	  540.33
     12.0700	  841.00	  750.92	-1826.42	  539.25
     12.1700	  812.00	  761.29	-1865.79	  538.19
     12.2700	  837.00	  766.79	-1846.30	  537.13
     12.3700	  822.00	  762.56	-1857.06	  536.08
     12.4700	  785.00	  747.12	-1878.62	  535.04
     12.5700	  764.00	  726.22	-1878.73	  534.01
     12.6700	  708.00	  706.92	-1915.42	  532.98
     12.7700	  646.00	  692.14	-1962.64	  531.96
     12.8700	  657.00	  681.80	-1941.30	  530.94
     12.9700	  649.00	  674.86	-1942.36	  529.94
     13.0700	  656.00	  670.15	-1930.66	  528.94
     13.1700	  646.00	  666.78	-1937.28	  527.94
     13.2700	  697.00	  664.17	-1883.68	  526.96
     13.3700	  639.00	  662.02	-1939.52	  525.98
     13.4700	  619.00	  660.15	-1957.65	  525.01
     13.5700	  656.00	  658.48	-1918.99	  524.05
     13.6700	  641.00	  656.96	-1932.46	  523.09
     13.7700	  659.00	  655.55	-1913.05	  522.14
     13.8700	  668.00	  654.23	-1902.73	  521.19
     13.9700	  621.00	  652.97	-1948.48	  520.26
     14.0700	  595.00	  651.78	-1973.28	  519.33
     14.1700	  617.00	  650.63	-1950.13	  518.40
     14.2700	  641.00	  649.51	-1925.02	  517.49
     14.3700	  604.00	  648.44	-1960.94	  516.58
     14.4700	  645.00	  647.39	-1918.89	  515.67
     14.5700	  607.00	  646.36	-1955.86	  514.78
     14.6700	  593.00	  645.36	-1968.86	  513.89
     14.7700	  629.00	  644.37	-1931.88	  513.01
     14.8700	  604.00	  643.41	-1955.91	  512.13
     14.9700	  591.00	  642.46	-1967.96	  511.26
     15.0700	  632.00	  641.52	-1926.03	  510.39
     15.1700	  632.00	  640.60	-1925.11	  509.54
     15.2700	  677.00	  639.69	-1879.20	  508.69
     15.3700	  578.00	  638.80	-1977.30	  507.84
     15.4700	  672.00	  637.91	-1882.42	  507.00
     15.5700	  640.00	  637.04	-1913.54	  506.17
     15.6700	  609.00	  636.17	-1943.68	  505.35
     15.7700	  605.00	  635.32	-1946.82	  504.53
     15.8700	  623.00	  634.47	-1927.98	  503.72
     15.9700	  664.00	  633.64	-1886.14	  502.91
     16.0700	  607.00	  632.81	-1942.31	  502.11
     16.1700	  626.00	  631.99	-1922.49	  501.31
     16.2700	  619.00	  631.18	-1928.68	  500.53
     16.3700	  634.00	  630.37	-1912.88	  499.74
     16.4700	  649.00	  629.58	-1897.08	  498.97
     16.5700	  609.00	  628.79	-1936.29	  498.20
     16.6700	  657.00	  628.01	-1887.51	  497.44
     16.7700	  574.00	  627.24	-1969.74	  496.68
     16.8700	  598.00	  626.47	-1944.97	  495.93
     16.9700	  645.00	  625.71	-1897.21	  495.18
     17.0700	  589.00	  624.96	-1952.46	  494.44
     17.1700	  655.00	  624.21	-1885.72	  493.71
     17.2700	  626.00	  623.48	-1913.98	  492.98
     17.3700	  637.00	  622.74	-1902.25	  492.26
     17.4700	  637.00	  622.02	-1901.52	  491.54
     17.5700	  577.00	  621.30	-1960.80	  490.83
     17.6700	  608.00	  620.59	-1929.09	  490.13
     17.7700	  605.00	  619.88	-1931.38	  489.43
     17.8700	  603.00	  619.18	-1932.68	  488.73
     17.9700	  602.00	  618.49	-1932.99	  488.05
     18.0700	  626.00	  617.80	-1908.30	  487.36
     18.1700	  617.00	  617.12	-1916.62	  486.69
     18.2700	  604.00	  616.44	-1928.95	  486.02
     18.3700	  583.00	  615.77	-1949.28	  485.35
     18.4700	  627.00	  615.11	-1904.61	  484.69
     18.5700	  621.00	  614.45	-1909.96	  484.04
     18.6700	  627.00	  613.80	-1903.31	  483.39
     18.7700	  632.00	  613.16	-1897.66	  482.75
     18.8700	  648.00	  614.91	-1883.41	  482.11
     18.9700	  620.00	  614.32	-1910.83	  481.48
     19.0700	  676.00	  613.75	-1854.25	  480.85
     19.1700	  635.00	  613.18	-1894.68	  480.23
     19.2700	  597.00	  612.62	-1932.12	  479.61
     19.3700	  578.00	  612.06	-1950.57	  479.00
     19.4700	  595.00	  611.52	-1933.02	  478.40
     19.5700	  616.00	  610.98	-1911.48	  477.80
     19.6700	  651.00	  610.45	-1875.95	  477.20
     19.7700	  597.00	  609.92	-1929.43	  476.61
     19.8700	  606.00	  609.41	-1919.91	  476.03
     19.9700	  565.00	  608.90	-1960.40	  475.45
     20.0700	  629.00	  608.45	-1895.95	  474.87
     20.1700	  597.00	  607.96	-1927.46	  474.30
     20.2700	  574.00	  607.48	-1949.98	  473.74
     20.3700	  641.00	  607.01	-1882.51	  473.18
     20.4700	  607.00	  606.54	-1916.04	  472.63
     20.5700	  611.00	  606.08	-1911.59	  472.08
     20.6700	  607.00	  605.64	-1915.14	  471.53
     20.7700	  638.00	  605.20	-1883.70	  470.99
     20.8700	  548.00	  604.77	-1973.27	  470.46
     20.9700	  584.00	  604.35	-1936.85	  469.93
     21.0700	  576.00	  603.94	-1944.45	  469.41
     21.1700	  579.00	  603.55	-1941.05	  468.89
     21.2700	  617.00	  603.16	-1902.66	  468.37
     21.3700	  606.00	  602.78	-1913.28	  467.86
     21.4700	  594.00	  602.42	-1924.92	  467.36
     21.5700	  599.00	  602.06	-1919.56	  466.86
     21.6700	  601.00	  601.72	-1917.22	  466.36
     21.7700	  561.00	  601.39	-1956.89	  465.87
     21.8700	  545.00	  601.08	-1972.58	  465.38
     21.9700	  635.00	  600.77	-1882.28	  464.90
     22.0700	  634.00	  600.49	-1882.99	  464.42
     22.1700	  560.00	  600.22	-1956.72	  463.95
     22.2700	  615.00	  599.96	-1901.46	  463.48
     22.3700	  589.00	  599.92	-1927.42	  463.02
     22.4700	  624.00	  599.71	-1892.21	  462.56
     22.5700	  599.00	  599.51	-1917.02	  462.11
     22.6700	  603.00	  599.34	-1912.85	  461.66
     22.7700	  623.00	  599.20	-1892.70	  461.21
     22.8700	  634.00	  599.08	-1881.58	  460.77
     22.9700	  610.00	  598.99	-1905.50	  460.33
     23.0700	  607.00	  598.94	-1908.44	  459.90
     23.1700	  659.00	  598.93	-1856.43	  459.47
     23.2700	  598.00	  598.96	-1917.46	  459.05
     23.3700	  617.00	  599.04	-1898.54	  458.63
     23.4700	  596.00	  599.19	-1919.69	  458.21
     23.5700	  596.00	  599.41	-1919.91	  457.80
     23.6700	  648.00	  599.73	-1868.23	  457.40
     23.7700	  645.00	  600.17	-1871.67	  456.99
     23.8700	  648.00	  600.79	-1869.29	  456.60
     23.9700	  662.00	  601.68	-1856.18	  456.20
     24.0700	  649.00	  602.95	-1870.46	  455.81
     24.1700	  602.00	  604.84	-1919.35	  455.43
     24.2700	  616.00	  607.61	-1908.11	  455.04
     24.3700	  608.00	  611.78	-1920.28	  454.67
     24.4700	  608.00	  617.70	-1926.20	  454.29
     24.5700	  702.00	  625.58	-1840.08	  453.92
     24.6700	  642.00	  635.25	-1909.75	  453.56
     24.7700	  653.00	  645.82	-1909.32	  453.20
     24.8700	  694.00	  655.35	-1877.86	  452.84
     24.9700	  707.00	  660.70	-1870.20	  452.48
     25.0700	  717.00	  658.71	-1858.21	  452.13
     25.1700	  669.00	  649.82	-1897.32	  451.79
     25.2700	  684.00	  638.51	-1871.02	  451.45
     25.3700	  696.00	  628.72	-1849.22	  451.11
     25.4700	  626.00	  621.71	-1912.21	  450.77
     25.5700	  663.00	  617.43	-1870.94	  450.44
     25.6700	  652.00	  615.30	-1879.80	  450.12
     25.7700	  611.00	  614.66	-1920.17	  449.79
     25.8700	  639.00	  615.02	-1892.52	  449.47
     25.9700	  626.00	  616.08	-1906.58	  449.16
     26.0700	  608.00	  617.68	-1926.18	  448.84
     26.1700	  631.00	  619.78	-1905.28	  448.54
     26.2700	  654.00	  622.39	-1884.89	  448.23
     26.3700	  608.00	  625.54	-1934.04	  447.93
     26.4700	  657.00	  629.32	-1888.82	  447.63
     26.5700	  693.00	  633.81	-1857.31	  447.34
     26.6700	  627.00	  639.16	-1928.67	  447.05
     26.7700	  618.00	  645.56	-1944.06	  446.76
     26.8700	  632.00	  653.25	-1937.75	  446.48
     26.9700	  627.00	  662.57	-1952.07	  446.20
     27.0700	  670.00	  673.97	-1920.47	  445.92
     27.1700	  737.00	  688.11	-1867.62	  445.65
     27.2700	  727.00	  705.97	-1895.47	  445.38
     27.3700	  717.00	  729.17	-1928.67	  445.11
     27.4700	  745.00	  760.84	-1932.34	  444.85
     27.5700	  736.00	  807.69	-1988.20	  444.59
     27.6700	  778.00	  884.00	-2022.50	  444.33
     27.7700	  836.00	 1017.35	-2097.85	  444.08
     27.8700	  995.00	 1254.52	-2176.02	  443.83
     27.9700	 1249.00	 1661.57	-2329.07	  443.58
     28.0700	 1785.00	 2306.60	-2438.10	  443.34
     28.1700	 3017.00	 3215.62	-2115.12	  443.10
     28.2700	 4554.00	 4298.38	-1660.88	  442.86
     28.3700	 5885.00	 5272.69	-1304.20	  442.63
     28.4700	 6641.00	 5681.18	 -956.68	  442.40
     28.5700	 5603.00	 5209.36	-1522.86	  442.17
     28.6700	 4148.00	 4220.02	-1988.53	  441.95
     28.7700	 3045.00	 3383.22	-2254.72	  441.73
     28.8700	 2670.00	 3013.91	-2260.41	  441.51
     28.9700	 3211.00	 3064.02	-1769.52	  441.29
     29.0700	 3605.00	 3278.46	-1589.96	  441.08
     29.1700	 3599.00	 3328.75	-1646.26	  440.87
     29.2700	 3108.00	 2995.04	-1803.54	  440.67
     29.3700	 2320.00	 2388.60	-1985.10	  440.46
     29.4700	 1649.00	 1786.33	-2053.83	  440.26
     29.5700	 1270.00	 1336.43	-1982.94	  440.07
     29.6700	  997.00	 1054.36	-1973.86	  439.87
     29.7700	  884.00	  896.28	-1928.78	  439.68
     29.8700	  765.00	  810.44	-1961.94	  439.49
     29.9700	  794.00	  760.76	-1883.26	  439.31
     30.0700	  764.00	  728.52	-1881.03	  439.13
     30.1700	  740.00	  705.61	-1882.11	  438.95
     30.2700	  677.00	  688.70	-1928.20	  438.77
     30.3700	  763.00	  676.46	-1829.97	  438.59
     30.4700	  708.00	  668.60	-1877.11	  438.42
     30.5700	  690.00	  665.64	-1892.14	  438.25
     30.6700	  680.00	  668.75	-1905.25	  438.09
     30.7700	  672.00	  679.19	-1923.69	  437.92
     30.8700	  664.00	  697.03	-1949.53	  437.76
     30.9700	  697.00	  719.63	-1939.13	  437.61
     31.0700	  752.00	  740.46	-1904.96	  437.45
     31.1700	  812.00	  749.26	-1853.76	  437.30
     31.2700	  754.00	  737.16	-1899.66	  437.15
     31.3700	  730.00	  707.70	-1894.20	  437.00
     31.4700	  677.00	  674.44	-1913.94	  436.85
     31.5700	  645.00	  646.83	-1918.34	  436.71
     31.6700	  683.00	  627.47	-1860.98	  436.57
     31.7700	  662.00	  615.25	-1869.76	  436.43
     31.8700	  668.00	  607.89	-1856.39	  436.30
     31.9700	  603.00	  603.34	-1916.84	  436.17
     32.0700	  628.00	  600.31	-1888.81	  436.04
     32.1700	  644.00	  598.13	-1870.63	  435.91
     32.2700	  591.00	  596.50	-1922.00	  435.78
     32.3700	  623.00	  595.29	-1888.80	  435.66
     32.4700	  651.00	  594.45	-1859.95	  435.54
     32.5700	  580.00	  593.93	-1930.43	  435.42
     32.6700	  552.00	  593.75	-1958.25	  435.31
     32.7700	  615.00	  593.94	-1895.45	  435.19
     32.8700	  624.00	  594.50	-1887.00	  435.08
     32.9700	  625.00	  595.50	-1887.00	  434.97
     33.0700	  572.00	  597.07	-1941.58	  434.87
     33.1700	  615.00	  599.39	-1900.89	  434.76
     33.2700	  583.00	  602.79	-1936.29	  434.66
     33.3700	  645.00	  607.92	-1879.42	  434.56
     33.4700	  577.00	  616.04	-1955.55	  434.46
     33.5700	  658.00	  629.54	-1888.04	  434.37
     33.6700	  618.00	  652.36	-1950.86	  434.27
     33.7700	  702.00	  690.07	-1904.58	  434.18
     33.8700	  705.00	  748.53	-1960.04	  434.09
     33.9700	  849.00	  830.27	-1897.78	  434.00
     34.0700	  998.00	  929.27	-1847.77	  433.92
     34.1700	 1088.00	 1026.54	-1855.04	  433.84
     34.2700	 1216.00	 1089.74	-1790.24	  433.76
     34.3700	 1169.00	 1084.77	-1832.27	  433.68
     34.4700	 1119.00	 1008.71	-1806.21	  433.60
     34.5700	  974.00	  900.04	-1842.54	  433.52
     34.6700	  845.00	  797.99	-1869.49	  433.45
     34.7700	  684.00	  719.86	-1952.36	  433.38
     34.8700	  678.00	  667.41	-1905.91	  433.31
     34.9700	  663.00	  635.27	-1888.77	  433.24
     35.0700	  595.00	  616.42	-1937.93	  433.18
     35.1700	  647.00	  605.19	-1874.70	  433.12
     35.2700	  613.00	  598.01	-1901.52	  433.05
     35.3700	  564.00	  593.00	-1945.51	  432.99
     35.4700	  593.00	  589.26	-1912.76	  432.94
     35.5700	  594.00	  586.34	-1908.84	  432.88
     35.6700	  554.00	  584.00	-1946.51	  432.83
     35.7700	  566.00	  582.11	-1932.62	  432.77
     35.8700	  596.00	  580.57	-1901.07	  432.72
     35.9700	  594.00	  579.30	-1901.80	  432.67
     36.0700	  587.00	  578.26	-1907.76	  432.63
     36.1700	  595.00	  577.41	-1898.91	  432.58
     36.2700	  631.00	  576.72	-1862.22	  432.54
     36.3700	  597.00	  576.18	-1895.68	  432.50
     36.4700	  613.00	  575.77	-1879.27	  432.46
     36.5700	  604.00	  575.50	-1888.00	  432.42
     36.6700	  593.00	  575.36	-1898.86	  432.38
     36.7700	  584.00	  575.36	-1907.86	  432.35
     36.8700	  577.00	  575.52	-1915.03	  432.31
     36.9700	  515.00	  576.57	-1978.07	  432.28
     37.0700	  613.00	  577.20	-1880.70	  432.25
     37.1700	  581.00	  578.19	-1913.69	  432.22
     37.2700	  567.00	  579.72	-1929.22	  432.19
     37.3700	  572.00	  582.07	-1926.57	  432.17
     37.4700	  517.00	  585.78	-1985.29	  432.14
     37.5700	  570.00	  591.60	-1938.10	  432.12
     37.6700	  599.00	  600.56	-1918.06	  432.10
     37.7700	  615.00	  613.84	-1915.35	  432.08
     37.8700	  599.00	  632.31	-1949.81	  432.06
     37.9700	  652.00	  655.80	-1920.30	  432.04
     38.0700	  660.00	  682.02	-1938.53	  432.03
     38.1700	  688.00	  706.41	-1934.91	  432.01
     38.2700	  725.00	  720.18	-1911.68	  432.00
     38.3700	  741.00	  718.48	-1893.98	  431.99
     38.4700	  697.00	  698.79	-1918.29	  431.98
     38.5700	  640.00	  669.64	-1946.14	  431.97
     38.6700	  614.00	  640.76	-1943.26	  431.96
     38.7700	  638.00	  617.28	-1895.78	  431.95
     38.8700	  598.00	  600.42	-1918.92	  431.95
     38.9700	  545.00	  589.36	-1960.87	  431.95
     39.0700	  540.00	  582.52	-1959.03	  431.94
     39.1700	  570.00	  578.36	-1924.86	  431.94
     39.2700	  586.00	  575.73	-1906.23	  431.94
     39.3700	  558.00	  573.96	-1932.47	  431.94
     39.4700	  587.00	  572.69	-1902.19	  431.95
     39.5700	  554.00	  571.72	-1934.22	  431.95
     39.6700	  584.00	  570.13	-1902.63	  431.96
     39.7700	  552.00	  569.53	-1934.04	  431.96
     39.8700	  550.00	  569.06	-1935.56	  431.97
     39.9700	  573.00	  568.68	-1912.18	  431.98
     40.0700	  545.00	  568.38	-1939.88	  431.99
     40.1700	  587.00	  568.14	-1897.64	  432.00
     40.2700	  567.00	  567.96	-1917.46	  432.01
     40.3700	  633.00	  567.82	-1851.32	  432.02
     40.4700	  540.00	  567.73	-1944.23	  432.04
     40.5700	  594.00	  567.68	-1890.18	  432.05
     40.6700	  548.00	  568.19	-1936.70	  432.07
     40.7700	  595.00	  568.22	-1889.72	  432.08
