MSG Master    CELL:    5.91318   5.91318  23.25275   90.0000   90.0000  120.0000   SPGR: P 63/m m c             TEMP:    963.15
  1   1280     2.52000     0.00000    -0.11912     0.00000     0.00000    0
    99     0     2
       0.00000      10.00000
     125.00000     130.00000
 2Theta	Yobs	Ycal	Yobs-Ycal	Backg	Posr	(hkl)	K
      0.7700	    0.00	  513.49	-1721.85	  399.63
      0.8700	    0.00	  514.50	-1721.85	  400.63
      0.9700	   41.00	  515.48	-1721.85	  401.62
      1.0700	   47.00	  516.46	-1721.85	  402.59
      1.1700	   41.00	  517.42	-1721.85	  403.55
      1.2700	   33.00	  518.37	-1721.85	  404.50
      1.3700	   50.00	  519.31	-1721.85	  405.44
      1.4700	   85.00	  520.23	-1721.85	  406.37
      1.5700	  282.00	  521.15	-1721.85	  407.28
      1.6700	  459.00	  522.05	-1721.85	  408.18
      1.7700	  602.00	  522.94	-1721.85	  409.07
      1.8700	  656.00	  523.81	-1721.85	  409.94
      1.9700	  699.00	  524.68	-1721.85	  410.81
      2.0700	  735.00	  525.53	-1721.85	  411.66
      2.1700	  815.00	  526.37	-1721.85	  412.50
      2.2700	  737.00	  527.20	-1721.85	  413.33
      2.3700	  759.00	  528.02	-1721.85	  414.15
      2.4700	  710.00	  528.82	-1721.85	  414.95
      2.5700	  647.00	  529.62	-1721.85	  415.75
      2.6700	  644.00	  530.40	-1721.85	  416.53
      2.7700	  659.00	  531.17	-1721.85	  417.30
      2.8700	  582.00	  531.93	-1721.85	  418.06
      2.9700	  655.00	  532.68	-1721.85	  418.81
      3.0700	  602.00	  533.42	-1721.85	  419.55
      3.1700	  577.00	  534.14	-1721.85	  420.27
      3.2700	  655.00	  534.86	-1721.85	  420.99
      3.3700	  734.00	  535.56	-1721.85	  421.69
      3.4700	  834.00	  536.26	-1721.85	  422.39
      3.5700	  864.00	  536.94	-1721.85	  423.07
      3.6700	  899.00	  537.61	-1721.85	  423.74
      3.7700	  943.00	  538.27	-1721.85	  424.40
      3.8700	 1132.00	  538.92	-1721.85	  425.06
      3.9700	 1124.00	  539.56	-1721.85	  425.70
      4.0700	 1149.00	  540.19	-1721.85	  426.33
      4.1700	 1155.00	  540.81	-1721.85	  426.95
      4.2700	 1113.00	  541.42	-1721.85	  427.56
      4.3700	 1119.00	  542.02	-1721.85	  428.15
      4.4700	 1157.00	  542.61	-1721.85	  428.74
      4.5700	 1088.00	  543.19	-1721.85	  429.32
      4.6700	 1110.00	  543.76	-1721.85	  429.89
      4.7700	 1076.00	  544.32	-1721.85	  430.45
      4.8700	 1047.00	  544.87	-1721.85	  431.00
      4.9700	  960.00	  545.41	-1721.85	  431.54
      5.0700	  962.00	  545.94	-1721.85	  432.07
      5.1700	  980.00	  546.46	-1721.85	  432.59
      5.2700	  922.00	  546.97	-1721.85	  433.10
      5.3700	  921.00	  547.47	-1721.85	  433.60
      5.4700	  959.00	  547.96	-1721.85	  434.09
      5.5700	  893.00	  548.44	-1721.85	  434.58
      5.6700	  912.00	  548.92	-1721.85	  435.05
      5.7700	  894.00	  549.38	-1721.85	  435.51
      5.8700	  823.00	  549.84	-1721.85	  435.97
      5.9700	  864.00	  550.28	-1721.85	  436.41
      6.0700	  813.00	  550.72	-1721.85	  436.85
      6.1700	  778.00	  551.15	-1721.85	  437.28
      6.2700	  783.00	  551.57	-1721.85	  437.70
      6.3700	  713.00	  551.98	-1721.85	  438.11
      6.4700	  776.00	  552.38	-1721.85	  438.51
      6.5700	  806.00	  552.77	-1721.85	  438.90
      6.6700	  678.00	  553.15	-1721.85	  439.29
      6.7700	  686.00	  553.53	-1721.85	  439.66
      6.8700	  756.00	  553.90	-1721.85	  440.03
      6.9700	  717.00	  554.25	-1721.85	  440.39
      7.0700	  711.00	  554.60	-1721.85	  440.74
      7.1700	  691.00	  554.95	-1721.85	  441.08
      7.2700	  704.00	  555.28	-1721.85	  441.41
      7.3700	  657.00	  555.61	-1721.85	  441.74
      7.4700	  713.00	  555.92	-1721.85	  442.06
      7.5700	  682.00	  556.23	-1721.85	  442.37
      7.6700	  680.00	  556.53	-1721.85	  442.67
      7.7700	  645.00	  556.83	-1721.85	  442.96
      7.8700	  639.00	  557.11	-1721.85	  443.25
      7.9700	  622.00	  557.39	-1721.85	  443.52
      8.0700	  664.00	  557.66	-1721.85	  443.79
      8.1700	  693.00	  557.92	-1721.85	  444.06
      8.2700	  678.00	  558.18	-1721.85	  444.31
      8.3700	  660.00	  558.43	-1721.85	  444.56
      8.4700	  643.00	  558.67	-1721.85	  444.80
      8.5700	  582.00	  558.90	-1721.85	  445.03
      8.6700	  622.00	  559.12	-1721.85	  445.26
      8.7700	  632.00	  559.34	-1721.85	  445.47
      8.8700	  608.00	  559.55	-1721.85	  445.68
      8.9700	  631.00	  559.76	-1721.85	  445.89
      9.0700	  555.00	  559.95	-1721.85	  446.08
      9.1700	  604.00	  560.14	-1721.85	  446.27
      9.2700	  612.00	  560.32	-1721.85	  446.46
      9.3700	  634.00	  560.50	-1721.85	  446.63
      9.4700	  592.00	  560.67	-1721.85	  446.80
      9.5700	  549.00	  560.83	-1721.85	  446.96
      9.6700	  586.00	  560.98	-1721.85	  447.12
      9.7700	  585.00	  561.13	-1721.85	  447.26
      9.8700	  584.00	  561.27	-1721.85	  447.41
      9.9700	  600.00	  561.41	-1721.85	  447.54
     10.0700	  562.00	  563.25	-1723.10	  447.67
     10.1700	  586.00	  563.57	-1699.41	  447.79
     10.2700	  597.00	  563.92	-1688.76	  447.91
     10.3700	  562.00	  564.32	-1724.17	  448.02
     10.4700	  596.00	  564.83	-1690.68	  448.12
     10.5700	  615.00	  565.49	-1672.34	  448.22
     10.6700	  597.00	  566.41	-1691.26	  448.31
     10.7700	  601.00	  567.68	-1688.52	  448.39
     10.8700	  586.00	  569.38	-1705.23	  448.47
     10.9700	  551.00	  571.54	-1742.39	  448.54
     11.0700	  600.00	  574.16	-1696.01	  448.61
     11.1700	  588.00	  577.24	-1711.09	  448.67
     11.2700	  585.00	  580.83	-1717.68	  448.72
     11.3700	  578.00	  585.01	-1728.86	  448.77
     11.4700	  586.00	  589.94	-1725.79	  448.81
     11.5700	  557.00	  595.86	-1760.70	  448.85
     11.6700	  590.00	  603.12	-1734.97	  448.88
     11.7700	  602.00	  612.23	-1732.07	  448.91
     11.8700	  663.00	  623.58	-1682.43	  448.93
     11.9700	  668.00	  636.92	-1690.77	  448.94
     12.0700	  691.00	  650.35	-1681.19	  448.95
     12.1700	  650.00	  659.40	-1731.25	  448.96
     12.2700	  700.00	  657.50	-1679.35	  448.96
     12.3700	  725.00	  641.63	-1638.47	  448.95
     12.4700	  621.00	  619.17	-1720.02	  448.94
     12.5700	  594.00	  599.48	-1727.33	  448.92
     12.6700	  575.00	  585.84	-1732.68	  448.90
     12.7700	  558.00	  577.60	-1741.45	  448.87
     12.8700	  534.00	  572.96	-1760.81	  448.84
     12.9700	  581.00	  570.32	-1711.17	  448.80
     13.0700	  573.00	  568.68	-1717.53	  448.76
     13.1700	  555.00	  567.55	-1734.40	  448.72
     13.2700	  587.00	  566.70	-1701.55	  448.66
     13.3700	  565.00	  566.04	-1722.89	  448.61
     13.4700	  526.00	  565.50	-1761.35	  448.55
     13.5700	  538.00	  565.05	-1748.90	  448.48
     13.6700	  552.00	  564.67	-1734.52	  448.41
     13.7700	  543.00	  564.34	-1743.19	  448.33
     13.8700	  578.00	  564.05	-1707.90	  448.26
     13.9700	  571.00	  563.79	-1714.63	  448.17
     14.0700	  530.00	  563.55	-1755.39	  448.08
     14.1700	  518.00	  563.35	-1767.20	  447.99
     14.2700	  543.00	  563.14	-1741.99	  447.89
     14.3700	  543.00	  562.95	-1741.79	  447.79
     14.4700	  543.00	  562.75	-1741.60	  447.69
     14.5700	  553.00	  562.57	-1731.42	  447.58
     14.6700	  576.00	  562.39	-1708.24	  447.46
     14.7700	  550.00	  562.21	-1734.06	  447.34
     14.8700	  569.00	  562.04	-1714.89	  447.22
     14.9700	  519.00	  561.87	-1764.71	  447.10
     15.0700	  577.00	  561.69	-1706.54	  446.97
     15.1700	  543.00	  561.52	-1740.37	  446.83
     15.2700	  531.00	  561.35	-1752.20	  446.69
     15.3700	  575.00	  561.18	-1708.03	  446.55
     15.4700	  574.00	  561.00	-1708.85	  446.41
     15.5700	  535.00	  560.83	-1747.68	  446.26
     15.6700	  538.00	  560.65	-1744.50	  446.10
     15.7700	  546.00	  560.48	-1736.32	  445.95
     15.8700	  578.00	  560.30	-1704.14	  445.79
     15.9700	  520.00	  560.11	-1761.96	  445.62
     16.0700	  586.00	  559.93	-1695.78	  445.46
     16.1700	  539.00	  559.75	-1742.59	  445.29
     16.2700	  587.00	  559.56	-1694.40	  445.11
     16.3700	  564.00	  559.37	-1717.21	  444.93
     16.4700	  540.00	  559.17	-1741.02	  444.75
     16.5700	  562.00	  558.98	-1718.83	  444.57
     16.6700	  582.00	  558.78	-1698.63	  444.38
     16.7700	  504.00	  558.58	-1776.43	  444.19
     16.8700	  531.00	  558.38	-1749.23	  444.00
     16.9700	  565.00	  558.17	-1715.02	  443.80
     17.0700	  541.00	  557.97	-1738.81	  443.60
     17.1700	  545.00	  557.76	-1734.60	  443.40
     17.2700	  553.00	  557.55	-1726.39	  443.19
     17.3700	  533.00	  557.33	-1746.18	  442.98
     17.4700	  597.00	  557.11	-1681.96	  442.77
     17.5700	  572.00	  556.89	-1706.74	  442.55
     17.6700	  537.00	  556.67	-1741.52	  442.34
     17.7700	  572.00	  556.45	-1706.29	  442.12
     17.8700	  545.00	  556.33	-1733.17	  441.89
     17.9700	  504.00	  556.10	-1773.95	  441.67
     18.0700	  554.00	  555.87	-1723.72	  441.44
     18.1700	  520.00	  555.64	-1757.49	  441.21
     18.2700	  545.00	  555.40	-1732.25	  440.97
     18.3700	  522.00	  555.27	-1755.12	  440.74
     18.4700	  523.00	  555.03	-1753.88	  440.50
     18.5700	  555.00	  554.79	-1721.64	  440.25
     18.6700	  545.00	  554.55	-1731.40	  440.01
     18.7700	  581.00	  554.31	-1695.16	  439.76
     18.8700	  549.00	  554.07	-1726.92	  439.51
     18.9700	  527.00	  553.82	-1748.67	  439.26
     19.0700	  576.00	  553.57	-1699.42	  439.01
     19.1700	  563.00	  553.32	-1712.17	  438.75
     19.2700	  565.00	  553.07	-1709.92	  438.50
     19.3700	  534.00	  552.82	-1740.67	  438.24
     19.4700	  537.00	  552.57	-1737.41	  437.97
     19.5700	  581.00	  552.31	-1693.16	  437.71
     19.6700	  574.00	  552.05	-1699.90	  437.44
     19.7700	  571.00	  551.79	-1702.64	  437.17
     19.8700	  546.00	  551.53	-1727.38	  436.90
     19.9700	  565.00	  551.31	-1708.16	  436.63
     20.0700	  519.00	  551.05	-1753.89	  436.35
     20.1700	  576.00	  550.78	-1696.63	  436.08
     20.2700	  558.00	  550.52	-1714.36	  435.80
     20.3700	  522.00	  550.25	-1750.10	  435.52
     20.4700	  562.00	  549.99	-1709.83	  435.24
     20.5700	  518.00	  549.72	-1753.57	  434.95
     20.6700	  530.00	  549.45	-1741.30	  434.67
     20.7700	  561.00	  549.18	-1710.03	  434.38
     20.8700	  551.00	  548.91	-1719.76	  434.09
     20.9700	  552.00	  548.64	-1718.49	  433.80
     21.0700	  544.00	  548.37	-1726.22	  433.51
     21.1700	  571.00	  548.11	-1698.95	  433.21
     21.2700	  559.00	  547.84	-1710.68	  432.92
     21.3700	  574.00	  547.57	-1695.42	  432.62
     21.4700	  512.00	  547.30	-1757.15	  432.32
     21.5700	  553.00	  547.03	-1715.88	  432.02
     21.6700	  546.00	  546.77	-1722.61	  431.72
     21.7700	  559.00	  546.50	-1709.35	  431.42
     21.8700	  499.00	  546.24	-1769.09	  431.11
     21.9700	  520.00	  545.98	-1747.83	  430.81
     22.0700	  533.00	  545.72	-1734.57	  430.50
     22.1700	  496.00	  545.47	-1771.31	  430.19
     22.2700	  544.00	  545.22	-1723.06	  429.89
     22.3700	  532.00	  544.97	-1734.82	  429.58
     22.4700	  589.00	  544.68	-1677.53	  429.26
     22.5700	  510.00	  544.61	-1756.45	  428.95
     22.6700	  581.00	  544.39	-1685.23	  428.64
     22.7700	  579.00	  544.18	-1687.02	  428.32
     22.8700	  541.00	  543.98	-1724.83	  428.01
     22.9700	  528.00	  543.80	-1737.65	  427.69
     23.0700	  535.00	  543.64	-1730.48	  427.37
     23.1700	  560.00	  543.50	-1705.35	  427.05
     23.2700	  528.00	  543.39	-1737.24	  426.73
     23.3700	  537.00	  543.32	-1728.17	  426.41
     23.4700	  547.00	  543.31	-1718.16	  426.09
     23.5700	  531.00	  543.36	-1734.21	  425.77
     23.6700	  568.00	  543.53	-1697.37	  425.45
     23.7700	  519.00	  543.85	-1746.70	  425.12
     23.8700	  535.00	  544.44	-1731.29	  424.80
     23.9700	  542.00	  545.50	-1725.35	  424.47
     24.0700	  540.00	  547.34	-1729.19	  424.15
     24.1700	  530.00	  550.46	-1742.31	  423.82
     24.2700	  587.00	  555.45	-1690.30	  423.49
     24.3700	  625.00	  562.91	-1659.76	  423.16
     24.4700	  542.00	  573.16	-1753.01	  422.83
     24.5700	  601.00	  585.79	-1706.64	  422.50
     24.6700	  599.00	  598.98	-1721.83	  422.18
     24.7700	  626.00	  608.78	-1704.63	  421.84
     24.8700	  638.00	  609.63	-1693.48	  421.51
     24.9700	  665.00	  598.96	-1655.81	  421.18
     25.0700	  661.00	  582.27	-1643.12	  420.85
     25.1700	  579.00	  566.81	-1709.66	  420.52
     25.2700	  577.00	  555.57	-1700.42	  420.19
     25.3700	  590.00	  548.49	-1680.33	  419.85
     25.4700	  523.00	  544.37	-1743.22	  419.52
     25.5700	  547.00	  542.00	-1716.85	  419.19
     25.6700	  569.00	  540.55	-1693.40	  418.85
     25.7700	  553.00	  539.58	-1708.42	  418.52
     25.8700	  534.00	  538.87	-1726.71	  418.18
     25.9700	  515.00	  538.34	-1745.19	  417.85
     26.0700	  571.00	  537.94	-1688.79	  417.52
     26.1700	  624.00	  537.67	-1635.51	  417.18
     26.2700	  559.00	  537.49	-1700.34	  416.85
     26.3700	  573.00	  537.41	-1686.26	  416.51
     26.4700	  552.00	  537.43	-1707.28	  416.18
     26.5700	  530.00	  537.56	-1729.41	  415.84
     26.6700	  536.00	  537.81	-1723.66	  415.50
     26.7700	  546.00	  538.21	-1714.06	  415.17
     26.8700	  515.00	  538.79	-1745.64	  414.83
     26.9700	  553.00	  539.59	-1708.44	  414.50
     27.0700	  570.00	  540.69	-1692.53	  414.16
     27.1700	  596.00	  542.19	-1668.04	  413.83
     27.2700	  569.00	  544.32	-1697.17	  413.49
     27.3700	  567.00	  547.48	-1702.33	  413.16
     27.4700	  562.00	  552.46	-1712.31	  412.82
     27.5700	  541.00	  560.72	-1741.56	  412.49
     27.6700	  553.00	  574.63	-1743.47	  412.15
     27.7700	  593.00	  597.48	-1726.33	  411.82
     27.8700	  608.00	  632.62	-1746.46	  411.49
     27.9700	  649.00	  681.36	-1754.20	  411.15
     28.0700	  754.00	  740.17	-1708.02	  410.82
     28.1700	  806.00	  797.76	-1713.61	  410.48
     28.2700	  904.00	  834.33	-1652.18	  410.15
     28.3700	  935.00	  830.86	-1617.71	  409.82
     28.4700	  817.00	  795.31	-1700.16	  409.49
     28.5700	  775.00	  761.67	-1708.52	  409.15
     28.6700	  704.00	  753.13	-1770.97	  408.82
     28.7700	  735.00	  771.14	-1757.99	  408.49
     28.8700	  805.00	  800.83	-1717.67	  408.16
     28.9700	  829.00	  816.67	-1709.51	  407.83
     29.0700	  805.00	  794.78	-1711.63	  407.50
     29.1700	  741.00	  737.73	-1718.58	  407.17
     29.2700	  655.00	  672.87	-1739.72	  406.84
     29.3700	  591.00	  620.18	-1751.03	  406.51
     29.4700	  623.00	  584.71	-1683.56	  406.18
     29.5700	  585.00	  563.67	-1700.52	  405.86
     29.6700	  609.00	  551.95	-1664.80	  405.53
     29.7700	  617.00	  545.36	-1650.21	  405.20
     29.8700	  591.00	  541.41	-1672.26	  404.88
     29.9700	  543.00	  538.94	-1717.79	  404.55
     30.0700	  507.00	  537.52	-1752.37	  404.23
     30.1700	  539.00	  537.16	-1720.00	  403.90
     30.2700	  543.00	  538.19	-1717.04	  403.58
     30.3700	  555.00	  541.36	-1708.21	  403.26
     30.4700	  561.00	  547.79	-1708.64	  402.94
     30.5700	  545.00	  558.69	-1735.53	  402.61
     30.6700	  559.00	  574.53	-1737.37	  402.29
     30.7700	  591.00	  593.90	-1724.74	  401.97
     30.8700	  633.00	  612.57	-1701.42	  401.66
     30.9700	  613.00	  623.33	-1732.18	  401.34
     31.0700	  572.00	  618.90	-1768.74	  401.02
     31.1700	  620.00	  600.09	-1701.93	  400.70
     31.2700	  594.00	  576.68	-1704.52	  400.39
     31.3700	  552.00	  556.64	-1726.49	  400.07
     31.4700	  528.00	  542.57	-1736.42	  399.76
     31.5700	  535.00	  533.90	-1720.75	  399.45
     31.6700	  524.00	  528.97	-1726.82	  399.13
     31.7700	  555.00	  526.19	-1693.04	  398.82
     31.8700	  544.00	  524.54	-1702.39	  398.51
     31.9700	  530.00	  523.48	-1715.32	  398.20
     32.0700	  535.00	  522.77	-1709.62	  397.89
     32.1700	  510.00	  522.32	-1734.17	  397.59
     32.2700	  550.00	  522.09	-1693.94	  397.28
     32.3700	  542.00	  522.07	-1701.91	  396.98
     32.4700	  548.00	  522.25	-1696.10	  396.67
     32.5700	  516.00	  522.66	-1728.50	  396.37
     32.6700	  569.00	  523.33	-1676.17	  396.06
     32.7700	  511.00	  524.31	-1735.16	  395.76
     32.8700	  578.00	  525.70	-1669.55	  395.46
     32.9700	  533.00	  527.64	-1716.48	  395.16
     33.0700	  534.00	  530.37	-1718.22	  394.87
     33.1700	  564.00	  534.42	-1692.27	  394.57
     33.2700	  520.00	  540.80	-1742.65	  394.27
     33.3700	  532.00	  551.50	-1741.35	  393.98
     33.4700	  571.00	  570.04	-1720.88	  393.68
     33.5700	  608.00	  601.56	-1715.41	  393.39
     33.6700	  665.00	  651.91	-1708.75	  393.10
     33.7700	  680.00	  723.99	-1765.84	  392.81
     33.8700	  825.00	  812.81	-1709.66	  392.52
     33.9700	  972.00	  900.90	-1650.75	  392.23
     34.0700	 1022.00	  957.94	-1657.78	  391.95
     34.1700	 1067.00	  951.93	-1606.77	  391.66
     34.2700	  969.00	  880.82	-1633.66	  391.38
     34.3700	  813.00	  781.74	-1690.58	  391.09
     34.4700	  698.00	  690.91	-1714.76	  390.81
     34.5700	  590.00	  623.44	-1755.29	  390.53
     34.6700	  570.00	  579.82	-1731.66	  390.25
     34.7700	  552.00	  554.15	-1724.00	  389.97
     34.8700	  569.00	  539.60	-1692.45	  389.70
     34.9700	  513.00	  531.04	-1739.89	  389.42
     35.0700	  551.00	  525.52	-1696.36	  389.15
     35.1700	  546.00	  521.57	-1697.42	  388.87
     35.2700	  534.00	  518.55	-1706.40	  388.60
     35.3700	  527.00	  516.14	-1710.99	  388.33
     35.4700	  512.00	  514.14	-1723.99	  388.06
     35.5700	  490.00	  512.49	-1744.34	  387.80
     35.6700	  536.00	  511.10	-1696.95	  387.53
     35.7700	  482.00	  509.90	-1749.75	  387.27
     35.8700	  566.00	  509.33	-1665.17	  387.00
     35.9700	  496.00	  508.42	-1734.27	  386.74
     36.0700	  516.00	  507.64	-1713.49	  386.48
     36.1700	  478.00	  506.93	-1750.78	  386.22
     36.2700	  503.00	  506.31	-1725.15	  385.96
     36.3700	  528.00	  505.75	-1699.60	  385.71
     36.4700	  493.00	  505.26	-1734.10	  385.45
     36.5700	  470.00	  504.83	-1756.68	  385.20
     36.6700	  477.00	  504.47	-1749.32	  384.95
     36.7700	  513.00	  504.20	-1713.04	  384.70
     36.8700	  483.00	  504.04	-1742.89	  384.45
     36.9700	  477.00	  504.09	-1748.94	  384.20
     37.0700	  496.00	  504.47	-1730.32	  383.95
     37.1700	  496.00	  505.39	-1731.24	  383.71
     37.2700	  514.00	  507.12	-1714.96	  383.47
     37.3700	  528.00	  509.84	-1703.69	  383.23
     37.4700	  562.00	  513.52	-1673.37	  382.99
     37.5700	  528.00	  517.62	-1711.47	  382.75
     37.6700	  483.00	  521.03	-1759.87	  382.51
     37.7700	  486.00	  522.24	-1758.08	  382.28
     37.8700	  493.00	  520.57	-1749.42	  382.04
     37.9700	  519.00	  516.51	-1719.35	  381.81
     38.0700	  541.00	  511.88	-1692.72	  381.58
     38.1700	  507.00	  507.73	-1722.58	  381.35
     38.2700	  524.00	  504.45	-1702.30	  381.12
     38.3700	  457.00	  502.09	-1766.94	  380.90
     38.4700	  506.00	  500.48	-1716.33	  380.67
     38.5700	  485.00	  499.40	-1736.25	  380.45
     38.6700	  487.00	  498.64	-1733.49	  380.23
     38.7700	  480.00	  498.08	-1739.93	  380.01
     38.8700	  492.00	  497.64	-1727.48	  379.79
     38.9700	  523.00	  497.16	-1696.01	  379.57
     39.0700	  503.00	  496.83	-1715.68	  379.36
     39.1700	  475.00	  496.53	-1743.38	  379.15
     39.2700	  518.00	  496.26	-1700.11	  378.93
     39.3700	  485.00	  496.01	-1732.86	  378.72
     39.4700	  486.00	  495.77	-1731.62	  378.52
     39.5700	  518.00	  495.56	-1699.40	  378.31
     39.6700	  508.00	  495.35	-1709.20	  378.10
     39.7700	  487.00	  495.16	-1730.01	  377.90
     39.8700	  499.00	  494.89	-1717.73	  377.70
     39.9700	  511.00	  494.72	-1705.57	  377.50
     40.0700	  474.00	  494.57	-1742.42	  377.30
     40.1700	  470.00	  494.43	-1746.28	  377.10
     40.2700	  475.00	  494.31	-1741.16	  376.91
     40.3700	  453.00	  494.20	-1763.05	  376.72
     40.4700	  486.00	  494.11	-1729.96	  376.52
     40.5700	  511.00	  494.55	-1705.39	  376.33
     40.6700	  509.00	  494.50	-1707.35	  376.14
     40.7700	  489.00	  494.48	-1727.33	  375.96
