MSG Master    CELL:    5.90501   5.90501  23.19210   90.0000   90.0000  120.0000   SPGR: P 63/m m c             TEMP:    845.65
  1   1280     2.52000     0.00000    -0.12863     0.00000     0.00000    0
    98     0     2
       0.00000      10.00000
     125.00000     130.00000
 2Theta	Yobs	Ycal	Yobs-Ycal	Backg	Posr	(hkl)	K
      0.7700	    0.00	  436.28	-1744.21	  328.46
      0.8700	    0.00	  438.33	-1744.21	  330.51
      0.9700	   31.00	  440.35	-1744.21	  332.53
      1.0700	   33.00	  442.36	-1744.21	  334.53
      1.1700	   45.00	  444.34	-1744.21	  336.52
      1.2700	   43.00	  446.30	-1744.21	  338.48
      1.3700	   50.00	  448.24	-1744.21	  340.42
      1.4700	   85.00	  450.16	-1744.21	  342.34
      1.5700	  270.00	  452.06	-1744.21	  344.24
      1.6700	  422.00	  453.94	-1744.21	  346.12
      1.7700	  571.00	  455.80	-1744.21	  347.98
      1.8700	  667.00	  457.64	-1744.21	  349.82
      1.9700	  767.00	  459.46	-1744.21	  351.64
      2.0700	  765.00	  461.26	-1744.21	  353.44
      2.1700	  828.00	  463.04	-1744.21	  355.22
      2.2700	  816.00	  464.81	-1744.21	  356.98
      2.3700	  765.00	  466.55	-1744.21	  358.73
      2.4700	  691.00	  468.27	-1744.21	  360.45
      2.5700	  712.00	  469.97	-1744.21	  362.15
      2.6700	  678.00	  471.66	-1744.21	  363.84
      2.7700	  664.00	  473.32	-1744.21	  365.50
      2.8700	  633.00	  474.97	-1744.21	  367.15
      2.9700	  574.00	  476.60	-1744.21	  368.78
      3.0700	  630.00	  478.21	-1744.21	  370.39
      3.1700	  580.00	  479.80	-1744.21	  371.98
      3.2700	  666.00	  481.37	-1744.21	  373.55
      3.3700	  776.00	  482.93	-1744.21	  375.11
      3.4700	  906.00	  484.46	-1744.21	  376.64
      3.5700	 1023.00	  485.98	-1744.21	  378.16
      3.6700	 1125.00	  487.48	-1744.21	  379.66
      3.7700	 1168.00	  488.97	-1744.21	  381.14
      3.8700	 1257.00	  490.43	-1744.21	  382.61
      3.9700	 1218.00	  491.88	-1744.21	  384.06
      4.0700	 1409.00	  493.31	-1744.21	  385.49
      4.1700	 1297.00	  494.72	-1744.21	  386.90
      4.2700	 1364.00	  496.12	-1744.21	  388.30
      4.3700	 1319.00	  497.50	-1744.21	  389.67
      4.4700	 1250.00	  498.86	-1744.21	  391.04
      4.5700	 1260.00	  500.20	-1744.21	  392.38
      4.6700	 1180.00	  501.53	-1744.21	  393.71
      4.7700	 1174.00	  502.84	-1744.21	  395.02
      4.8700	 1108.00	  504.14	-1744.21	  396.31
      4.9700	 1102.00	  505.41	-1744.21	  397.59
      5.0700	 1045.00	  506.68	-1744.21	  398.85
      5.1700	 1086.00	  507.92	-1744.21	  400.10
      5.2700	 1101.00	  509.15	-1744.21	  401.33
      5.3700	  986.00	  510.36	-1744.21	  402.54
      5.4700	  967.00	  511.56	-1744.21	  403.74
      5.5700	  915.00	  512.74	-1744.21	  404.92
      5.6700	  933.00	  513.91	-1744.21	  406.09
      5.7700	  895.00	  515.06	-1744.21	  407.24
      5.8700	  921.00	  516.19	-1744.21	  408.37
      5.9700	  873.00	  517.31	-1744.21	  409.49
      6.0700	  835.00	  518.42	-1744.21	  410.60
      6.1700	  844.00	  519.51	-1744.21	  411.68
      6.2700	  828.00	  520.58	-1744.21	  412.76
      6.3700	  856.00	  521.64	-1744.21	  413.82
      6.4700	  780.00	  522.68	-1744.21	  414.86
      6.5700	  763.00	  523.71	-1744.21	  415.89
      6.6700	  780.00	  524.73	-1744.21	  416.90
      6.7700	  748.00	  525.73	-1744.21	  417.90
      6.8700	  735.00	  526.71	-1744.21	  418.89
      6.9700	  775.00	  527.68	-1744.21	  419.86
      7.0700	  687.00	  528.64	-1744.21	  420.82
      7.1700	  735.00	  529.58	-1744.21	  421.76
      7.2700	  708.00	  530.51	-1744.21	  422.69
      7.3700	  669.00	  531.43	-1744.21	  423.60
      7.4700	  700.00	  532.33	-1744.21	  424.50
      7.5700	  718.00	  533.21	-1744.21	  425.39
      7.6700	  646.00	  534.09	-1744.21	  426.26
      7.7700	  679.00	  534.94	-1744.21	  427.12
      7.8700	  671.00	  535.79	-1744.21	  427.97
      7.9700	  690.00	  536.62	-1744.21	  428.80
      8.0700	  667.00	  537.44	-1744.21	  429.62
      8.1700	  643.00	  538.25	-1744.21	  430.42
      8.2700	  671.00	  539.04	-1744.21	  431.22
      8.3700	  659.00	  539.82	-1744.21	  432.00
      8.4700	  628.00	  540.59	-1744.21	  432.76
      8.5700	  597.00	  541.34	-1744.21	  433.52
      8.6700	  626.00	  542.08	-1744.21	  434.26
      8.7700	  650.00	  542.81	-1744.21	  434.99
      8.8700	  638.00	  543.53	-1744.21	  435.70
      8.9700	  590.00	  544.23	-1744.21	  436.41
      9.0700	  611.00	  544.92	-1744.21	  437.10
      9.1700	  636.00	  545.60	-1744.21	  437.78
      9.2700	  566.00	  546.27	-1744.21	  438.44
      9.3700	  655.00	  546.92	-1744.21	  439.10
      9.4700	  648.00	  547.56	-1744.21	  439.74
      9.5700	  624.00	  548.19	-1744.21	  440.37
      9.6700	  615.00	  548.81	-1744.21	  440.99
      9.7700	  556.00	  549.42	-1744.21	  441.60
      9.8700	  582.00	  550.01	-1744.21	  442.19
      9.9700	  586.00	  550.60	-1744.21	  442.77
     10.0700	  598.00	  553.16	-1699.38	  443.35
     10.1700	  668.00	  553.91	-1630.12	  443.91
     10.2700	  582.00	  554.69	-1716.90	  444.46
     10.3700	  588.00	  555.52	-1711.73	  445.00
     10.4700	  557.00	  556.43	-1743.64	  445.52
     10.5700	  633.00	  557.47	-1668.68	  446.04
     10.6700	  561.00	  558.73	-1741.94	  446.54
     10.7700	  595.00	  560.28	-1709.49	  447.04
     10.8700	  585.00	  562.22	-1721.43	  447.52
     10.9700	  557.00	  564.59	-1751.80	  447.99
     11.0700	  603.00	  567.38	-1708.60	  448.46
     11.1700	  538.00	  570.61	-1776.83	  448.91
     11.2700	  628.00	  574.31	-1690.52	  449.35
     11.3700	  591.00	  578.55	-1731.76	  449.78
     11.4700	  625.00	  583.46	-1702.67	  450.20
     11.5700	  590.00	  589.23	-1743.45	  450.61
     11.6700	  585.00	  596.18	-1755.39	  451.01
     11.7700	  643.00	  604.70	-1705.91	  451.40
     11.8700	  602.00	  615.11	-1757.32	  451.78
     11.9700	  637.00	  627.25	-1734.46	  452.15
     12.0700	  648.00	  639.74	-1735.95	  452.51
     12.1700	  651.00	  649.23	-1742.44	  452.86
     12.2700	  719.00	  650.34	-1675.55	  453.20
     12.3700	  697.00	  639.20	-1686.41	  453.54
     12.4700	  636.00	  620.16	-1728.37	  453.86
     12.5700	  562.00	  601.77	-1783.98	  454.17
     12.6700	  603.00	  588.20	-1729.41	  454.47
     12.7700	  588.00	  579.59	-1735.80	  454.77
     12.8700	  573.00	  574.62	-1745.83	  455.05
     12.9700	  546.00	  571.86	-1770.07	  455.33
     13.0700	  578.00	  570.28	-1736.49	  455.60
     13.1700	  572.00	  569.31	-1741.53	  455.85
     13.2700	  528.00	  568.68	-1784.89	  456.10
     13.3700	  559.00	  568.26	-1753.47	  456.34
     13.4700	  578.00	  567.97	-1734.18	  456.58
     13.5700	  534.00	  567.78	-1777.99	  456.80
     13.6700	  537.00	  567.65	-1774.87	  457.01
     13.7700	  523.00	  567.59	-1788.80	  457.22
     13.8700	  562.00	  567.58	-1749.80	  457.42
     13.9700	  600.00	  567.58	-1711.79	  457.61
     14.0700	  495.00	  567.60	-1816.81	  457.79
     14.1700	  551.00	  567.63	-1760.85	  457.96
     14.2700	  546.00	  567.68	-1765.89	  458.13
     14.3700	  583.00	  567.73	-1728.94	  458.28
     14.4700	  538.00	  567.79	-1774.00	  458.43
     14.5700	  507.00	  567.85	-1805.06	  458.57
     14.6700	  565.00	  567.92	-1747.13	  458.71
     14.7700	  527.00	  567.98	-1785.19	  458.83
     14.8700	  558.00	  568.04	-1754.25	  458.95
     14.9700	  558.00	  568.10	-1754.31	  459.06
     15.0700	  558.00	  568.16	-1754.37	  459.16
     15.1700	  582.00	  568.22	-1730.43	  459.26
     15.2700	  551.00	  568.27	-1761.48	  459.35
     15.3700	  554.00	  568.32	-1758.53	  459.43
     15.4700	  549.00	  568.36	-1763.57	  459.50
     15.5700	  594.00	  568.40	-1718.61	  459.57
     15.6700	  546.00	  568.44	-1766.65	  459.63
     15.7700	  494.00	  568.47	-1818.68	  459.68
     15.8700	  552.00	  568.49	-1760.70	  459.72
     15.9700	  546.00	  568.51	-1766.72	  459.76
     16.0700	  584.00	  568.53	-1728.74	  459.79
     16.1700	  558.00	  568.54	-1754.75	  459.82
     16.2700	  581.00	  568.54	-1731.75	  459.84
     16.3700	  556.00	  568.54	-1756.75	  459.85
     16.4700	  545.00	  568.53	-1767.74	  459.85
     16.5700	  545.00	  568.52	-1767.73	  459.85
     16.6700	  546.00	  568.50	-1766.71	  459.85
     16.7700	  587.00	  568.48	-1725.69	  459.83
     16.8700	  562.00	  568.45	-1750.66	  459.81
     16.9700	  576.00	  568.41	-1736.63	  459.78
     17.0700	  533.00	  568.37	-1779.59	  459.75
     17.1700	  533.00	  568.33	-1779.54	  459.71
     17.2700	  547.00	  568.28	-1765.49	  459.67
     17.3700	  552.00	  568.22	-1760.43	  459.62
     17.4700	  544.00	  568.27	-1768.48	  459.56
     17.5700	  569.00	  568.21	-1743.42	  459.50
     17.6700	  572.00	  568.14	-1740.35	  459.43
     17.7700	  556.00	  568.06	-1756.27	  459.36
     17.8700	  536.00	  567.98	-1776.19	  459.28
     17.9700	  537.00	  568.00	-1775.21	  459.19
     18.0700	  616.00	  567.91	-1696.12	  459.10
     18.1700	  578.00	  567.82	-1734.03	  459.00
     18.2700	  581.00	  567.72	-1730.93	  458.90
     18.3700	  573.00	  567.62	-1738.83	  458.79
     18.4700	  513.00	  567.51	-1798.72	  458.68
     18.5700	  581.00	  567.40	-1730.61	  458.57
     18.6700	  529.00	  567.28	-1782.49	  458.44
     18.7700	  513.00	  567.16	-1798.37	  458.32
     18.8700	  577.00	  567.03	-1734.24	  458.18
     18.9700	  561.00	  566.90	-1750.11	  458.04
     19.0700	  553.00	  566.76	-1757.97	  457.90
     19.1700	  567.00	  566.62	-1743.83	  457.75
     19.2700	  521.00	  566.48	-1789.69	  457.60
     19.3700	  554.00	  566.33	-1756.54	  457.45
     19.4700	  565.00	  566.18	-1745.39	  457.28
     19.5700	  508.00	  566.02	-1802.23	  457.12
     19.6700	  547.00	  565.90	-1763.11	  456.95
     19.7700	  595.00	  565.73	-1714.95	  456.77
     19.8700	  557.00	  565.57	-1752.78	  456.59
     19.9700	  576.00	  565.40	-1733.61	  456.41
     20.0700	  550.00	  565.22	-1759.43	  456.22
     20.1700	  563.00	  565.04	-1746.26	  456.03
     20.2700	  567.00	  564.86	-1742.07	  455.83
     20.3700	  563.00	  564.68	-1745.89	  455.63
     20.4700	  527.00	  564.49	-1781.70	  455.42
     20.5700	  516.00	  564.30	-1792.51	  455.21
     20.6700	  534.00	  564.10	-1774.32	  455.00
     20.7700	  519.00	  563.91	-1789.12	  454.78
     20.8700	  547.00	  563.71	-1760.92	  454.56
     20.9700	  541.00	  563.51	-1766.72	  454.34
     21.0700	  554.00	  563.30	-1753.52	  454.11
     21.1700	  504.00	  563.10	-1803.31	  453.87
     21.2700	  562.00	  562.89	-1745.10	  453.64
     21.3700	  555.00	  562.68	-1751.89	  453.40
     21.4700	  519.00	  562.47	-1787.68	  453.15
     21.5700	  590.00	  562.26	-1716.47	  452.91
     21.6700	  552.00	  562.04	-1754.26	  452.66
     21.7700	  547.00	  561.83	-1759.04	  452.40
     21.8700	  579.00	  561.62	-1726.83	  452.14
     21.9700	  566.00	  561.40	-1739.62	  451.88
     22.0700	  601.00	  561.19	-1704.40	  451.62
     22.1700	  561.00	  560.98	-1744.19	  451.35
     22.2700	  526.00	  560.93	-1779.14	  451.08
     22.3700	  531.00	  560.73	-1773.94	  450.81
     22.4700	  541.00	  560.53	-1763.74	  450.53
     22.5700	  533.00	  560.33	-1771.54	  450.25
     22.6700	  552.00	  560.14	-1752.36	  449.97
     22.7700	  591.00	  559.96	-1713.18	  449.68
     22.8700	  578.00	  559.79	-1726.01	  449.39
     22.9700	  504.00	  559.59	-1799.80	  449.10
     23.0700	  531.00	  559.45	-1772.66	  448.81
     23.1700	  549.00	  559.33	-1754.55	  448.51
     23.2700	  615.00	  559.24	-1688.45	  448.21
     23.3700	  553.00	  559.18	-1750.40	  447.91
     23.4700	  546.00	  559.17	-1757.39	  447.60
     23.5700	  569.00	  559.22	-1734.44	  447.30
     23.6700	  562.00	  559.36	-1741.57	  446.99
     23.7700	  531.00	  559.63	-1772.84	  446.67
     23.8700	  581.00	  560.10	-1723.32	  446.36
     23.9700	  558.00	  560.93	-1747.14	  446.04
     24.0700	  601.00	  562.33	-1705.54	  445.72
     24.1700	  627.00	  564.69	-1681.90	  445.40
     24.2700	  589.00	  568.50	-1723.71	  445.08
     24.3700	  558.00	  574.32	-1760.53	  444.75
     24.4700	  612.00	  582.57	-1714.78	  444.42
     24.5700	  594.00	  593.21	-1743.43	  444.09
     24.6700	  660.00	  605.31	-1689.53	  443.76
     24.7700	  672.00	  616.42	-1688.63	  443.42
     24.8700	  658.00	  622.25	-1708.46	  443.09
     24.9700	  663.00	  618.37	-1699.59	  442.75
     25.0700	  625.00	  605.58	-1724.79	  442.41
     25.1700	  634.00	  590.31	-1700.52	  442.06
     25.2700	  569.00	  577.53	-1752.74	  441.72
     25.3700	  606.00	  568.58	-1706.79	  441.37
     25.4700	  547.00	  562.97	-1760.18	  441.02
     25.5700	  590.00	  559.64	-1713.86	  440.67
     25.6700	  583.00	  557.65	-1718.87	  440.32
     25.7700	  579.00	  556.39	-1721.60	  439.97
     25.8700	  574.00	  555.51	-1725.73	  439.62
     25.9700	  619.00	  554.88	-1680.09	  439.26
     26.0700	  594.00	  554.42	-1704.63	  438.90
     26.1700	  558.00	  554.09	-1740.30	  438.54
     26.2700	  613.00	  553.88	-1685.09	  438.18
     26.3700	  575.00	  553.78	-1723.00	  437.82
     26.4700	  615.00	  553.80	-1683.01	  437.46
     26.5700	  576.00	  553.93	-1722.14	  437.09
     26.6700	  584.00	  554.20	-1714.41	  436.73
     26.7700	  608.00	  554.62	-1690.83	  436.36
     26.8700	  582.00	  555.23	-1717.44	  435.99
     26.9700	  580.00	  556.07	-1720.28	  435.62
     27.0700	  587.00	  557.22	-1714.44	  435.25
     27.1700	  593.00	  558.80	-1710.01	  434.88
     27.2700	  607.00	  560.99	-1698.20	  434.51
     27.3700	  554.00	  564.17	-1754.38	  434.13
     27.4700	  572.00	  569.04	-1741.25	  433.76
     27.5700	  583.00	  576.89	-1738.11	  433.38
     27.6700	  622.00	  589.83	-1712.04	  433.01
     27.7700	  648.00	  610.85	-1707.06	  432.63
     27.8700	  636.00	  643.19	-1751.40	  432.25
     27.9700	  695.00	  688.62	-1737.84	  431.87
     28.0700	  750.00	  745.01	-1739.22	  431.49
     28.1700	  846.00	  803.73	-1701.95	  431.11
     28.2700	  935.00	  848.23	-1657.44	  430.73
     28.3700	  931.00	  858.54	-1671.75	  430.35
     28.4700	  886.00	  832.29	-1690.50	  429.97
     28.5700	  802.00	  797.09	-1739.30	  429.58
     28.6700	  772.00	  780.47	-1752.69	  429.20
     28.7700	  762.00	  789.85	-1772.06	  428.81
     28.8700	  825.00	  815.67	-1734.89	  428.43
     28.9700	  845.00	  836.66	-1735.87	  428.04
     29.0700	  845.00	  827.74	-1726.95	  427.66
     29.1700	  810.00	  780.84	-1715.06	  427.27
     29.2700	  703.00	  716.79	-1758.00	  426.89
     29.3700	  677.00	  659.02	-1726.23	  426.50
     29.4700	  619.00	  616.86	-1742.07	  426.11
     29.5700	  609.00	  589.92	-1725.13	  425.72
     29.6700	  627.00	  574.09	-1691.30	  425.34
     29.7700	  570.00	  565.00	-1739.21	  424.95
     29.8700	  631.00	  559.59	-1672.80	  424.56
     29.9700	  604.00	  556.21	-1696.42	  424.17
     30.0700	  608.00	  554.13	-1690.35	  423.78
     30.1700	  580.00	  553.19	-1717.40	  423.39
     30.2700	  554.00	  553.58	-1743.79	  423.01
     30.3700	  587.00	  555.86	-1713.07	  422.62
     30.4700	  589.00	  560.96	-1716.17	  422.23
     30.5700	  613.00	  570.03	-1701.24	  421.84
     30.6700	  574.00	  583.77	-1753.98	  421.45
     30.7700	  663.00	  601.54	-1682.75	  421.06
     30.8700	  569.00	  620.38	-1795.59	  420.67
     30.9700	  629.00	  634.55	-1749.76	  420.29
     31.0700	  636.00	  636.60	-1744.81	  419.90
     31.1700	  605.00	  623.35	-1762.56	  419.51
     31.2700	  608.00	  601.37	-1737.59	  419.12
     31.3700	  572.00	  579.82	-1752.03	  418.73
     31.4700	  577.00	  563.18	-1730.39	  418.35
     31.5700	  635.00	  552.03	-1661.25	  417.96
     31.6700	  562.00	  545.25	-1727.46	  417.57
     31.7700	  511.00	  541.28	-1774.49	  417.19
     31.8700	  534.00	  538.91	-1749.12	  416.80
     31.9700	  519.00	  537.40	-1762.61	  416.41
     32.0700	  547.00	  536.38	-1733.59	  416.03
     32.1700	  543.00	  535.68	-1736.89	  415.64
     32.2700	  574.00	  535.23	-1705.44	  415.26
     32.3700	  559.00	  535.01	-1720.22	  414.87
     32.4700	  545.00	  535.01	-1734.22	  414.49
     32.5700	  563.00	  535.23	-1716.44	  414.11
     32.6700	  565.00	  535.71	-1714.92	  413.73
     32.7700	  557.00	  536.49	-1723.71	  413.34
     32.8700	  534.00	  537.65	-1747.86	  412.96
     32.9700	  555.00	  539.30	-1728.51	  412.58
     33.0700	  588.00	  541.63	-1697.85	  412.20
     33.1700	  579.00	  545.04	-1710.25	  411.82
     33.2700	  563.00	  550.28	-1731.49	  411.44
     33.3700	  517.00	  558.72	-1785.94	  411.07
     33.4700	  574.00	  572.95	-1743.16	  410.69
     33.5700	  589.00	  596.90	-1752.11	  410.31
     33.6700	  641.00	  635.52	-1738.73	  409.94
     33.7700	  710.00	  692.80	-1727.01	  409.56
     33.8700	  759.00	  767.93	-1753.15	  409.19
     33.9700	  866.00	  851.06	-1729.27	  408.82
     34.0700	 1008.00	  920.83	-1657.04	  408.44
     34.1700	  973.00	  947.55	-1718.77	  408.07
     34.2700	 1003.00	  912.03	-1653.24	  407.70
     34.3700	  865.00	  831.12	-1710.34	  407.33
     34.4700	  733.00	  741.45	-1752.66	  406.96
     34.5700	  692.00	  666.55	-1718.76	  406.60
     34.6700	  593.00	  613.22	-1764.44	  406.23
     34.7700	  602.00	  579.21	-1721.42	  405.86
     34.8700	  565.00	  558.94	-1738.15	  405.50
     34.9700	  567.00	  546.98	-1724.19	  405.13
     35.0700	  545.00	  539.54	-1738.76	  404.77
     35.1700	  535.00	  534.48	-1743.70	  404.41
     35.2700	  535.00	  530.74	-1739.95	  404.05
     35.3700	  533.00	  527.80	-1739.01	  403.69
     35.4700	  509.00	  525.40	-1760.61	  403.33
     35.5700	  536.00	  523.89	-1732.10	  402.98
     35.6700	  556.00	  522.22	-1710.43	  402.62
     35.7700	  521.00	  520.77	-1743.98	  402.27
     35.8700	  519.00	  519.51	-1744.72	  401.91
     35.9700	  495.00	  518.37	-1767.58	  401.56
     36.0700	  528.00	  517.38	-1733.59	  401.21
     36.1700	  536.00	  516.50	-1724.71	  400.86
     36.2700	  492.00	  515.70	-1767.91	  400.51
     36.3700	  481.00	  514.97	-1778.18	  400.16
     36.4700	  510.00	  514.31	-1748.53	  399.82
     36.5700	  503.00	  513.72	-1754.93	  399.47
     36.6700	  466.00	  513.19	-1791.40	  399.13
     36.7700	  519.00	  512.72	-1737.93	  398.79
     36.8700	  500.00	  512.33	-1756.54	  398.45
     36.9700	  482.00	  512.05	-1774.26	  398.11
     37.0700	  485.00	  511.94	-1771.15	  397.77
     37.1700	  470.00	  512.10	-1786.32	  397.43
     37.2700	  496.00	  512.70	-1760.91	  397.10
     37.3700	  505.00	  513.90	-1753.11	  396.77
     37.4700	  486.00	  515.83	-1774.04	  396.43
     37.5700	  505.00	  518.60	-1757.81	  396.10
     37.6700	  528.00	  521.46	-1737.68	  395.77
     37.7700	  509.00	  523.80	-1759.01	  395.45
     37.8700	  484.00	  524.56	-1784.77	  395.12
     37.9700	  527.00	  523.19	-1740.41	  394.80
     38.0700	  480.00	  520.27	-1784.48	  394.47
     38.1700	  530.00	  516.84	-1731.05	  394.15
     38.2700	  517.00	  513.56	-1740.77	  393.83
     38.3700	  492.00	  510.77	-1762.99	  393.51
     38.4700	  525.00	  508.62	-1727.83	  393.20
     38.5700	  539.00	  507.04	-1712.25	  392.88
     38.6700	  478.00	  505.91	-1772.12	  392.57
     38.7700	  493.00	  505.08	-1756.29	  392.26
     38.8700	  511.00	  504.44	-1737.65	  391.95
     38.9700	  507.00	  503.91	-1741.12	  391.64
     39.0700	  460.00	  503.45	-1787.66	  391.33
     39.1700	  478.00	  503.04	-1769.25	  391.02
     39.2700	  501.00	  502.66	-1745.87	  390.72
     39.3700	  495.00	  502.19	-1751.40	  390.42
     39.4700	  470.00	  501.86	-1776.07	  390.12
     39.5700	  508.00	  501.54	-1737.75	  389.82
     39.6700	  523.00	  501.23	-1722.45	  389.52
     39.7700	  463.00	  500.94	-1782.16	  389.23
     39.8700	  516.00	  500.67	-1728.88	  388.93
     39.9700	  493.00	  500.40	-1751.62	  388.64
     40.0700	  484.00	  500.15	-1760.37	  388.35
     40.1700	  484.00	  499.92	-1760.13	  388.06
     40.2700	  511.00	  500.12	-1733.33	  387.78
     40.3700	  504.00	  499.92	-1740.13	  387.49
     40.4700	  484.00	  499.73	-1759.94	  387.21
     40.5700	  464.00	  499.56	-1779.78	  386.93
     40.6700	  519.00	  499.42	-1724.63	  386.65
     40.7700	  524.00	  499.29	-1719.50	  386.37
