MSG Master    CELL:    5.89191   5.89191  23.15695   90.0000   90.0000  120.0000   SPGR: P 63/m m c             TEMP:    668.75
  2   1280     2.52000     0.00000    -0.09756     0.00000     0.00000    0
    96    96     0     0     2
       0.00000      10.00000
     125.00000     130.00000
 2Theta	Yobs	Ycal	Yobs-Ycal	Backg	Posr	(hkl)	K
      0.7700	    0.00	  703.29	-1864.38	  582.27
      0.8700	    0.00	  702.77	-1864.38	  581.74
      0.9700	   44.00	  702.25	-1864.38	  581.22
      1.0700	   43.00	  701.72	-1864.38	  580.70
      1.1700	   40.00	  701.20	-1864.38	  580.17
      1.2700	   43.00	  700.67	-1864.38	  579.64
      1.3700	   36.00	  700.14	-1864.38	  579.11
      1.4700	  102.00	  699.61	-1864.38	  578.58
      1.5700	  281.00	  699.08	-1864.38	  578.05
      1.6700	  478.00	  698.54	-1864.38	  577.52
      1.7700	  591.00	  698.01	-1864.38	  576.98
      1.8700	  654.00	  697.47	-1864.38	  576.44
      1.9700	  777.00	  696.93	-1864.38	  575.90
      2.0700	  784.00	  696.39	-1864.38	  575.37
      2.1700	  790.00	  695.85	-1864.38	  574.82
      2.2700	  761.00	  695.31	-1864.38	  574.28
      2.3700	  753.00	  694.77	-1864.38	  573.74
      2.4700	  729.00	  694.22	-1864.38	  573.19
      2.5700	  747.00	  693.68	-1864.38	  572.65
      2.6700	  681.00	  693.13	-1864.38	  572.10
      2.7700	  668.00	  692.58	-1864.38	  571.55
      2.8700	  697.00	  692.03	-1864.38	  571.00
      2.9700	  590.00	  691.48	-1864.38	  570.45
      3.0700	  628.00	  690.93	-1864.38	  569.90
      3.1700	  608.00	  690.38	-1864.38	  569.35
      3.2700	  695.00	  689.82	-1864.38	  568.79
      3.3700	  855.00	  689.27	-1864.38	  568.24
      3.4700	 1031.00	  688.71	-1864.38	  567.68
      3.5700	 1097.00	  688.15	-1864.38	  567.13
      3.6700	 1328.00	  687.60	-1864.38	  566.57
      3.7700	 1364.00	  687.04	-1864.38	  566.01
      3.8700	 1422.00	  686.48	-1864.38	  565.45
      3.9700	 1444.00	  685.92	-1864.38	  564.89
      4.0700	 1613.00	  685.36	-1864.38	  564.33
      4.1700	 1530.00	  684.79	-1864.38	  563.77
      4.2700	 1618.00	  684.23	-1864.38	  563.20
      4.3700	 1610.00	  683.67	-1864.38	  562.64
      4.4700	 1496.00	  683.10	-1864.38	  562.07
      4.5700	 1513.00	  682.54	-1864.38	  561.51
      4.6700	 1400.00	  681.97	-1864.38	  560.94
      4.7700	 1323.00	  681.40	-1864.38	  560.38
      4.8700	 1377.00	  680.84	-1864.38	  559.81
      4.9700	 1303.00	  680.27	-1864.38	  559.24
      5.0700	 1246.00	  679.70	-1864.38	  558.67
      5.1700	 1233.00	  679.13	-1864.38	  558.10
      5.2700	 1144.00	  678.56	-1864.38	  557.53
      5.3700	 1191.00	  677.99	-1864.38	  556.96
      5.4700	 1083.00	  677.42	-1864.38	  556.39
      5.5700	 1016.00	  676.85	-1864.38	  555.82
      5.6700	 1069.00	  676.28	-1864.38	  555.25
      5.7700	 1088.00	  675.70	-1864.38	  554.68
      5.8700	  997.00	  675.13	-1864.38	  554.10
      5.9700	  956.00	  674.56	-1864.38	  553.53
      6.0700	 1015.00	  673.98	-1864.38	  552.96
      6.1700	  942.00	  673.41	-1864.38	  552.38
      6.2700	  998.00	  672.84	-1864.38	  551.81
      6.3700	  933.00	  672.26	-1864.38	  551.23
      6.4700	  920.00	  671.69	-1864.38	  550.66
      6.5700	  922.00	  671.11	-1864.38	  550.08
      6.6700	  936.00	  670.53	-1864.38	  549.51
      6.7700	  903.00	  669.96	-1864.38	  548.93
      6.8700	  901.00	  669.38	-1864.38	  548.35
      6.9700	  800.00	  668.81	-1864.38	  547.78
      7.0700	  827.00	  668.23	-1864.38	  547.20
      7.1700	  852.00	  667.65	-1864.38	  546.62
      7.2700	  799.00	  667.07	-1864.38	  546.05
      7.3700	  799.00	  666.50	-1864.38	  545.47
      7.4700	  828.00	  665.92	-1864.38	  544.89
      7.5700	  783.00	  665.34	-1864.38	  544.31
      7.6700	  773.00	  664.77	-1864.38	  543.74
      7.7700	  792.00	  664.19	-1864.38	  543.16
      7.8700	  730.00	  663.61	-1864.38	  542.58
      7.9700	  728.00	  663.03	-1864.38	  542.00
      8.0700	  749.00	  662.46	-1864.38	  541.43
      8.1700	  744.00	  661.88	-1864.38	  540.85
      8.2700	  773.00	  661.30	-1864.38	  540.27
      8.3700	  779.00	  660.72	-1864.38	  539.69
      8.4700	  730.00	  660.15	-1864.38	  539.12
      8.5700	  696.00	  659.57	-1864.38	  538.54
      8.6700	  735.00	  658.99	-1864.38	  537.96
      8.7700	  760.00	  658.41	-1864.38	  537.39
      8.8700	  700.00	  657.84	-1864.38	  536.81
      8.9700	  708.00	  657.26	-1864.38	  536.23
      9.0700	  671.00	  656.68	-1864.38	  535.66
      9.1700	  741.00	  656.11	-1864.38	  535.08
      9.2700	  738.00	  655.53	-1864.38	  534.50
      9.3700	  683.00	  654.95	-1864.38	  533.93
      9.4700	  748.00	  654.38	-1864.38	  533.35
      9.5700	  695.00	  653.80	-1864.38	  532.78
      9.6700	  663.00	  653.23	-1864.38	  532.20
      9.7700	  682.00	  652.65	-1864.38	  531.63
      9.8700	  681.00	  652.08	-1864.38	  531.05
      9.9700	  654.00	  651.50	-1864.38	  530.48
     10.0700	  661.00	  653.18	-1856.56	  529.90
     10.1700	  647.00	  652.86	-1870.24	  529.33
     10.2700	  627.00	  652.60	-1889.97	  528.76
     10.3700	  686.00	  652.40	-1830.78	  528.18
     10.4700	  589.00	  652.31	-1927.69	  527.61
     10.5700	  645.00	  652.38	-1871.76	  527.04
     10.6700	  732.00	  652.67	-1785.05	  526.47
     10.7700	  682.00	  653.29	-1835.67	  525.90
     10.8700	  670.00	  654.33	-1848.70	  525.33
     10.9700	  673.00	  655.86	-1847.24	  524.76
     11.0700	  693.00	  657.93	-1829.31	  524.19
     11.1700	  692.00	  660.55	-1832.93	  523.62
     11.2700	  671.00	  663.74	-1857.12	  523.05
     11.3700	  666.00	  667.57	-1865.95	  522.48
     11.4700	  687.00	  672.17	-1849.55	  521.91
     11.5700	  694.00	  677.71	-1848.09	  521.35
     11.6700	  717.00	  684.47	-1831.85	  520.78
     11.7700	  730.00	  692.78	-1827.16	  520.22
     11.8700	  727.00	  702.89	-1840.27	  519.65
     11.9700	  762.00	  714.69	-1817.07	  519.09
     12.0700	  802.00	  727.20	-1789.58	  518.52
     12.1700	  799.00	  737.94	-1803.31	  517.96
     12.2700	  758.00	  742.50	-1848.88	  517.40
     12.3700	  790.00	  735.97	-1810.35	  516.84
     12.4700	  732.00	  718.38	-1850.76	  516.28
     12.5700	  682.00	  696.88	-1879.26	  515.72
     12.6700	  676.00	  678.13	-1866.51	  515.16
     12.7700	  628.00	  664.31	-1900.69	  514.60
     12.8700	  629.00	  654.95	-1890.33	  514.04
     12.9700	  622.00	  648.86	-1891.24	  513.48
     13.0700	  611.00	  644.85	-1898.23	  512.93
     13.1700	  601.00	  642.06	-1905.44	  512.37
     13.2700	  623.00	  639.96	-1881.33	  511.82
     13.3700	  691.00	  638.27	-1811.65	  511.26
     13.4700	  652.00	  636.84	-1849.22	  510.71
     13.5700	  608.00	  635.60	-1891.98	  510.16
     13.6700	  629.00	  634.50	-1869.88	  509.61
     13.7700	  609.00	  633.49	-1888.87	  509.06
     13.8700	  647.00	  632.57	-1849.95	  508.51
     13.9700	  620.00	  631.71	-1876.09	  507.96
     14.0700	  638.00	  630.90	-1857.27	  507.41
     14.1700	  638.00	  630.12	-1856.50	  506.87
     14.2700	  639.00	  629.38	-1854.76	  506.32
     14.3700	  657.00	  628.67	-1836.05	  505.78
     14.4700	  607.00	  627.98	-1885.36	  505.23
     14.5700	  631.00	  627.31	-1860.69	  504.69
     14.6700	  618.00	  626.65	-1873.03	  504.15
     14.7700	  606.00	  626.01	-1884.39	  503.61
     14.8700	  585.00	  625.39	-1904.76	  503.07
     14.9700	  574.00	  624.77	-1915.15	  502.53
     15.0700	  647.00	  624.16	-1841.54	  501.99
     15.1700	  596.00	  623.56	-1891.94	  501.46
     15.2700	  594.00	  622.97	-1893.34	  500.92
     15.3700	  602.00	  622.38	-1884.76	  500.39
     15.4700	  603.00	  621.80	-1883.18	  499.85
     15.5700	  610.00	  621.22	-1875.60	  499.32
     15.6700	  589.00	  620.65	-1896.03	  498.79
     15.7700	  612.00	  620.09	-1872.46	  498.26
     15.8700	  575.00	  619.52	-1908.90	  497.73
     15.9700	  584.00	  618.97	-1899.34	  497.20
     16.0700	  618.00	  618.41	-1864.79	  496.68
     16.1700	  606.00	  617.86	-1876.24	  496.15
     16.2700	  677.00	  617.31	-1804.69	  495.63
     16.3700	  581.00	  616.77	-1900.15	  495.11
     16.4700	  644.00	  616.23	-1836.61	  494.58
     16.5700	  576.00	  615.69	-1904.07	  494.06
     16.6700	  616.00	  615.15	-1863.53	  493.54
     16.7700	  611.00	  614.62	-1868.00	  493.03
     16.8700	  621.00	  614.09	-1857.46	  492.51
     16.9700	  592.00	  613.56	-1885.94	  491.99
     17.0700	  604.00	  613.03	-1873.41	  491.48
     17.1700	  582.00	  612.51	-1894.88	  490.97
     17.2700	  594.00	  611.98	-1882.36	  490.46
     17.3700	  608.00	  611.46	-1867.84	  489.94
     17.4700	  636.00	  610.94	-1839.32	  489.44
     17.5700	  593.00	  610.43	-1881.81	  488.93
     17.6700	  596.00	  609.91	-1878.29	  488.42
     17.7700	  605.00	  609.40	-1868.78	  487.92
     17.8700	  613.00	  608.89	-1860.27	  487.41
     17.9700	  595.00	  608.38	-1877.76	  486.91
     18.0700	  622.00	  607.88	-1850.25	  486.41
     18.1700	  587.00	  607.37	-1884.75	  485.91
     18.2700	  604.00	  606.87	-1867.25	  485.41
     18.3700	  609.00	  607.35	-1862.73	  484.91
     18.4700	  560.00	  607.47	-1911.85	  484.42
     18.5700	  599.00	  607.01	-1872.39	  483.92
     18.6700	  609.00	  606.55	-1861.92	  483.43
     18.7700	  586.00	  606.09	-1884.46	  482.94
     18.8700	  631.00	  605.63	-1839.01	  482.45
     18.9700	  599.00	  605.18	-1870.55	  481.96
     19.0700	  595.00	  604.73	-1874.10	  481.47
     19.1700	  633.00	  604.28	-1835.66	  480.99
     19.2700	  567.00	  603.83	-1901.21	  480.50
     19.3700	  573.00	  603.39	-1894.77	  480.02
     19.4700	  619.00	  602.96	-1848.33	  479.54
     19.5700	  594.00	  602.52	-1872.90	  479.06
     19.6700	  561.00	  602.09	-1905.47	  478.58
     19.7700	  570.00	  601.72	-1896.10	  478.11
     19.8700	  594.00	  601.30	-1871.68	  477.63
     19.9700	  614.00	  600.88	-1851.26	  477.16
     20.0700	  581.00	  600.46	-1883.84	  476.68
     20.1700	  557.00	  600.05	-1907.43	  476.21
     20.2700	  590.00	  599.65	-1874.02	  475.74
     20.3700	  544.00	  599.24	-1919.62	  475.28
     20.4700	  603.00	  598.84	-1860.22	  474.81
     20.5700	  619.00	  598.45	-1843.83	  474.34
     20.6700	  550.00	  598.06	-1912.44	  473.88
     20.7700	  608.00	  597.68	-1854.06	  473.42
     20.8700	  592.00	  597.30	-1869.68	  472.96
     20.9700	  552.00	  596.93	-1909.30	  472.50
     21.0700	  543.00	  596.56	-1917.94	  472.04
     21.1700	  592.00	  596.20	-1868.57	  471.59
     21.2700	  592.00	  595.84	-1868.22	  471.13
     21.3700	  601.00	  595.49	-1858.87	  470.68
     21.4700	  589.00	  595.15	-1870.53	  470.23
     21.5700	  572.00	  594.82	-1887.19	  469.78
     21.6700	  590.00	  594.49	-1868.87	  469.34
     21.7700	  579.00	  594.17	-1879.55	  468.89
     21.8700	  599.00	  593.86	-1859.24	  468.45
     21.9700	  609.00	  593.56	-1848.94	  468.00
     22.0700	  593.00	  593.45	-1864.83	  467.56
     22.1700	  631.00	  593.18	-1826.56	  467.12
     22.2700	  600.00	  592.92	-1857.29	  466.68
     22.3700	  592.00	  592.67	-1865.04	  466.25
     22.4700	  633.00	  592.43	-1823.81	  465.81
     22.5700	  619.00	  592.21	-1837.59	  465.38
     22.6700	  643.00	  592.01	-1813.39	  464.95
     22.7700	  622.00	  591.83	-1834.21	  464.52
     22.8700	  570.00	  591.67	-1886.05	  464.09
     22.9700	  623.00	  591.54	-1832.92	  463.67
     23.0700	  572.00	  591.44	-1883.81	  463.24
     23.1700	  610.00	  591.37	-1845.75	  462.82
     23.2700	  628.00	  591.34	-1827.72	  462.40
     23.3700	  591.00	  591.37	-1864.74	  461.98
     23.4700	  592.00	  591.45	-1863.83	  461.56
     23.5700	  608.00	  591.61	-1847.99	  461.15
     23.6700	  618.00	  591.86	-1838.24	  460.73
     23.7700	  558.00	  592.26	-1898.64	  460.32
     23.8700	  585.00	  592.85	-1872.22	  459.91
     23.9700	  625.00	  593.74	-1833.11	  459.50
     24.0700	  603.00	  595.09	-1856.46	  459.09
     24.1700	  602.00	  597.10	-1859.48	  458.68
     24.2700	  648.00	  600.27	-1816.65	  458.28
     24.3700	  611.00	  604.98	-1858.36	  457.88
     24.4700	  627.00	  611.61	-1848.98	  457.48
     24.5700	  617.00	  620.27	-1867.65	  457.08
     24.6700	  684.00	  630.58	-1810.96	  456.68
     24.7700	  711.00	  641.27	-1794.64	  456.29
     24.8700	  700.00	  649.86	-1814.24	  455.89
     24.9700	  674.00	  652.75	-1843.13	  455.50
     25.0700	  704.00	  647.48	-1807.86	  455.11
     25.1700	  670.00	  636.35	-1830.73	  454.72
     25.2700	  625.00	  624.35	-1863.73	  454.34
     25.3700	  623.00	  614.61	-1855.99	  453.95
     25.4700	  569.00	  607.89	-1903.27	  453.57
     25.5700	  658.00	  603.79	-1810.17	  453.19
     25.6700	  617.00	  601.63	-1849.01	  452.81
     25.7700	  586.00	  600.75	-1879.12	  452.43
     25.8700	  587.00	  600.69	-1878.07	  452.05
     25.9700	  654.00	  601.20	-1811.58	  451.68
     26.0700	  646.00	  602.16	-1820.53	  451.30
     26.1700	  621.00	  603.51	-1846.89	  450.93
     26.2700	  633.00	  605.27	-1836.65	  450.57
     26.3700	  623.00	  607.46	-1848.84	  450.20
     26.4700	  644.00	  610.13	-1830.51	  449.83
     26.5700	  635.00	  613.37	-1842.75	  449.47
     26.6700	  625.00	  617.28	-1856.66	  449.11
     26.7700	  581.00	  622.00	-1905.38	  448.75
     26.8700	  650.00	  627.74	-1842.12	  448.39
     26.9700	  653.00	  634.75	-1846.13	  448.03
     27.0700	  696.00	  643.42	-1811.80	  447.68
     27.1700	  709.00	  654.27	-1809.65	  447.32
     27.2700	  664.00	  668.17	-1868.54	  446.97
     27.3700	  722.00	  686.59	-1828.97	  446.62
     27.4700	  706.00	  712.52	-1870.89	  446.28
     27.5700	  741.00	  751.98	-1875.36	  445.93
     27.6700	  722.00	  816.73	-1959.10	  445.59
     27.7700	  794.00	  927.38	-1997.75	  445.24
     27.8700	  900.00	 1115.21	-2079.59	  444.90
     27.9700	 1160.00	 1417.44	-2121.82	  444.56
     28.0700	 1551.00	 1859.89	-2173.27	  444.23
     28.1700	 2300.00	 2427.27	-1991.65	  443.89
     28.2700	 3288.00	 3026.51	-1602.89	  443.56
     28.3700	 3935.00	 3464.83	-1394.21	  443.23
     28.4700	 3917.00	 3504.63	-1452.00	  442.90
     28.5700	 3363.00	 3113.21	-1614.59	  442.57
     28.6700	 2468.00	 2601.52	-1997.90	  442.24
     28.7700	 1905.00	 2264.61	-2223.99	  441.92
     28.8700	 1971.00	 2182.13	-2075.51	  441.60
     28.9700	 2327.00	 2275.25	-1812.63	  441.28
     29.0700	 2490.00	 2376.75	-1751.13	  440.96
     29.1700	 2424.00	 2305.15	-1745.53	  440.64
     29.2700	 2095.00	 2003.74	-1773.11	  440.33
     29.3700	 1636.00	 1606.23	-1834.61	  440.01
     29.4700	 1254.00	 1257.42	-1867.79	  439.70
     29.5700	  962.00	 1010.16	-1912.54	  439.39
     29.6700	  911.00	  857.43	-1810.81	  439.08
     29.7700	  746.00	  770.34	-1888.72	  438.78
     29.8700	  777.00	  720.91	-1808.29	  438.47
     29.9700	  701.00	  690.83	-1854.21	  438.17
     30.0700	  688.00	  670.71	-1847.09	  437.87
     30.1700	  680.00	  656.43	-1840.81	  437.57
     30.2700	  704.00	  646.34	-1806.72	  437.27
     30.3700	  630.00	  640.03	-1874.41	  436.98
     30.4700	  717.00	  637.89	-1785.27	  436.68
     30.5700	  708.00	  641.04	-1797.42	  436.39
     30.6700	  650.00	  650.99	-1865.36	  436.10
     30.7700	  678.00	  668.66	-1855.04	  435.81
     30.8700	  696.00	  692.95	-1861.33	  435.53
     30.9700	  748.00	  719.23	-1835.61	  435.24
     31.0700	  730.00	  738.65	-1873.02	  434.96
     31.1700	  735.00	  739.84	-1869.22	  434.68
     31.2700	  698.00	  718.09	-1884.47	  434.40
     31.3700	  685.00	  683.51	-1862.89	  434.12
     31.4700	  622.00	  649.90	-1892.28	  433.85
     31.5700	  638.00	  623.92	-1850.30	  433.57
     31.6700	  640.00	  606.40	-1830.78	  433.30
     31.7700	  635.00	  595.54	-1824.91	  433.03
     31.8700	  631.00	  588.98	-1822.36	  432.76
     31.9700	  623.00	  584.88	-1826.26	  432.50
     32.0700	  596.00	  582.12	-1850.49	  432.23
     32.1700	  604.00	  580.12	-1840.50	  431.97
     32.2700	  608.00	  578.65	-1835.03	  431.71
     32.3700	  604.00	  577.58	-1837.95	  431.45
     32.4700	  636.00	  576.85	-1805.23	  431.19
     32.5700	  579.00	  576.45	-1861.83	  430.93
     32.6700	  627.00	  576.42	-1813.79	  430.68
     32.7700	  591.00	  576.70	-1850.08	  430.43
     32.8700	  632.00	  577.39	-1809.77	  430.18
     32.9700	  629.00	  578.56	-1813.93	  429.93
     33.0700	  611.00	  580.34	-1833.72	  429.68
     33.1700	  588.00	  582.98	-1859.36	  429.43
     33.2700	  592.00	  586.91	-1859.29	  429.19
     33.3700	  570.00	  592.99	-1887.37	  428.95
     33.4700	  666.00	  602.86	-1801.24	  428.71
     33.5700	  636.00	  619.34	-1847.72	  428.47
     33.6700	  642.00	  646.73	-1869.11	  428.23
     33.7700	  626.00	  690.29	-1928.66	  428.00
     33.8700	  759.00	  754.09	-1859.47	  427.77
     33.9700	  875.00	  837.06	-1826.44	  427.53
     34.0700	  959.00	  928.47	-1833.84	  427.30
     34.1700	 1109.00	 1005.36	-1760.74	  427.08
     34.2700	 1112.00	 1035.82	-1788.20	  426.85
     34.3700	 1126.00	  998.74	-1737.12	  426.63
     34.4700	  957.00	  911.24	-1818.62	  426.40
     34.5700	  818.00	  812.60	-1858.98	  426.18
     34.6700	  734.00	  728.94	-1859.32	  425.96
     34.7700	  650.00	  668.30	-1882.68	  425.74
     34.8700	  613.00	  628.83	-1880.21	  425.53
     34.9700	  600.00	  604.85	-1869.23	  425.31
     35.0700	  622.00	  590.54	-1832.91	  425.10
     35.1700	  629.00	  581.65	-1817.03	  424.89
     35.2700	  603.00	  575.67	-1837.05	  424.68
     35.3700	  585.00	  571.32	-1850.70	  424.47
     35.4700	  568.00	  567.96	-1864.34	  424.27
     35.5700	  547.00	  565.27	-1882.65	  424.06
     35.6700	  581.00	  563.08	-1846.45	  423.86
     35.7700	  551.00	  561.26	-1874.63	  423.66
     35.8700	  569.00	  559.73	-1855.11	  423.46
     35.9700	  597.00	  558.44	-1825.82	  423.27
     36.0700	  531.00	  557.35	-1890.73	  423.07
     36.1700	  532.00	  556.42	-1888.80	  422.88
     36.2700	  516.00	  555.63	-1904.01	  422.68
     36.3700	  555.00	  555.47	-1864.85	  422.49
     36.4700	  524.00	  554.93	-1895.31	  422.30
     36.5700	  517.00	  554.50	-1901.88	  422.12
     36.6700	  546.00	  554.19	-1872.57	  421.93
     36.7700	  545.00	  554.00	-1873.38	  421.75
     36.8700	  549.00	  554.15	-1869.53	  421.56
     36.9700	  573.00	  554.28	-1845.66	  421.38
     37.0700	  531.00	  554.65	-1888.03	  421.20
     37.1700	  563.00	  555.35	-1856.73	  421.03
     37.2700	  541.00	  556.61	-1879.99	  420.85
     37.3700	  506.00	  558.71	-1917.08	  420.68
     37.4700	  527.00	  562.07	-1899.44	  420.50
     37.5700	  575.00	  567.27	-1856.64	  420.33
     37.6700	  572.00	  574.96	-1867.33	  420.16
     37.7700	  578.00	  585.63	-1872.01	  420.00
     37.8700	  602.00	  599.22	-1861.60	  419.83
     37.9700	  643.00	  614.68	-1836.06	  419.67
     38.0700	  633.00	  629.80	-1861.18	  419.50
     38.1700	  649.00	  641.16	-1856.54	  419.34
     38.2700	  663.00	  644.23	-1845.61	  419.18
     38.3700	  638.00	  636.08	-1862.45	  419.02
     38.4700	  564.00	  619.42	-1919.79	  418.87
     38.5700	  613.00	  600.49	-1851.87	  418.71
     38.6700	  667.00	  582.93	-1780.31	  418.56
     38.7700	  593.00	  570.23	-1841.60	  418.41
     38.8700	  569.00	  561.44	-1856.82	  418.25
     38.9700	  544.00	  555.76	-1876.14	  418.11
     39.0700	  576.00	  552.20	-1840.58	  417.96
     39.1700	  537.00	  549.93	-1877.31	  417.81
     39.2700	  543.00	  548.40	-1869.78	  417.67
     39.3700	  545.00	  547.29	-1866.67	  417.53
     39.4700	  555.00	  546.42	-1855.80	  417.38
     39.5700	  539.00	  545.73	-1871.10	  417.24
     39.6700	  555.00	  545.15	-1854.53	  417.11
     39.7700	  559.00	  544.66	-1850.04	  416.97
     39.8700	  550.00	  544.25	-1858.63	  416.83
     39.9700	  561.00	  543.32	-1846.70	  416.70
     40.0700	  530.00	  543.03	-1877.40	  416.57
     40.1700	  538.00	  542.78	-1869.15	  416.44
     40.2700	  515.00	  542.57	-1891.94	  416.31
     40.3700	  551.00	  542.94	-1856.32	  416.18
     40.4700	  476.00	  542.80	-1931.18	  416.05
     40.5700	  574.00	  542.70	-1833.08	  415.93
     40.6700	  528.00	  542.63	-1879.00	  415.81
     40.7700	  496.00	  542.58	-1910.96	  415.68
