MSG Master    CELL:    5.90573   5.90573  23.19837   90.0000   90.0000  120.0000   SPGR: P 63/m m c             TEMP:    855.75
  1   1280     2.52000     0.00000    -0.12349     0.00000     0.00000    0
    98     0     2
       0.00000      10.00000
     125.00000     130.00000
 2Theta	Yobs	Ycal	Yobs-Ycal	Backg	Posr	(hkl)	K
      0.7700	    0.00	  463.04	-1745.49	  352.83
      0.8700	    0.00	  464.76	-1745.49	  354.54
      0.9700	   41.00	  466.46	-1745.49	  356.24
      1.0700	   46.00	  468.14	-1745.49	  357.92
      1.1700	   46.00	  469.80	-1745.49	  359.58
      1.2700	   49.00	  471.45	-1745.49	  361.23
      1.3700	   43.00	  473.07	-1745.49	  362.85
      1.4700	   87.00	  474.68	-1745.49	  364.46
      1.5700	  265.00	  476.27	-1745.49	  366.05
      1.6700	  447.00	  477.84	-1745.49	  367.62
      1.7700	  544.00	  479.40	-1745.49	  369.18
      1.8700	  662.00	  480.93	-1745.49	  370.72
      1.9700	  751.00	  482.45	-1745.49	  372.24
      2.0700	  781.00	  483.96	-1745.49	  373.74
      2.1700	  765.00	  485.44	-1745.49	  375.22
      2.2700	  786.00	  486.91	-1745.49	  376.69
      2.3700	  730.00	  488.36	-1745.49	  378.14
      2.4700	  725.00	  489.80	-1745.49	  379.58
      2.5700	  670.00	  491.21	-1745.49	  381.00
      2.6700	  698.00	  492.61	-1745.49	  382.40
      2.7700	  673.00	  494.00	-1745.49	  383.78
      2.8700	  614.00	  495.37	-1745.49	  385.15
      2.9700	  649.00	  496.72	-1745.49	  386.50
      3.0700	  613.00	  498.05	-1745.49	  387.84
      3.1700	  582.00	  499.37	-1745.49	  389.15
      3.2700	  640.00	  500.68	-1745.49	  390.46
      3.3700	  780.00	  501.96	-1745.49	  391.74
      3.4700	  876.00	  503.23	-1745.49	  393.02
      3.5700	 1023.00	  504.49	-1745.49	  394.27
      3.6700	 1101.00	  505.73	-1745.49	  395.51
      3.7700	 1192.00	  506.95	-1745.49	  396.74
      3.8700	 1190.00	  508.16	-1745.49	  397.94
      3.9700	 1279.00	  509.36	-1745.49	  399.14
      4.0700	 1290.00	  510.53	-1745.49	  400.32
      4.1700	 1250.00	  511.70	-1745.49	  401.48
      4.2700	 1347.00	  512.84	-1745.49	  402.63
      4.3700	 1312.00	  513.98	-1745.49	  403.76
      4.4700	 1267.00	  515.10	-1745.49	  404.88
      4.5700	 1244.00	  516.20	-1745.49	  405.98
      4.6700	 1200.00	  517.29	-1745.49	  407.07
      4.7700	 1096.00	  518.36	-1745.49	  408.14
      4.8700	 1119.00	  519.42	-1745.49	  409.20
      4.9700	 1133.00	  520.47	-1745.49	  410.25
      5.0700	 1050.00	  521.50	-1745.49	  411.28
      5.1700	 1042.00	  522.52	-1745.49	  412.30
      5.2700	 1007.00	  523.52	-1745.49	  413.30
      5.3700	  961.00	  524.51	-1745.49	  414.29
      5.4700	  987.00	  525.48	-1745.49	  415.26
      5.5700	  935.00	  526.44	-1745.49	  416.23
      5.6700	  887.00	  527.39	-1745.49	  417.17
      5.7700	  995.00	  528.32	-1745.49	  418.11
      5.8700	  848.00	  529.24	-1745.49	  419.03
      5.9700	  894.00	  530.15	-1745.49	  419.93
      6.0700	  855.00	  531.04	-1745.49	  420.83
      6.1700	  819.00	  531.92	-1745.49	  421.71
      6.2700	  833.00	  532.79	-1745.49	  422.57
      6.3700	  766.00	  533.65	-1745.49	  423.43
      6.4700	  811.00	  534.49	-1745.49	  424.27
      6.5700	  749.00	  535.31	-1745.49	  425.10
      6.6700	  791.00	  536.13	-1745.49	  425.91
      6.7700	  745.00	  536.93	-1745.49	  426.71
      6.8700	  728.00	  537.72	-1745.49	  427.50
      6.9700	  722.00	  538.50	-1745.49	  428.28
      7.0700	  723.00	  539.27	-1745.49	  429.05
      7.1700	  672.00	  540.02	-1745.49	  429.80
      7.2700	  725.00	  540.76	-1745.49	  430.54
      7.3700	  689.00	  541.49	-1745.49	  431.27
      7.4700	  717.00	  542.20	-1745.49	  431.98
      7.5700	  670.00	  542.91	-1745.49	  432.69
      7.6700	  688.00	  543.60	-1745.49	  433.38
      7.7700	  660.00	  544.28	-1745.49	  434.06
      7.8700	  687.00	  544.95	-1745.49	  434.73
      7.9700	  676.00	  545.60	-1745.49	  435.39
      8.0700	  612.00	  546.25	-1745.49	  436.03
      8.1700	  651.00	  546.88	-1745.49	  436.67
      8.2700	  651.00	  547.51	-1745.49	  437.29
      8.3700	  628.00	  548.12	-1745.49	  437.90
      8.4700	  655.00	  548.72	-1745.49	  438.50
      8.5700	  634.00	  549.31	-1745.49	  439.09
      8.6700	  644.00	  549.88	-1745.49	  439.67
      8.7700	  632.00	  550.45	-1745.49	  440.23
      8.8700	  609.00	  551.01	-1745.49	  440.79
      8.9700	  580.00	  551.55	-1745.49	  441.33
      9.0700	  629.00	  552.08	-1745.49	  441.87
      9.1700	  630.00	  552.61	-1745.49	  442.39
      9.2700	  630.00	  553.12	-1745.49	  442.90
      9.3700	  633.00	  553.62	-1745.49	  443.41
      9.4700	  635.00	  554.12	-1745.49	  443.90
      9.5700	  658.00	  554.60	-1745.49	  444.38
      9.6700	  573.00	  555.07	-1745.49	  444.85
      9.7700	  649.00	  555.53	-1745.49	  445.31
      9.8700	  587.00	  555.98	-1745.49	  445.76
      9.9700	  608.00	  556.42	-1745.49	  446.20
     10.0700	  559.00	  558.68	-1745.17	  446.64
     10.1700	  656.00	  559.27	-1648.76	  447.06
     10.2700	  540.00	  559.90	-1765.39	  447.47
     10.3700	  588.00	  560.57	-1718.06	  447.87
     10.4700	  570.00	  561.31	-1736.80	  448.26
     10.5700	  588.00	  562.19	-1719.67	  448.65
     10.6700	  613.00	  563.26	-1695.74	  449.02
     10.7700	  563.00	  564.62	-1747.11	  449.38
     10.8700	  555.00	  566.35	-1756.84	  449.74
     10.9700	  574.00	  568.49	-1739.98	  450.08
     11.0700	  602.00	  571.05	-1714.53	  450.42
     11.1700	  611.00	  574.02	-1708.51	  450.75
     11.2700	  573.00	  577.44	-1749.92	  451.06
     11.3700	  617.00	  581.37	-1709.86	  451.37
     11.4700	  610.00	  585.94	-1721.42	  451.67
     11.5700	  609.00	  591.33	-1727.82	  451.96
     11.6700	  621.00	  597.85	-1722.34	  452.25
     11.7700	  658.00	  605.88	-1693.37	  452.52
     11.8700	  661.00	  615.79	-1700.28	  452.79
     11.9700	  677.00	  627.46	-1695.95	  453.04
     12.0700	  668.00	  639.62	-1717.11	  453.29
     12.1700	  679.00	  649.01	-1715.50	  453.53
     12.2700	  652.00	  650.30	-1743.78	  453.76
     12.3700	  662.00	  639.50	-1722.98	  453.99
     12.4700	  618.00	  620.77	-1748.26	  454.20
     12.5700	  635.00	  602.67	-1713.16	  454.41
     12.6700	  581.00	  589.36	-1753.84	  454.61
     12.7700	  540.00	  580.96	-1786.45	  454.80
     12.8700	  578.00	  576.15	-1743.64	  454.98
     12.9700	  563.00	  573.47	-1755.96	  455.16
     13.0700	  545.00	  571.92	-1772.40	  455.33
     13.1700	  590.00	  570.93	-1726.42	  455.49
     13.2700	  520.00	  570.26	-1795.75	  455.64
     13.3700	  581.00	  569.79	-1734.28	  455.79
     13.4700	  563.00	  569.44	-1751.93	  455.92
     13.5700	  544.00	  569.18	-1770.67	  456.05
     13.6700	  571.00	  568.99	-1743.48	  456.18
     13.7700	  529.00	  568.85	-1785.34	  456.29
     13.8700	  536.00	  568.75	-1778.23	  456.40
     13.9700	  534.00	  568.70	-1780.18	  456.50
     14.0700	  541.00	  568.64	-1773.13	  456.60
     14.1700	  573.00	  568.60	-1741.09	  456.68
     14.2700	  553.00	  568.57	-1761.06	  456.77
     14.3700	  588.00	  568.54	-1726.03	  456.84
     14.4700	  545.00	  568.53	-1769.02	  456.91
     14.5700	  567.00	  568.51	-1747.00	  456.97
     14.6700	  529.00	  568.50	-1784.99	  457.02
     14.7700	  594.00	  568.49	-1719.98	  457.07
     14.8700	  531.00	  568.48	-1782.97	  457.11
     14.9700	  544.00	  568.47	-1769.96	  457.14
     15.0700	  517.00	  568.46	-1796.94	  457.17
     15.1700	  579.00	  568.44	-1734.93	  457.19
     15.2700	  596.00	  568.42	-1717.91	  457.20
     15.3700	  584.00	  568.40	-1729.89	  457.21
     15.4700	  571.00	  568.37	-1742.86	  457.22
     15.5700	  577.00	  568.35	-1736.83	  457.21
     15.6700	  524.00	  568.31	-1789.80	  457.20
     15.7700	  578.00	  568.28	-1735.77	  457.19
     15.8700	  542.00	  568.24	-1771.73	  457.17
     15.9700	  529.00	  568.19	-1784.68	  457.14
     16.0700	  624.00	  568.14	-1689.63	  457.11
     16.1700	  527.00	  568.09	-1786.58	  457.07
     16.2700	  524.00	  568.03	-1789.52	  457.02
     16.3700	  564.00	  567.97	-1749.46	  456.97
     16.4700	  541.00	  567.90	-1772.39	  456.92
     16.5700	  549.00	  567.83	-1764.32	  456.86
     16.6700	  583.00	  567.76	-1730.24	  456.79
     16.7700	  539.00	  567.68	-1774.16	  456.72
     16.8700	  580.00	  567.59	-1733.08	  456.64
     16.9700	  539.00	  567.50	-1773.99	  456.56
     17.0700	  569.00	  567.41	-1743.89	  456.47
     17.1700	  519.00	  567.31	-1793.79	  456.38
     17.2700	  554.00	  567.20	-1758.69	  456.28
     17.3700	  569.00	  567.10	-1743.58	  456.18
     17.4700	  549.00	  566.98	-1763.47	  456.07
     17.5700	  553.00	  566.97	-1759.46	  455.96
     17.6700	  588.00	  566.85	-1724.34	  455.84
     17.7700	  545.00	  566.73	-1767.22	  455.72
     17.8700	  490.00	  566.60	-1822.09	  455.59
     17.9700	  540.00	  566.47	-1771.96	  455.46
     18.0700	  533.00	  566.43	-1778.92	  455.32
     18.1700	  497.00	  566.30	-1814.78	  455.18
     18.2700	  584.00	  566.15	-1727.64	  455.03
     18.3700	  542.00	  566.01	-1769.49	  454.88
     18.4700	  585.00	  565.85	-1726.34	  454.73
     18.5700	  537.00	  565.70	-1774.19	  454.57
     18.6700	  562.00	  565.54	-1749.03	  454.41
     18.7700	  530.00	  565.38	-1780.87	  454.24
     18.8700	  538.00	  565.21	-1772.70	  454.07
     18.9700	  553.00	  565.04	-1757.53	  453.89
     19.0700	  578.00	  564.87	-1732.36	  453.71
     19.1700	  573.00	  564.69	-1737.18	  453.53
     19.2700	  541.00	  564.51	-1769.00	  453.34
     19.3700	  528.00	  564.33	-1781.81	  453.15
     19.4700	  535.00	  564.14	-1774.63	  452.95
     19.5700	  533.00	  563.95	-1776.44	  452.75
     19.6700	  520.00	  563.76	-1789.24	  452.55
     19.7700	  559.00	  563.59	-1750.08	  452.34
     19.8700	  589.00	  563.40	-1719.88	  452.13
     19.9700	  553.00	  563.19	-1755.68	  451.92
     20.0700	  586.00	  562.99	-1722.47	  451.70
     20.1700	  564.00	  562.78	-1744.27	  451.48
     20.2700	  526.00	  562.57	-1782.06	  451.25
     20.3700	  566.00	  562.35	-1741.84	  451.02
     20.4700	  577.00	  562.14	-1730.63	  450.79
     20.5700	  560.00	  561.92	-1747.41	  450.56
     20.6700	  566.00	  561.70	-1741.19	  450.32
     20.7700	  564.00	  561.48	-1742.96	  450.08
     20.8700	  589.00	  561.25	-1717.74	  449.83
     20.9700	  545.00	  561.03	-1761.51	  449.58
     21.0700	  502.00	  560.80	-1804.28	  449.33
     21.1700	  540.00	  560.57	-1766.05	  449.08
     21.2700	  522.00	  560.34	-1783.82	  448.82
     21.3700	  556.00	  560.10	-1749.59	  448.56
     21.4700	  572.00	  559.87	-1733.36	  448.30
     21.5700	  531.00	  559.63	-1774.12	  448.03
     21.6700	  580.00	  559.40	-1724.89	  447.76
     21.7700	  522.00	  559.16	-1782.65	  447.49
     21.8700	  548.00	  558.93	-1756.42	  447.21
     21.9700	  592.00	  558.70	-1712.18	  446.94
     22.0700	  569.00	  558.46	-1734.95	  446.66
     22.1700	  574.00	  558.23	-1729.72	  446.37
     22.2700	  557.00	  558.00	-1746.49	  446.09
     22.3700	  585.00	  557.93	-1718.42	  445.80
     22.4700	  576.00	  557.71	-1727.20	  445.51
     22.5700	  556.00	  557.50	-1746.99	  445.22
     22.6700	  547.00	  557.29	-1755.78	  444.92
     22.7700	  591.00	  557.09	-1711.58	  444.62
     22.8700	  533.00	  556.90	-1769.38	  444.32
     22.9700	  564.00	  556.67	-1738.16	  444.02
     23.0700	  541.00	  556.51	-1761.00	  443.72
     23.1700	  568.00	  556.37	-1733.85	  443.41
     23.2700	  517.00	  556.25	-1784.73	  443.10
     23.3700	  573.00	  556.16	-1728.64	  442.79
     23.4700	  567.00	  556.11	-1734.60	  442.48
     23.5700	  570.00	  556.12	-1731.61	  442.16
     23.6700	  568.00	  556.21	-1733.69	  441.85
     23.7700	  576.00	  556.41	-1725.90	  441.53
     23.8700	  538.00	  556.80	-1764.29	  441.21
     23.9700	  527.00	  557.52	-1776.00	  440.88
     24.0700	  605.00	  558.76	-1699.25	  440.56
     24.1700	  576.00	  560.89	-1730.38	  440.23
     24.2700	  570.00	  564.38	-1739.87	  439.91
     24.3700	  609.00	  569.76	-1706.25	  439.58
     24.4700	  614.00	  577.43	-1708.92	  439.24
     24.5700	  560.00	  587.39	-1772.88	  438.91
     24.6700	  637.00	  598.77	-1707.25	  438.58
     24.7700	  614.00	  609.22	-1740.71	  438.24
     24.8700	  641.00	  614.64	-1719.13	  437.90
     24.9700	  637.00	  610.80	-1719.29	  437.56
     25.0700	  626.00	  598.54	-1718.03	  437.22
     25.1700	  640.00	  584.12	-1689.61	  436.88
     25.2700	  624.00	  572.18	-1693.66	  436.54
     25.3700	  611.00	  563.92	-1698.40	  436.19
     25.4700	  569.00	  558.80	-1735.29	  435.85
     25.5700	  590.00	  555.80	-1711.29	  435.50
     25.6700	  549.00	  554.01	-1750.50	  435.15
     25.7700	  620.00	  552.86	-1678.35	  434.80
     25.8700	  582.00	  552.07	-1715.55	  434.45
     25.9700	  601.00	  551.48	-1695.97	  434.10
     26.0700	  589.00	  551.05	-1707.54	  433.74
     26.1700	  588.00	  550.74	-1708.23	  433.39
     26.2700	  554.00	  550.54	-1742.03	  433.03
     26.3700	  562.00	  550.45	-1733.93	  432.68
     26.4700	  571.00	  550.45	-1724.94	  432.32
     26.5700	  527.00	  550.57	-1769.06	  431.96
     26.6700	  551.00	  550.81	-1745.30	  431.60
     26.7700	  513.00	  551.20	-1783.68	  431.24
     26.8700	  565.00	  551.76	-1732.25	  430.88
     26.9700	  528.00	  552.54	-1770.03	  430.52
     27.0700	  622.00	  553.62	-1677.10	  430.16
     27.1700	  603.00	  555.08	-1697.57	  429.80
     27.2700	  601.00	  557.13	-1701.62	  429.43
     27.3700	  583.00	  560.11	-1722.60	  429.07
     27.4700	  557.00	  564.69	-1753.18	  428.70
     27.5700	  570.00	  572.09	-1747.57	  428.34
     27.6700	  602.00	  584.34	-1727.83	  427.97
     27.7700	  577.00	  604.38	-1772.87	  427.60
     27.8700	  607.00	  635.42	-1773.90	  427.24
     27.9700	  699.00	  679.31	-1725.79	  426.87
     28.0700	  717.00	  734.11	-1762.59	  426.50
     28.1700	  814.00	  791.52	-1723.01	  426.13
     28.2700	  937.00	  835.32	-1643.80	  425.76
     28.3700	  973.00	  845.62	-1618.11	  425.39
     28.4700	  865.00	  819.51	-1700.00	  425.02
     28.5700	  823.00	  783.98	-1706.47	  424.65
     28.6700	  718.00	  766.47	-1793.96	  424.28
     28.7700	  699.00	  774.64	-1821.13	  423.91
     28.8700	  808.00	  799.38	-1736.87	  423.54
     28.9700	  835.00	  820.04	-1730.53	  423.17
     29.0700	  810.00	  812.10	-1747.58	  422.80
     29.1700	  759.00	  767.27	-1753.76	  422.43
     29.2700	  730.00	  705.58	-1721.07	  422.06
     29.3700	  675.00	  650.03	-1720.51	  421.69
     29.4700	  612.00	  609.62	-1743.11	  421.31
     29.5700	  600.00	  583.98	-1729.47	  420.94
     29.6700	  596.00	  569.03	-1718.52	  420.57
     29.7700	  569.00	  560.50	-1736.99	  420.20
     29.8700	  620.00	  555.45	-1680.93	  419.83
     29.9700	  576.00	  552.28	-1721.77	  419.46
     30.0700	  628.00	  550.32	-1667.81	  419.08
     30.1700	  611.00	  549.42	-1683.91	  418.71
     30.2700	  535.00	  549.76	-1760.25	  418.34
     30.3700	  546.00	  551.87	-1751.36	  417.97
     30.4700	  552.00	  556.67	-1750.15	  417.60
     30.5700	  570.00	  565.25	-1740.74	  417.23
     30.6700	  610.00	  578.36	-1713.85	  416.86
     30.7700	  587.00	  595.43	-1753.92	  416.49
     30.8700	  584.00	  613.63	-1775.12	  416.12
     30.9700	  612.00	  627.40	-1760.89	  415.75
     31.0700	  621.00	  629.51	-1753.99	  415.38
     31.1700	  621.00	  616.77	-1741.26	  415.01
     31.2700	  577.00	  595.58	-1764.07	  414.65
     31.3700	  642.00	  574.85	-1678.34	  414.28
     31.4700	  610.00	  558.93	-1694.42	  413.91
     31.5700	  540.00	  548.37	-1753.85	  413.54
     31.6700	  579.00	  542.00	-1708.48	  413.18
     31.7700	  569.00	  538.31	-1714.80	  412.81
     31.8700	  529.00	  536.13	-1752.62	  412.45
     31.9700	  524.00	  534.75	-1756.24	  412.08
     32.0700	  558.00	  533.82	-1721.31	  411.72
     32.1700	  542.00	  533.20	-1736.69	  411.35
     32.2700	  550.00	  532.81	-1728.30	  410.99
     32.3700	  561.00	  532.65	-1717.13	  410.63
     32.4700	  584.00	  532.69	-1694.17	  410.27
     32.5700	  540.00	  532.95	-1738.43	  409.90
     32.6700	  563.00	  533.46	-1715.95	  409.54
     32.7700	  578.00	  534.27	-1701.75	  409.18
     32.8700	  567.00	  535.44	-1713.93	  408.83
     32.9700	  508.00	  537.10	-1774.59	  408.47
     33.0700	  544.00	  539.44	-1740.93	  408.11
     33.1700	  545.00	  542.83	-1743.32	  407.75
     33.2700	  559.00	  548.01	-1734.50	  407.40
     33.3700	  560.00	  556.42	-1741.91	  407.04
     33.4700	  581.00	  570.68	-1735.17	  406.69
     33.5700	  582.00	  594.81	-1758.30	  406.34
     33.6700	  604.00	  634.03	-1775.52	  405.98
     33.7700	  695.00	  692.61	-1743.10	  405.63
     33.8700	  740.00	  769.87	-1775.36	  405.28
     33.9700	  864.00	  855.62	-1737.10	  404.93
     34.0700	  974.00	  927.64	-1699.12	  404.58
     34.1700	 1047.00	  954.99	-1653.48	  404.24
     34.2700	  974.00	  917.77	-1689.26	  403.89
     34.3700	  913.00	  833.88	-1666.37	  403.54
     34.4700	  759.00	  741.54	-1728.02	  403.20
     34.5700	  657.00	  664.96	-1753.45	  402.86
     34.6700	  609.00	  610.92	-1747.41	  402.51
     34.7700	  577.00	  576.84	-1745.33	  402.17
     34.8700	  598.00	  556.75	-1704.24	  401.83
     34.9700	  534.00	  545.01	-1756.50	  401.49
     35.0700	  496.00	  537.74	-1787.22	  401.16
     35.1700	  528.00	  532.79	-1750.27	  400.82
     35.2700	  552.00	  529.12	-1722.61	  400.48
     35.3700	  510.00	  526.24	-1761.73	  400.15
     35.4700	  530.00	  523.90	-1739.39	  399.82
     35.5700	  499.00	  522.42	-1768.91	  399.48
     35.6700	  534.00	  520.78	-1732.27	  399.15
     35.7700	  533.00	  519.37	-1731.86	  398.82
     35.8700	  502.00	  518.16	-1761.64	  398.50
     35.9700	  539.00	  517.08	-1723.56	  398.17
     36.0700	  537.00	  516.09	-1724.58	  397.84
     36.1700	  525.00	  515.23	-1735.71	  397.52
     36.2700	  539.00	  514.45	-1720.94	  397.20
     36.3700	  502.00	  513.74	-1757.23	  396.87
     36.4700	  523.00	  513.10	-1735.59	  396.55
     36.5700	  501.00	  512.52	-1757.00	  396.23
     36.6700	  500.00	  511.99	-1757.48	  395.92
     36.7700	  497.00	  511.52	-1760.00	  395.60
     36.8700	  474.00	  511.11	-1782.60	  395.29
     36.9700	  488.00	  510.80	-1768.29	  394.97
     37.0700	  524.00	  510.62	-1732.11	  394.66
     37.1700	  519.00	  510.67	-1737.16	  394.35
     37.2700	  520.00	  511.07	-1736.56	  394.04
     37.3700	  553.00	  511.96	-1704.45	  393.73
     37.4700	  531.00	  513.44	-1727.92	  393.43
     37.5700	  476.00	  515.43	-1784.91	  393.12
     37.6700	  511.00	  517.77	-1752.25	  392.82
     37.7700	  518.00	  519.42	-1746.91	  392.52
     37.8700	  503.00	  519.73	-1762.22	  392.22
     37.9700	  529.00	  518.29	-1734.78	  391.92
     38.0700	  484.00	  515.68	-1777.17	  391.62
     38.1700	  512.00	  512.81	-1746.29	  391.32
     38.2700	  510.00	  510.23	-1745.71	  391.03
     38.3700	  542.00	  508.16	-1711.65	  390.74
     38.4700	  485.00	  506.62	-1767.11	  390.45
     38.5700	  524.00	  505.53	-1727.01	  390.16
     38.6700	  506.00	  504.73	-1744.22	  389.87
     38.7700	  504.00	  504.13	-1745.61	  389.58
     38.8700	  476.00	  503.63	-1773.12	  389.30
     38.9700	  521.00	  503.21	-1727.70	  389.02
     39.0700	  481.00	  502.83	-1767.32	  388.73
     39.1700	  510.00	  502.48	-1737.97	  388.45
     39.2700	  534.00	  502.15	-1713.64	  388.18
     39.3700	  487.00	  501.74	-1760.23	  387.90
     39.4700	  471.00	  501.44	-1775.93	  387.63
     39.5700	  495.00	  501.16	-1751.65	  387.35
     39.6700	  530.00	  500.89	-1716.38	  387.08
     39.7700	  456.00	  500.63	-1790.12	  386.81
     39.8700	  494.00	  500.39	-1751.87	  386.54
     39.9700	  458.00	  500.15	-1787.64	  386.28
     40.0700	  494.00	  499.93	-1751.41	  386.01
     40.1700	  479.00	  499.62	-1766.10	  385.75
     40.2700	  479.00	  499.42	-1765.90	  385.49
     40.3700	  496.00	  499.74	-1749.23	  385.23
     40.4700	  506.00	  499.58	-1739.06	  384.97
     40.5700	  495.00	  499.43	-1749.91	  384.72
     40.6700	  477.00	  499.29	-1767.78	  384.46
     40.7700	  460.00	  499.18	-1784.67	  384.21
