MSG Master    CELL:    5.88188   5.88188  23.11072   90.0000   90.0000  120.0000   SPGR: P 63/m m c             TEMP:    551.15
  2   1280     2.52000     0.00000    -0.09229     0.00000     0.00000    0
    96    96     0     0     2
       0.00000      10.00000
     125.00000     130.00000
 2Theta	Yobs	Ycal	Yobs-Ycal	Backg	Posr	(hkl)	K
      0.7700	    0.00	  907.30	-1953.84	  773.78
      0.8700	    0.00	  904.58	-1953.84	  771.06
      0.9700	   48.00	  901.88	-1953.84	  768.36
      1.0700	   41.00	  899.19	-1953.84	  765.68
      1.1700	   47.00	  896.52	-1953.84	  763.01
      1.2700	   41.00	  893.87	-1953.84	  760.35
      1.3700	   38.00	  891.23	-1953.84	  757.71
      1.4700	  104.00	  888.61	-1953.84	  755.09
      1.5700	  323.00	  886.00	-1953.84	  752.48
      1.6700	  461.00	  883.41	-1953.84	  749.89
      1.7700	  580.00	  880.83	-1953.84	  747.31
      1.8700	  620.00	  878.27	-1953.84	  744.75
      1.9700	  715.00	  875.72	-1953.84	  742.20
      2.0700	  794.00	  873.19	-1953.84	  739.67
      2.1700	  787.00	  870.68	-1953.84	  737.16
      2.2700	  784.00	  868.18	-1953.84	  734.66
      2.3700	  736.00	  865.69	-1953.84	  732.17
      2.4700	  724.00	  863.22	-1953.84	  729.70
      2.5700	  735.00	  860.76	-1953.84	  727.25
      2.6700	  658.00	  858.32	-1953.84	  724.80
      2.7700	  687.00	  855.90	-1953.84	  722.38
      2.8700	  693.00	  853.49	-1953.84	  719.97
      2.9700	  637.00	  851.09	-1953.84	  717.57
      3.0700	  675.00	  848.71	-1953.84	  715.19
      3.1700	  560.00	  846.34	-1953.84	  712.82
      3.2700	  699.00	  843.99	-1953.84	  710.47
      3.3700	  896.00	  841.65	-1953.84	  708.13
      3.4700	 1101.00	  839.33	-1953.84	  705.81
      3.5700	 1188.00	  837.02	-1953.84	  703.50
      3.6700	 1364.00	  834.72	-1953.84	  701.21
      3.7700	 1402.00	  832.44	-1953.84	  698.92
      3.8700	 1490.00	  830.18	-1953.84	  696.66
      3.9700	 1546.00	  827.93	-1953.84	  694.41
      4.0700	 1660.00	  825.69	-1953.84	  692.17
      4.1700	 1716.00	  823.46	-1953.84	  689.94
      4.2700	 1732.00	  821.25	-1953.84	  687.73
      4.3700	 1704.00	  819.06	-1953.84	  685.54
      4.4700	 1593.00	  816.88	-1953.84	  683.36
      4.5700	 1549.00	  814.71	-1953.84	  681.19
      4.6700	 1430.00	  812.55	-1953.84	  679.03
      4.7700	 1431.00	  810.41	-1953.84	  676.89
      4.8700	 1417.00	  808.28	-1953.84	  674.76
      4.9700	 1462.00	  806.17	-1953.84	  672.65
      5.0700	 1295.00	  804.07	-1953.84	  670.55
      5.1700	 1264.00	  801.98	-1953.84	  668.46
      5.2700	 1267.00	  799.91	-1953.84	  666.39
      5.3700	 1227.00	  797.85	-1953.84	  664.33
      5.4700	 1239.00	  795.80	-1953.84	  662.28
      5.5700	 1145.00	  793.77	-1953.84	  660.25
      5.6700	 1193.00	  791.75	-1953.84	  658.23
      5.7700	 1113.00	  789.74	-1953.84	  656.22
      5.8700	 1102.00	  787.75	-1953.84	  654.23
      5.9700	 1061.00	  785.77	-1953.84	  652.25
      6.0700	 1118.00	  783.80	-1953.84	  650.28
      6.1700	 1081.00	  781.84	-1953.84	  648.33
      6.2700	 1035.00	  779.90	-1953.84	  646.38
      6.3700	  979.00	  777.97	-1953.84	  644.45
      6.4700	  959.00	  776.06	-1953.84	  642.54
      6.5700	  971.00	  774.15	-1953.84	  640.63
      6.6700	  928.00	  772.26	-1953.84	  638.74
      6.7700	  940.00	  770.38	-1953.84	  636.86
      6.8700	  941.00	  768.52	-1953.84	  635.00
      6.9700	  969.00	  766.66	-1953.84	  633.14
      7.0700	  943.00	  764.82	-1953.84	  631.30
      7.1700	  891.00	  762.99	-1953.84	  629.47
      7.2700	  937.00	  761.18	-1953.84	  627.66
      7.3700	  849.00	  759.37	-1953.84	  625.85
      7.4700	  830.00	  757.58	-1953.84	  624.06
      7.5700	  852.00	  755.80	-1953.84	  622.28
      7.6700	  844.00	  754.03	-1953.84	  620.52
      7.7700	  821.00	  752.28	-1953.84	  618.76
      7.8700	  734.00	  750.54	-1953.84	  617.02
      7.9700	  826.00	  748.80	-1953.84	  615.28
      8.0700	  785.00	  747.08	-1953.84	  613.57
      8.1700	  790.00	  745.38	-1953.84	  611.86
      8.2700	  815.00	  743.68	-1953.84	  610.16
      8.3700	  799.00	  742.00	-1953.84	  608.48
      8.4700	  757.00	  740.32	-1953.84	  606.80
      8.5700	  810.00	  738.66	-1953.84	  605.14
      8.6700	  769.00	  737.01	-1953.84	  603.49
      8.7700	  755.00	  735.38	-1953.84	  601.86
      8.8700	  784.00	  733.75	-1953.84	  600.23
      8.9700	  744.00	  732.14	-1953.84	  598.62
      9.0700	  762.00	  730.53	-1953.84	  597.01
      9.1700	  758.00	  728.94	-1953.84	  595.42
      9.2700	  719.00	  727.36	-1953.84	  593.84
      9.3700	  768.00	  725.79	-1953.84	  592.27
      9.4700	  784.00	  724.23	-1953.84	  590.71
      9.5700	  745.00	  722.68	-1953.84	  589.17
      9.6700	  693.00	  721.15	-1953.84	  587.63
      9.7700	  745.00	  719.62	-1953.84	  586.11
      9.8700	  761.00	  718.11	-1953.84	  584.59
      9.9700	  726.00	  716.61	-1953.84	  583.09
     10.0700	  716.00	  717.28	-1955.12	  581.60
     10.1700	  691.00	  716.03	-1978.87	  580.12
     10.2700	  744.00	  714.84	-1924.68	  578.65
     10.3700	  743.00	  713.73	-1924.57	  577.19
     10.4700	  688.00	  712.71	-1978.56	  575.74
     10.5700	  701.00	  711.84	-1964.69	  574.30
     10.6700	  738.00	  711.18	-1927.02	  572.87
     10.7700	  691.00	  710.80	-1973.64	  571.45
     10.8700	  756.00	  710.81	-1908.65	  570.05
     10.9700	  719.00	  711.29	-1946.13	  568.65
     11.0700	  732.00	  712.29	-1934.13	  567.27
     11.1700	  700.00	  713.82	-1967.66	  565.89
     11.2700	  672.00	  715.91	-1997.75	  564.53
     11.3700	  740.00	  718.60	-1932.45	  563.17
     11.4700	  734.00	  722.00	-1941.84	  561.83
     11.5700	  740.00	  726.26	-1940.10	  560.49
     11.6700	  746.00	  731.62	-1939.46	  559.17
     11.7700	  782.00	  738.36	-1910.20	  557.85
     11.8700	  719.00	  746.77	-1981.61	  556.55
     11.9700	  791.00	  756.86	-1919.70	  555.26
     12.0700	  827.00	  767.97	-1894.81	  553.97
     12.1700	  849.00	  778.25	-1883.09	  552.70
     12.2700	  825.00	  784.09	-1912.93	  551.43
     12.3700	  840.00	  780.67	-1894.51	  550.18
     12.4700	  803.00	  765.99	-1916.84	  548.93
     12.5700	  743.00	  745.22	-1956.06	  547.70
     12.6700	  717.00	  725.54	-1962.38	  546.47
     12.7700	  702.00	  710.16	-1962.00	  545.26
     12.8700	  679.00	  699.27	-1974.11	  544.05
     12.9700	  656.00	  691.86	-1989.70	  542.85
     13.0700	  664.00	  686.78	-1976.62	  541.67
     13.1700	  676.00	  683.11	-1960.95	  540.49
     13.2700	  644.00	  680.25	-1990.10	  539.32
     13.3700	  667.00	  677.87	-1964.72	  538.16
     13.4700	  621.00	  675.80	-2008.64	  537.01
     13.5700	  640.00	  673.94	-1987.78	  535.87
     13.6700	  688.00	  672.22	-1938.07	  534.74
     13.7700	  652.00	  670.63	-1972.47	  533.62
     13.8700	  640.00	  669.13	-1982.97	  532.50
     13.9700	  689.00	  667.70	-1932.54	  531.40
     14.0700	  669.00	  666.33	-1951.17	  530.30
     14.1700	  669.00	  665.01	-1949.85	  529.22
     14.2700	  657.00	  663.73	-1960.57	  528.14
     14.3700	  664.00	  662.49	-1952.33	  527.07
     14.4700	  647.00	  661.28	-1968.12	  526.01
     14.5700	  655.00	  660.10	-1958.94	  524.96
     14.6700	  643.00	  658.94	-1969.78	  523.92
     14.7700	  656.00	  657.81	-1955.65	  522.89
     14.8700	  675.00	  656.69	-1935.53	  521.86
     14.9700	  664.00	  655.59	-1945.44	  520.85
     15.0700	  621.00	  654.52	-1987.36	  519.84
     15.1700	  628.00	  653.45	-1979.29	  518.84
     15.2700	  582.00	  652.40	-2024.25	  517.85
     15.3700	  653.00	  651.37	-1952.21	  516.87
     15.4700	  699.00	  650.35	-1905.19	  515.89
     15.5700	  653.00	  649.34	-1950.18	  514.93
     15.6700	  661.00	  648.34	-1941.18	  513.97
     15.7700	  662.00	  647.36	-1939.20	  513.02
     15.8700	  671.00	  646.38	-1929.22	  512.08
     15.9700	  663.00	  645.42	-1936.26	  511.15
     16.0700	  624.00	  644.47	-1974.31	  510.23
     16.1700	  725.00	  643.53	-1872.37	  509.31
     16.2700	  631.00	  642.59	-1965.44	  508.41
     16.3700	  654.00	  641.67	-1941.52	  507.51
     16.4700	  636.00	  640.76	-1958.60	  506.61
     16.5700	  627.00	  639.86	-1966.70	  505.73
     16.6700	  611.00	  638.96	-1981.81	  504.85
     16.7700	  637.00	  638.08	-1954.92	  503.99
     16.8700	  670.00	  637.21	-1921.05	  503.13
     16.9700	  621.00	  636.34	-1969.18	  502.27
     17.0700	  628.00	  635.48	-1961.32	  501.43
     17.1700	  617.00	  634.63	-1971.48	  500.59
     17.2700	  645.00	  633.79	-1942.64	  499.76
     17.3700	  644.00	  632.96	-1942.80	  498.94
     17.4700	  660.00	  632.14	-1925.98	  498.13
     17.5700	  677.00	  631.32	-1908.17	  497.32
     17.6700	  652.00	  630.52	-1932.36	  496.52
     17.7700	  659.00	  629.72	-1924.56	  495.73
     17.8700	  551.00	  628.93	-2031.77	  494.95
     17.9700	  630.00	  628.14	-1951.99	  494.17
     18.0700	  620.00	  627.37	-1961.21	  493.40
     18.1700	  574.00	  626.60	-2006.44	  492.64
     18.2700	  570.00	  625.84	-2009.68	  491.88
     18.3700	  601.00	  625.09	-1977.93	  491.13
     18.4700	  615.00	  624.35	-1963.19	  490.39
     18.5700	  619.00	  623.61	-1958.45	  489.66
     18.6700	  587.00	  622.88	-1989.72	  488.93
     18.7700	  621.00	  622.16	-1955.00	  488.21
     18.8700	  653.00	  621.44	-1922.29	  487.50
     18.9700	  631.00	  620.74	-1943.58	  486.80
     19.0700	  637.00	  622.78	-1939.63	  486.10
     19.1700	  652.00	  622.15	-1923.99	  485.41
     19.2700	  652.00	  621.53	-1923.37	  484.72
     19.3700	  603.00	  620.91	-1971.75	  484.04
     19.4700	  599.00	  620.30	-1975.15	  483.37
     19.5700	  590.00	  619.71	-1983.55	  482.71
     19.6700	  604.00	  619.12	-1968.96	  482.05
     19.7700	  571.00	  618.54	-2001.38	  481.40
     19.8700	  620.00	  617.97	-1951.82	  480.76
     19.9700	  611.00	  617.41	-1960.26	  480.12
     20.0700	  587.00	  616.86	-1983.71	  479.49
     20.1700	  616.00	  616.33	-1954.17	  478.86
     20.2700	  603.00	  615.85	-1966.70	  478.25
     20.3700	  633.00	  615.34	-1936.18	  477.63
     20.4700	  657.00	  614.83	-1911.67	  477.03
     20.5700	  612.00	  614.33	-1956.17	  476.43
     20.6700	  589.00	  613.84	-1978.69	  475.84
     20.7700	  590.00	  613.37	-1977.21	  475.25
     20.8700	  620.00	  612.90	-1946.75	  474.67
     20.9700	  602.00	  612.45	-1964.29	  474.10
     21.0700	  579.00	  612.01	-1986.85	  473.53
     21.1700	  676.00	  611.58	-1889.42	  472.97
     21.2700	  660.00	  611.16	-1905.00	  472.41
     21.3700	  609.00	  610.76	-1955.60	  471.86
     21.4700	  617.00	  610.36	-1947.21	  471.32
     21.5700	  560.00	  609.99	-2003.83	  470.78
     21.6700	  607.00	  609.62	-1956.46	  470.25
     21.7700	  600.00	  609.27	-1963.11	  469.72
     21.8700	  631.00	  608.94	-1931.78	  469.21
     21.9700	  655.00	  608.62	-1907.46	  468.69
     22.0700	  605.00	  608.32	-1957.16	  468.18
     22.1700	  595.00	  608.03	-1966.87	  467.68
     22.2700	  618.00	  607.77	-1943.61	  467.18
     22.3700	  590.00	  607.72	-1971.56	  466.69
     22.4700	  590.00	  607.50	-1971.34	  466.21
     22.5700	  635.00	  607.30	-1926.14	  465.73
     22.6700	  618.00	  607.12	-1942.96	  465.26
     22.7700	  560.00	  606.97	-2000.82	  464.79
     22.8700	  631.00	  606.86	-1929.70	  464.33
     22.9700	  614.00	  606.77	-1946.61	  463.87
     23.0700	  602.00	  606.72	-1958.56	  463.42
     23.1700	  628.00	  606.71	-1932.55	  462.97
     23.2700	  586.00	  606.75	-1974.59	  462.53
     23.3700	  617.00	  606.84	-1943.68	  462.09
     23.4700	  677.00	  606.99	-1883.83	  461.66
     23.5700	  610.00	  607.22	-1951.06	  461.24
     23.6700	  563.00	  607.55	-1998.39	  460.82
     23.7700	  638.00	  608.00	-1923.84	  460.41
     23.8700	  562.00	  608.61	-2000.46	  460.00
     23.9700	  614.00	  609.48	-1949.32	  459.59
     24.0700	  611.00	  610.70	-1953.54	  459.19
     24.1700	  644.00	  612.49	-1922.33	  458.80
     24.2700	  601.00	  615.14	-1967.99	  458.41
     24.3700	  635.00	  618.99	-1937.83	  458.03
     24.4700	  644.00	  624.56	-1934.41	  457.65
     24.5700	  665.00	  632.07	-1920.92	  457.28
     24.6700	  663.00	  641.44	-1932.29	  456.91
     24.7700	  681.00	  651.97	-1924.81	  456.54
     24.8700	  716.00	  661.98	-1899.82	  456.18
     24.9700	  660.00	  668.59	-1962.43	  455.83
     25.0700	  734.00	  668.45	-1888.29	  455.48
     25.1700	  694.00	  660.95	-1920.80	  455.14
     25.2700	  657.00	  649.98	-1946.82	  454.80
     25.3700	  664.00	  639.88	-1929.72	  454.46
     25.4700	  668.00	  632.40	-1918.24	  454.13
     25.5700	  641.00	  627.74	-1940.58	  453.80
     25.6700	  617.00	  625.37	-1962.21	  453.48
     25.7700	  693.00	  624.64	-1885.49	  453.17
     25.8700	  673.00	  625.03	-1905.88	  452.85
     25.9700	  643.00	  626.20	-1937.05	  452.55
     26.0700	  612.00	  627.98	-1969.82	  452.24
     26.1700	  637.00	  630.30	-1947.14	  451.94
     26.2700	  639.00	  633.16	-1948.01	  451.65
     26.3700	  661.00	  636.62	-1929.46	  451.36
     26.4700	  629.00	  640.74	-1965.58	  451.08
     26.5700	  650.00	  645.63	-1949.47	  450.79
     26.6700	  628.00	  651.44	-1977.28	  450.52
     26.7700	  613.00	  658.36	-1999.21	  450.24
     26.8700	  702.00	  666.67	-1918.51	  449.98
     26.9700	  700.00	  676.70	-1930.54	  449.71
     27.0700	  705.00	  688.95	-1937.80	  449.45
     27.1700	  685.00	  704.10	-1972.95	  449.20
     27.2700	  747.00	  723.16	-1930.00	  448.94
     27.3700	  726.00	  747.75	-1975.59	  448.70
     27.4700	  760.00	  780.98	-1974.82	  448.45
     27.5700	  763.00	  829.57	-2020.42	  448.21
     27.6700	  791.00	  908.32	-2071.16	  447.98
     27.7700	  855.00	 1047.01	-2145.86	  447.75
     27.8700	  946.00	 1298.18	-2306.02	  447.52
     27.9700	 1265.00	 1739.72	-2428.56	  447.29
     28.0700	 2055.00	 2459.88	-2358.72	  447.07
     28.1700	 3214.00	 3510.18	-2250.02	  446.86
     28.2700	 5034.00	 4815.44	-1735.28	  446.65
     28.3700	 6831.00	 6065.22	-1188.06	  446.44
     28.4700	 7541.00	 6703.67	-1116.51	  446.23
     28.5700	 6702.00	 6260.13	-1511.97	  446.03
     28.6700	 5075.00	 5060.51	-1939.35	  445.83
     28.7700	 3683.00	 3960.67	-2231.52	  445.64
     28.8700	 3107.00	 3429.88	-2276.72	  445.45
     28.9700	 3527.00	 3454.34	-1881.19	  445.26
     29.0700	 4029.00	 3736.15	-1661.00	  445.08
     29.1700	 4124.00	 3869.86	-1699.70	  444.90
     29.2700	 3776.00	 3545.05	-1722.89	  444.73
     29.3700	 2848.00	 2838.10	-1943.95	  444.55
     29.4700	 1863.00	 2093.36	-2184.20	  444.39
     29.5700	 1424.00	 1523.71	-2053.56	  444.22
     29.6700	 1083.00	 1164.19	-2035.04	  444.06
     29.7700	  943.00	  964.21	-1975.06	  443.90
     29.8700	  876.00	  857.78	-1935.62	  443.74
     29.9700	  811.00	  797.73	-1940.57	  443.59
     30.0700	  795.00	  759.49	-1918.34	  443.44
     30.1700	  728.00	  732.57	-1958.41	  443.30
     30.2700	  718.00	  712.72	-1948.56	  443.16
     30.3700	  698.00	  698.23	-1954.07	  443.02
     30.4700	  673.00	  688.61	-1969.45	  442.88
     30.5700	  621.00	  684.32	-2017.16	  442.75
     30.6700	  656.00	  686.63	-1984.47	  442.62
     30.7700	  681.00	  697.10	-1969.94	  442.50
     30.8700	  681.00	  716.29	-1989.13	  442.37
     30.9700	  755.00	  741.90	-1940.74	  442.25
     31.0700	  790.00	  767.26	-1931.10	  442.14
     31.1700	  792.00	  781.09	-1942.93	  442.02
     31.2700	  808.00	  771.87	-1917.71	  441.91
     31.3700	  727.00	  740.53	-1967.37	  441.80
     31.4700	  722.00	  702.10	-1933.94	  441.70
     31.5700	  697.00	  669.04	-1925.88	  441.60
     31.6700	  681.00	  645.47	-1918.31	  441.50
     31.7700	  670.00	  630.52	-1914.36	  441.40
     31.8700	  635.00	  621.58	-1940.42	  441.31
     31.9700	  629.00	  616.15	-1940.99	  441.22
     32.0700	  647.00	  612.59	-1919.44	  441.13
     32.1700	  620.00	  610.06	-1943.91	  441.04
     32.2700	  596.00	  608.18	-1966.02	  440.96
     32.3700	  620.00	  606.76	-1940.61	  440.88
     32.4700	  641.00	  605.75	-1918.59	  440.80
     32.5700	  641.00	  605.09	-1917.93	  440.73
     32.6700	  610.00	  604.78	-1948.62	  440.66
     32.7700	  605.00	  604.83	-1953.67	  440.59
     32.8700	  622.00	  605.31	-1937.15	  440.52
     32.9700	  623.00	  606.21	-1937.05	  440.46
     33.0700	  620.00	  607.67	-1941.51	  440.40
     33.1700	  629.00	  609.85	-1934.69	  440.34
     33.2700	  673.00	  613.04	-1893.88	  440.28
     33.3700	  640.00	  617.82	-1931.66	  440.23
     33.4700	  684.00	  625.32	-1895.16	  440.18
     33.5700	  673.00	  637.69	-1918.53	  440.13
     33.6700	  650.00	  658.68	-1962.53	  440.08
     33.7700	  763.00	  693.84	-1884.68	  440.03
     33.8700	  765.00	  749.55	-1938.39	  439.99
     33.9700	  851.00	  829.85	-1932.69	  439.95
     34.0700	 1009.00	  930.95	-1875.80	  439.92
     34.1700	 1155.00	 1036.20	-1835.04	  439.88
     34.2700	 1205.00	 1114.16	-1863.00	  439.85
     34.3700	 1202.00	 1126.86	-1878.70	  439.82
     34.4700	 1115.00	 1060.82	-1899.66	  439.79
     34.5700	  900.00	  949.82	-2003.67	  439.76
     34.6700	  824.00	  838.81	-1968.65	  439.74
     34.7700	  782.00	  750.99	-1922.83	  439.72
     34.8700	  684.00	  690.81	-1960.66	  439.70
     34.9700	  711.00	  653.55	-1896.39	  439.68
     35.0700	  685.00	  631.74	-1900.58	  439.66
     35.1700	  656.00	  618.93	-1916.77	  439.65
     35.2700	  647.00	  610.92	-1917.76	  439.64
     35.3700	  661.00	  605.44	-1898.28	  439.63
     35.4700	  637.00	  601.41	-1918.25	  439.62
     35.5700	  621.00	  598.30	-1931.14	  439.61
     35.6700	  576.00	  595.83	-1973.67	  439.61
     35.7700	  599.00	  593.85	-1948.69	  439.61
     35.8700	  610.00	  592.25	-1936.09	  439.61
     35.9700	  634.00	  590.94	-1910.78	  439.61
     36.0700	  637.00	  589.87	-1906.72	  439.61
     36.1700	  611.00	  589.01	-1931.86	  439.62
     36.2700	  600.00	  588.33	-1942.17	  439.62
     36.3700	  583.00	  587.80	-1958.64	  439.63
     36.4700	  632.00	  587.42	-1909.26	  439.64
     36.5700	  611.00	  587.17	-1930.01	  439.66
     36.6700	  599.00	  587.06	-1941.91	  439.67
     36.7700	  618.00	  587.10	-1922.95	  439.69
     36.8700	  538.00	  587.31	-2003.15	  439.70
     36.9700	  567.00	  587.91	-1974.75	  439.72
     37.0700	  586.00	  588.56	-1956.41	  439.74
     37.1700	  634.00	  590.05	-1909.89	  439.77
     37.2700	  585.00	  591.56	-1960.41	  439.79
     37.3700	  586.00	  593.89	-1961.73	  439.82
     37.4700	  643.00	  597.45	-1908.29	  439.84
     37.5700	  631.00	  603.02	-1925.86	  439.87
     37.6700	  588.00	  611.71	-1977.55	  439.90
     37.7700	  644.00	  624.90	-1934.74	  439.93
     37.8700	  597.00	  643.84	-2000.69	  439.97
     37.9700	  655.00	  668.87	-1967.72	  440.00
     38.0700	  654.00	  696.67	-1996.52	  440.04
     38.1700	  674.00	  726.06	-2005.91	  440.08
     38.2700	  768.00	  747.66	-1933.50	  440.11
     38.3700	  745.00	  752.04	-1960.88	  440.15
     38.4700	  691.00	  735.02	-1997.86	  440.20
     38.5700	  755.00	  703.89	-1902.73	  440.24
     38.6700	  635.00	  670.43	-1989.28	  440.28
     38.7700	  631.00	  642.03	-1964.87	  440.33
     38.8700	  650.00	  621.06	-1924.91	  440.37
     38.9700	  605.00	  607.05	-1955.90	  440.42
     39.0700	  549.00	  598.33	-2003.17	  440.47
     39.1700	  575.00	  593.05	-1971.89	  440.52
     39.2700	  651.00	  589.80	-1892.64	  440.57
     39.3700	  611.00	  587.67	-1930.51	  440.63
     39.4700	  610.00	  586.17	-1930.02	  440.68
     39.5700	  598.00	  584.11	-1939.95	  440.74
     39.6700	  602.00	  583.27	-1935.11	  440.79
     39.7700	  605.00	  582.61	-1931.45	  440.85
     39.8700	  605.00	  582.09	-1930.94	  440.91
     39.9700	  645.00	  581.69	-1890.53	  440.97
     40.0700	  614.00	  581.38	-1921.22	  441.03
     40.1700	  618.00	  581.13	-1916.98	  441.09
     40.2700	  586.00	  580.96	-1948.80	  441.15
     40.3700	  582.00	  580.83	-1952.68	  441.22
     40.4700	  573.00	  580.76	-1961.60	  441.28
     40.5700	  554.00	  580.72	-1980.56	  441.35
     40.6700	  564.00	  580.73	-1970.57	  441.41
     40.7700	  610.00	  581.30	-1925.14	  441.48
