MSG Master    CELL:    5.88866   5.88866  23.14695   90.0000   90.0000  120.0000   SPGR: P 63/m m c             TEMP:    634.55
  2   1280     2.52000     0.00000    -0.09410     0.00000     0.00000    0
    96    96     0     0     2
       0.00000      10.00000
     125.00000     130.00000
 2Theta	Yobs	Ycal	Yobs-Ycal	Backg	Posr	(hkl)	K
      0.7700	    0.00	  774.03	-1888.48	  647.80
      0.8700	    0.00	  772.70	-1888.48	  646.47
      0.9700	   42.00	  771.38	-1888.48	  645.15
      1.0700	   56.00	  770.06	-1888.48	  643.83
      1.1700	   43.00	  768.75	-1888.48	  642.52
      1.2700	   48.00	  767.45	-1888.48	  641.22
      1.3700	   62.00	  766.15	-1888.48	  639.91
      1.4700	   84.00	  764.85	-1888.48	  638.62
      1.5700	  301.00	  763.56	-1888.48	  637.33
      1.6700	  465.00	  762.28	-1888.48	  636.04
      1.7700	  579.00	  761.00	-1888.48	  634.76
      1.8700	  684.00	  759.72	-1888.48	  633.49
      1.9700	  698.00	  758.45	-1888.48	  632.22
      2.0700	  801.00	  757.19	-1888.48	  630.96
      2.1700	  777.00	  755.93	-1888.48	  629.70
      2.2700	  756.00	  754.67	-1888.48	  628.44
      2.3700	  738.00	  753.43	-1888.48	  627.19
      2.4700	  671.00	  752.18	-1888.48	  625.95
      2.5700	  701.00	  750.94	-1888.48	  624.71
      2.6700	  672.00	  749.71	-1888.48	  623.48
      2.7700	  637.00	  748.48	-1888.48	  622.25
      2.8700	  625.00	  747.26	-1888.48	  621.03
      2.9700	  658.00	  746.04	-1888.48	  619.81
      3.0700	  658.00	  744.83	-1888.48	  618.59
      3.1700	  655.00	  743.62	-1888.48	  617.39
      3.2700	  728.00	  742.41	-1888.48	  616.18
      3.3700	  860.00	  741.22	-1888.48	  614.98
      3.4700	 1080.00	  740.02	-1888.48	  613.79
      3.5700	 1205.00	  738.83	-1888.48	  612.60
      3.6700	 1304.00	  737.65	-1888.48	  611.42
      3.7700	 1361.00	  736.47	-1888.48	  610.24
      3.8700	 1435.00	  735.30	-1888.48	  609.07
      3.9700	 1502.00	  734.13	-1888.48	  607.90
      4.0700	 1649.00	  732.97	-1888.48	  606.73
      4.1700	 1672.00	  731.81	-1888.48	  605.58
      4.2700	 1656.00	  730.65	-1888.48	  604.42
      4.3700	 1681.00	  729.50	-1888.48	  603.27
      4.4700	 1578.00	  728.36	-1888.48	  602.13
      4.5700	 1515.00	  727.22	-1888.48	  600.99
      4.6700	 1445.00	  726.09	-1888.48	  599.86
      4.7700	 1388.00	  724.96	-1888.48	  598.73
      4.8700	 1394.00	  723.83	-1888.48	  597.60
      4.9700	 1283.00	  722.71	-1888.48	  596.48
      5.0700	 1328.00	  721.60	-1888.48	  595.37
      5.1700	 1298.00	  720.49	-1888.48	  594.26
      5.2700	 1191.00	  719.38	-1888.48	  593.15
      5.3700	 1190.00	  718.28	-1888.48	  592.05
      5.4700	 1152.00	  717.19	-1888.48	  590.96
      5.5700	 1149.00	  716.10	-1888.48	  589.87
      5.6700	 1108.00	  715.01	-1888.48	  588.78
      5.7700	 1041.00	  713.93	-1888.48	  587.70
      5.8700	 1067.00	  712.85	-1888.48	  586.62
      5.9700	 1040.00	  711.78	-1888.48	  585.55
      6.0700	 1018.00	  710.72	-1888.48	  584.48
      6.1700	  970.00	  709.65	-1888.48	  583.42
      6.2700	  960.00	  708.60	-1888.48	  582.37
      6.3700	  943.00	  707.54	-1888.48	  581.31
      6.4700	  990.00	  706.50	-1888.48	  580.26
      6.5700	  925.00	  705.45	-1888.48	  579.22
      6.6700	  957.00	  704.41	-1888.48	  578.18
      6.7700	  856.00	  703.38	-1888.48	  577.15
      6.8700	  860.00	  702.35	-1888.48	  576.12
      6.9700	  899.00	  701.33	-1888.48	  575.09
      7.0700	  899.00	  700.31	-1888.48	  574.07
      7.1700	  853.00	  699.29	-1888.48	  573.06
      7.2700	  832.00	  698.28	-1888.48	  572.05
      7.3700	  838.00	  697.27	-1888.48	  571.04
      7.4700	  785.00	  696.27	-1888.48	  570.04
      7.5700	  741.00	  695.27	-1888.48	  569.04
      7.6700	  797.00	  694.28	-1888.48	  568.05
      7.7700	  802.00	  693.29	-1888.48	  567.06
      7.8700	  809.00	  692.31	-1888.48	  566.08
      7.9700	  782.00	  691.33	-1888.48	  565.10
      8.0700	  759.00	  690.36	-1888.48	  564.13
      8.1700	  754.00	  689.39	-1888.48	  563.16
      8.2700	  720.00	  688.42	-1888.48	  562.19
      8.3700	  714.00	  687.46	-1888.48	  561.23
      8.4700	  778.00	  686.51	-1888.48	  560.27
      8.5700	  737.00	  685.55	-1888.48	  559.32
      8.6700	  769.00	  684.61	-1888.48	  558.38
      8.7700	  751.00	  683.66	-1888.48	  557.43
      8.8700	  766.00	  682.73	-1888.48	  556.49
      8.9700	  766.00	  681.79	-1888.48	  555.56
      9.0700	  721.00	  680.86	-1888.48	  554.63
      9.1700	  720.00	  679.94	-1888.48	  553.71
      9.2700	  711.00	  679.02	-1888.48	  552.78
      9.3700	  709.00	  678.10	-1888.48	  551.87
      9.4700	  710.00	  677.19	-1888.48	  550.96
      9.5700	  731.00	  676.28	-1888.48	  550.05
      9.6700	  721.00	  675.38	-1888.48	  549.15
      9.7700	  719.00	  674.48	-1888.48	  548.25
      9.8700	  713.00	  673.58	-1888.48	  547.35
      9.9700	  720.00	  672.69	-1888.48	  546.46
     10.0700	  698.00	  674.06	-1864.55	  545.58
     10.1700	  688.00	  673.43	-1873.91	  544.70
     10.2700	  710.00	  672.86	-1851.34	  543.82
     10.3700	  670.00	  672.36	-1890.84	  542.95
     10.4700	  662.00	  671.96	-1898.45	  542.08
     10.5700	  713.00	  671.72	-1847.20	  541.21
     10.6700	  699.00	  671.70	-1861.19	  540.35
     10.7700	  686.00	  672.00	-1874.48	  539.50
     10.8700	  685.00	  672.71	-1876.19	  538.64
     10.9700	  722.00	  673.90	-1840.39	  537.80
     11.0700	  689.00	  675.63	-1875.11	  536.95
     11.1700	  674.00	  677.90	-1892.38	  536.12
     11.2700	  686.00	  680.74	-1883.23	  535.28
     11.3700	  682.00	  684.22	-1890.70	  534.45
     11.4700	  734.00	  688.44	-1842.92	  533.62
     11.5700	  772.00	  693.58	-1810.07	  532.80
     11.6700	  690.00	  699.91	-1898.39	  531.98
     11.7700	  708.00	  707.72	-1888.21	  531.17
     11.8700	  715.00	  717.28	-1890.77	  530.36
     11.9700	  797.00	  728.50	-1819.99	  529.55
     12.0700	  822.00	  740.49	-1806.98	  528.75
     12.1700	  831.00	  750.99	-1808.47	  527.95
     12.2700	  790.00	  755.87	-1854.36	  527.16
     12.3700	  770.00	  750.29	-1868.78	  526.37
     12.4700	  824.00	  733.64	-1798.13	  525.59
     12.5700	  683.00	  712.44	-1917.93	  524.81
     12.6700	  629.00	  693.49	-1952.97	  524.03
     12.7700	  657.00	  679.19	-1910.67	  523.25
     12.8700	  690.00	  669.34	-1867.82	  522.49
     12.9700	  659.00	  662.80	-1892.29	  521.72
     13.0700	  639.00	  658.43	-1907.91	  520.96
     13.1700	  635.00	  655.33	-1908.81	  520.20
     13.2700	  567.00	  652.97	-1974.45	  519.45
     13.3700	  637.00	  651.05	-1902.53	  518.70
     13.4700	  635.00	  649.41	-1902.89	  517.96
     13.5700	  636.00	  647.96	-1900.44	  517.21
     13.6700	  627.00	  646.65	-1908.13	  516.48
     13.7700	  631.00	  645.45	-1902.94	  515.74
     13.8700	  613.00	  644.34	-1919.82	  515.01
     13.9700	  650.00	  643.29	-1881.78	  514.29
     14.0700	  635.00	  642.30	-1895.78	  513.57
     14.1700	  658.00	  641.35	-1871.83	  512.85
     14.2700	  615.00	  640.44	-1913.92	  512.14
     14.3700	  627.00	  639.56	-1901.04	  511.42
     14.4700	  588.00	  638.70	-1939.18	  510.72
     14.5700	  620.00	  637.87	-1906.35	  510.02
     14.6700	  663.00	  637.05	-1862.54	  509.32
     14.7700	  623.00	  636.26	-1901.74	  508.62
     14.8700	  672.00	  635.48	-1851.96	  507.93
     14.9700	  539.00	  634.71	-1984.19	  507.25
     15.0700	  611.00	  633.95	-1911.43	  506.56
     15.1700	  588.00	  633.21	-1933.69	  505.88
     15.2700	  580.00	  632.47	-1940.96	  505.21
     15.3700	  663.00	  631.75	-1857.23	  504.53
     15.4700	  631.00	  631.03	-1888.51	  503.87
     15.5700	  651.00	  630.32	-1867.81	  503.20
     15.6700	  636.00	  629.62	-1882.10	  502.54
     15.7700	  614.00	  628.93	-1903.41	  501.88
     15.8700	  655.00	  628.24	-1861.72	  501.23
     15.9700	  580.00	  627.56	-1936.04	  500.58
     16.0700	  594.00	  626.89	-1921.37	  499.94
     16.1700	  612.00	  626.22	-1902.70	  499.29
     16.2700	  650.00	  625.55	-1864.04	  498.65
     16.3700	  609.00	  624.90	-1904.38	  498.02
     16.4700	  658.00	  624.25	-1854.73	  497.39
     16.5700	  620.00	  623.60	-1892.08	  496.76
     16.6700	  622.00	  622.96	-1889.44	  496.14
     16.7700	  634.00	  622.32	-1876.80	  495.52
     16.8700	  594.00	  621.69	-1916.17	  494.90
     16.9700	  628.00	  621.06	-1881.54	  494.29
     17.0700	  633.00	  620.44	-1875.92	  493.68
     17.1700	  618.00	  619.82	-1890.30	  493.07
     17.2700	  637.00	  619.21	-1870.69	  492.47
     17.3700	  606.00	  618.60	-1901.08	  491.87
     17.4700	  630.00	  617.99	-1876.47	  491.27
     17.5700	  586.00	  617.39	-1919.87	  490.68
     17.6700	  606.00	  616.79	-1899.28	  490.09
     17.7700	  665.00	  616.20	-1839.68	  489.51
     17.8700	  584.00	  615.61	-1920.10	  488.92
     17.9700	  568.00	  615.03	-1935.51	  488.35
     18.0700	  665.00	  614.45	-1837.93	  487.77
     18.1700	  584.00	  613.87	-1918.36	  487.20
     18.2700	  597.00	  613.30	-1904.78	  486.63
     18.3700	  567.00	  612.73	-1934.21	  486.07
     18.4700	  636.00	  612.17	-1864.65	  485.51
     18.5700	  617.00	  611.61	-1883.09	  484.95
     18.6700	  569.00	  613.07	-1932.55	  484.40
     18.7700	  605.00	  612.55	-1896.04	  483.84
     18.8700	  585.00	  612.05	-1915.53	  483.30
     18.9700	  606.00	  611.55	-1894.03	  482.75
     19.0700	  585.00	  611.05	-1914.53	  482.21
     19.1700	  585.00	  610.56	-1914.04	  481.68
     19.2700	  583.00	  610.07	-1915.55	  481.14
     19.3700	  597.00	  609.59	-1901.07	  480.61
     19.4700	  604.00	  609.12	-1893.60	  480.08
     19.5700	  604.00	  608.65	-1893.13	  479.56
     19.6700	  584.00	  608.18	-1912.67	  479.04
     19.7700	  625.00	  607.72	-1871.21	  478.52
     19.8700	  560.00	  607.27	-1935.75	  478.01
     19.9700	  562.00	  606.88	-1933.36	  477.50
     20.0700	  604.00	  606.44	-1890.92	  476.99
     20.1700	  582.00	  606.00	-1912.49	  476.48
     20.2700	  566.00	  605.58	-1928.06	  475.98
     20.3700	  600.00	  605.15	-1893.64	  475.48
     20.4700	  595.00	  604.74	-1898.22	  474.99
     20.5700	  608.00	  604.33	-1884.81	  474.50
     20.6700	  614.00	  603.93	-1878.41	  474.01
     20.7700	  605.00	  603.54	-1887.02	  473.52
     20.8700	  564.00	  603.15	-1927.63	  473.04
     20.9700	  576.00	  602.77	-1915.25	  472.56
     21.0700	  578.00	  602.40	-1912.88	  472.09
     21.1700	  618.00	  602.04	-1872.52	  471.61
     21.2700	  627.00	  601.68	-1863.16	  471.14
     21.3700	  606.00	  601.33	-1883.82	  470.68
     21.4700	  555.00	  601.00	-1934.48	  470.21
     21.5700	  583.00	  600.67	-1906.15	  469.75
     21.6700	  664.00	  600.35	-1824.84	  469.30
     21.7700	  593.00	  600.05	-1895.53	  468.84
     21.8700	  619.00	  599.75	-1869.23	  468.39
     21.9700	  610.00	  599.47	-1877.95	  467.94
     22.0700	  581.00	  599.20	-1906.68	  467.50
     22.1700	  576.00	  599.13	-1911.61	  467.06
     22.2700	  589.00	  598.89	-1898.37	  466.62
     22.3700	  568.00	  598.67	-1919.15	  466.18
     22.4700	  597.00	  598.46	-1889.94	  465.75
     22.5700	  595.00	  598.27	-1891.75	  465.32
     22.6700	  572.00	  598.10	-1914.59	  464.89
     22.7700	  635.00	  597.96	-1851.44	  464.47
     22.8700	  616.00	  597.84	-1870.32	  464.04
     22.9700	  585.00	  597.75	-1901.23	  463.63
     23.0700	  598.00	  597.69	-1888.18	  463.21
     23.1700	  617.00	  597.67	-1869.16	  462.80
     23.2700	  575.00	  597.70	-1911.18	  462.39
     23.3700	  594.00	  597.78	-1892.26	  461.98
     23.4700	  603.00	  597.91	-1883.40	  461.58
     23.5700	  596.00	  598.13	-1890.61	  461.18
     23.6700	  637.00	  598.45	-1849.93	  460.78
     23.7700	  644.00	  598.90	-1843.38	  460.38
     23.8700	  653.00	  599.54	-1835.03	  459.99
     23.9700	  664.00	  600.48	-1824.96	  459.60
     24.0700	  625.00	  601.85	-1865.33	  459.22
     24.1700	  622.00	  603.90	-1870.39	  458.83
     24.2700	  634.00	  606.94	-1861.42	  458.45
     24.3700	  623.00	  611.49	-1876.98	  458.07
     24.4700	  674.00	  617.90	-1832.38	  457.70
     24.5700	  670.00	  626.31	-1844.79	  457.32
     24.6700	  689.00	  636.39	-1835.88	  456.95
     24.7700	  690.00	  647.07	-1845.55	  456.59
     24.8700	  749.00	  656.09	-1795.57	  456.22
     24.9700	  704.00	  660.04	-1844.53	  455.86
     25.0700	  695.00	  656.19	-1849.67	  455.50
     25.1700	  650.00	  646.06	-1884.54	  455.14
     25.2700	  706.00	  634.40	-1816.89	  454.79
     25.3700	  647.00	  624.68	-1866.16	  454.44
     25.4700	  649.00	  617.88	-1857.36	  454.09
     25.5700	  624.00	  613.74	-1878.23	  453.74
     25.6700	  641.00	  611.64	-1859.12	  453.40
     25.7700	  611.00	  610.91	-1888.40	  453.06
     25.8700	  629.00	  611.10	-1870.59	  452.72
     25.9700	  641.00	  611.93	-1859.41	  452.39
     26.0700	  621.00	  613.26	-1880.74	  452.05
     26.1700	  659.00	  615.04	-1844.53	  451.72
     26.2700	  650.00	  617.29	-1855.78	  451.39
     26.3700	  637.00	  620.04	-1871.52	  451.07
     26.4700	  635.00	  623.35	-1876.84	  450.75
     26.5700	  633.00	  627.32	-1882.81	  450.43
     26.6700	  634.00	  632.08	-1886.56	  450.11
     26.7700	  603.00	  637.78	-1923.27	  449.79
     26.8700	  660.00	  644.67	-1873.15	  449.48
     26.9700	  625.00	  653.05	-1916.53	  449.17
     27.0700	  659.00	  663.34	-1892.83	  448.86
     27.1700	  657.00	  676.17	-1907.66	  448.56
     27.2700	  695.00	  692.47	-1885.95	  448.26
     27.3700	  707.00	  713.85	-1895.34	  447.96
     27.4700	  716.00	  743.50	-1915.99	  447.66
     27.5700	  730.00	  788.12	-1946.60	  447.36
     27.6700	  808.00	  861.33	-1941.82	  447.07
     27.7700	  794.00	  988.33	-2082.82	  446.78
     27.8700	  963.00	 1209.61	-2135.10	  446.49
     27.9700	 1166.00	 1578.14	-2300.62	  446.21
     28.0700	 1826.00	 2140.38	-2202.86	  445.92
     28.1700	 2696.00	 2897.00	-2089.48	  445.64
     28.2700	 4005.00	 3746.05	-1629.53	  445.36
     28.3700	 5024.00	 4437.48	-1301.97	  445.09
     28.4700	 5377.00	 4617.57	-1129.06	  444.81
     28.5700	 4427.00	 4137.63	-1599.12	  444.54
     28.6700	 3300.00	 3377.45	-1965.93	  444.27
     28.7700	 2433.00	 2811.36	-2266.85	  444.01
     28.8700	 2358.00	 2611.27	-2141.75	  443.74
     28.9700	 2777.00	 2698.80	-1810.28	  443.48
     29.0700	 3034.00	 2856.73	-1711.21	  443.22
     29.1700	 3094.00	 2829.53	-1624.01	  442.96
     29.2700	 2666.00	 2489.96	-1712.44	  442.71
     29.3700	 1968.00	 1979.30	-1899.78	  442.45
     29.4700	 1400.00	 1507.43	-1995.91	  442.20
     29.5700	 1111.00	 1165.96	-1943.44	  441.96
     29.6700	  878.00	  954.30	-1964.78	  441.71
     29.7700	  840.00	  834.98	-1883.46	  441.46
     29.8700	  852.00	  768.74	-1805.22	  441.22
     29.9700	  768.00	  729.32	-1849.80	  440.98
     30.0700	  711.00	  703.23	-1880.71	  440.74
     30.1700	  717.00	  684.59	-1856.07	  440.51
     30.2700	  770.00	  671.00	-1789.48	  440.28
     30.3700	  698.00	  661.58	-1852.07	  440.04
     30.4700	  639.00	  656.39	-1905.87	  439.82
     30.5700	  658.00	  656.20	-1886.68	  439.59
     30.6700	  673.00	  662.35	-1877.84	  439.36
     30.7700	  661.00	  675.95	-1903.43	  439.14
     30.8700	  744.00	  696.49	-1840.97	  438.92
     30.9700	  726.00	  720.41	-1882.89	  438.70
     31.0700	  696.00	  740.16	-1932.64	  438.48
     31.1700	  784.00	  745.01	-1849.49	  438.27
     31.2700	  722.00	  728.10	-1894.58	  438.06
     31.3700	  685.00	  696.40	-1899.88	  437.85
     31.4700	  713.00	  663.59	-1839.07	  437.64
     31.5700	  644.00	  637.43	-1881.91	  437.43
     31.6700	  649.00	  619.47	-1858.95	  437.23
     31.7700	  654.00	  608.23	-1842.71	  437.03
     31.8700	  635.00	  601.44	-1854.93	  436.83
     31.9700	  610.00	  597.21	-1875.69	  436.63
     32.0700	  605.00	  594.37	-1877.85	  436.43
     32.1700	  654.00	  592.31	-1826.80	  436.24
     32.2700	  645.00	  590.79	-1834.27	  436.04
     32.3700	  609.00	  589.67	-1869.15	  435.85
     32.4700	  588.00	  588.90	-1889.39	  435.66
     32.5700	  633.00	  588.47	-1843.95	  435.48
     32.6700	  616.00	  588.40	-1860.88	  435.29
     32.7700	  594.00	  588.64	-1883.13	  435.11
     32.8700	  575.00	  589.29	-1902.77	  434.93
     32.9700	  612.00	  590.41	-1866.90	  434.75
     33.0700	  649.00	  592.13	-1831.62	  434.57
     33.1700	  604.00	  594.66	-1879.15	  434.40
     33.2700	  624.00	  598.40	-1862.88	  434.22
     33.3700	  614.00	  604.11	-1878.59	  434.05
     33.4700	  636.00	  613.27	-1865.75	  433.88
     33.5700	  654.00	  628.54	-1863.02	  433.71
     33.6700	  656.00	  654.12	-1886.61	  433.55
     33.7700	  691.00	  695.53	-1893.02	  433.38
     33.8700	  741.00	  757.78	-1905.26	  433.22
     33.9700	  855.00	  841.47	-1874.95	  433.06
     34.0700	 1030.00	  937.87	-1796.36	  432.90
     34.1700	 1137.00	 1025.52	-1777.00	  432.74
     34.2700	 1141.00	 1071.53	-1819.01	  432.58
     34.3700	 1163.00	 1047.90	-1773.39	  432.43
     34.4700	  960.00	  963.33	-1891.81	  432.28
     34.5700	  910.00	  858.43	-1836.91	  432.13
     34.6700	  802.00	  765.49	-1851.97	  431.98
     34.7700	  708.00	  696.49	-1876.97	  431.83
     34.8700	  643.00	  650.93	-1896.42	  431.69
     34.9700	  650.00	  623.15	-1861.63	  431.54
     35.0700	  645.00	  606.71	-1850.19	  431.40
     35.1700	  613.00	  596.69	-1872.18	  431.26
     35.2700	  616.00	  590.12	-1862.60	  431.12
     35.3700	  601.00	  585.42	-1872.90	  430.98
     35.4700	  566.00	  581.84	-1904.33	  430.85
     35.5700	  575.00	  579.02	-1892.50	  430.71
     35.6700	  595.00	  576.74	-1870.22	  430.58
     35.7700	  565.00	  574.87	-1898.35	  430.45
     35.8700	  590.00	  573.32	-1871.80	  430.32
     35.9700	  595.00	  572.03	-1865.51	  430.19
     36.0700	  586.00	  570.95	-1873.44	  430.07
     36.1700	  576.00	  570.06	-1882.54	  429.94
     36.2700	  576.00	  569.31	-1881.79	  429.82
     36.3700	  625.00	  568.71	-1832.19	  429.70
     36.4700	  539.00	  568.23	-1917.71	  429.58
     36.5700	  582.00	  567.88	-1874.36	  429.46
     36.6700	  588.00	  567.65	-1868.13	  429.34
     36.7700	  604.00	  568.06	-1852.54	  429.23
     36.8700	  590.00	  568.33	-1866.81	  429.11
     36.9700	  538.00	  568.60	-1919.08	  429.00
     37.0700	  524.00	  569.13	-1933.61	  428.89
     37.1700	  566.00	  570.03	-1892.51	  428.78
     37.2700	  574.00	  571.49	-1885.97	  428.67
     37.3700	  522.00	  573.79	-1940.28	  428.56
     37.4700	  561.00	  577.49	-1904.97	  428.46
     37.5700	  612.00	  583.24	-1859.73	  428.35
     37.6700	  562.00	  591.95	-1918.44	  428.25
     37.7700	  617.00	  604.48	-1875.96	  428.15
     37.8700	  626.00	  621.20	-1883.68	  428.05
     37.9700	  688.00	  641.37	-1841.85	  427.95
     38.0700	  690.00	  662.60	-1861.08	  427.86
     38.1700	  725.00	  680.56	-1844.04	  427.76
     38.2700	  681.00	  689.06	-1896.54	  427.67
     38.3700	  651.00	  682.69	-1920.17	  427.57
     38.4700	  674.00	  661.91	-1876.39	  427.48
     38.5700	  625.00	  637.15	-1900.63	  427.39
     38.6700	  640.00	  614.21	-1862.69	  427.30
     38.7700	  539.00	  596.20	-1945.68	  427.21
     38.8700	  582.00	  583.53	-1890.02	  427.13
     38.9700	  527.00	  575.30	-1936.79	  427.04
     39.0700	  548.00	  570.18	-1910.67	  426.96
     39.1700	  566.00	  567.00	-1889.48	  426.88
     39.2700	  582.00	  564.92	-1871.40	  426.79
     39.3700	  540.00	  563.47	-1911.95	  426.71
     39.4700	  572.00	  562.38	-1878.86	  426.63
     39.5700	  566.00	  561.53	-1884.01	  426.56
     39.6700	  518.00	  560.84	-1931.32	  426.48
     39.7700	  564.00	  559.56	-1884.04	  426.41
     39.8700	  570.00	  559.11	-1877.59	  426.33
     39.9700	  559.00	  558.73	-1888.21	  426.26
     40.0700	  604.00	  558.42	-1842.90	  426.19
     40.1700	  578.00	  558.16	-1868.64	  426.12
     40.2700	  540.00	  557.95	-1906.43	  426.05
     40.3700	  537.00	  557.78	-1909.27	  425.98
     40.4700	  546.00	  558.19	-1900.67	  425.91
     40.5700	  552.00	  558.10	-1894.59	  425.85
     40.6700	  512.00	  558.05	-1934.53	  425.78
     40.7700	  543.00	  558.03	-1903.52	  425.72
