MSG Master    CELL:    5.91439   5.91439  23.25908   90.0000   90.0000  120.0000   SPGR: P 63/m m c             TEMP:    988.35
  1   1280     2.52000     0.00000    -0.12590     0.00000     0.00000    0
    99     0     2
       0.00000      10.00000
     125.00000     130.00000
 2Theta	Yobs	Ycal	Yobs-Ycal	Backg	Posr	(hkl)	K
      0.7700	    0.00	  521.23	-1714.25	  406.82
      0.8700	    0.00	  522.20	-1714.25	  407.78
      0.9700	   50.00	  523.15	-1714.25	  408.74
      1.0700	   38.00	  524.10	-1714.25	  409.68
      1.1700	   42.00	  525.02	-1714.25	  410.61
      1.2700	   38.00	  525.94	-1714.25	  411.52
      1.3700	   41.00	  526.84	-1714.25	  412.43
      1.4700	   80.00	  527.74	-1714.25	  413.32
      1.5700	  288.00	  528.61	-1714.25	  414.20
      1.6700	  448.00	  529.48	-1714.25	  415.06
      1.7700	  577.00	  530.34	-1714.25	  415.92
      1.8700	  630.00	  531.18	-1714.25	  416.76
      1.9700	  739.00	  532.01	-1714.25	  417.59
      2.0700	  729.00	  532.83	-1714.25	  418.41
      2.1700	  812.00	  533.64	-1714.25	  419.22
      2.2700	  796.00	  534.43	-1714.25	  420.02
      2.3700	  738.00	  535.22	-1714.25	  420.80
      2.4700	  715.00	  535.99	-1714.25	  421.57
      2.5700	  650.00	  536.75	-1714.25	  422.33
      2.6700	  680.00	  537.50	-1714.25	  423.08
      2.7700	  654.00	  538.24	-1714.25	  423.82
      2.8700	  631.00	  538.97	-1714.25	  424.55
      2.9700	  617.00	  539.68	-1714.25	  425.26
      3.0700	  617.00	  540.39	-1714.25	  425.97
      3.1700	  605.00	  541.08	-1714.25	  426.66
      3.2700	  630.00	  541.76	-1714.25	  427.35
      3.3700	  713.00	  542.44	-1714.25	  428.02
      3.4700	  844.00	  543.10	-1714.25	  428.68
      3.5700	  903.00	  543.75	-1714.25	  429.33
      3.6700	  955.00	  544.39	-1714.25	  429.97
      3.7700	 1037.00	  545.02	-1714.25	  430.60
      3.8700	 1012.00	  545.64	-1714.25	  431.22
      3.9700	 1046.00	  546.24	-1714.25	  431.83
      4.0700	 1142.00	  546.84	-1714.25	  432.43
      4.1700	 1138.00	  547.43	-1714.25	  433.01
      4.2700	 1178.00	  548.01	-1714.25	  433.59
      4.3700	 1183.00	  548.58	-1714.25	  434.16
      4.4700	 1201.00	  549.13	-1714.25	  434.72
      4.5700	 1105.00	  549.68	-1714.25	  435.26
      4.6700	 1130.00	  550.22	-1714.25	  435.80
      4.7700	 1020.00	  550.75	-1714.25	  436.33
      4.8700	 1033.00	  551.27	-1714.25	  436.85
      4.9700	  971.00	  551.77	-1714.25	  437.36
      5.0700	 1030.00	  552.27	-1714.25	  437.86
      5.1700	  988.00	  552.76	-1714.25	  438.35
      5.2700	  911.00	  553.24	-1714.25	  438.83
      5.3700	  910.00	  553.71	-1714.25	  439.30
      5.4700	  915.00	  554.17	-1714.25	  439.76
      5.5700	  851.00	  554.63	-1714.25	  440.21
      5.6700	  858.00	  555.07	-1714.25	  440.65
      5.7700	  835.00	  555.50	-1714.25	  441.09
      5.8700	  909.00	  555.93	-1714.25	  441.51
      5.9700	  794.00	  556.34	-1714.25	  441.93
      6.0700	  807.00	  556.75	-1714.25	  442.33
      6.1700	  795.00	  557.15	-1714.25	  442.73
      6.2700	  825.00	  557.54	-1714.25	  443.12
      6.3700	  787.00	  557.92	-1714.25	  443.50
      6.4700	  797.00	  558.29	-1714.25	  443.87
      6.5700	  736.00	  558.65	-1714.25	  444.24
      6.6700	  733.00	  559.01	-1714.25	  444.59
      6.7700	  720.00	  559.35	-1714.25	  444.94
      6.8700	  764.00	  559.69	-1714.25	  445.27
      6.9700	  665.00	  560.02	-1714.25	  445.60
      7.0700	  726.00	  560.34	-1714.25	  445.93
      7.1700	  670.00	  560.66	-1714.25	  446.24
      7.2700	  666.00	  560.96	-1714.25	  446.54
      7.3700	  707.00	  561.26	-1714.25	  446.84
      7.4700	  696.00	  561.55	-1714.25	  447.13
      7.5700	  679.00	  561.83	-1714.25	  447.41
      7.6700	  673.00	  562.10	-1714.25	  447.68
      7.7700	  610.00	  562.37	-1714.25	  447.95
      7.8700	  660.00	  562.63	-1714.25	  448.21
      7.9700	  609.00	  562.88	-1714.25	  448.46
      8.0700	  588.00	  563.12	-1714.25	  448.70
      8.1700	  640.00	  563.35	-1714.25	  448.94
      8.2700	  648.00	  563.58	-1714.25	  449.16
      8.3700	  632.00	  563.80	-1714.25	  449.38
      8.4700	  593.00	  564.01	-1714.25	  449.60
      8.5700	  626.00	  564.22	-1714.25	  449.80
      8.6700	  611.00	  564.42	-1714.25	  450.00
      8.7700	  634.00	  564.61	-1714.25	  450.19
      8.8700	  649.00	  564.79	-1714.25	  450.37
      8.9700	  592.00	  564.97	-1714.25	  450.55
      9.0700	  587.00	  565.14	-1714.25	  450.72
      9.1700	  593.00	  565.30	-1714.25	  450.88
      9.2700	  609.00	  565.46	-1714.25	  451.04
      9.3700	  600.00	  565.61	-1714.25	  451.19
      9.4700	  595.00	  565.75	-1714.25	  451.33
      9.5700	  582.00	  565.89	-1714.25	  451.47
      9.6700	  587.00	  566.02	-1714.25	  451.60
      9.7700	  618.00	  566.14	-1714.25	  451.72
      9.8700	  548.00	  566.25	-1714.25	  451.84
      9.9700	  553.00	  566.36	-1714.25	  451.95
     10.0700	  615.00	  567.79	-1667.04	  452.05
     10.1700	  622.00	  568.03	-1660.28	  452.15
     10.2700	  535.00	  568.30	-1747.55	  452.24
     10.3700	  570.00	  568.62	-1712.87	  452.32
     10.4700	  590.00	  569.01	-1693.26	  452.40
     10.5700	  563.00	  569.55	-1720.80	  452.47
     10.6700	  570.00	  570.31	-1714.56	  452.54
     10.7700	  597.00	  571.41	-1688.66	  452.60
     10.8700	  594.00	  572.91	-1693.16	  452.65
     10.9700	  572.00	  574.84	-1717.09	  452.70
     11.0700	  602.00	  577.16	-1689.41	  452.74
     11.1700	  607.00	  579.89	-1687.14	  452.78
     11.2700	  579.00	  583.07	-1718.32	  452.81
     11.3700	  581.00	  586.78	-1720.03	  452.84
     11.4700	  599.00	  591.15	-1706.40	  452.86
     11.5700	  581.00	  596.43	-1729.68	  452.87
     11.6700	  570.00	  602.97	-1747.22	  452.88
     11.7700	  638.00	  611.32	-1687.57	  452.88
     11.8700	  645.00	  622.07	-1691.32	  452.88
     11.9700	  658.00	  635.16	-1691.41	  452.87
     12.0700	  625.00	  648.69	-1737.94	  452.86
     12.1700	  698.00	  657.69	-1673.94	  452.84
     12.2700	  697.00	  654.85	-1672.10	  452.82
     12.3700	  658.00	  637.53	-1693.78	  452.79
     12.4700	  627.00	  614.81	-1702.06	  452.76
     12.5700	  614.00	  596.25	-1696.50	  452.72
     12.6700	  578.00	  584.36	-1720.61	  452.68
     12.7700	  568.00	  577.81	-1724.06	  452.63
     12.8700	  586.00	  574.40	-1702.65	  452.58
     12.9700	  583.00	  572.52	-1703.77	  452.52
     13.0700	  554.00	  571.33	-1731.58	  452.46
     13.1700	  567.00	  570.48	-1717.73	  452.39
     13.2700	  534.00	  569.83	-1750.08	  452.32
     13.3700	  536.00	  569.31	-1747.56	  452.24
     13.4700	  581.00	  568.88	-1702.13	  452.16
     13.5700	  550.00	  568.51	-1732.76	  452.07
     13.6700	  581.00	  568.20	-1701.45	  451.98
     13.7700	  584.00	  567.91	-1698.17	  451.89
     13.8700	  559.00	  567.66	-1722.91	  451.79
     13.9700	  565.00	  567.43	-1716.68	  451.69
     14.0700	  588.00	  567.21	-1693.46	  451.58
     14.1700	  547.00	  567.00	-1734.25	  451.47
     14.2700	  575.00	  566.80	-1706.05	  451.35
     14.3700	  578.00	  566.61	-1702.86	  451.23
     14.4700	  511.00	  566.42	-1769.67	  451.11
     14.5700	  549.00	  566.24	-1731.49	  450.98
     14.6700	  557.00	  566.06	-1723.31	  450.85
     14.7700	  554.00	  565.88	-1726.13	  450.71
     14.8700	  537.00	  565.70	-1742.95	  450.57
     14.9700	  603.00	  565.55	-1676.80	  450.42
     15.0700	  582.00	  565.37	-1697.62	  450.28
     15.1700	  558.00	  565.19	-1721.44	  450.13
     15.2700	  570.00	  565.01	-1709.26	  449.97
     15.3700	  546.00	  564.83	-1733.08	  449.81
     15.4700	  572.00	  564.65	-1706.90	  449.65
     15.5700	  532.00	  564.46	-1746.71	  449.48
     15.6700	  562.00	  564.28	-1716.53	  449.31
     15.7700	  560.00	  564.09	-1718.34	  449.14
     15.8700	  534.00	  563.90	-1744.15	  448.96
     15.9700	  623.00	  563.71	-1654.96	  448.78
     16.0700	  560.00	  563.51	-1717.76	  448.60
     16.1700	  568.00	  563.31	-1709.56	  448.41
     16.2700	  563.00	  563.11	-1714.36	  448.22
     16.3700	  554.00	  562.91	-1723.16	  448.03
     16.4700	  530.00	  562.71	-1746.96	  447.83
     16.5700	  593.00	  562.50	-1683.75	  447.63
     16.6700	  582.00	  562.29	-1694.54	  447.43
     16.7700	  549.00	  562.08	-1727.33	  447.23
     16.8700	  530.00	  561.86	-1746.11	  447.02
     16.9700	  599.00	  561.64	-1676.89	  446.81
     17.0700	  541.00	  561.42	-1734.67	  446.59
     17.1700	  546.00	  561.20	-1729.45	  446.37
     17.2700	  591.00	  560.98	-1684.23	  446.15
     17.3700	  533.00	  560.75	-1742.00	  445.93
     17.4700	  520.00	  560.52	-1754.77	  445.70
     17.5700	  518.00	  560.29	-1756.54	  445.48
     17.6700	  529.00	  560.05	-1745.30	  445.24
     17.7700	  542.00	  559.82	-1732.07	  445.01
     17.8700	  513.00	  559.68	-1760.93	  444.77
     17.9700	  539.00	  559.44	-1734.69	  444.53
     18.0700	  560.00	  559.20	-1713.45	  444.29
     18.1700	  504.00	  558.95	-1769.20	  444.05
     18.2700	  555.00	  558.71	-1717.96	  443.80
     18.3700	  562.00	  558.46	-1710.71	  443.55
     18.4700	  544.00	  558.30	-1728.55	  443.30
     18.5700	  560.00	  558.05	-1712.30	  443.05
     18.6700	  568.00	  557.80	-1704.05	  442.79
     18.7700	  516.00	  557.55	-1755.80	  442.53
     18.8700	  594.00	  557.29	-1677.54	  442.27
     18.9700	  530.00	  557.03	-1741.28	  442.01
     19.0700	  557.00	  556.77	-1714.02	  441.74
     19.1700	  555.00	  556.51	-1715.76	  441.48
     19.2700	  524.00	  556.25	-1746.50	  441.21
     19.3700	  537.00	  555.99	-1733.24	  440.94
     19.4700	  551.00	  555.72	-1718.97	  440.66
     19.5700	  521.00	  555.45	-1748.70	  440.39
     19.6700	  602.00	  555.18	-1667.43	  440.11
     19.7700	  542.00	  554.91	-1727.16	  439.83
     19.8700	  514.00	  554.64	-1754.89	  439.55
     19.9700	  548.00	  554.37	-1720.62	  439.27
     20.0700	  560.00	  554.10	-1708.35	  438.98
     20.1700	  532.00	  553.82	-1736.07	  438.70
     20.2700	  519.00	  553.58	-1748.83	  438.41
     20.3700	  515.00	  553.31	-1752.56	  438.12
     20.4700	  540.00	  553.03	-1727.28	  437.83
     20.5700	  533.00	  552.75	-1734.00	  437.54
     20.6700	  512.00	  552.47	-1754.72	  437.24
     20.7700	  572.00	  552.19	-1694.44	  436.95
     20.8700	  549.00	  551.91	-1717.16	  436.65
     20.9700	  554.00	  551.63	-1711.88	  436.35
     21.0700	  525.00	  551.35	-1740.60	  436.05
     21.1700	  555.00	  551.07	-1710.32	  435.75
     21.2700	  544.00	  550.79	-1721.04	  435.44
     21.3700	  549.00	  550.51	-1715.76	  435.14
     21.4700	  561.00	  550.23	-1703.48	  434.83
     21.5700	  553.00	  549.95	-1711.20	  434.53
     21.6700	  552.00	  549.68	-1711.93	  434.22
     21.7700	  569.00	  549.40	-1694.65	  433.91
     21.8700	  548.00	  549.08	-1715.33	  433.60
     21.9700	  539.00	  548.81	-1724.06	  433.29
     22.0700	  565.00	  548.54	-1697.79	  432.97
     22.1700	  561.00	  548.27	-1701.52	  432.66
     22.2700	  591.00	  548.01	-1671.26	  432.34
     22.3700	  527.00	  547.75	-1735.00	  432.03
     22.4700	  536.00	  547.49	-1725.74	  431.71
     22.5700	  540.00	  547.24	-1721.49	  431.39
     22.6700	  545.00	  547.00	-1716.25	  431.07
     22.7700	  533.00	  546.76	-1728.01	  430.75
     22.8700	  555.00	  546.54	-1705.79	  430.43
     22.9700	  521.00	  546.48	-1739.73	  430.11
     23.0700	  582.00	  546.29	-1678.54	  429.79
     23.1700	  549.00	  546.11	-1711.36	  429.46
     23.2700	  563.00	  545.97	-1697.22	  429.14
     23.3700	  541.00	  545.86	-1719.11	  428.81
     23.4700	  597.00	  545.79	-1663.04	  428.49
     23.5700	  530.00	  545.78	-1730.03	  428.16
     23.6700	  579.00	  545.86	-1681.11	  427.83
     23.7700	  563.00	  546.08	-1697.33	  427.50
     23.8700	  601.00	  546.55	-1659.80	  427.18
     23.9700	  562.00	  547.45	-1699.70	  426.85
     24.0700	  587.00	  549.14	-1676.39	  426.52
     24.1700	  543.00	  552.12	-1723.37	  426.19
     24.2700	  571.00	  557.06	-1700.31	  425.86
     24.3700	  555.00	  564.63	-1723.88	  425.53
     24.4700	  546.00	  575.31	-1743.56	  425.19
     24.5700	  584.00	  588.79	-1719.04	  424.86
     24.6700	  652.00	  602.98	-1665.23	  424.53
     24.7700	  646.00	  613.09	-1681.34	  424.20
     24.8700	  673.00	  612.55	-1653.80	  423.86
     24.9700	  643.00	  599.31	-1670.56	  423.53
     25.0700	  574.00	  580.87	-1721.12	  423.20
     25.1700	  550.00	  565.10	-1729.35	  422.86
     25.2700	  579.00	  554.52	-1689.77	  422.53
     25.3700	  586.00	  548.41	-1676.66	  422.20
     25.4700	  513.00	  545.14	-1746.39	  421.86
     25.5700	  596.00	  543.33	-1661.58	  421.53
     25.6700	  595.00	  542.21	-1661.46	  421.19
     25.7700	  574.00	  541.42	-1681.67	  420.86
     25.8700	  494.00	  540.84	-1761.09	  420.52
     25.9700	  537.00	  540.40	-1717.65	  420.19
     26.0700	  586.00	  540.06	-1668.31	  419.85
     26.1700	  521.00	  539.83	-1733.08	  419.52
     26.2700	  544.00	  539.68	-1709.93	  419.18
     26.3700	  567.00	  539.62	-1686.87	  418.85
     26.4700	  523.00	  539.65	-1730.90	  418.51
     26.5700	  556.00	  539.77	-1698.02	  418.18
     26.6700	  556.00	  540.01	-1698.26	  417.84
     26.7700	  525.00	  540.39	-1729.64	  417.51
     26.8700	  541.00	  540.93	-1714.18	  417.17
     26.9700	  562.00	  541.69	-1693.94	  416.84
     27.0700	  567.00	  542.73	-1689.98	  416.50
     27.1700	  540.00	  544.17	-1718.42	  416.17
     27.2700	  553.00	  546.22	-1707.47	  415.83
     27.3700	  525.00	  549.29	-1738.54	  415.50
     27.4700	  595.00	  554.18	-1673.43	  415.17
     27.5700	  534.00	  562.34	-1742.59	  414.83
     27.6700	  527.00	  576.06	-1763.31	  414.50
     27.7700	  566.00	  598.47	-1746.72	  414.17
     27.8700	  623.00	  632.52	-1723.77	  413.84
     27.9700	  631.00	  679.00	-1762.25	  413.51
     28.0700	  742.00	  733.87	-1706.12	  413.17
     28.1700	  827.00	  785.70	-1672.95	  412.84
     28.2700	  897.00	  815.54	-1632.79	  412.51
     28.3700	  877.00	  807.69	-1644.94	  412.18
     28.4700	  828.00	  773.99	-1660.24	  411.85
     28.5700	  752.00	  746.54	-1708.79	  411.52
     28.6700	  693.00	  744.35	-1765.60	  411.20
     28.7700	  790.00	  766.41	-1690.66	  410.87
     28.8700	  766.00	  796.61	-1744.86	  410.54
     28.9700	  818.00	  809.20	-1705.45	  410.21
     29.0700	  785.00	  782.56	-1711.81	  409.89
     29.1700	  743.00	  723.82	-1695.07	  409.56
     29.2700	  667.00	  661.08	-1708.33	  409.24
     29.3700	  604.00	  612.02	-1722.27	  408.91
     29.4700	  623.00	  580.03	-1671.28	  408.59
     29.5700	  537.00	  561.56	-1738.81	  408.26
     29.6700	  591.00	  551.46	-1674.71	  407.94
     29.7700	  558.00	  545.81	-1702.06	  407.62
     29.8700	  609.00	  542.40	-1647.65	  407.30
     29.9700	  575.00	  540.27	-1679.52	  406.98
     30.0700	  582.00	  539.11	-1671.36	  406.66
     30.1700	  562.00	  539.03	-1691.28	  406.34
     30.2700	  575.00	  540.38	-1679.63	  406.02
     30.3700	  578.00	  544.06	-1680.31	  405.71
     30.4700	  551.00	  551.36	-1714.61	  405.39
     30.5700	  608.00	  563.68	-1669.93	  405.07
     30.6700	  574.00	  581.48	-1721.73	  404.76
     30.7700	  598.00	  602.97	-1719.22	  404.45
     30.8700	  634.00	  623.03	-1703.28	  404.13
     30.9700	  619.00	  633.21	-1728.46	  403.82
     31.0700	  606.00	  625.88	-1734.13	  403.51
     31.1700	  544.00	  603.71	-1773.96	  403.20
     31.2700	  612.00	  578.21	-1680.46	  402.89
     31.3700	  600.00	  557.42	-1671.67	  402.58
     31.4700	  537.00	  543.45	-1720.70	  402.27
     31.5700	  515.00	  535.20	-1734.45	  401.97
     31.6700	  556.00	  530.66	-1688.91	  401.66
     31.7700	  564.00	  528.14	-1678.39	  401.36
     31.8700	  544.00	  526.61	-1696.86	  401.06
     31.9700	  528.00	  525.60	-1711.85	  400.75
     32.0700	  552.00	  524.91	-1687.16	  400.45
     32.1700	  509.00	  524.46	-1729.71	  400.15
     32.2700	  560.00	  524.21	-1678.46	  399.85
     32.3700	  543.00	  524.14	-1695.39	  399.56
     32.4700	  528.00	  524.27	-1710.52	  399.26
     32.5700	  560.00	  524.60	-1678.85	  398.96
     32.6700	  525.00	  525.18	-1714.43	  398.67
     32.7700	  562.00	  526.04	-1678.29	  398.38
     32.8700	  545.00	  527.28	-1696.53	  398.08
     32.9700	  517.00	  529.02	-1726.27	  397.79
     33.0700	  543.00	  531.51	-1702.76	  397.50
     33.1700	  569.00	  535.24	-1680.49	  397.22
     33.2700	  490.00	  541.23	-1765.48	  396.93
     33.3700	  579.00	  551.56	-1686.81	  396.64
     33.4700	  571.00	  569.99	-1713.24	  396.36
     33.5700	  607.00	  602.16	-1709.41	  396.07
     33.6700	  598.00	  654.46	-1770.71	  395.79
     33.7700	  780.00	  729.99	-1664.24	  395.51
     33.8700	  838.00	  822.52	-1698.77	  395.23
     33.9700	  998.00	  911.78	-1628.03	  394.95
     34.0700	 1033.00	  963.97	-1645.22	  394.67
     34.1700	 1017.00	  946.80	-1644.05	  394.40
     34.2700	  897.00	  865.14	-1682.39	  394.12
     34.3700	  795.00	  761.89	-1681.14	  393.85
     34.4700	  684.00	  672.45	-1702.70	  393.58
     34.5700	  580.00	  609.32	-1743.57	  393.31
     34.6700	  551.00	  570.63	-1733.88	  393.04
     34.7700	  538.00	  549.00	-1725.25	  392.77
     34.8700	  559.00	  537.14	-1692.39	  392.51
     34.9700	  528.00	  530.16	-1716.41	  392.24
     35.0700	  498.00	  525.58	-1741.83	  391.98
     35.1700	  532.00	  522.25	-1704.50	  391.72
     35.2700	  492.00	  519.66	-1741.91	  391.45
     35.3700	  515.00	  517.58	-1716.83	  391.20
     35.4700	  543.00	  515.87	-1687.12	  390.94
     35.5700	  507.00	  514.44	-1721.69	  390.68
     35.6700	  506.00	  513.21	-1721.46	  390.43
     35.7700	  523.00	  512.16	-1703.41	  390.17
     35.8700	  498.00	  511.71	-1727.96	  389.92
     35.9700	  531.00	  510.90	-1694.15	  389.67
     36.0700	  475.00	  510.19	-1749.44	  389.42
     36.1700	  515.00	  509.55	-1708.80	  389.17
     36.2700	  515.00	  508.98	-1708.22	  388.93
     36.3700	  516.00	  508.46	-1706.71	  388.68
     36.4700	  500.00	  508.00	-1722.25	  388.44
     36.5700	  514.00	  507.59	-1707.84	  388.20
     36.6700	  517.00	  507.24	-1704.49	  387.96
     36.7700	  515.00	  506.97	-1706.22	  387.72
     36.8700	  519.00	  506.77	-1702.02	  387.48
     36.9700	  474.00	  506.74	-1746.99	  387.25
     37.0700	  495.00	  506.97	-1726.22	  387.02
     37.1700	  501.00	  507.69	-1720.94	  386.78
     37.2700	  504.00	  509.14	-1719.39	  386.55
     37.3700	  514.00	  511.55	-1711.80	  386.32
     37.4700	  506.00	  514.88	-1723.13	  386.10
     37.5700	  510.00	  518.61	-1722.86	  385.87
     37.6700	  461.00	  521.66	-1774.91	  385.65
     37.7700	  503.00	  522.64	-1733.89	  385.43
     37.8700	  521.00	  520.94	-1714.19	  385.20
     37.9700	  497.00	  517.50	-1734.75	  384.99
     38.0700	  539.00	  513.66	-1688.91	  384.77
     38.1700	  497.00	  510.15	-1727.40	  384.55
     38.2700	  507.00	  507.24	-1714.49	  384.34
     38.3700	  500.00	  505.06	-1719.31	  384.12
     38.4700	  456.00	  503.52	-1761.77	  383.91
     38.5700	  529.00	  502.64	-1687.89	  383.70
     38.6700	  502.00	  501.92	-1714.17	  383.50
     38.7700	  514.00	  501.40	-1701.65	  383.29
     38.8700	  495.00	  500.91	-1720.16	  383.09
     38.9700	  497.00	  500.57	-1717.82	  382.88
     39.0700	  487.00	  500.28	-1727.53	  382.68
     39.1700	  520.00	  500.02	-1694.27	  382.48
     39.2700	  498.00	  499.78	-1716.03	  382.29
     39.3700	  479.00	  499.56	-1734.81	  382.09
     39.4700	  458.00	  499.35	-1755.60	  381.90
     39.5700	  514.00	  499.15	-1699.40	  381.70
     39.6700	  504.00	  498.87	-1709.12	  381.51
     39.7700	  446.00	  498.70	-1766.95	  381.32
     39.8700	  532.00	  498.54	-1680.79	  381.13
     39.9700	  497.00	  498.40	-1715.65	  380.95
     40.0700	  529.00	  498.26	-1683.51	  380.77
     40.1700	  483.00	  498.13	-1729.38	  380.58
     40.2700	  498.00	  498.02	-1714.27	  380.40
     40.3700	  556.00	  497.92	-1656.17	  380.22
     40.4700	  514.00	  497.84	-1698.09	  380.05
     40.5700	  466.00	  497.77	-1746.02	  379.87
     40.6700	  491.00	  497.73	-1720.98	  379.70
     40.7700	  464.00	  497.70	-1747.95	  379.52
