MSG Master    CELL:    5.91235   5.91235  23.25237   90.0000   90.0000  120.0000   SPGR: P 63/m m c             TEMP:    958.15
  1   1280     2.52000     0.00000    -0.12493     0.00000     0.00000    0
    99     0     2
       0.00000      10.00000
     125.00000     130.00000
 2Theta	Yobs	Ycal	Yobs-Ycal	Backg	Posr	(hkl)	K
      0.7700	    0.00	  490.33	-1739.50	  377.92
      0.8700	    0.00	  491.58	-1739.50	  379.17
      0.9700	   46.00	  492.82	-1739.50	  380.41
      1.0700	   47.00	  494.04	-1739.50	  381.63
      1.1700	   38.00	  495.25	-1739.50	  382.84
      1.2700	   41.00	  496.44	-1739.50	  384.03
      1.3700	   49.00	  497.62	-1739.50	  385.21
      1.4700	   83.00	  498.78	-1739.50	  386.38
      1.5700	  301.00	  499.93	-1739.50	  387.53
      1.6700	  438.00	  501.07	-1739.50	  388.66
      1.7700	  569.00	  502.19	-1739.50	  389.79
      1.8700	  646.00	  503.30	-1739.50	  390.89
      1.9700	  701.00	  504.40	-1739.50	  391.99
      2.0700	  732.00	  505.48	-1739.50	  393.07
      2.1700	  826.00	  506.54	-1739.50	  394.14
      2.2700	  772.00	  507.60	-1739.50	  395.19
      2.3700	  751.00	  508.63	-1739.50	  396.23
      2.4700	  764.00	  509.66	-1739.50	  397.25
      2.5700	  676.00	  510.67	-1739.50	  398.27
      2.6700	  652.00	  511.67	-1739.50	  399.27
      2.7700	  596.00	  512.66	-1739.50	  400.25
      2.8700	  641.00	  513.63	-1739.50	  401.22
      2.9700	  608.00	  514.59	-1739.50	  402.18
      3.0700	  600.00	  515.54	-1739.50	  403.13
      3.1700	  623.00	  516.47	-1739.50	  404.07
      3.2700	  640.00	  517.39	-1739.50	  404.99
      3.3700	  726.00	  518.30	-1739.50	  405.90
      3.4700	  805.00	  519.20	-1739.50	  406.79
      3.5700	  831.00	  520.08	-1739.50	  407.68
      3.6700	 1012.00	  520.95	-1739.50	  408.55
      3.7700	 1007.00	  521.81	-1739.50	  409.41
      3.8700	 1007.00	  522.66	-1739.50	  410.25
      3.9700	 1132.00	  523.49	-1739.50	  411.09
      4.0700	 1118.00	  524.32	-1739.50	  411.91
      4.1700	 1182.00	  525.13	-1739.50	  412.72
      4.2700	 1193.00	  525.92	-1739.50	  413.52
      4.3700	 1139.00	  526.71	-1739.50	  414.30
      4.4700	 1150.00	  527.48	-1739.50	  415.08
      4.5700	 1140.00	  528.25	-1739.50	  415.84
      4.6700	 1113.00	  529.00	-1739.50	  416.59
      4.7700	 1040.00	  529.74	-1739.50	  417.33
      4.8700	  990.00	  530.47	-1739.50	  418.06
      4.9700	 1034.00	  531.18	-1739.50	  418.78
      5.0700	  999.00	  531.89	-1739.50	  419.48
      5.1700	  977.00	  532.58	-1739.50	  420.18
      5.2700	  962.00	  533.27	-1739.50	  420.86
      5.3700	  905.00	  533.94	-1739.50	  421.53
      5.4700	  888.00	  534.60	-1739.50	  422.19
      5.5700	  850.00	  535.25	-1739.50	  422.84
      5.6700	  906.00	  535.89	-1739.50	  423.48
      5.7700	  826.00	  536.52	-1739.50	  424.11
      5.8700	  849.00	  537.14	-1739.50	  424.73
      5.9700	  866.00	  537.75	-1739.50	  425.34
      6.0700	  782.00	  538.34	-1739.50	  425.94
      6.1700	  838.00	  538.93	-1739.50	  426.52
      6.2700	  762.00	  539.51	-1739.50	  427.10
      6.3700	  770.00	  540.07	-1739.50	  427.66
      6.4700	  781.00	  540.63	-1739.50	  428.22
      6.5700	  766.00	  541.17	-1739.50	  428.77
      6.6700	  789.00	  541.71	-1739.50	  429.30
      6.7700	  713.00	  542.23	-1739.50	  429.83
      6.8700	  712.00	  542.75	-1739.50	  430.34
      6.9700	  727.00	  543.26	-1739.50	  430.85
      7.0700	  700.00	  543.75	-1739.50	  431.34
      7.1700	  706.00	  544.24	-1739.50	  431.83
      7.2700	  680.00	  544.71	-1739.50	  432.31
      7.3700	  700.00	  545.18	-1739.50	  432.77
      7.4700	  638.00	  545.64	-1739.50	  433.23
      7.5700	  646.00	  546.09	-1739.50	  433.68
      7.6700	  663.00	  546.53	-1739.50	  434.12
      7.7700	  677.00	  546.96	-1739.50	  434.55
      7.8700	  642.00	  547.38	-1739.50	  434.97
      7.9700	  656.00	  547.79	-1739.50	  435.38
      8.0700	  667.00	  548.19	-1739.50	  435.78
      8.1700	  603.00	  548.58	-1739.50	  436.18
      8.2700	  669.00	  548.97	-1739.50	  436.56
      8.3700	  638.00	  549.35	-1739.50	  436.94
      8.4700	  642.00	  549.71	-1739.50	  437.31
      8.5700	  596.00	  550.07	-1739.50	  437.66
      8.6700	  658.00	  550.42	-1739.50	  438.01
      8.7700	  601.00	  550.76	-1739.50	  438.35
      8.8700	  683.00	  551.09	-1739.50	  438.69
      8.9700	  596.00	  551.42	-1739.50	  439.01
      9.0700	  633.00	  551.73	-1739.50	  439.33
      9.1700	  593.00	  552.04	-1739.50	  439.64
      9.2700	  626.00	  552.34	-1739.50	  439.93
      9.3700	  581.00	  552.63	-1739.50	  440.23
      9.4700	  551.00	  552.92	-1739.50	  440.51
      9.5700	  601.00	  553.19	-1739.50	  440.78
      9.6700	  632.00	  553.46	-1739.50	  441.05
      9.7700	  588.00	  553.72	-1739.50	  441.31
      9.8700	  591.00	  553.97	-1739.50	  441.56
      9.9700	  582.00	  554.21	-1739.50	  441.81
     10.0700	  584.00	  556.05	-1711.55	  442.04
     10.1700	  610.00	  556.45	-1685.95	  442.27
     10.2700	  563.00	  556.88	-1733.38	  442.49
     10.3700	  548.00	  557.36	-1748.86	  442.71
     10.4700	  513.00	  557.93	-1784.43	  442.91
     10.5700	  580.00	  558.64	-1718.14	  443.11
     10.6700	  590.00	  559.60	-1709.10	  443.30
     10.7700	  580.00	  560.89	-1720.39	  443.49
     10.8700	  584.00	  562.59	-1718.09	  443.67
     10.9700	  600.00	  564.73	-1704.23	  443.84
     11.0700	  577.00	  567.29	-1729.79	  444.00
     11.1700	  576.00	  570.28	-1733.78	  444.15
     11.2700	  575.00	  573.75	-1738.25	  444.30
     11.3700	  564.00	  577.76	-1753.26	  444.45
     11.4700	  601.00	  582.48	-1720.98	  444.58
     11.5700	  553.00	  588.14	-1774.64	  444.71
     11.6700	  573.00	  595.09	-1761.59	  444.83
     11.7700	  635.00	  603.84	-1708.34	  444.95
     11.8700	  627.00	  614.84	-1727.34	  445.06
     11.9700	  661.00	  627.90	-1706.40	  445.16
     12.0700	  678.00	  641.11	-1702.61	  445.26
     12.1700	  708.00	  649.89	-1681.39	  445.34
     12.2700	  641.00	  647.55	-1746.05	  445.43
     12.3700	  634.00	  631.41	-1736.91	  445.51
     12.4700	  638.00	  609.45	-1710.95	  445.58
     12.5700	  603.00	  590.80	-1727.30	  445.64
     12.6700	  570.00	  578.30	-1747.80	  445.70
     12.7700	  544.00	  571.04	-1766.54	  445.75
     12.8700	  527.00	  567.12	-1779.62	  445.80
     12.9700	  572.00	  564.95	-1732.45	  445.84
     13.0700	  551.00	  563.62	-1752.12	  445.88
     13.1700	  549.00	  562.72	-1753.22	  445.90
     13.2700	  549.00	  562.05	-1752.55	  445.93
     13.3700	  539.00	  561.54	-1762.04	  445.95
     13.4700	  579.00	  561.14	-1721.64	  445.96
     13.5700	  546.00	  560.82	-1754.32	  445.97
     13.6700	  569.00	  560.55	-1731.05	  445.97
     13.7700	  553.00	  560.33	-1746.82	  445.96
     13.8700	  536.00	  560.13	-1763.63	  445.95
     13.9700	  594.00	  559.96	-1705.46	  445.94
     14.0700	  514.00	  559.81	-1785.31	  445.92
     14.1700	  570.00	  559.67	-1729.17	  445.89
     14.2700	  542.00	  559.54	-1757.04	  445.86
     14.3700	  510.00	  559.42	-1788.92	  445.83
     14.4700	  567.00	  559.34	-1731.84	  445.79
     14.5700	  562.00	  559.23	-1736.73	  445.74
     14.6700	  575.00	  559.12	-1723.62	  445.69
     14.7700	  557.00	  559.01	-1741.51	  445.63
     14.8700	  535.00	  558.91	-1763.41	  445.57
     14.9700	  522.00	  558.80	-1776.30	  445.51
     15.0700	  593.00	  558.70	-1705.20	  445.44
     15.1700	  566.00	  558.59	-1732.09	  445.36
     15.2700	  568.00	  558.48	-1729.98	  445.28
     15.3700	  564.00	  558.37	-1733.87	  445.20
     15.4700	  532.00	  558.26	-1765.76	  445.11
     15.5700	  552.00	  558.14	-1745.64	  445.02
     15.6700	  522.00	  558.02	-1775.52	  444.92
     15.7700	  582.00	  557.90	-1715.40	  444.82
     15.8700	  565.00	  557.78	-1732.28	  444.71
     15.9700	  553.00	  557.66	-1744.16	  444.60
     16.0700	  523.00	  557.53	-1774.03	  444.49
     16.1700	  551.00	  557.39	-1745.89	  444.37
     16.2700	  541.00	  557.26	-1755.76	  444.24
     16.3700	  538.00	  557.12	-1758.62	  444.12
     16.4700	  594.00	  556.98	-1702.48	  443.99
     16.5700	  548.00	  556.84	-1748.34	  443.85
     16.6700	  538.00	  556.69	-1758.19	  443.71
     16.7700	  598.00	  556.54	-1698.04	  443.57
     16.8700	  606.00	  556.38	-1689.88	  443.42
     16.9700	  577.00	  556.23	-1718.73	  443.27
     17.0700	  498.00	  556.07	-1797.57	  443.12
     17.1700	  608.00	  555.90	-1687.40	  442.96
     17.2700	  535.00	  555.74	-1760.24	  442.80
     17.3700	  541.00	  555.57	-1754.07	  442.63
     17.4700	  549.00	  555.39	-1745.89	  442.46
     17.5700	  555.00	  555.22	-1739.72	  442.29
     17.6700	  556.00	  555.15	-1738.65	  442.11
     17.7700	  509.00	  554.97	-1785.47	  441.94
     17.8700	  562.00	  554.78	-1732.28	  441.75
     17.9700	  564.00	  554.60	-1730.10	  441.57
     18.0700	  536.00	  554.41	-1757.91	  441.38
     18.1700	  530.00	  554.22	-1763.72	  441.18
     18.2700	  547.00	  554.11	-1746.61	  440.99
     18.3700	  531.00	  553.92	-1762.42	  440.79
     18.4700	  533.00	  553.72	-1760.22	  440.59
     18.5700	  550.00	  553.52	-1743.02	  440.38
     18.6700	  506.00	  553.32	-1786.82	  440.17
     18.7700	  552.00	  553.11	-1740.61	  439.96
     18.8700	  571.00	  552.90	-1721.40	  439.75
     18.9700	  565.00	  552.69	-1727.19	  439.53
     19.0700	  565.00	  552.48	-1726.98	  439.31
     19.1700	  555.00	  552.26	-1736.76	  439.09
     19.2700	  542.00	  552.04	-1749.54	  438.86
     19.3700	  534.00	  551.82	-1757.32	  438.63
     19.4700	  512.00	  551.60	-1779.10	  438.40
     19.5700	  551.00	  551.37	-1739.87	  438.17
     19.6700	  521.00	  551.15	-1769.65	  437.93
     19.7700	  535.00	  550.92	-1755.42	  437.70
     19.8700	  542.00	  550.69	-1748.19	  437.45
     19.9700	  522.00	  550.46	-1767.96	  437.21
     20.0700	  541.00	  550.26	-1748.76	  436.96
     20.1700	  550.00	  550.02	-1739.52	  436.72
     20.2700	  544.00	  549.79	-1745.29	  436.46
     20.3700	  518.00	  549.55	-1771.05	  436.21
     20.4700	  540.00	  549.31	-1748.81	  435.96
     20.5700	  506.00	  549.07	-1782.57	  435.70
     20.6700	  534.00	  548.83	-1754.33	  435.44
     20.7700	  537.00	  548.58	-1751.08	  435.17
     20.8700	  491.00	  548.34	-1796.84	  434.91
     20.9700	  505.00	  548.09	-1782.59	  434.64
     21.0700	  547.00	  547.85	-1740.35	  434.38
     21.1700	  553.00	  547.60	-1734.10	  434.10
     21.2700	  520.00	  547.36	-1766.86	  433.83
     21.3700	  566.00	  547.11	-1720.61	  433.56
     21.4700	  546.00	  546.86	-1740.36	  433.28
     21.5700	  591.00	  546.62	-1695.12	  433.00
     21.6700	  544.00	  546.37	-1741.87	  432.72
     21.7700	  548.00	  546.13	-1737.63	  432.44
     21.8700	  534.00	  545.88	-1751.38	  432.16
     21.9700	  514.00	  545.64	-1771.14	  431.87
     22.0700	  545.00	  545.40	-1739.90	  431.59
     22.1700	  553.00	  545.17	-1731.67	  431.30
     22.2700	  581.00	  544.94	-1703.44	  431.01
     22.3700	  541.00	  544.66	-1743.16	  430.71
     22.4700	  545.00	  544.44	-1738.94	  430.42
     22.5700	  560.00	  544.22	-1723.72	  430.13
     22.6700	  553.00	  544.17	-1730.67	  429.83
     22.7700	  604.00	  543.97	-1679.47	  429.53
     22.8700	  541.00	  543.79	-1742.29	  429.23
     22.9700	  552.00	  543.62	-1731.12	  428.93
     23.0700	  553.00	  543.47	-1729.97	  428.63
     23.1700	  517.00	  543.34	-1765.84	  428.33
     23.2700	  570.00	  543.24	-1712.74	  428.02
     23.3700	  578.00	  543.18	-1704.68	  427.72
     23.4700	  544.00	  543.17	-1738.67	  427.41
     23.5700	  548.00	  543.23	-1734.73	  427.10
     23.6700	  572.00	  543.39	-1710.89	  426.79
     23.7700	  529.00	  543.71	-1754.21	  426.48
     23.8700	  534.00	  544.30	-1749.80	  426.17
     23.9700	  551.00	  545.36	-1733.85	  425.86
     24.0700	  550.00	  547.22	-1736.72	  425.54
     24.1700	  539.00	  550.42	-1750.92	  425.23
     24.2700	  554.00	  555.58	-1741.08	  424.91
     24.3700	  555.00	  563.35	-1747.85	  424.60
     24.4700	  558.00	  574.11	-1755.61	  424.28
     24.5700	  595.00	  587.47	-1731.97	  423.96
     24.6700	  617.00	  601.43	-1723.93	  423.64
     24.7700	  627.00	  611.61	-1724.11	  423.32
     24.8700	  599.00	  611.93	-1752.43	  423.00
     24.9700	  636.00	  599.95	-1703.45	  422.68
     25.0700	  566.00	  582.10	-1755.60	  422.36
     25.1700	  582.00	  566.09	-1723.59	  422.03
     25.2700	  562.00	  554.78	-1732.28	  421.71
     25.3700	  568.00	  547.89	-1719.39	  421.39
     25.4700	  540.00	  544.02	-1743.52	  421.06
     25.5700	  572.00	  541.84	-1709.34	  420.74
     25.6700	  585.00	  540.51	-1695.01	  420.41
     25.7700	  601.00	  539.61	-1678.11	  420.08
     25.8700	  541.00	  538.96	-1737.46	  419.76
     25.9700	  580.00	  538.48	-1697.98	  419.43
     26.0700	  559.00	  538.12	-1718.62	  419.10
     26.1700	  562.00	  537.88	-1715.38	  418.77
     26.2700	  573.00	  537.74	-1704.24	  418.45
     26.3700	  522.00	  537.70	-1755.20	  418.12
     26.4700	  555.00	  537.75	-1722.25	  417.79
     26.5700	  539.00	  537.92	-1738.42	  417.46
     26.6700	  571.00	  538.22	-1706.72	  417.13
     26.7700	  516.00	  538.67	-1762.17	  416.80
     26.8700	  568.00	  539.31	-1710.81	  416.47
     26.9700	  524.00	  540.18	-1755.68	  416.14
     27.0700	  584.00	  541.36	-1696.86	  415.81
     27.1700	  551.00	  542.99	-1731.49	  415.48
     27.2700	  577.00	  545.28	-1707.78	  415.15
     27.3700	  556.00	  548.68	-1732.18	  414.82
     27.4700	  527.00	  554.03	-1766.53	  414.48
     27.5700	  599.00	  562.85	-1703.35	  414.15
     27.6700	  592.00	  577.61	-1725.11	  413.82
     27.7700	  588.00	  601.61	-1753.11	  413.49
     27.8700	  581.00	  638.12	-1796.62	  413.16
     27.9700	  695.00	  688.19	-1732.69	  412.83
     28.0700	  730.00	  747.86	-1757.36	  412.50
     28.1700	  890.00	  805.48	-1654.98	  412.17
     28.2700	  900.00	  840.97	-1680.47	  411.84
     28.3700	  899.00	  835.49	-1675.99	  411.51
     28.4700	  787.00	  797.38	-1749.88	  411.18
     28.5700	  762.00	  760.24	-1737.74	  410.85
     28.6700	  770.00	  746.83	-1716.33	  410.52
     28.7700	  729.00	  758.84	-1769.34	  410.19
     28.8700	  771.00	  782.53	-1751.03	  409.86
     28.9700	  761.00	  794.43	-1772.93	  409.53
     29.0700	  804.00	  772.86	-1708.36	  409.20
     29.1700	  768.00	  720.33	-1691.83	  408.87
     29.2700	  661.00	  661.31	-1739.81	  408.54
     29.3700	  608.00	  613.43	-1744.93	  408.22
     29.4700	  599.00	  581.09	-1721.59	  407.89
     29.5700	  568.00	  561.74	-1733.24	  407.56
     29.6700	  582.00	  550.87	-1708.37	  407.24
     29.7700	  632.00	  544.74	-1652.24	  406.91
     29.8700	  548.00	  541.02	-1732.52	  406.58
     29.9700	  541.00	  538.69	-1737.19	  406.26
     30.0700	  636.00	  537.37	-1640.87	  405.93
     30.1700	  567.00	  537.08	-1709.58	  405.61
     30.2700	  552.00	  538.17	-1725.67	  405.29
     30.3700	  596.00	  541.39	-1684.89	  404.96
     30.4700	  533.00	  547.87	-1754.37	  404.64
     30.5700	  556.00	  558.82	-1742.32	  404.32
     30.6700	  570.00	  574.69	-1744.19	  404.00
     30.7700	  621.00	  594.04	-1712.54	  403.68
     30.8700	  633.00	  612.59	-1719.09	  403.36
     30.9700	  608.00	  623.10	-1754.60	  403.04
     31.0700	  637.00	  618.35	-1720.85	  402.72
     31.1700	  622.00	  599.38	-1716.88	  402.40
     31.2700	  526.00	  576.04	-1789.54	  402.09
     31.3700	  561.00	  556.17	-1734.67	  401.77
     31.4700	  520.00	  542.28	-1761.78	  401.46
     31.5700	  491.00	  533.74	-1782.24	  401.14
     31.6700	  556.00	  528.89	-1712.39	  400.83
     31.7700	  523.00	  526.15	-1742.65	  400.52
     31.8700	  520.00	  524.50	-1744.00	  400.20
     31.9700	  511.00	  523.43	-1751.93	  399.89
     32.0700	  511.00	  522.71	-1751.21	  399.58
     32.1700	  559.00	  522.23	-1702.73	  399.27
     32.2700	  520.00	  521.97	-1741.47	  398.96
     32.3700	  552.00	  521.90	-1709.40	  398.66
     32.4700	  558.00	  522.04	-1703.54	  398.35
     32.5700	  570.00	  522.38	-1691.88	  398.04
     32.6700	  538.00	  522.98	-1724.48	  397.74
     32.7700	  540.00	  523.87	-1723.37	  397.44
     32.8700	  516.00	  525.14	-1748.64	  397.13
     32.9700	  521.00	  526.93	-1745.43	  396.83
     33.0700	  569.00	  529.48	-1699.98	  396.53
     33.1700	  529.00	  533.26	-1743.76	  396.23
     33.2700	  563.00	  539.25	-1715.75	  395.93
     33.3700	  562.00	  549.37	-1726.87	  395.64
     33.4700	  529.00	  567.01	-1777.51	  395.34
     33.5700	  595.00	  597.20	-1741.70	  395.04
     33.6700	  562.00	  645.60	-1823.10	  394.75
     33.7700	  718.00	  715.15	-1736.65	  394.46
     33.8700	  807.00	  800.91	-1733.41	  394.17
     33.9700	  959.00	  885.70	-1666.20	  393.88
     34.0700	  998.00	  939.89	-1681.39	  393.59
     34.1700	 1015.00	  932.62	-1657.12	  393.30
     34.2700	  906.00	  862.77	-1696.27	  393.01
     34.3700	  812.00	  766.95	-1694.45	  392.72
     34.4700	  661.00	  679.91	-1758.41	  392.44
     34.5700	  636.00	  615.81	-1719.31	  392.16
     34.6700	  608.00	  574.74	-1706.24	  391.87
     34.7700	  533.00	  550.81	-1757.31	  391.59
     34.8700	  544.00	  537.32	-1732.82	  391.31
     34.9700	  534.00	  529.40	-1734.90	  391.04
     35.0700	  548.00	  524.27	-1715.77	  390.76
     35.1700	  524.00	  520.59	-1736.09	  390.48
     35.2700	  512.00	  517.76	-1745.26	  390.21
     35.3700	  515.00	  515.50	-1740.00	  389.94
     35.4700	  488.00	  513.61	-1765.11	  389.66
     35.5700	  516.00	  512.06	-1735.56	  389.39
     35.6700	  528.00	  511.20	-1722.70	  389.13
     35.7700	  503.00	  510.07	-1746.57	  388.86
     35.8700	  493.00	  509.09	-1755.59	  388.59
     35.9700	  482.00	  508.22	-1765.72	  388.33
     36.0700	  452.00	  507.45	-1794.95	  388.06
     36.1700	  503.00	  506.77	-1743.27	  387.80
     36.2700	  546.00	  506.17	-1699.67	  387.54
     36.3700	  462.00	  505.63	-1783.13	  387.28
     36.4700	  531.00	  505.14	-1713.64	  387.02
     36.5700	  499.00	  504.71	-1745.21	  386.77
     36.6700	  519.00	  504.35	-1724.85	  386.51
     36.7700	  535.00	  504.05	-1708.55	  386.26
     36.8700	  499.00	  503.86	-1744.36	  386.01
     36.9700	  533.00	  503.85	-1710.35	  385.76
     37.0700	  519.00	  504.12	-1724.62	  385.51
     37.1700	  492.00	  504.88	-1752.38	  385.26
     37.2700	  481.00	  506.38	-1764.88	  385.02
     37.3700	  460.00	  508.80	-1788.30	  384.77
     37.4700	  515.00	  512.12	-1736.62	  384.53
     37.5700	  491.00	  515.86	-1764.36	  384.29
     37.6700	  551.00	  518.96	-1707.46	  384.05
     37.7700	  498.00	  520.05	-1761.55	  383.81
     37.8700	  504.00	  518.39	-1753.89	  383.58
     37.9700	  525.00	  514.79	-1729.29	  383.34
     38.0700	  494.00	  510.70	-1756.20	  383.11
     38.1700	  490.00	  507.16	-1756.66	  382.88
     38.2700	  487.00	  504.17	-1756.67	  382.65
     38.3700	  481.00	  501.95	-1760.45	  382.42
     38.4700	  526.00	  500.41	-1713.91	  382.19
     38.5700	  493.00	  499.36	-1745.86	  381.97
     38.6700	  477.00	  498.62	-1761.12	  381.74
     38.7700	  463.00	  498.08	-1774.58	  381.52
     38.8700	  509.00	  497.65	-1728.15	  381.30
     38.9700	  501.00	  497.29	-1735.79	  381.08
     39.0700	  471.00	  496.86	-1765.36	  380.86
     39.1700	  488.00	  496.58	-1748.08	  380.65
     39.2700	  484.00	  496.32	-1751.82	  380.44
     39.3700	  497.00	  496.07	-1738.57	  380.22
     39.4700	  497.00	  495.85	-1738.35	  380.01
     39.5700	  542.00	  495.63	-1693.14	  379.81
     39.6700	  477.00	  495.44	-1757.94	  379.60
     39.7700	  465.00	  495.25	-1769.75	  379.39
     39.8700	  534.00	  494.99	-1700.49	  379.19
     39.9700	  496.00	  494.83	-1738.33	  378.99
     40.0700	  521.00	  494.68	-1713.18	  378.79
     40.1700	  454.00	  494.55	-1780.05	  378.59
     40.2700	  513.00	  494.43	-1720.93	  378.39
     40.3700	  508.00	  494.33	-1725.83	  378.20
     40.4700	  487.00	  494.24	-1746.74	  378.00
     40.5700	  436.00	  494.18	-1797.68	  377.81
     40.6700	  487.00	  494.63	-1747.13	  377.62
     40.7700	  476.00	  494.62	-1758.12	  377.44
