MSG Master    CELL:    5.91084   5.91084  23.23952   90.0000   90.0000  120.0000   SPGR: P 63/m m c             TEMP:    928.95
  1   1280     2.52000     0.00000    -0.12155     0.00000     0.00000    0
    98     0     2
       0.00000      10.00000
     125.00000     130.00000
 2Theta	Yobs	Ycal	Yobs-Ycal	Backg	Posr	(hkl)	K
      0.7700	    1.00	  487.64	-1728.65	  375.98
      0.8700	    0.00	  489.01	-1728.65	  377.35
      0.9700	   38.00	  490.37	-1728.65	  378.71
      1.0700	   31.00	  491.70	-1728.65	  380.05
      1.1700	   47.00	  493.03	-1728.65	  381.37
      1.2700	   42.00	  494.33	-1728.65	  382.67
      1.3700	   49.00	  495.62	-1728.65	  383.96
      1.4700	   80.00	  496.90	-1728.65	  385.24
      1.5700	  286.00	  498.16	-1728.65	  386.50
      1.6700	  423.00	  499.40	-1728.65	  387.74
      1.7700	  641.00	  500.63	-1728.65	  388.97
      1.8700	  659.00	  501.84	-1728.65	  390.18
      1.9700	  710.00	  503.04	-1728.65	  391.38
      2.0700	  797.00	  504.22	-1728.65	  392.57
      2.1700	  774.00	  505.39	-1728.65	  393.73
      2.2700	  799.00	  506.55	-1728.65	  394.89
      2.3700	  746.00	  507.69	-1728.65	  396.03
      2.4700	  727.00	  508.81	-1728.65	  397.15
      2.5700	  715.00	  509.92	-1728.65	  398.26
      2.6700	  717.00	  511.01	-1728.65	  399.35
      2.7700	  676.00	  512.09	-1728.65	  400.44
      2.8700	  606.00	  513.16	-1728.65	  401.50
      2.9700	  618.00	  514.21	-1728.65	  402.55
      3.0700	  591.00	  515.25	-1728.65	  403.59
      3.1700	  596.00	  516.28	-1728.65	  404.62
      3.2700	  663.00	  517.29	-1728.65	  405.63
      3.3700	  759.00	  518.28	-1728.65	  406.62
      3.4700	  852.00	  519.27	-1728.65	  407.61
      3.5700	  944.00	  520.23	-1728.65	  408.58
      3.6700	  988.00	  521.19	-1728.65	  409.53
      3.7700	 1026.00	  522.13	-1728.65	  410.47
      3.8700	 1087.00	  523.06	-1728.65	  411.40
      3.9700	 1117.00	  523.98	-1728.65	  412.32
      4.0700	 1134.00	  524.88	-1728.65	  413.22
      4.1700	 1261.00	  525.77	-1728.65	  414.11
      4.2700	 1176.00	  526.64	-1728.65	  414.99
      4.3700	 1168.00	  527.51	-1728.65	  415.85
      4.4700	 1167.00	  528.36	-1728.65	  416.70
      4.5700	 1145.00	  529.20	-1728.65	  417.54
      4.6700	 1117.00	  530.02	-1728.65	  418.36
      4.7700	 1089.00	  530.83	-1728.65	  419.17
      4.8700	 1086.00	  531.63	-1728.65	  419.97
      4.9700	 1042.00	  532.42	-1728.65	  420.76
      5.0700	 1062.00	  533.20	-1728.65	  421.54
      5.1700	 1001.00	  533.96	-1728.65	  422.30
      5.2700	  987.00	  534.71	-1728.65	  423.05
      5.3700	  903.00	  535.45	-1728.65	  423.79
      5.4700	  919.00	  536.18	-1728.65	  424.52
      5.5700	  928.00	  536.89	-1728.65	  425.23
      5.6700	  897.00	  537.60	-1728.65	  425.94
      5.7700	  901.00	  538.29	-1728.65	  426.63
      5.8700	  898.00	  538.97	-1728.65	  427.31
      5.9700	  805.00	  539.64	-1728.65	  427.98
      6.0700	  832.00	  540.30	-1728.65	  428.64
      6.1700	  798.00	  540.94	-1728.65	  429.28
      6.2700	  750.00	  541.58	-1728.65	  429.92
      6.3700	  765.00	  542.20	-1728.65	  430.54
      6.4700	  792.00	  542.81	-1728.65	  431.15
      6.5700	  762.00	  543.41	-1728.65	  431.76
      6.6700	  740.00	  544.00	-1728.65	  432.35
      6.7700	  796.00	  544.58	-1728.65	  432.93
      6.8700	  686.00	  545.15	-1728.65	  433.49
      6.9700	  684.00	  545.71	-1728.65	  434.05
      7.0700	  762.00	  546.26	-1728.65	  434.60
      7.1700	  671.00	  546.80	-1728.65	  435.14
      7.2700	  753.00	  547.32	-1728.65	  435.66
      7.3700	  684.00	  547.84	-1728.65	  436.18
      7.4700	  657.00	  548.34	-1728.65	  436.69
      7.5700	  658.00	  548.84	-1728.65	  437.18
      7.6700	  675.00	  549.33	-1728.65	  437.67
      7.7700	  620.00	  549.80	-1728.65	  438.14
      7.8700	  660.00	  550.27	-1728.65	  438.61
      7.9700	  671.00	  550.72	-1728.65	  439.06
      8.0700	  662.00	  551.17	-1728.65	  439.51
      8.1700	  631.00	  551.60	-1728.65	  439.94
      8.2700	  633.00	  552.03	-1728.65	  440.37
      8.3700	  687.00	  552.45	-1728.65	  440.79
      8.4700	  620.00	  552.85	-1728.65	  441.19
      8.5700	  610.00	  553.25	-1728.65	  441.59
      8.6700	  629.00	  553.64	-1728.65	  441.98
      8.7700	  622.00	  554.02	-1728.65	  442.36
      8.8700	  615.00	  554.39	-1728.65	  442.73
      8.9700	  605.00	  554.75	-1728.65	  443.09
      9.0700	  582.00	  555.10	-1728.65	  443.44
      9.1700	  576.00	  555.44	-1728.65	  443.78
      9.2700	  577.00	  555.78	-1728.65	  444.12
      9.3700	  598.00	  556.10	-1728.65	  444.44
      9.4700	  629.00	  556.42	-1728.65	  444.76
      9.5700	  592.00	  556.72	-1728.65	  445.07
      9.6700	  607.00	  557.02	-1728.65	  445.36
      9.7700	  574.00	  557.31	-1728.65	  445.65
      9.8700	  581.00	  557.59	-1728.65	  445.94
      9.9700	  618.00	  557.87	-1728.65	  446.21
     10.0700	  586.00	  559.45	-1702.10	  446.47
     10.1700	  575.00	  559.85	-1713.50	  446.73
     10.2700	  578.00	  560.27	-1710.91	  446.98
     10.3700	  627.00	  560.72	-1662.37	  447.22
     10.4700	  591.00	  561.25	-1698.90	  447.45
     10.5700	  560.00	  561.90	-1730.55	  447.67
     10.6700	  599.00	  562.75	-1692.40	  447.89
     10.7700	  559.00	  563.89	-1733.54	  448.10
     10.8700	  557.00	  565.41	-1737.06	  448.30
     10.9700	  550.00	  567.32	-1745.97	  448.49
     11.0700	  590.00	  569.62	-1708.27	  448.68
     11.1700	  590.00	  572.30	-1710.95	  448.85
     11.2700	  550.00	  575.39	-1754.04	  449.02
     11.3700	  545.00	  578.98	-1762.63	  449.19
     11.4700	  558.00	  583.17	-1753.82	  449.34
     11.5700	  604.00	  588.18	-1712.83	  449.49
     11.6700	  651.00	  594.32	-1671.97	  449.63
     11.7700	  626.00	  602.07	-1704.72	  449.76
     11.8700	  645.00	  611.96	-1695.61	  449.89
     11.9700	  643.00	  624.01	-1709.66	  450.01
     12.0700	  644.00	  636.74	-1721.39	  450.12
     12.1700	  677.00	  646.06	-1697.70	  450.23
     12.2700	  656.00	  645.44	-1718.09	  450.32
     12.3700	  713.00	  631.28	-1646.93	  450.42
     12.4700	  571.00	  610.51	-1768.16	  450.50
     12.5700	  603.00	  592.52	-1718.17	  450.58
     12.6700	  583.00	  580.54	-1726.19	  450.65
     12.7700	  548.00	  573.73	-1754.38	  450.71
     12.8700	  582.00	  570.16	-1716.81	  450.77
     12.9700	  538.00	  568.25	-1758.90	  450.83
     13.0700	  593.00	  567.10	-1702.75	  450.87
     13.1700	  565.00	  566.33	-1729.98	  450.91
     13.2700	  592.00	  565.77	-1702.42	  450.94
     13.3700	  530.00	  565.34	-1763.99	  450.97
     13.4700	  558.00	  565.00	-1735.65	  450.99
     13.5700	  577.00	  564.73	-1716.38	  451.01
     13.6700	  522.00	  564.51	-1771.16	  451.02
     13.7700	  537.00	  564.32	-1755.97	  451.02
     13.8700	  553.00	  564.16	-1739.81	  451.02
     13.9700	  626.00	  564.02	-1666.67	  451.01
     14.0700	  542.00	  563.90	-1750.54	  450.99
     14.1700	  541.00	  563.78	-1751.43	  450.97
     14.2700	  560.00	  563.67	-1732.32	  450.95
     14.3700	  538.00	  563.57	-1754.21	  450.91
     14.4700	  576.00	  563.47	-1716.11	  450.88
     14.5700	  520.00	  563.37	-1772.02	  450.83
     14.6700	  562.00	  563.27	-1729.92	  450.79
     14.7700	  563.00	  563.20	-1728.85	  450.73
     14.8700	  567.00	  563.11	-1724.75	  450.68
     14.9700	  547.00	  563.01	-1744.66	  450.61
     15.0700	  551.00	  562.91	-1740.56	  450.54
     15.1700	  545.00	  562.81	-1746.46	  450.47
     15.2700	  590.00	  562.70	-1701.35	  450.39
     15.3700	  575.00	  562.60	-1716.24	  450.31
     15.4700	  509.00	  562.49	-1782.14	  450.22
     15.5700	  585.00	  562.37	-1706.02	  450.12
     15.6700	  583.00	  562.26	-1707.91	  450.02
     15.7700	  531.00	  562.14	-1759.79	  449.92
     15.8700	  550.00	  562.02	-1740.67	  449.81
     15.9700	  620.00	  561.89	-1670.54	  449.70
     16.0700	  553.00	  561.76	-1737.41	  449.58
     16.1700	  541.00	  561.63	-1749.28	  449.46
     16.2700	  537.00	  561.49	-1753.14	  449.33
     16.3700	  559.00	  561.35	-1731.00	  449.20
     16.4700	  567.00	  561.21	-1722.86	  449.07
     16.5700	  593.00	  561.06	-1696.71	  448.93
     16.6700	  542.00	  560.91	-1747.56	  448.78
     16.7700	  510.00	  560.75	-1779.40	  448.63
     16.8700	  527.00	  560.60	-1762.24	  448.48
     16.9700	  530.00	  560.43	-1759.08	  448.33
     17.0700	  540.00	  560.27	-1748.92	  448.16
     17.1700	  516.00	  560.10	-1772.75	  448.00
     17.2700	  524.00	  559.92	-1764.57	  447.83
     17.3700	  536.00	  559.75	-1752.40	  447.66
     17.4700	  572.00	  559.57	-1716.22	  447.48
     17.5700	  535.00	  559.38	-1753.03	  447.30
     17.6700	  535.00	  559.30	-1752.95	  447.12
     17.7700	  557.00	  559.11	-1730.76	  446.93
     17.8700	  560.00	  558.92	-1727.57	  446.74
     17.9700	  571.00	  558.73	-1716.38	  446.54
     18.0700	  530.00	  558.53	-1757.18	  446.34
     18.1700	  524.00	  558.33	-1762.98	  446.14
     18.2700	  544.00	  558.12	-1742.77	  445.93
     18.3700	  538.00	  558.01	-1748.66	  445.72
     18.4700	  528.00	  557.80	-1758.45	  445.51
     18.5700	  560.00	  557.59	-1726.23	  445.30
     18.6700	  548.00	  557.37	-1738.02	  445.08
     18.7700	  561.00	  557.15	-1724.80	  444.85
     18.8700	  531.00	  556.93	-1754.58	  444.63
     18.9700	  569.00	  556.71	-1716.36	  444.40
     19.0700	  548.00	  556.48	-1737.13	  444.17
     19.1700	  474.00	  556.25	-1810.90	  443.93
     19.2700	  519.00	  556.02	-1765.67	  443.69
     19.3700	  559.00	  555.79	-1725.43	  443.45
     19.4700	  571.00	  555.55	-1713.20	  443.21
     19.5700	  565.00	  555.31	-1718.96	  442.96
     19.6700	  513.00	  555.07	-1770.72	  442.71
     19.7700	  574.00	  554.83	-1709.47	  442.46
     19.8700	  539.00	  554.58	-1744.23	  442.20
     19.9700	  586.00	  554.33	-1696.98	  441.94
     20.0700	  515.00	  554.08	-1767.73	  441.68
     20.1700	  571.00	  553.86	-1711.51	  441.42
     20.2700	  535.00	  553.61	-1747.26	  441.15
     20.3700	  574.00	  553.35	-1708.00	  440.88
     20.4700	  552.00	  553.10	-1729.75	  440.61
     20.5700	  565.00	  552.84	-1716.49	  440.34
     20.6700	  551.00	  552.58	-1730.23	  440.06
     20.7700	  549.00	  552.32	-1731.97	  439.78
     20.8700	  538.00	  552.06	-1742.70	  439.50
     20.9700	  556.00	  551.79	-1724.44	  439.22
     21.0700	  550.00	  551.53	-1730.18	  438.93
     21.1700	  561.00	  551.26	-1718.91	  438.65
     21.2700	  537.00	  551.00	-1742.64	  438.36
     21.3700	  548.00	  550.73	-1731.38	  438.06
     21.4700	  564.00	  550.46	-1715.11	  437.77
     21.5700	  549.00	  550.19	-1729.84	  437.47
     21.6700	  536.00	  549.93	-1742.58	  437.18
     21.7700	  582.00	  549.66	-1696.31	  436.88
     21.8700	  542.00	  549.40	-1736.04	  436.57
     21.9700	  535.00	  549.13	-1742.78	  436.27
     22.0700	  573.00	  548.83	-1704.48	  435.96
     22.1700	  549.00	  548.57	-1728.22	  435.66
     22.2700	  542.00	  548.31	-1734.96	  435.35
     22.3700	  546.00	  548.06	-1730.70	  435.04
     22.4700	  532.00	  547.80	-1744.45	  434.72
     22.5700	  565.00	  547.56	-1711.21	  434.41
     22.6700	  552.00	  547.32	-1723.97	  434.09
     22.7700	  535.00	  547.09	-1740.74	  433.78
     22.8700	  561.00	  547.02	-1714.66	  433.46
     22.9700	  535.00	  546.81	-1740.46	  433.14
     23.0700	  541.00	  546.62	-1734.26	  432.81
     23.1700	  581.00	  546.44	-1694.09	  432.49
     23.2700	  545.00	  546.29	-1729.94	  432.16
     23.3700	  576.00	  546.18	-1698.83	  431.84
     23.4700	  548.00	  546.10	-1726.75	  431.51
     23.5700	  526.00	  546.08	-1748.73	  431.18
     23.6700	  546.00	  546.14	-1728.79	  430.85
     23.7700	  522.00	  546.33	-1752.98	  430.52
     23.8700	  547.00	  546.73	-1728.38	  430.19
     23.9700	  576.00	  547.51	-1700.16	  429.85
     24.0700	  562.00	  548.96	-1715.61	  429.52
     24.1700	  563.00	  551.53	-1717.18	  429.18
     24.2700	  596.00	  555.85	-1688.49	  428.85
     24.3700	  589.00	  562.54	-1702.19	  428.51
     24.4700	  619.00	  572.13	-1681.78	  428.17
     24.5700	  628.00	  584.51	-1685.16	  427.83
     24.6700	  617.00	  598.16	-1709.81	  427.49
     24.7700	  608.00	  609.22	-1729.87	  427.15
     24.8700	  643.00	  611.69	-1697.33	  426.80
     24.9700	  634.00	  601.79	-1696.44	  426.46
     25.0700	  579.00	  584.66	-1734.31	  426.12
     25.1700	  584.00	  568.53	-1713.18	  425.77
     25.2700	  551.00	  557.00	-1734.65	  425.43
     25.3700	  568.00	  550.01	-1710.66	  425.08
     25.4700	  579.00	  546.15	-1695.80	  424.73
     25.5700	  543.00	  544.03	-1729.67	  424.38
     25.6700	  534.00	  542.75	-1737.40	  424.04
     25.7700	  532.00	  541.88	-1738.53	  423.69
     25.8700	  577.00	  541.25	-1692.90	  423.34
     25.9700	  525.00	  540.77	-1744.42	  422.99
     26.0700	  559.00	  540.42	-1710.07	  422.64
     26.1700	  551.00	  540.16	-1717.81	  422.29
     26.2700	  549.00	  540.00	-1719.65	  421.94
     26.3700	  561.00	  539.93	-1707.58	  421.58
     26.4700	  533.00	  539.96	-1735.60	  421.23
     26.5700	  557.00	  540.08	-1711.73	  420.88
     26.6700	  552.00	  540.33	-1716.98	  420.53
     26.7700	  545.00	  540.72	-1724.37	  420.17
     26.8700	  573.00	  541.28	-1696.93	  419.82
     26.9700	  521.00	  542.07	-1749.71	  419.47
     27.0700	  530.00	  543.14	-1741.79	  419.11
     27.1700	  571.00	  544.62	-1702.27	  418.76
     27.2700	  566.00	  546.71	-1709.36	  418.41
     27.3700	  544.00	  549.80	-1734.44	  418.05
     27.4700	  568.00	  554.64	-1715.29	  417.70
     27.5700	  547.00	  562.60	-1744.25	  417.34
     27.6700	  571.00	  575.90	-1733.55	  416.99
     27.7700	  596.00	  597.65	-1730.29	  416.63
     27.8700	  597.00	  630.97	-1762.62	  416.28
     27.9700	  658.00	  677.20	-1747.84	  415.93
     28.0700	  723.00	  733.22	-1738.87	  415.57
     28.1700	  834.00	  788.90	-1683.55	  415.22
     28.2700	  928.00	  826.05	-1626.70	  414.86
     28.3700	  907.00	  825.85	-1647.49	  414.51
     28.4700	  866.00	  792.66	-1655.31	  414.16
     28.5700	  740.00	  757.54	-1746.18	  413.80
     28.6700	  665.00	  744.25	-1807.90	  413.45
     28.7700	  735.00	  756.24	-1749.88	  413.10
     28.8700	  778.00	  781.28	-1731.93	  412.75
     28.9700	  782.00	  796.75	-1743.39	  412.39
     29.0700	  880.00	  779.68	-1628.33	  412.04
     29.1700	  750.00	  729.21	-1707.85	  411.69
     29.2700	  652.00	  669.24	-1745.88	  411.34
     29.3700	  629.00	  619.32	-1718.97	  410.99
     29.4700	  595.00	  585.11	-1718.76	  410.64
     29.5700	  585.00	  564.49	-1708.13	  410.29
     29.6700	  598.00	  552.88	-1683.53	  409.94
     29.7700	  558.00	  546.32	-1716.97	  409.59
     29.8700	  569.00	  542.36	-1702.01	  409.24
     29.9700	  603.00	  539.86	-1665.51	  408.89
     30.0700	  567.00	  538.32	-1699.97	  408.54
     30.1700	  551.00	  537.72	-1715.37	  408.20
     30.2700	  544.00	  538.33	-1722.98	  407.85
     30.3700	  569.00	  540.78	-1700.43	  407.50
     30.4700	  531.00	  546.08	-1743.73	  407.16
     30.5700	  593.00	  555.40	-1691.05	  406.82
     30.6700	  545.00	  569.34	-1752.99	  406.47
     30.7700	  555.00	  586.89	-1760.54	  406.13
     30.8700	  609.00	  604.48	-1724.13	  405.79
     30.9700	  660.00	  615.63	-1684.28	  405.44
     31.0700	  629.00	  613.23	-1712.88	  405.10
     31.1700	  577.00	  596.83	-1748.48	  404.76
     31.2700	  565.00	  575.12	-1738.77	  404.42
     31.3700	  557.00	  556.07	-1727.72	  404.09
     31.4700	  569.00	  542.55	-1702.19	  403.75
     31.5700	  561.00	  534.18	-1701.83	  403.41
     31.6700	  557.00	  529.42	-1701.07	  403.07
     31.7700	  517.00	  526.74	-1738.39	  402.74
     31.8700	  529.00	  525.13	-1724.78	  402.41
     31.9700	  492.00	  524.08	-1760.73	  402.07
     32.0700	  537.00	  523.37	-1715.01	  401.74
     32.1700	  534.00	  522.88	-1717.53	  401.41
     32.2700	  535.00	  522.60	-1716.24	  401.08
     32.3700	  563.00	  522.49	-1688.14	  400.75
     32.4700	  576.00	  522.57	-1675.22	  400.42
     32.5700	  572.00	  522.84	-1679.49	  400.09
     32.6700	  547.00	  523.35	-1705.00	  399.77
     32.7700	  548.00	  524.13	-1704.77	  399.44
     32.8700	  562.00	  525.25	-1691.90	  399.12
     32.9700	  534.00	  526.85	-1721.49	  398.79
     33.0700	  531.00	  529.11	-1726.76	  398.47
     33.1700	  559.00	  532.45	-1702.10	  398.15
     33.2700	  527.00	  537.72	-1739.37	  397.83
     33.3700	  568.00	  546.61	-1707.26	  397.51
     33.4700	  525.00	  562.24	-1765.88	  397.20
     33.5700	  574.00	  589.48	-1744.13	  396.88
     33.6700	  585.00	  634.29	-1777.94	  396.57
     33.7700	  722.00	  700.68	-1707.33	  396.25
     33.8700	  801.00	  785.51	-1713.15	  395.94
     33.9700	  889.00	  873.48	-1713.13	  395.63
     34.0700	  944.00	  936.02	-1720.67	  395.32
     34.1700	 1055.00	  939.78	-1613.42	  395.01
     34.2700	  927.00	  876.69	-1678.33	  394.70
     34.3700	  847.00	  780.54	-1662.19	  394.40
     34.4700	  668.00	  689.72	-1750.37	  394.09
     34.5700	  641.00	  621.62	-1709.27	  393.79
     34.6700	  590.00	  577.71	-1716.36	  393.49
     34.7700	  555.00	  552.19	-1725.84	  393.18
     34.8700	  538.00	  538.00	-1728.64	  392.88
     34.9700	  572.00	  529.80	-1686.45	  392.59
     35.0700	  531.00	  524.58	-1722.23	  392.29
     35.1700	  528.00	  520.84	-1721.49	  392.00
     35.2700	  519.00	  518.00	-1727.65	  391.70
     35.3700	  487.00	  515.73	-1757.38	  391.41
     35.4700	  535.00	  513.87	-1707.52	  391.12
     35.5700	  479.00	  512.31	-1761.96	  390.83
     35.6700	  502.00	  511.45	-1738.10	  390.54
     35.7700	  473.00	  510.31	-1765.96	  390.25
     35.8700	  515.00	  509.31	-1722.96	  389.97
     35.9700	  447.00	  508.43	-1790.08	  389.69
     36.0700	  533.00	  507.65	-1703.30	  389.40
     36.1700	  489.00	  506.95	-1746.60	  389.12
     36.2700	  519.00	  506.32	-1715.96	  388.85
     36.3700	  477.00	  505.74	-1757.39	  388.57
     36.4700	  507.00	  505.22	-1726.87	  388.29
     36.5700	  496.00	  504.76	-1737.41	  388.02
     36.6700	  474.00	  504.36	-1759.00	  387.75
     36.7700	  494.00	  504.00	-1738.65	  387.47
     36.8700	  528.00	  503.72	-1704.37	  387.21
     36.9700	  464.00	  503.56	-1768.21	  386.94
     37.0700	  506.00	  503.61	-1726.26	  386.67
     37.1700	  511.00	  504.02	-1721.67	  386.41
     37.2700	  455.00	  505.01	-1778.65	  386.14
     37.3700	  549.00	  506.77	-1686.42	  385.88
     37.4700	  512.00	  509.38	-1726.03	  385.62
     37.5700	  493.00	  512.53	-1748.18	  385.37
     37.6700	  518.00	  515.42	-1726.07	  385.11
     37.7700	  512.00	  516.86	-1733.51	  384.85
     37.8700	  534.00	  515.91	-1710.55	  384.60
     37.9700	  543.00	  512.96	-1698.60	  384.35
     38.0700	  517.00	  509.32	-1720.97	  384.10
     38.1700	  506.00	  505.94	-1728.59	  383.85
     38.2700	  471.00	  503.19	-1760.84	  383.61
     38.3700	  525.00	  501.33	-1704.98	  383.36
     38.4700	  522.00	  499.92	-1706.57	  383.12
     38.5700	  493.00	  498.95	-1734.60	  382.88
     38.6700	  454.00	  498.27	-1772.92	  382.64
     38.7700	  517.00	  497.76	-1709.41	  382.40
     38.8700	  492.00	  497.35	-1734.00	  382.17
     38.9700	  477.00	  497.00	-1748.64	  381.93
     39.0700	  517.00	  496.68	-1708.33	  381.70
     39.1700	  481.00	  496.29	-1743.94	  381.47
     39.2700	  504.00	  496.03	-1720.67	  381.24
     39.3700	  483.00	  495.77	-1741.42	  381.02
     39.4700	  539.00	  495.54	-1685.19	  380.79
     39.5700	  513.00	  495.31	-1710.96	  380.57
     39.6700	  507.00	  495.10	-1716.75	  380.35
     39.7700	  436.00	  494.90	-1787.55	  380.13
     39.8700	  521.00	  494.62	-1702.27	  379.91
     39.9700	  466.00	  494.44	-1757.09	  379.70
     40.0700	  478.00	  494.28	-1744.93	  379.48
     40.1700	  493.00	  494.12	-1729.77	  379.27
     40.2700	  461.00	  493.98	-1761.63	  379.06
     40.3700	  494.00	  493.85	-1728.50	  378.85
     40.4700	  487.00	  493.74	-1735.39	  378.65
     40.5700	  495.00	  493.64	-1727.29	  378.44
     40.6700	  509.00	  493.56	-1713.21	  378.24
     40.7700	  509.00	  493.99	-1713.64	  378.04
