MSG Master    CELL:    5.91782   5.91782  23.27472   90.0000   90.0000  120.0000   SPGR: P 63/m m c             TEMP:   1041.95
  1   1280     2.52000     0.00000    -0.12739     0.00000     0.00000    0
    99     0     2
       0.00000      10.00000
     125.00000     130.00000
 2Theta	Yobs	Ycal	Yobs-Ycal	Backg	Posr	(hkl)	K
      0.7700	    0.00	  515.43	-1717.00	  397.40
      0.8700	    0.00	  516.49	-1717.00	  398.45
      0.9700	   48.00	  517.53	-1717.00	  399.50
      1.0700	   36.00	  518.56	-1717.00	  400.53
      1.1700	   43.00	  519.58	-1717.00	  401.54
      1.2700	   48.00	  520.58	-1717.00	  402.55
      1.3700	   59.00	  521.57	-1717.00	  403.54
      1.4700	  110.00	  522.55	-1717.00	  404.51
      1.5700	  303.00	  523.51	-1717.00	  405.48
      1.6700	  453.00	  524.46	-1717.00	  406.43
      1.7700	  555.00	  525.40	-1717.00	  407.37
      1.8700	  643.00	  526.33	-1717.00	  408.29
      1.9700	  735.00	  527.24	-1717.00	  409.21
      2.0700	  768.00	  528.14	-1717.00	  410.11
      2.1700	  803.00	  529.03	-1717.00	  411.00
      2.2700	  762.00	  529.90	-1717.00	  411.87
      2.3700	  724.00	  530.77	-1717.00	  412.73
      2.4700	  736.00	  531.62	-1717.00	  413.59
      2.5700	  717.00	  532.46	-1717.00	  414.42
      2.6700	  671.00	  533.28	-1717.00	  415.25
      2.7700	  638.00	  534.10	-1717.00	  416.07
      2.8700	  599.00	  534.90	-1717.00	  416.87
      2.9700	  590.00	  535.69	-1717.00	  417.66
      3.0700	  612.00	  536.47	-1717.00	  418.44
      3.1700	  600.00	  537.24	-1717.00	  419.21
      3.2700	  659.00	  538.00	-1717.00	  419.96
      3.3700	  678.00	  538.74	-1717.00	  420.71
      3.4700	  830.00	  539.47	-1717.00	  421.44
      3.5700	  836.00	  540.20	-1717.00	  422.16
      3.6700	  870.00	  540.91	-1717.00	  422.87
      3.7700	  968.00	  541.61	-1717.00	  423.57
      3.8700	  965.00	  542.29	-1717.00	  424.26
      3.9700	 1059.00	  542.97	-1717.00	  424.94
      4.0700	 1121.00	  543.64	-1717.00	  425.61
      4.1700	 1123.00	  544.29	-1717.00	  426.26
      4.2700	 1109.00	  544.94	-1717.00	  426.91
      4.3700	 1138.00	  545.57	-1717.00	  427.54
      4.4700	 1110.00	  546.20	-1717.00	  428.16
      4.5700	 1085.00	  546.81	-1717.00	  428.78
      4.6700	 1012.00	  547.41	-1717.00	  429.38
      4.7700	  983.00	  548.00	-1717.00	  429.97
      4.8700	  966.00	  548.59	-1717.00	  430.55
      4.9700	 1004.00	  549.16	-1717.00	  431.12
      5.0700	  964.00	  549.72	-1717.00	  431.69
      5.1700	  903.00	  550.27	-1717.00	  432.24
      5.2700	  948.00	  550.81	-1717.00	  432.78
      5.3700	  898.00	  551.34	-1717.00	  433.31
      5.4700	  879.00	  551.86	-1717.00	  433.83
      5.5700	  911.00	  552.37	-1717.00	  434.34
      5.6700	  914.00	  552.88	-1717.00	  434.84
      5.7700	  878.00	  553.37	-1717.00	  435.34
      5.8700	  839.00	  553.85	-1717.00	  435.82
      5.9700	  773.00	  554.32	-1717.00	  436.29
      6.0700	  848.00	  554.79	-1717.00	  436.75
      6.1700	  779.00	  555.24	-1717.00	  437.21
      6.2700	  788.00	  555.68	-1717.00	  437.65
      6.3700	  753.00	  556.12	-1717.00	  438.09
      6.4700	  744.00	  556.55	-1717.00	  438.51
      6.5700	  762.00	  556.96	-1717.00	  438.93
      6.6700	  736.00	  557.37	-1717.00	  439.34
      6.7700	  746.00	  557.77	-1717.00	  439.74
      6.8700	  718.00	  558.16	-1717.00	  440.13
      6.9700	  716.00	  558.54	-1717.00	  440.51
      7.0700	  675.00	  558.92	-1717.00	  440.88
      7.1700	  706.00	  559.28	-1717.00	  441.25
      7.2700	  714.00	  559.64	-1717.00	  441.60
      7.3700	  667.00	  559.98	-1717.00	  441.95
      7.4700	  662.00	  560.32	-1717.00	  442.29
      7.5700	  610.00	  560.65	-1717.00	  442.62
      7.6700	  658.00	  560.97	-1717.00	  442.94
      7.7700	  634.00	  561.29	-1717.00	  443.25
      7.8700	  628.00	  561.59	-1717.00	  443.56
      7.9700	  614.00	  561.89	-1717.00	  443.86
      8.0700	  631.00	  562.18	-1717.00	  444.15
      8.1700	  603.00	  562.46	-1717.00	  444.43
      8.2700	  614.00	  562.73	-1717.00	  444.70
      8.3700	  629.00	  563.00	-1717.00	  444.97
      8.4700	  646.00	  563.26	-1717.00	  445.22
      8.5700	  581.00	  563.51	-1717.00	  445.47
      8.6700	  598.00	  563.75	-1717.00	  445.72
      8.7700	  584.00	  563.98	-1717.00	  445.95
      8.8700	  637.00	  564.21	-1717.00	  446.18
      8.9700	  606.00	  564.43	-1717.00	  446.40
      9.0700	  592.00	  564.64	-1717.00	  446.61
      9.1700	  651.00	  564.85	-1717.00	  446.81
      9.2700	  629.00	  565.04	-1717.00	  447.01
      9.3700	  626.00	  565.23	-1717.00	  447.20
      9.4700	  590.00	  565.42	-1717.00	  447.38
      9.5700	  592.00	  565.59	-1717.00	  447.56
      9.6700	  599.00	  565.76	-1717.00	  447.73
      9.7700	  630.00	  565.92	-1717.00	  447.89
      9.8700	  559.00	  566.08	-1717.00	  448.05
      9.9700	  621.00	  566.23	-1717.00	  448.19
     10.0700	  558.00	  567.56	-1726.56	  448.34
     10.1700	  569.00	  567.83	-1715.83	  448.47
     10.2700	  639.00	  568.12	-1646.12	  448.60
     10.3700	  603.00	  568.46	-1682.46	  448.72
     10.4700	  576.00	  568.88	-1709.88	  448.83
     10.5700	  611.00	  569.44	-1675.44	  448.94
     10.6700	  570.00	  570.24	-1717.24	  449.04
     10.7700	  562.00	  571.38	-1726.38	  449.14
     10.8700	  572.00	  572.94	-1717.94	  449.23
     10.9700	  605.00	  574.92	-1686.93	  449.31
     11.0700	  611.00	  577.30	-1683.30	  449.39
     11.1700	  629.00	  580.08	-1668.08	  449.46
     11.2700	  539.00	  583.31	-1761.31	  449.52
     11.3700	  600.00	  587.07	-1704.07	  449.58
     11.4700	  635.00	  591.51	-1673.51	  449.63
     11.5700	  598.00	  596.87	-1715.87	  449.68
     11.6700	  593.00	  603.55	-1727.55	  449.72
     11.7700	  652.00	  612.14	-1677.14	  449.76
     11.8700	  651.00	  623.33	-1689.33	  449.79
     11.9700	  653.00	  637.15	-1701.15	  449.81
     12.0700	  666.00	  651.42	-1702.42	  449.83
     12.1700	  686.00	  660.44	-1691.44	  449.84
     12.2700	  670.00	  656.13	-1703.13	  449.85
     12.3700	  635.00	  636.62	-1718.62	  449.85
     12.4700	  636.00	  612.78	-1693.78	  449.84
     12.5700	  623.00	  594.29	-1688.29	  449.84
     12.6700	  535.00	  583.06	-1765.06	  449.82
     12.7700	  551.00	  577.22	-1743.22	  449.80
     12.8700	  608.00	  574.30	-1683.30	  449.78
     12.9700	  565.00	  572.71	-1724.71	  449.75
     13.0700	  600.00	  571.69	-1688.69	  449.71
     13.1700	  574.00	  570.96	-1713.96	  449.67
     13.2700	  547.00	  570.40	-1740.40	  449.63
     13.3700	  563.00	  569.96	-1723.96	  449.58
     13.4700	  517.00	  569.59	-1769.59	  449.52
     13.5700	  545.00	  569.28	-1741.28	  449.46
     13.6700	  600.00	  569.02	-1686.02	  449.40
     13.7700	  583.00	  568.78	-1702.78	  449.33
     13.8700	  567.00	  568.57	-1718.57	  449.25
     13.9700	  576.00	  568.37	-1709.37	  449.17
     14.0700	  557.00	  568.19	-1728.19	  449.09
     14.1700	  599.00	  568.02	-1686.02	  449.00
     14.2700	  541.00	  567.85	-1743.85	  448.91
     14.3700	  542.00	  567.69	-1742.69	  448.81
     14.4700	  547.00	  567.53	-1737.53	  448.71
     14.5700	  587.00	  567.38	-1697.38	  448.61
     14.6700	  539.00	  567.22	-1745.22	  448.50
     14.7700	  559.00	  567.07	-1725.07	  448.38
     14.8700	  551.00	  566.92	-1732.92	  448.27
     14.9700	  557.00	  566.77	-1726.77	  448.15
     15.0700	  548.00	  566.61	-1735.61	  448.02
     15.1700	  547.00	  566.46	-1736.46	  447.89
     15.2700	  567.00	  566.33	-1716.33	  447.76
     15.3700	  529.00	  566.17	-1754.17	  447.62
     15.4700	  536.00	  566.01	-1747.01	  447.48
     15.5700	  559.00	  565.85	-1723.85	  447.33
     15.6700	  557.00	  565.68	-1725.68	  447.18
     15.7700	  542.00	  565.51	-1740.51	  447.03
     15.8700	  576.00	  565.34	-1706.34	  446.87
     15.9700	  560.00	  565.17	-1722.17	  446.71
     16.0700	  572.00	  565.00	-1710.00	  446.55
     16.1700	  512.00	  564.82	-1769.82	  446.38
     16.2700	  555.00	  564.64	-1726.64	  446.21
     16.3700	  554.00	  564.46	-1727.46	  446.03
     16.4700	  596.00	  564.27	-1685.27	  445.86
     16.5700	  537.00	  564.08	-1744.08	  445.67
     16.6700	  559.00	  563.89	-1721.89	  445.49
     16.7700	  553.00	  563.70	-1727.70	  445.30
     16.8700	  529.00	  563.50	-1751.50	  445.11
     16.9700	  562.00	  563.30	-1718.30	  444.92
     17.0700	  551.00	  563.10	-1729.10	  444.72
     17.1700	  548.00	  562.89	-1731.89	  444.52
     17.2700	  557.00	  562.69	-1722.69	  444.31
     17.3700	  592.00	  562.48	-1687.48	  444.11
     17.4700	  577.00	  562.26	-1702.26	  443.90
     17.5700	  540.00	  562.05	-1739.05	  443.69
     17.6700	  543.00	  561.83	-1735.83	  443.47
     17.7700	  538.00	  561.61	-1740.61	  443.25
     17.8700	  544.00	  561.39	-1734.39	  443.03
     17.9700	  541.00	  561.26	-1737.26	  442.81
     18.0700	  608.00	  561.04	-1670.04	  442.58
     18.1700	  527.00	  560.81	-1750.81	  442.35
     18.2700	  514.00	  560.58	-1763.58	  442.12
     18.3700	  527.00	  560.35	-1750.35	  441.89
     18.4700	  573.00	  560.11	-1704.11	  441.65
     18.5700	  610.00	  559.87	-1666.87	  441.41
     18.6700	  575.00	  559.72	-1701.72	  441.17
     18.7700	  543.00	  559.48	-1733.48	  440.92
     18.8700	  542.00	  559.24	-1734.24	  440.68
     18.9700	  536.00	  558.99	-1739.99	  440.43
     19.0700	  558.00	  558.75	-1717.75	  440.18
     19.1700	  548.00	  558.50	-1727.50	  439.92
     19.2700	  522.00	  558.25	-1753.25	  439.67
     19.3700	  557.00	  558.00	-1718.00	  439.41
     19.4700	  545.00	  557.74	-1729.74	  439.15
     19.5700	  570.00	  557.49	-1704.49	  438.89
     19.6700	  548.00	  557.23	-1726.23	  438.62
     19.7700	  567.00	  556.97	-1706.97	  438.35
     19.8700	  565.00	  556.71	-1708.71	  438.09
     19.9700	  533.00	  556.45	-1740.45	  437.81
     20.0700	  532.00	  556.19	-1741.19	  437.54
     20.1700	  516.00	  555.93	-1756.93	  437.27
     20.2700	  562.00	  555.66	-1710.66	  436.99
     20.3700	  494.00	  555.39	-1778.39	  436.71
     20.4700	  524.00	  555.16	-1748.16	  436.43
     20.5700	  573.00	  554.89	-1698.89	  436.15
     20.6700	  562.00	  554.62	-1709.62	  435.87
     20.7700	  556.00	  554.35	-1715.35	  435.58
     20.8700	  565.00	  554.08	-1706.08	  435.30
     20.9700	  537.00	  553.81	-1733.81	  435.01
     21.0700	  512.00	  553.54	-1758.54	  434.72
     21.1700	  531.00	  553.27	-1739.27	  434.43
     21.2700	  546.00	  553.00	-1724.00	  434.13
     21.3700	  555.00	  552.73	-1714.73	  433.84
     21.4700	  516.00	  552.46	-1753.46	  433.54
     21.5700	  538.00	  552.14	-1731.14	  433.25
     21.6700	  522.00	  551.87	-1746.87	  432.95
     21.7700	  511.00	  551.61	-1757.61	  432.65
     21.8700	  564.00	  551.34	-1704.34	  432.35
     21.9700	  545.00	  551.07	-1723.07	  432.05
     22.0700	  577.00	  550.81	-1690.81	  431.74
     22.1700	  500.00	  550.54	-1767.54	  431.44
     22.2700	  544.00	  550.28	-1723.28	  431.13
     22.3700	  551.00	  550.03	-1716.03	  430.82
     22.4700	  536.00	  549.78	-1730.78	  430.51
     22.5700	  556.00	  549.53	-1710.53	  430.21
     22.6700	  561.00	  549.29	-1705.29	  429.89
     22.7700	  566.00	  549.05	-1700.05	  429.58
     22.8700	  550.00	  548.83	-1715.83	  429.27
     22.9700	  546.00	  548.62	-1719.62	  428.96
     23.0700	  578.00	  548.42	-1687.42	  428.64
     23.1700	  525.00	  548.24	-1740.24	  428.33
     23.2700	  526.00	  548.23	-1739.23	  428.01
     23.3700	  531.00	  548.11	-1734.11	  427.69
     23.4700	  553.00	  548.03	-1712.03	  427.38
     23.5700	  588.00	  548.00	-1677.00	  427.06
     23.6700	  569.00	  548.06	-1696.06	  426.74
     23.7700	  552.00	  548.25	-1713.25	  426.42
     23.8700	  561.00	  548.68	-1704.68	  426.10
     23.9700	  527.00	  549.57	-1739.57	  425.78
     24.0700	  559.00	  551.26	-1709.26	  425.46
     24.1700	  568.00	  554.29	-1703.29	  425.13
     24.2700	  588.00	  559.34	-1688.34	  424.81
     24.3700	  607.00	  567.08	-1677.08	  424.49
     24.4700	  619.00	  578.03	-1676.03	  424.16
     24.5700	  618.00	  591.76	-1690.76	  423.84
     24.6700	  637.00	  605.80	-1685.80	  423.51
     24.7700	  645.00	  614.69	-1686.69	  423.19
     24.8700	  621.00	  611.69	-1707.69	  422.86
     24.9700	  649.00	  596.48	-1664.48	  422.53
     25.0700	  568.00	  577.98	-1726.98	  422.21
     25.1700	  595.00	  563.32	-1685.32	  421.88
     25.2700	  583.00	  554.10	-1688.10	  421.55
     25.3700	  555.00	  549.10	-1711.10	  421.23
     25.4700	  541.00	  546.52	-1722.52	  420.90
     25.5700	  543.00	  545.09	-1719.09	  420.57
     25.6700	  582.00	  544.17	-1679.17	  420.24
     25.7700	  556.00	  543.52	-1704.52	  419.91
     25.8700	  547.00	  543.03	-1713.03	  419.58
     25.9700	  524.00	  542.65	-1735.65	  419.26
     26.0700	  567.00	  542.37	-1692.37	  418.93
     26.1700	  578.00	  542.18	-1681.18	  418.60
     26.2700	  505.00	  542.07	-1754.07	  418.27
     26.3700	  572.00	  542.04	-1687.04	  417.94
     26.4700	  536.00	  542.11	-1723.11	  417.61
     26.5700	  544.00	  542.27	-1715.27	  417.28
     26.6700	  550.00	  542.54	-1709.54	  416.95
     26.7700	  555.00	  542.96	-1704.96	  416.63
     26.8700	  564.00	  543.54	-1696.54	  416.30
     26.9700	  559.00	  544.36	-1702.36	  415.97
     27.0700	  544.00	  545.47	-1718.47	  415.64
     27.1700	  548.00	  547.02	-1716.02	  415.31
     27.2700	  608.00	  549.24	-1658.24	  414.98
     27.3700	  569.00	  552.63	-1700.63	  414.66
     27.4700	  565.00	  558.14	-1710.14	  414.33
     27.5700	  567.00	  567.47	-1717.47	  414.00
     27.6700	  611.00	  583.36	-1689.36	  413.68
     27.7700	  579.00	  609.35	-1747.35	  413.35
     27.8700	  592.00	  648.63	-1773.63	  413.02
     27.9700	  677.00	  701.53	-1741.53	  412.70
     28.0700	  737.00	  762.38	-1742.38	  412.37
     28.1700	  856.00	  816.52	-1677.52	  412.05
     28.2700	  930.00	  841.40	-1628.40	  411.72
     28.3700	  893.00	  822.38	-1646.38	  411.40
     28.4700	  818.00	  779.08	-1678.08	  411.07
     28.5700	  729.00	  747.14	-1735.14	  410.75
     28.6700	  721.00	  743.69	-1739.69	  410.43
     28.7700	  782.00	  764.87	-1699.87	  410.10
     28.8700	  717.00	  791.85	-1791.85	  409.78
     28.9700	  829.00	  797.62	-1685.62	  409.46
     29.0700	  790.00	  763.89	-1690.89	  409.14
     29.1700	  680.00	  703.75	-1740.75	  408.82
     29.2700	  666.00	  644.77	-1695.77	  408.50
     29.3700	  651.00	  601.08	-1667.08	  408.18
     29.4700	  625.00	  573.87	-1665.87	  407.86
     29.5700	  571.00	  558.74	-1704.74	  407.54
     29.6700	  600.00	  550.60	-1667.60	  407.23
     29.7700	  546.00	  545.99	-1716.99	  406.91
     29.8700	  584.00	  543.15	-1676.15	  406.60
     29.9700	  558.00	  541.37	-1700.37	  406.28
     30.0700	  562.00	  540.44	-1695.44	  405.97
     30.1700	  536.00	  540.52	-1721.52	  405.65
     30.2700	  609.00	  542.08	-1650.08	  405.34
     30.3700	  591.00	  546.10	-1672.10	  405.03
     30.4700	  583.00	  553.90	-1687.90	  404.72
     30.5700	  588.00	  566.88	-1695.88	  404.41
     30.6700	  566.00	  585.30	-1736.30	  404.10
     30.7700	  626.00	  606.88	-1697.88	  403.79
     30.8700	  638.00	  625.72	-1704.72	  403.48
     30.9700	  638.00	  632.86	-1711.86	  403.18
     31.0700	  571.00	  621.83	-1767.83	  402.87
     31.1700	  646.00	  598.03	-1669.03	  402.57
     31.2700	  530.00	  573.30	-1760.30	  402.26
     31.3700	  554.00	  554.33	-1717.33	  401.96
     31.4700	  562.00	  542.24	-1697.24	  401.66
     31.5700	  529.00	  535.43	-1723.43	  401.36
     31.6700	  563.00	  531.78	-1685.78	  401.06
     31.7700	  513.00	  529.74	-1733.74	  400.76
     31.8700	  554.00	  528.48	-1691.48	  400.46
     31.9700	  523.00	  527.62	-1721.62	  400.17
     32.0700	  556.00	  527.04	-1688.04	  399.87
     32.1700	  543.00	  526.66	-1700.66	  399.58
     32.2700	  573.00	  526.45	-1670.45	  399.28
     32.3700	  521.00	  526.42	-1722.42	  398.99
     32.4700	  591.00	  526.57	-1652.57	  398.70
     32.5700	  516.00	  526.91	-1727.91	  398.41
     32.6700	  533.00	  527.49	-1711.49	  398.12
     32.7700	  579.00	  528.34	-1666.34	  397.83
     32.8700	  527.00	  529.57	-1719.57	  397.55
     32.9700	  550.00	  531.30	-1698.30	  397.26
     33.0700	  546.00	  533.78	-1704.78	  396.98
     33.1700	  560.00	  537.57	-1694.57	  396.70
     33.2700	  564.00	  543.81	-1696.81	  396.42
     33.3700	  568.00	  554.85	-1703.85	  396.14
     33.4700	  550.00	  574.94	-1741.94	  395.86
     33.5700	  603.00	  610.41	-1724.41	  395.58
     33.6700	  642.00	  668.00	-1743.00	  395.30
     33.7700	  747.00	  749.98	-1719.98	  395.03
     33.8700	  863.00	  847.34	-1701.34	  394.75
     33.9700	  952.00	  935.32	-1700.32	  394.48
     34.0700	 1095.00	  976.13	-1598.13	  394.21
     34.1700	 1055.00	  940.60	-1602.60	  393.94
     34.2700	  956.00	  845.81	-1606.81	  393.67
     34.3700	  764.00	  739.74	-1692.74	  393.40
     34.4700	  645.00	  654.03	-1726.03	  393.14
     34.5700	  622.00	  596.87	-1691.87	  392.88
     34.6700	  553.00	  563.70	-1727.70	  392.61
     34.7700	  571.00	  545.89	-1691.89	  392.35
     34.8700	  551.00	  536.25	-1702.25	  392.09
     34.9700	  533.00	  530.49	-1714.49	  391.83
     35.0700	  506.00	  526.58	-1737.58	  391.58
     35.1700	  508.00	  523.67	-1732.67	  391.32
     35.2700	  528.00	  521.38	-1710.38	  391.07
     35.3700	  478.00	  519.53	-1758.53	  390.81
     35.4700	  565.00	  517.99	-1669.99	  390.56
     35.5700	  502.00	  516.70	-1731.70	  390.31
     35.6700	  528.00	  515.59	-1704.59	  390.06
     35.7700	  518.00	  514.63	-1713.63	  389.82
     35.8700	  492.00	  513.79	-1738.79	  389.57
     35.9700	  511.00	  513.49	-1719.49	  389.33
     36.0700	  517.00	  512.83	-1712.83	  389.09
     36.1700	  515.00	  512.24	-1714.24	  388.84
     36.2700	  538.00	  511.71	-1690.71	  388.61
     36.3700	  501.00	  511.23	-1727.23	  388.37
     36.4700	  507.00	  510.80	-1720.80	  388.13
     36.5700	  526.00	  510.41	-1701.41	  387.90
     36.6700	  537.00	  510.08	-1690.08	  387.66
     36.7700	  473.00	  509.80	-1753.80	  387.43
     36.8700	  513.00	  509.62	-1713.62	  387.20
     36.9700	  517.00	  509.59	-1709.59	  386.98
     37.0700	  499.00	  509.87	-1727.87	  386.75
     37.1700	  498.00	  510.63	-1729.63	  386.52
     37.2700	  490.00	  512.16	-1739.16	  386.30
     37.3700	  530.00	  514.65	-1701.65	  386.08
     37.4700	  480.00	  517.98	-1754.98	  385.86
     37.5700	  522.00	  521.48	-1716.48	  385.64
     37.6700	  486.00	  523.93	-1754.93	  385.42
     37.7700	  536.00	  524.05	-1705.05	  385.21
     37.8700	  584.00	  521.65	-1654.65	  385.00
     37.9700	  504.00	  518.02	-1731.02	  384.78
     38.0700	  539.00	  514.38	-1692.38	  384.57
     38.1700	  545.00	  511.27	-1683.27	  384.37
     38.2700	  485.00	  508.87	-1740.87	  384.16
     38.3700	  450.00	  507.16	-1774.16	  383.96
     38.4700	  509.00	  506.00	-1714.00	  383.75
     38.5700	  480.00	  505.21	-1742.21	  383.55
     38.6700	  492.00	  504.56	-1729.56	  383.35
     38.7700	  510.00	  504.30	-1711.30	  383.15
     38.8700	  514.00	  503.97	-1706.97	  382.96
     38.9700	  510.00	  503.68	-1710.68	  382.76
     39.0700	  508.00	  503.43	-1712.43	  382.57
     39.1700	  494.00	  503.19	-1726.19	  382.38
     39.2700	  545.00	  502.97	-1674.97	  382.19
     39.3700	  490.00	  502.69	-1729.69	  382.00
     39.4700	  503.00	  502.50	-1716.50	  381.81
     39.5700	  486.00	  502.32	-1733.32	  381.63
     39.6700	  464.00	  502.15	-1755.15	  381.45
     39.7700	  506.00	  501.99	-1712.99	  381.27
     39.8700	  510.00	  501.85	-1708.85	  381.09
     39.9700	  489.00	  501.71	-1729.71	  380.91
     40.0700	  526.00	  501.58	-1692.58	  380.74
     40.1700	  509.00	  501.47	-1709.47	  380.56
     40.2700	  497.00	  501.36	-1721.36	  380.39
     40.3700	  491.00	  501.28	-1727.28	  380.22
     40.4700	  506.00	  501.20	-1712.20	  380.05
     40.5700	  462.00	  501.14	-1756.14	  379.89
     40.6700	  464.00	  501.10	-1754.10	  379.72
     40.7700	  512.00	  501.09	-1706.09	  379.56
