MSG Master    CELL:    5.87510   5.87510  23.06658   90.0000   90.0000  120.0000   SPGR: P 63/m m c             TEMP:    440.15
  2   1280     2.52000     0.00000    -0.08481     0.00000     0.00000    0
    95    95     0     0     2
       0.00000      10.00000
     125.00000     130.00000
 2Theta	Yobs	Ycal	Yobs-Ycal	Backg	Posr	(hkl)	K
      0.7700	    0.00	 1019.33	-2434.00	  874.71
      0.8700	    0.00	 1015.81	-2434.00	  871.19
      0.9700	   47.00	 1012.31	-2434.00	  867.70
      1.0700	   43.00	 1008.84	-2434.00	  864.22
      1.1700	   52.00	 1005.39	-2434.00	  860.77
      1.2700	   43.00	 1001.96	-2434.00	  857.34
      1.3700	   46.00	  998.55	-2434.00	  853.94
      1.4700	  104.00	  995.16	-2434.00	  850.55
      1.5700	  304.00	  991.80	-2434.00	  847.19
      1.6700	  454.00	  988.46	-2434.00	  843.84
      1.7700	  556.00	  985.14	-2434.00	  840.52
      1.8700	  633.00	  981.84	-2434.00	  837.22
      1.9700	  736.00	  978.56	-2434.00	  833.95
      2.0700	  749.00	  975.30	-2434.00	  830.69
      2.1700	  828.00	  972.07	-2434.00	  827.46
      2.2700	  757.00	  968.86	-2434.00	  824.24
      2.3700	  752.00	  965.66	-2434.00	  821.05
      2.4700	  732.00	  962.49	-2434.00	  817.88
      2.5700	  686.00	  959.34	-2434.00	  814.73
      2.6700	  632.00	  956.21	-2434.00	  811.60
      2.7700	  671.00	  953.10	-2434.00	  808.49
      2.8700	  643.00	  950.01	-2434.00	  805.40
      2.9700	  628.00	  946.95	-2434.00	  802.33
      3.0700	  598.00	  943.90	-2434.00	  799.28
      3.1700	  600.00	  940.87	-2434.00	  796.26
      3.2700	  692.00	  937.86	-2434.00	  793.25
      3.3700	  935.00	  934.88	-2434.00	  790.26
      3.4700	 1098.00	  931.91	-2434.00	  787.30
      3.5700	 1231.00	  928.96	-2434.00	  784.35
      3.6700	 1301.00	  926.04	-2434.00	  781.42
      3.7700	 1396.00	  923.13	-2434.00	  778.52
      3.8700	 1551.00	  920.24	-2434.00	  775.63
      3.9700	 1555.00	  917.37	-2434.00	  772.76
      4.0700	 1611.00	  914.53	-2434.00	  769.91
      4.1700	 1665.00	  911.70	-2434.00	  767.09
      4.2700	 1686.00	  908.89	-2434.00	  764.28
      4.3700	 1648.00	  906.10	-2434.00	  761.49
      4.4700	 1592.00	  903.33	-2434.00	  758.72
      4.5700	 1612.00	  900.58	-2434.00	  755.96
      4.6700	 1497.00	  897.84	-2434.00	  753.23
      4.7700	 1518.00	  895.13	-2434.00	  750.52
      4.8700	 1411.00	  892.44	-2434.00	  747.82
      4.9700	 1379.00	  889.76	-2434.00	  745.15
      5.0700	 1350.00	  887.10	-2434.00	  742.49
      5.1700	 1369.00	  884.47	-2434.00	  739.85
      5.2700	 1281.00	  881.84	-2434.00	  737.23
      5.3700	 1344.00	  879.24	-2434.00	  734.63
      5.4700	 1264.00	  876.66	-2434.00	  732.05
      5.5700	 1214.00	  874.10	-2434.00	  729.48
      5.6700	 1243.00	  871.55	-2434.00	  726.94
      5.7700	 1170.00	  869.02	-2434.00	  724.41
      5.8700	 1232.00	  866.51	-2434.00	  721.90
      5.9700	 1140.00	  864.02	-2434.00	  719.40
      6.0700	 1152.00	  861.54	-2434.00	  716.93
      6.1700	 1099.00	  859.09	-2434.00	  714.47
      6.2700	 1143.00	  856.65	-2434.00	  712.03
      6.3700	 1011.00	  854.22	-2434.00	  709.61
      6.4700	 1010.00	  851.82	-2434.00	  707.21
      6.5700	  987.00	  849.43	-2434.00	  704.82
      6.6700	 1027.00	  847.06	-2434.00	  702.45
      6.7700	 1024.00	  844.71	-2434.00	  700.10
      6.8700	  988.00	  842.38	-2434.00	  697.76
      6.9700	  980.00	  840.06	-2434.00	  695.45
      7.0700	  952.00	  837.76	-2434.00	  693.15
      7.1700	  925.00	  835.47	-2434.00	  690.86
      7.2700	  943.00	  833.21	-2434.00	  688.60
      7.3700	  934.00	  830.96	-2434.00	  686.35
      7.4700	  901.00	  828.72	-2434.00	  684.11
      7.5700	  865.00	  826.51	-2434.00	  681.90
      7.6700	  869.00	  824.31	-2434.00	  679.70
      7.7700	  871.00	  822.12	-2434.00	  677.51
      7.8700	  833.00	  819.96	-2434.00	  675.34
      7.9700	  825.00	  817.81	-2434.00	  673.19
      8.0700	  884.00	  815.67	-2434.00	  671.06
      8.1700	  859.00	  813.55	-2434.00	  668.94
      8.2700	  822.00	  811.45	-2434.00	  666.84
      8.3700	  815.00	  809.36	-2434.00	  664.75
      8.4700	  850.00	  807.29	-2434.00	  662.68
      8.5700	  771.00	  805.24	-2434.00	  660.63
      8.6700	  836.00	  803.20	-2434.00	  658.59
      8.7700	  795.00	  801.18	-2434.00	  656.56
      8.8700	  824.00	  799.17	-2434.00	  654.56
      8.9700	  794.00	  797.18	-2434.00	  652.57
      9.0700	  832.00	  795.20	-2434.00	  650.59
      9.1700	  799.00	  793.24	-2434.00	  648.63
      9.2700	  784.00	  791.30	-2434.00	  646.68
      9.3700	  770.00	  789.37	-2434.00	  644.75
      9.4700	  789.00	  787.45	-2434.00	  642.84
      9.5700	  767.00	  785.55	-2434.00	  640.94
      9.6700	  785.00	  783.66	-2434.00	  639.05
      9.7700	  796.00	  781.79	-2434.00	  637.18
      9.8700	  777.00	  779.94	-2434.00	  635.33
      9.9700	  782.00	  778.10	-2434.00	  633.49
     10.0700	  782.00	  778.44	-2430.44	  631.66
     10.1700	  753.00	  776.87	-2457.87	  629.85
     10.2700	  769.00	  775.35	-2440.35	  628.05
     10.3700	  759.00	  773.90	-2448.90	  626.27
     10.4700	  779.00	  772.56	-2427.56	  624.50
     10.5700	  761.00	  771.35	-2444.35	  622.75
     10.6700	  721.00	  770.32	-2483.32	  621.01
     10.7700	  777.00	  769.56	-2426.56	  619.29
     10.8700	  739.00	  769.14	-2464.14	  617.57
     10.9700	  763.00	  769.16	-2440.16	  615.88
     11.0700	  779.00	  769.68	-2424.68	  614.20
     11.1700	  816.00	  770.72	-2388.72	  612.53
     11.2700	  787.00	  772.31	-2419.31	  610.87
     11.3700	  793.00	  774.49	-2415.49	  609.23
     11.4700	  763.00	  777.33	-2448.33	  607.60
     11.5700	  766.00	  780.97	-2448.97	  605.99
     11.6700	  783.00	  785.60	-2436.60	  604.39
     11.7700	  803.00	  791.47	-2422.47	  602.80
     11.8700	  804.00	  798.82	-2428.82	  601.23
     11.9700	  842.00	  807.70	-2399.70	  599.67
     12.0700	  885.00	  817.67	-2366.67	  598.12
     12.1700	  848.00	  827.35	-2413.35	  596.59
     12.2700	  911.00	  834.00	-2357.00	  595.07
     12.3700	  924.00	  833.38	-2343.38	  593.56
     12.4700	  870.00	  822.49	-2386.49	  592.07
     12.5700	  778.00	  803.96	-2459.96	  590.59
     12.6700	  766.00	  784.40	-2452.40	  589.12
     12.7700	  740.00	  768.07	-2462.07	  587.66
     12.8700	  751.00	  755.90	-2438.90	  586.22
     12.9700	  712.00	  747.29	-2469.29	  584.79
     13.0700	  671.00	  741.25	-2504.25	  583.37
     13.1700	  732.00	  736.86	-2438.86	  581.97
     13.2700	  676.00	  733.46	-2491.46	  580.58
     13.3700	  708.00	  730.66	-2456.67	  579.20
     13.4700	  730.00	  728.24	-2432.24	  577.83
     13.5700	  715.00	  726.06	-2445.06	  576.47
     13.6700	  666.00	  724.07	-2492.07	  575.13
     13.7700	  754.00	  722.21	-2402.21	  573.80
     13.8700	  672.00	  720.45	-2482.45	  572.48
     13.9700	  746.00	  718.78	-2406.78	  571.17
     14.0700	  698.00	  717.18	-2453.18	  569.88
     14.1700	  771.00	  715.64	-2378.64	  568.59
     14.2700	  777.00	  714.15	-2371.15	  567.32
     14.3700	  751.00	  712.70	-2395.70	  566.06
     14.4700	  688.00	  711.28	-2457.28	  564.81
     14.5700	  676.00	  709.90	-2467.90	  563.58
     14.6700	  711.00	  708.55	-2431.55	  562.35
     14.7700	  694.00	  707.23	-2447.23	  561.14
     14.8700	  700.00	  705.92	-2439.92	  559.94
     14.9700	  749.00	  704.64	-2389.64	  558.75
     15.0700	  680.00	  703.39	-2457.39	  557.57
     15.1700	  711.00	  702.15	-2425.15	  556.40
     15.2700	  686.00	  700.93	-2448.93	  555.24
     15.3700	  728.00	  699.72	-2405.72	  554.09
     15.4700	  750.00	  698.53	-2382.53	  552.96
     15.5700	  670.00	  697.36	-2461.36	  551.84
     15.6700	  693.00	  696.21	-2437.21	  550.72
     15.7700	  708.00	  695.06	-2421.06	  549.62
     15.8700	  629.00	  693.93	-2498.94	  548.53
     15.9700	  672.00	  692.82	-2454.82	  547.45
     16.0700	  773.00	  691.72	-2352.72	  546.38
     16.1700	  676.00	  690.63	-2448.63	  545.32
     16.2700	  708.00	  689.56	-2415.56	  544.27
     16.3700	  694.00	  688.49	-2428.49	  543.23
     16.4700	  700.00	  687.44	-2421.44	  542.20
     16.5700	  713.00	  686.41	-2407.41	  541.18
     16.6700	  659.00	  685.38	-2460.38	  540.18
     16.7700	  651.00	  684.36	-2467.36	  539.18
     16.8700	  694.00	  683.36	-2423.36	  538.19
     16.9700	  684.00	  682.37	-2432.37	  537.21
     17.0700	  660.00	  681.39	-2455.39	  536.25
     17.1700	  671.00	  680.42	-2443.42	  535.29
     17.2700	  751.00	  679.46	-2362.46	  534.34
     17.3700	  650.00	  678.51	-2462.51	  533.41
     17.4700	  666.00	  677.57	-2445.57	  532.48
     17.5700	  702.00	  676.65	-2408.65	  531.56
     17.6700	  682.00	  675.73	-2427.73	  530.65
     17.7700	  711.00	  674.82	-2397.82	  529.75
     17.8700	  700.00	  673.93	-2407.93	  528.87
     17.9700	  668.00	  673.04	-2439.04	  527.99
     18.0700	  692.00	  672.16	-2414.16	  527.12
     18.1700	  715.00	  671.30	-2390.30	  526.26
     18.2700	  666.00	  670.44	-2438.44	  525.40
     18.3700	  659.00	  669.60	-2444.60	  524.56
     18.4700	  638.00	  668.76	-2464.76	  523.73
     18.5700	  654.00	  667.93	-2447.93	  522.91
     18.6700	  657.00	  667.11	-2444.11	  522.09
     18.7700	  673.00	  666.31	-2427.31	  521.29
     18.8700	  689.00	  665.51	-2410.51	  520.49
     18.9700	  644.00	  664.72	-2454.72	  519.70
     19.0700	  646.00	  665.32	-2453.32	  518.92
     19.1700	  669.00	  666.83	-2431.83	  518.16
     19.2700	  639.00	  666.15	-2461.15	  517.39
     19.3700	  684.00	  665.48	-2415.48	  516.64
     19.4700	  651.00	  664.82	-2447.82	  515.90
     19.5700	  698.00	  664.17	-2400.17	  515.16
     19.6700	  632.00	  663.54	-2465.54	  514.44
     19.7700	  631.00	  662.91	-2465.91	  513.72
     19.8700	  656.00	  662.30	-2440.30	  513.01
     19.9700	  642.00	  661.70	-2453.70	  512.31
     20.0700	  666.00	  661.16	-2429.16	  511.62
     20.1700	  672.00	  660.58	-2422.58	  510.93
     20.2700	  670.00	  660.02	-2424.02	  510.26
     20.3700	  626.00	  659.47	-2467.47	  509.59
     20.4700	  742.00	  658.94	-2350.94	  508.93
     20.5700	  686.00	  658.41	-2406.41	  508.28
     20.6700	  643.00	  657.90	-2448.90	  507.63
     20.7700	  647.00	  657.41	-2444.41	  507.00
     20.8700	  644.00	  656.93	-2446.93	  506.37
     20.9700	  662.00	  656.46	-2428.46	  505.75
     21.0700	  662.00	  656.01	-2428.01	  505.14
     21.1700	  695.00	  655.57	-2394.57	  504.53
     21.2700	  684.00	  655.14	-2405.14	  503.93
     21.3700	  660.00	  654.74	-2428.74	  503.35
     21.4700	  690.00	  654.34	-2398.34	  502.76
     21.5700	  660.00	  653.97	-2427.97	  502.19
     21.6700	  678.00	  653.61	-2409.61	  501.62
     21.7700	  633.00	  653.27	-2454.27	  501.06
     21.8700	  640.00	  652.95	-2446.95	  500.51
     21.9700	  718.00	  652.65	-2368.65	  499.97
     22.0700	  647.00	  652.37	-2439.37	  499.43
     22.1700	  649.00	  652.11	-2437.11	  498.90
     22.2700	  659.00	  652.08	-2427.08	  498.38
     22.3700	  654.00	  651.87	-2431.87	  497.86
     22.4700	  661.00	  651.69	-2424.69	  497.35
     22.5700	  645.00	  651.53	-2440.53	  496.85
     22.6700	  627.00	  651.40	-2458.40	  496.36
     22.7700	  630.00	  651.30	-2455.30	  495.87
     22.8700	  639.00	  651.23	-2446.23	  495.39
     22.9700	  666.00	  651.20	-2419.20	  494.92
     23.0700	  683.00	  651.21	-2402.21	  494.45
     23.1700	  673.00	  651.27	-2412.27	  493.99
     23.2700	  630.00	  651.37	-2455.37	  493.53
     23.3700	  640.00	  651.54	-2445.54	  493.09
     23.4700	  647.00	  651.77	-2438.77	  492.65
     23.5700	  656.00	  652.08	-2430.08	  492.21
     23.6700	  669.00	  652.49	-2417.49	  491.79
     23.7700	  681.00	  653.01	-2406.01	  491.36
     23.8700	  640.00	  653.69	-2447.69	  490.95
     23.9700	  646.00	  654.58	-2442.58	  490.54
     24.0700	  682.00	  655.78	-2407.78	  490.14
     24.1700	  640.00	  657.44	-2451.44	  489.75
     24.2700	  637.00	  659.79	-2456.79	  489.36
     24.3700	  646.00	  663.16	-2451.16	  488.97
     24.4700	  669.00	  667.92	-2432.92	  488.60
     24.5700	  702.00	  674.40	-2406.40	  488.22
     24.6700	  758.00	  682.68	-2358.68	  487.86
     24.7700	  692.00	  692.41	-2434.41	  487.50
     24.8700	  727.00	  702.51	-2409.51	  487.15
     24.9700	  756.00	  711.05	-2389.05	  486.80
     25.0700	  775.00	  715.02	-2374.02	  486.46
     25.1700	  721.00	  712.21	-2425.21	  486.12
     25.2700	  748.00	  703.84	-2389.84	  485.79
     25.3700	  732.00	  694.15	-2396.15	  485.47
     25.4700	  696.00	  686.12	-2424.12	  485.15
     25.5700	  703.00	  680.70	-2411.70	  484.84
     25.6700	  651.00	  677.75	-2460.75	  484.53
     25.7700	  695.00	  676.77	-2415.77	  484.23
     25.8700	  673.00	  677.22	-2438.22	  483.93
     25.9700	  681.00	  678.70	-2431.70	  483.64
     26.0700	  714.00	  680.99	-2400.99	  483.36
     26.1700	  697.00	  683.97	-2420.97	  483.08
     26.2700	  632.00	  687.62	-2489.62	  482.80
     26.3700	  709.00	  692.00	-2417.00	  482.54
     26.4700	  665.00	  697.18	-2466.18	  482.27
     26.5700	  699.00	  703.29	-2438.29	  482.01
     26.6700	  674.00	  710.50	-2470.50	  481.76
     26.7700	  667.00	  719.04	-2486.04	  481.51
     26.8700	  715.00	  729.21	-2448.21	  481.27
     26.9700	  740.00	  741.42	-2435.42	  481.03
     27.0700	  716.00	  756.22	-2474.22	  480.79
     27.1700	  689.00	  774.38	-2519.38	  480.57
     27.2700	  724.00	  797.00	-2507.00	  480.34
     27.3700	  763.00	  825.77	-2496.77	  480.12
     27.4700	  786.00	  863.71	-2511.71	  479.91
     27.5700	  857.00	  917.07	-2494.07	  479.70
     27.6700	  845.00	  999.76	-2588.76	  479.50
     27.7700	  947.00	 1141.22	-2628.22	  479.30
     27.8700	 1110.00	 1396.68	-2720.68	  479.10
     27.9700	 1389.00	 1855.07	-2900.07	  478.91
     28.0700	 2106.00	 2631.71	-2959.71	  478.72
     28.1700	 3321.00	 3826.09	-2939.09	  478.54
     28.2700	 5253.00	 5427.76	-2608.76	  478.37
     28.3700	 7990.00	 7171.40	-1615.40	  478.19
     28.4700	 9736.00	 8443.18	-1141.18	  478.03
     28.5700	 9240.00	 8476.71	-1670.71	  477.86
     28.6700	 7427.00	 7185.40	-2192.40	  477.70
     28.7700	 5250.00	 5576.66	-2760.66	  477.55
     28.8700	 4114.00	 4552.51	-2872.51	  477.40
     28.9700	 4281.00	 4326.47	-2479.47	  477.25
     29.0700	 4978.00	 4629.55	-2085.55	  477.11
     29.1700	 5468.00	 4963.37	-1929.37	  476.97
     29.2700	 5072.00	 4824.05	-2186.05	  476.83
     29.3700	 4110.00	 4062.35	-2386.35	  476.70
     29.4700	 2914.00	 3050.70	-2570.70	  476.58
     29.5700	 1917.00	 2180.04	-2697.04	  476.46
     29.6700	 1468.00	 1584.87	-2550.87	  476.34
     29.7700	 1223.00	 1235.50	-2446.50	  476.22
     29.8700	 1040.00	 1046.90	-2440.90	  476.11
     29.9700	  952.00	  943.89	-2425.89	  476.01
     30.0700	  925.00	  881.69	-2390.69	  475.90
     30.1700	  900.00	  839.41	-2373.41	  475.80
     30.2700	  851.00	  808.39	-2391.39	  475.71
     30.3700	  738.00	  785.01	-2481.01	  475.62
     30.4700	  813.00	  767.65	-2388.65	  475.53
     30.5700	  728.00	  755.81	-2461.81	  475.45
     30.6700	  766.00	  749.85	-2417.85	  475.36
     30.7700	  725.00	  750.72	-2459.72	  475.29
     30.8700	  772.00	  759.15	-2421.15	  475.21
     30.9700	  734.00	  774.38	-2474.38	  475.14
     31.0700	  791.00	  792.76	-2435.76	  475.08
     31.1700	  836.00	  807.01	-2405.01	  475.01
     31.2700	  834.00	  807.27	-2407.27	  474.95
     31.3700	  754.00	  788.24	-2468.24	  474.90
     31.4700	  818.00	  757.45	-2373.45	  474.84
     31.5700	  756.00	  727.00	-2405.00	  474.79
     31.6700	  690.00	  703.17	-2447.17	  474.75
     31.7700	  786.00	  686.85	-2334.85	  474.70
     31.8700	  727.00	  676.50	-2383.50	  474.66
     31.9700	  722.00	  670.02	-2382.02	  474.62
     32.0700	  713.00	  665.76	-2386.76	  474.59
     32.1700	  697.00	  662.73	-2399.73	  474.56
     32.2700	  684.00	  660.45	-2410.45	  474.53
     32.3700	  658.00	  658.71	-2434.71	  474.50
     32.4700	  660.00	  657.40	-2431.40	  474.48
     32.5700	  659.00	  656.51	-2431.51	  474.46
     32.6700	  696.00	  655.97	-2393.97	  474.45
     32.7700	  688.00	  655.81	-2401.81	  474.43
     32.8700	  721.00	  656.06	-2369.06	  474.42
     32.9700	  699.00	  656.77	-2391.77	  474.41
     33.0700	  652.00	  658.03	-2440.03	  474.41
     33.1700	  775.00	  659.98	-2318.98	  474.41
     33.2700	  667.00	  662.86	-2429.86	  474.41
     33.3700	  692.00	  667.11	-2409.11	  474.41
     33.4700	  682.00	  673.58	-2425.58	  474.41
     33.5700	  767.00	  683.94	-2350.94	  474.42
     33.6700	  715.00	  701.15	-2420.15	  474.43
     33.7700	  703.00	  729.94	-2460.94	  474.44
     33.8700	  785.00	  776.53	-2425.53	  474.46
     33.9700	  880.00	  846.67	-2400.67	  474.48
     34.0700	 1040.00	  941.33	-2335.33	  474.50
     34.1700	 1113.00	 1051.08	-2372.08	  474.52
     34.2700	 1284.00	 1152.13	-2302.13	  474.55
     34.3700	 1392.00	 1207.39	-2249.39	  474.58
     34.4700	 1356.00	 1184.18	-2262.18	  474.60
     34.5700	 1218.00	 1090.23	-2306.23	  474.64
     34.6700	  971.00	  970.98	-2433.98	  474.67
     34.7700	  864.00	  864.13	-2434.13	  474.71
     34.8700	  795.00	  784.23	-2423.23	  474.75
     34.9700	  736.00	  731.14	-2429.14	  474.79
     35.0700	  729.00	  698.64	-2403.64	  474.83
     35.1700	  715.00	  679.43	-2398.43	  474.88
     35.2700	  722.00	  667.81	-2379.81	  474.92
     35.3700	  720.00	  660.27	-2374.27	  474.97
     35.4700	  676.00	  654.95	-2412.95	  475.03
     35.5700	  708.00	  650.97	-2376.97	  475.08
     35.6700	  703.00	  647.87	-2378.87	  475.13
     35.7700	  629.00	  645.41	-2450.41	  475.19
     35.8700	  658.00	  643.44	-2419.44	  475.25
     35.9700	  670.00	  641.84	-2405.84	  475.31
     36.0700	  653.00	  640.56	-2421.56	  475.38
     36.1700	  661.00	  639.53	-2412.53	  475.44
     36.2700	  647.00	  638.71	-2425.71	  475.51
     36.3700	  682.00	  638.09	-2390.09	  475.58
     36.4700	  639.00	  637.64	-2432.64	  475.65
     36.5700	  640.00	  637.35	-2431.35	  475.72
     36.6700	  588.00	  637.43	-2483.43	  475.79
     36.7700	  604.00	  637.47	-2467.47	  475.87
     36.8700	  658.00	  637.69	-2413.69	  475.94
     36.9700	  677.00	  638.12	-2395.12	  476.02
     37.0700	  642.00	  638.80	-2430.80	  476.10
     37.1700	  648.00	  639.81	-2425.81	  476.19
     37.2700	  661.00	  641.80	-2414.80	  476.27
     37.3700	  667.00	  643.96	-2410.96	  476.35
     37.4700	  650.00	  647.19	-2431.19	  476.44
     37.5700	  665.00	  652.15	-2421.15	  476.53
     37.6700	  665.00	  659.89	-2428.89	  476.62
     37.7700	  711.00	  671.85	-2394.85	  476.71
     37.8700	  623.00	  689.70	-2500.70	  476.80
     37.9700	  706.00	  714.75	-2442.75	  476.89
     38.0700	  783.00	  744.61	-2395.61	  476.99
     38.1700	  746.00	  780.68	-2468.68	  477.08
     38.2700	  809.00	  814.08	-2439.08	  477.18
     38.3700	  768.00	  834.52	-2500.52	  477.28
     38.4700	  817.00	  831.81	-2448.81	  477.38
     38.5700	  786.00	  805.36	-2453.36	  477.48
     38.6700	  765.00	  766.76	-2435.76	  477.58
     38.7700	  704.00	  728.62	-2458.62	  477.68
     38.8700	  685.00	  697.51	-2446.50	  477.79
     38.9700	  644.00	  675.00	-2465.00	  477.89
     39.0700	  644.00	  660.08	-2450.08	  478.00
     39.1700	  610.00	  650.75	-2474.75	  478.11
     39.2700	  622.00	  645.03	-2457.03	  478.22
     39.3700	  667.00	  641.43	-2408.43	  478.33
     39.4700	  588.00	  639.03	-2485.03	  478.44
     39.5700	  625.00	  636.01	-2445.01	  478.55
     39.6700	  658.00	  634.76	-2410.76	  478.66
     39.7700	  639.00	  633.80	-2428.80	  478.77
     39.8700	  622.00	  633.06	-2445.06	  478.89
     39.9700	  616.00	  632.47	-2450.47	  479.00
     40.0700	  631.00	  632.02	-2435.02	  479.12
     40.1700	  681.00	  631.67	-2384.67	  479.24
     40.2700	  632.00	  631.41	-2433.41	  479.35
     40.3700	  661.00	  631.23	-2404.23	  479.47
     40.4700	  619.00	  631.11	-2446.10	  479.59
     40.5700	  641.00	  631.04	-2424.04	  479.71
     40.6700	  613.00	  631.56	-2452.56	  479.83
     40.7700	  641.00	  631.59	-2424.59	  479.95
