MSG Master    CELL:    5.91936   5.91936  23.27192   90.0000   90.0000  120.0000   SPGR: P 63/m m c             TEMP:   1074.85
  1   1280     2.52000     0.00000    -0.12322     0.00000     0.00000    0
    99     0     2
       0.00000      10.00000
     125.00000     130.00000
 2Theta	Yobs	Ycal	Yobs-Ycal	Backg	Posr	(hkl)	K
      0.7700	    0.00	  563.92	-1751.50	  446.34
      0.8700	    0.00	  564.56	-1751.50	  446.98
      0.9700	   46.00	  565.18	-1751.50	  447.60
      1.0700	   40.00	  565.79	-1751.50	  448.22
      1.1700	   45.00	  566.40	-1751.50	  448.82
      1.2700	   53.00	  566.99	-1751.50	  449.41
      1.3700	   47.00	  567.57	-1751.50	  449.99
      1.4700	   92.00	  568.14	-1751.50	  450.56
      1.5700	  258.00	  568.70	-1751.50	  451.12
      1.6700	  451.00	  569.25	-1751.50	  451.67
      1.7700	  538.00	  569.79	-1751.50	  452.21
      1.8700	  607.00	  570.32	-1751.50	  452.74
      1.9700	  738.00	  570.84	-1751.50	  453.26
      2.0700	  760.00	  571.35	-1751.50	  453.77
      2.1700	  827.00	  571.84	-1751.50	  454.27
      2.2700	  756.00	  572.33	-1751.50	  454.76
      2.3700	  734.00	  572.81	-1751.50	  455.23
      2.4700	  749.00	  573.28	-1751.50	  455.70
      2.5700	  649.00	  573.74	-1751.50	  456.16
      2.6700	  684.00	  574.19	-1751.50	  456.61
      2.7700	  637.00	  574.63	-1751.50	  457.05
      2.8700	  686.00	  575.06	-1751.50	  457.48
      2.9700	  615.00	  575.48	-1751.50	  457.90
      3.0700	  563.00	  575.89	-1751.50	  458.31
      3.1700	  622.00	  576.29	-1751.50	  458.72
      3.2700	  622.00	  576.69	-1751.50	  459.11
      3.3700	  650.00	  577.07	-1751.50	  459.49
      3.4700	  750.00	  577.45	-1751.50	  459.87
      3.5700	  833.00	  577.81	-1751.50	  460.23
      3.6700	  851.00	  578.17	-1751.50	  460.59
      3.7700	  890.00	  578.52	-1751.50	  460.94
      3.8700	  962.00	  578.85	-1751.50	  461.28
      3.9700	 1012.00	  579.18	-1751.50	  461.61
      4.0700	 1018.00	  579.51	-1751.50	  461.93
      4.1700	 1081.00	  579.82	-1751.50	  462.24
      4.2700	 1053.00	  580.12	-1751.50	  462.55
      4.3700	 1110.00	  580.42	-1751.50	  462.84
      4.4700	 1033.00	  580.71	-1751.50	  463.13
      4.5700	 1089.00	  580.98	-1751.50	  463.41
      4.6700	  962.00	  581.26	-1751.50	  463.68
      4.7700	 1019.00	  581.52	-1751.50	  463.94
      4.8700	  933.00	  581.77	-1751.50	  464.19
      4.9700	  972.00	  582.02	-1751.50	  464.44
      5.0700	  968.00	  582.26	-1751.50	  464.68
      5.1700	  896.00	  582.49	-1751.50	  464.91
      5.2700	  928.00	  582.71	-1751.50	  465.13
      5.3700	  898.00	  582.92	-1751.50	  465.35
      5.4700	  878.00	  583.13	-1751.50	  465.55
      5.5700	  869.00	  583.33	-1751.50	  465.75
      5.6700	  879.00	  583.52	-1751.50	  465.94
      5.7700	  832.00	  583.70	-1751.50	  466.13
      5.8700	  856.00	  583.88	-1751.50	  466.30
      5.9700	  798.00	  584.05	-1751.50	  466.47
      6.0700	  821.00	  584.21	-1751.50	  466.63
      6.1700	  787.00	  584.36	-1751.50	  466.79
      6.2700	  782.00	  584.51	-1751.50	  466.93
      6.3700	  806.00	  584.65	-1751.50	  467.07
      6.4700	  766.00	  584.78	-1751.50	  467.21
      6.5700	  726.00	  584.91	-1751.50	  467.33
      6.6700	  755.00	  585.03	-1751.50	  467.45
      6.7700	  747.00	  585.14	-1751.50	  467.56
      6.8700	  644.00	  585.24	-1751.50	  467.67
      6.9700	  669.00	  585.34	-1751.50	  467.76
      7.0700	  751.00	  585.43	-1751.50	  467.86
      7.1700	  733.00	  585.52	-1751.50	  467.94
      7.2700	  711.00	  585.60	-1751.50	  468.02
      7.3700	  624.00	  585.67	-1751.50	  468.09
      7.4700	  657.00	  585.73	-1751.50	  468.15
      7.5700	  634.00	  585.79	-1751.50	  468.21
      7.6700	  636.00	  585.84	-1751.50	  468.26
      7.7700	  678.00	  585.89	-1751.50	  468.31
      7.8700	  661.00	  585.93	-1751.50	  468.35
      7.9700	  646.00	  585.96	-1751.50	  468.38
      8.0700	  659.00	  585.99	-1751.50	  468.41
      8.1700	  650.00	  586.01	-1751.50	  468.43
      8.2700	  646.00	  586.02	-1751.50	  468.44
      8.3700	  613.00	  586.03	-1751.50	  468.45
      8.4700	  636.00	  586.03	-1751.50	  468.45
      8.5700	  681.00	  586.03	-1751.50	  468.45
      8.6700	  648.00	  586.02	-1751.50	  468.44
      8.7700	  612.00	  586.01	-1751.50	  468.43
      8.8700	  580.00	  585.98	-1751.50	  468.41
      8.9700	  635.00	  585.96	-1751.50	  468.38
      9.0700	  632.00	  585.93	-1751.50	  468.35
      9.1700	  611.00	  585.89	-1751.50	  468.31
      9.2700	  608.00	  585.85	-1751.50	  468.27
      9.3700	  611.00	  585.80	-1751.50	  468.22
      9.4700	  566.00	  585.75	-1751.50	  468.17
      9.5700	  641.00	  585.69	-1751.50	  468.11
      9.6700	  606.00	  585.62	-1751.50	  468.04
      9.7700	  607.00	  585.55	-1751.50	  467.98
      9.8700	  646.00	  585.48	-1751.50	  467.90
      9.9700	  638.00	  585.40	-1751.50	  467.82
     10.0700	  578.00	  586.00	-1759.50	  467.74
     10.1700	  561.00	  585.98	-1776.48	  467.65
     10.2700	  608.00	  585.97	-1729.47	  467.55
     10.3700	  624.00	  585.98	-1713.48	  467.45
     10.4700	  602.00	  586.04	-1735.54	  467.35
     10.5700	  581.00	  586.19	-1756.69	  467.24
     10.6700	  592.00	  586.53	-1746.03	  467.13
     10.7700	  612.00	  587.16	-1726.66	  467.01
     10.8700	  603.00	  588.15	-1736.65	  466.88
     10.9700	  571.00	  589.50	-1770.00	  466.76
     11.0700	  571.00	  591.17	-1771.67	  466.62
     11.1700	  527.00	  593.15	-1817.65	  466.49
     11.2700	  630.00	  595.48	-1716.98	  466.35
     11.3700	  570.00	  598.21	-1779.71	  466.20
     11.4700	  559.00	  601.48	-1793.98	  466.05
     11.5700	  614.00	  605.46	-1742.96	  465.90
     11.6700	  624.00	  610.48	-1737.98	  465.74
     11.7700	  652.00	  617.09	-1716.59	  465.58
     11.8700	  635.00	  626.24	-1742.74	  465.41
     11.9700	  674.00	  638.74	-1716.24	  465.24
     12.0700	  714.00	  653.44	-1690.94	  465.06
     12.1700	  694.00	  664.42	-1721.92	  464.88
     12.2700	  683.00	  661.81	-1730.31	  464.70
     12.3700	  662.00	  642.07	-1731.57	  464.52
     12.4700	  662.00	  617.55	-1707.05	  464.32
     12.5700	  617.00	  599.81	-1734.31	  464.13
     12.6700	  591.00	  590.48	-1750.98	  463.93
     12.7700	  537.00	  586.42	-1800.92	  463.73
     12.8700	  570.00	  584.61	-1766.11	  463.53
     12.9700	  569.00	  583.58	-1766.08	  463.32
     13.0700	  575.00	  582.85	-1759.35	  463.10
     13.1700	  584.00	  582.26	-1749.76	  462.89
     13.2700	  574.00	  581.77	-1759.27	  462.67
     13.3700	  553.00	  581.33	-1779.83	  462.45
     13.4700	  581.00	  580.94	-1751.44	  462.22
     13.5700	  566.00	  580.58	-1766.08	  461.99
     13.6700	  567.00	  580.24	-1764.74	  461.76
     13.7700	  550.00	  579.92	-1781.42	  461.52
     13.8700	  579.00	  579.60	-1752.10	  461.28
     13.9700	  539.00	  579.30	-1791.80	  461.04
     14.0700	  562.00	  579.00	-1768.50	  460.79
     14.1700	  595.00	  578.71	-1735.21	  460.54
     14.2700	  565.00	  578.42	-1764.92	  460.29
     14.3700	  638.00	  578.13	-1691.63	  460.04
     14.4700	  567.00	  577.84	-1762.34	  459.78
     14.5700	  565.00	  577.56	-1764.06	  459.52
     14.6700	  551.00	  577.27	-1777.77	  459.26
     14.7700	  573.00	  576.98	-1755.48	  458.99
     14.8700	  582.00	  576.70	-1746.20	  458.72
     14.9700	  588.00	  576.41	-1739.91	  458.45
     15.0700	  585.00	  576.12	-1742.62	  458.17
     15.1700	  593.00	  575.83	-1734.33	  457.90
     15.2700	  576.00	  575.54	-1751.04	  457.62
     15.3700	  586.00	  575.24	-1740.74	  457.34
     15.4700	  561.00	  574.95	-1765.45	  457.05
     15.5700	  570.00	  574.65	-1756.15	  456.76
     15.6700	  563.00	  574.36	-1762.86	  456.47
     15.7700	  575.00	  574.06	-1750.56	  456.18
     15.8700	  553.00	  573.75	-1772.25	  455.89
     15.9700	  559.00	  573.45	-1765.95	  455.59
     16.0700	  553.00	  573.15	-1771.65	  455.29
     16.1700	  567.00	  572.84	-1757.34	  454.99
     16.2700	  600.00	  572.53	-1724.03	  454.69
     16.3700	  583.00	  572.25	-1740.75	  454.38
     16.4700	  563.00	  571.93	-1760.43	  454.07
     16.5700	  606.00	  571.62	-1717.12	  453.76
     16.6700	  575.00	  571.31	-1747.81	  453.45
     16.7700	  493.00	  570.99	-1829.49	  453.14
     16.8700	  543.00	  570.67	-1779.17	  452.82
     16.9700	  567.00	  570.35	-1754.85	  452.50
     17.0700	  548.00	  570.03	-1773.53	  452.18
     17.1700	  559.00	  569.70	-1762.20	  451.86
     17.2700	  595.00	  569.38	-1725.88	  451.54
     17.3700	  536.00	  569.05	-1784.55	  451.21
     17.4700	  549.00	  568.72	-1771.22	  450.89
     17.5700	  585.00	  568.39	-1734.89	  450.56
     17.6700	  574.00	  568.06	-1745.56	  450.23
     17.7700	  619.00	  567.73	-1700.23	  449.90
     17.8700	  554.00	  567.40	-1764.90	  449.56
     17.9700	  581.00	  567.15	-1737.65	  449.23
     18.0700	  547.00	  566.82	-1771.32	  448.89
     18.1700	  562.00	  566.48	-1755.98	  448.55
     18.2700	  551.00	  566.14	-1766.64	  448.21
     18.3700	  507.00	  565.81	-1810.31	  447.87
     18.4700	  564.00	  565.47	-1752.97	  447.53
     18.5700	  574.00	  565.12	-1742.62	  447.18
     18.6700	  589.00	  564.78	-1727.28	  446.84
     18.7700	  557.00	  564.44	-1758.94	  446.49
     18.8700	  556.00	  564.18	-1759.68	  446.15
     18.9700	  578.00	  563.84	-1737.34	  445.80
     19.0700	  556.00	  563.49	-1758.99	  445.45
     19.1700	  574.00	  563.15	-1740.65	  445.09
     19.2700	  587.00	  562.80	-1727.30	  444.74
     19.3700	  552.00	  562.45	-1761.95	  444.39
     19.4700	  571.00	  562.10	-1742.60	  444.03
     19.5700	  575.00	  561.75	-1738.25	  443.68
     19.6700	  543.00	  561.40	-1769.90	  443.32
     19.7700	  542.00	  561.05	-1770.55	  442.96
     19.8700	  548.00	  560.70	-1764.20	  442.61
     19.9700	  576.00	  560.35	-1735.85	  442.25
     20.0700	  579.00	  560.00	-1732.50	  441.89
     20.1700	  603.00	  559.65	-1708.15	  441.52
     20.2700	  549.00	  559.30	-1761.80	  441.16
     20.3700	  545.00	  558.92	-1765.42	  440.80
     20.4700	  580.00	  558.56	-1730.06	  440.44
     20.5700	  531.00	  558.21	-1778.71	  440.07
     20.6700	  551.00	  557.86	-1758.36	  439.71
     20.7700	  591.00	  557.51	-1718.01	  439.34
     20.8700	  541.00	  557.16	-1767.66	  438.97
     20.9700	  556.00	  556.84	-1752.34	  438.61
     21.0700	  530.00	  556.49	-1777.99	  438.24
     21.1700	  542.00	  556.14	-1765.64	  437.87
     21.2700	  549.00	  555.79	-1758.29	  437.50
     21.3700	  525.00	  555.44	-1781.94	  437.14
     21.4700	  498.00	  555.09	-1808.59	  436.77
     21.5700	  554.00	  554.74	-1752.24	  436.40
     21.6700	  572.00	  554.40	-1733.90	  436.03
     21.7700	  556.00	  554.05	-1749.55	  435.65
     21.8700	  574.00	  553.71	-1731.21	  435.28
     21.9700	  572.00	  553.37	-1732.87	  434.91
     22.0700	  565.00	  553.03	-1739.53	  434.54
     22.1700	  558.00	  552.69	-1746.19	  434.17
     22.2700	  577.00	  552.35	-1726.85	  433.80
     22.3700	  509.00	  552.02	-1794.52	  433.42
     22.4700	  563.00	  551.69	-1740.19	  433.05
     22.5700	  547.00	  551.37	-1755.87	  432.68
     22.6700	  581.00	  551.05	-1721.55	  432.31
     22.7700	  568.00	  550.74	-1734.24	  431.93
     22.8700	  550.00	  550.44	-1751.94	  431.56
     22.9700	  548.00	  550.14	-1753.64	  431.19
     23.0700	  538.00	  549.86	-1763.36	  430.81
     23.1700	  550.00	  549.59	-1751.09	  430.44
     23.2700	  567.00	  549.34	-1733.84	  430.07
     23.3700	  566.00	  549.11	-1734.61	  429.70
     23.4700	  551.00	  548.91	-1749.41	  429.32
     23.5700	  542.00	  548.75	-1758.25	  428.95
     23.6700	  537.00	  548.65	-1763.15	  428.58
     23.7700	  559.00	  548.65	-1741.15	  428.20
     23.8700	  556.00	  548.97	-1744.47	  427.83
     23.9700	  557.00	  549.55	-1744.05	  427.46
     24.0700	  535.00	  550.95	-1767.45	  427.09
     24.1700	  560.00	  553.81	-1745.31	  426.72
     24.2700	  616.00	  558.99	-1694.49	  426.34
     24.3700	  583.00	  567.45	-1735.95	  425.97
     24.4700	  608.00	  580.33	-1723.83	  425.60
     24.5700	  581.00	  598.18	-1768.68	  425.23
     24.6700	  612.00	  618.51	-1758.01	  424.86
     24.7700	  620.00	  633.24	-1764.74	  424.49
     24.8700	  562.00	  630.97	-1820.47	  424.12
     24.9700	  625.00	  609.57	-1736.07	  423.75
     25.0700	  591.00	  583.09	-1743.59	  423.38
     25.1700	  570.00	  563.43	-1744.94	  423.02
     25.2700	  571.00	  552.65	-1733.15	  422.65
     25.3700	  586.00	  547.78	-1713.28	  422.28
     25.4700	  527.00	  545.63	-1770.13	  421.92
     25.5700	  537.00	  544.48	-1758.98	  421.55
     25.6700	  568.00	  543.72	-1727.22	  421.18
     25.7700	  551.00	  543.15	-1743.65	  420.82
     25.8700	  559.00	  542.70	-1735.20	  420.45
     25.9700	  563.00	  542.35	-1730.85	  420.09
     26.0700	  585.00	  542.08	-1708.58	  419.73
     26.1700	  528.00	  541.88	-1765.38	  419.37
     26.2700	  606.00	  541.75	-1687.25	  419.00
     26.3700	  544.00	  541.69	-1749.19	  418.64
     26.4700	  572.00	  541.71	-1721.21	  418.28
     26.5700	  551.00	  541.82	-1742.32	  417.92
     26.6700	  525.00	  542.04	-1768.54	  417.56
     26.7700	  599.00	  542.39	-1694.89	  417.21
     26.8700	  536.00	  542.90	-1758.40	  416.85
     26.9700	  546.00	  543.62	-1749.12	  416.49
     27.0700	  517.00	  544.61	-1779.11	  416.14
     27.1700	  534.00	  546.02	-1763.52	  415.78
     27.2700	  556.00	  548.05	-1743.55	  415.43
     27.3700	  554.00	  551.19	-1748.69	  415.08
     27.4700	  571.00	  556.29	-1736.79	  414.72
     27.5700	  542.00	  564.96	-1774.46	  414.37
     27.6700	  618.00	  579.69	-1713.19	  414.02
     27.7700	  537.00	  603.67	-1818.17	  413.67
     27.8700	  605.00	  639.71	-1786.21	  413.33
     27.9700	  680.00	  687.92	-1759.42	  412.98
     28.0700	  762.00	  742.92	-1732.42	  412.63
     28.1700	  870.00	  791.34	-1672.84	  412.29
     28.2700	  925.00	  813.03	-1639.53	  411.94
     28.3700	  897.00	  796.00	-1650.50	  411.60
     28.4700	  811.00	  759.49	-1699.99	  411.26
     28.5700	  691.00	  735.92	-1796.42	  410.92
     28.6700	  703.00	  740.36	-1788.86	  410.58
     28.7700	  737.00	  768.15	-1782.65	  410.24
     28.8700	  778.00	  799.57	-1773.07	  409.90
     28.9700	  811.00	  806.22	-1746.72	  409.57
     29.0700	  779.00	  769.47	-1741.97	  409.23
     29.1700	  746.00	  705.07	-1710.57	  408.90
     29.2700	  616.00	  643.09	-1778.59	  408.57
     29.3700	  587.00	  598.20	-1762.70	  408.23
     29.4700	  599.00	  571.04	-1723.54	  407.90
     29.5700	  626.00	  556.38	-1681.88	  407.58
     29.6700	  649.00	  548.68	-1651.18	  407.25
     29.7700	  598.00	  544.36	-1697.86	  406.92
     29.8700	  631.00	  541.68	-1662.18	  406.60
     29.9700	  565.00	  540.00	-1726.50	  406.27
     30.0700	  531.00	  539.15	-1759.65	  405.95
     30.1700	  562.00	  539.30	-1728.80	  405.63
     30.2700	  612.00	  541.04	-1680.54	  405.31
     30.3700	  507.00	  545.49	-1789.99	  404.99
     30.4700	  546.00	  554.40	-1759.90	  404.67
     30.5700	  522.00	  569.66	-1799.16	  404.36
     30.6700	  603.00	  591.89	-1740.39	  404.04
     30.7700	  625.00	  618.46	-1744.96	  403.73
     30.8700	  652.00	  641.93	-1741.43	  403.42
     30.9700	  603.00	  650.71	-1799.21	  403.11
     31.0700	  599.00	  636.58	-1789.08	  402.80
     31.1700	  572.00	  606.88	-1786.38	  402.49
     31.2700	  592.00	  576.86	-1736.36	  402.19
     31.3700	  506.00	  554.64	-1800.14	  401.88
     31.4700	  552.00	  541.17	-1740.67	  401.58
     31.5700	  561.00	  534.02	-1724.52	  401.28
     31.6700	  562.00	  530.36	-1719.86	  400.98
     31.7700	  539.00	  528.35	-1740.85	  400.68
     31.8700	  529.00	  527.07	-1749.57	  400.39
     31.9700	  553.00	  526.18	-1724.68	  400.09
     32.0700	  521.00	  525.54	-1756.04	  399.80
     32.1700	  505.00	  525.09	-1771.59	  399.50
     32.2700	  529.00	  524.80	-1747.30	  399.21
     32.3700	  544.00	  524.67	-1732.17	  398.93
     32.4700	  578.00	  524.69	-1698.19	  398.64
     32.5700	  536.00	  524.88	-1740.38	  398.35
     32.6700	  531.00	  525.27	-1745.77	  398.07
     32.7700	  567.00	  525.89	-1710.39	  397.79
     32.8700	  560.00	  526.82	-1718.32	  397.51
     32.9700	  511.00	  528.17	-1768.67	  397.23
     33.0700	  554.00	  530.13	-1727.63	  396.95
     33.1700	  566.00	  533.16	-1718.66	  396.67
     33.2700	  593.00	  538.26	-1696.76	  396.40
     33.3700	  548.00	  547.69	-1751.19	  396.13
     33.4700	  539.00	  565.86	-1778.36	  395.86
     33.5700	  611.00	  599.99	-1740.49	  395.59
     33.6700	  647.00	  658.65	-1763.15	  395.32
     33.7700	  764.00	  746.22	-1733.72	  395.06
     33.8700	  877.00	  853.87	-1728.37	  394.79
     33.9700	 1024.00	  953.14	-1680.64	  394.53
     34.0700	 1060.00	  999.24	-1690.74	  394.27
     34.1700	 1002.00	  957.78	-1707.28	  394.01
     34.2700	  930.00	  849.86	-1671.36	  393.75
     34.3700	  775.00	  732.36	-1708.86	  393.50
     34.4700	  613.00	  641.29	-1779.79	  393.25
     34.5700	  590.00	  584.36	-1745.86	  392.99
     34.6700	  565.00	  553.87	-1740.37	  392.74
     34.7700	  558.00	  538.78	-1732.28	  392.50
     34.8700	  527.00	  531.01	-1755.51	  392.25
     34.9700	  496.00	  526.40	-1781.90	  392.01
     35.0700	  557.00	  523.22	-1717.72	  391.76
     35.1700	  523.00	  520.82	-1749.32	  391.52
     35.2700	  548.00	  518.92	-1722.42	  391.28
     35.3700	  499.00	  517.38	-1769.88	  391.05
     35.4700	  521.00	  516.10	-1746.60	  390.81
     35.5700	  525.00	  515.02	-1741.52	  390.58
     35.6700	  520.00	  514.09	-1745.58	  390.35
     35.7700	  516.00	  513.27	-1748.77	  390.12
     35.8700	  549.00	  512.55	-1715.05	  389.89
     35.9700	  517.00	  512.40	-1746.90	  389.66
     36.0700	  513.00	  511.84	-1750.34	  389.44
     36.1700	  482.00	  511.32	-1780.82	  389.22
     36.2700	  525.00	  510.86	-1737.36	  389.00
     36.3700	  494.00	  510.43	-1767.93	  388.78
     36.4700	  496.00	  510.05	-1765.55	  388.56
     36.5700	  483.00	  509.70	-1778.20	  388.35
     36.6700	  531.00	  509.38	-1729.88	  388.13
     36.7700	  525.00	  509.11	-1735.61	  387.92
     36.8700	  486.00	  508.88	-1774.38	  387.71
     36.9700	  519.00	  508.76	-1741.26	  387.51
     37.0700	  513.00	  508.82	-1747.32	  387.30
     37.1700	  539.00	  509.26	-1721.76	  387.10
     37.2700	  524.00	  510.38	-1737.88	  386.90
     37.3700	  535.00	  512.53	-1729.03	  386.70
     37.4700	  505.00	  515.78	-1762.28	  386.50
     37.5700	  475.00	  519.64	-1796.14	  386.31
     37.6700	  511.00	  522.97	-1763.47	  386.11
     37.7700	  543.00	  524.35	-1732.85	  385.92
     37.8700	  466.00	  523.31	-1808.81	  385.73
     37.9700	  487.00	  520.79	-1785.29	  385.54
     38.0700	  494.00	  517.69	-1775.19	  385.36
     38.1700	  549.00	  514.36	-1716.86	  385.17
     38.2700	  511.00	  511.22	-1751.72	  384.99
     38.3700	  502.00	  508.68	-1758.18	  384.81
     38.4700	  496.00	  506.87	-1762.37	  384.63
     38.5700	  504.00	  505.70	-1753.20	  384.46
     38.6700	  490.00	  504.98	-1766.48	  384.28
     38.7700	  506.00	  504.43	-1749.93	  384.11
     38.8700	  477.00	  504.11	-1778.61	  383.94
     38.9700	  494.00	  503.85	-1761.35	  383.77
     39.0700	  479.00	  503.62	-1776.12	  383.61
     39.1700	  510.00	  503.42	-1744.92	  383.44
     39.2700	  487.00	  503.15	-1767.65	  383.28
     39.3700	  545.00	  502.97	-1709.47	  383.12
     39.4700	  499.00	  502.81	-1755.31	  382.96
     39.5700	  513.00	  502.66	-1741.16	  382.81
     39.6700	  492.00	  502.52	-1762.02	  382.65
     39.7700	  527.00	  502.51	-1727.01	  382.50
     39.8700	  497.00	  502.38	-1756.88	  382.35
     39.9700	  524.00	  502.27	-1729.77	  382.20
     40.0700	  431.00	  502.17	-1822.67	  382.06
     40.1700	  537.00	  502.08	-1716.58	  381.91
     40.2700	  478.00	  502.00	-1775.50	  381.77
     40.3700	  465.00	  501.93	-1788.43	  381.63
     40.4700	  506.00	  501.87	-1747.37	  381.49
     40.5700	  514.00	  501.83	-1739.33	  381.35
     40.6700	  513.00	  501.80	-1740.30	  381.22
     40.7700	  490.00	  501.80	-1763.30	  381.09
