MSG Master    CELL:    5.87881   5.87881  23.08977   90.0000   90.0000  120.0000   SPGR: P 63/m m c             TEMP:    498.65
  2   1280     2.52000     0.00000    -0.08644     0.00000     0.00000    0
    95    95     0     0     2
       0.00000      10.00000
     125.00000     130.00000
 2Theta	Yobs	Ycal	Yobs-Ycal	Backg	Posr	(hkl)	K
      0.7700	    0.00	  950.77	-2174.00	  813.93
      0.8700	    0.00	  947.68	-2174.00	  810.84
      0.9700	   54.00	  944.61	-2174.00	  807.77
      1.0700	   39.00	  941.56	-2174.00	  804.72
      1.1700	   39.00	  938.52	-2174.00	  801.68
      1.2700	   42.00	  935.50	-2174.00	  798.67
      1.3700	   39.00	  932.51	-2174.00	  795.67
      1.4700	  103.00	  929.53	-2174.00	  792.69
      1.5700	  297.00	  926.57	-2174.00	  789.73
      1.6700	  478.00	  923.62	-2174.00	  786.78
      1.7700	  591.00	  920.70	-2174.00	  783.86
      1.8700	  664.00	  917.79	-2174.00	  780.95
      1.9700	  736.00	  914.90	-2174.00	  778.06
      2.0700	  777.00	  912.03	-2174.00	  775.19
      2.1700	  778.00	  909.18	-2174.00	  772.34
      2.2700	  738.00	  906.34	-2174.00	  769.50
      2.3700	  718.00	  903.52	-2174.00	  766.69
      2.4700	  687.00	  900.72	-2174.00	  763.89
      2.5700	  675.00	  897.94	-2174.00	  761.10
      2.6700	  661.00	  895.18	-2174.00	  758.34
      2.7700	  680.00	  892.43	-2174.00	  755.59
      2.8700	  624.00	  889.70	-2174.00	  752.86
      2.9700	  634.00	  886.98	-2174.00	  750.15
      3.0700	  636.00	  884.29	-2174.00	  747.45
      3.1700	  612.00	  881.61	-2174.00	  744.77
      3.2700	  715.00	  878.95	-2174.00	  742.11
      3.3700	  910.00	  876.30	-2174.00	  739.47
      3.4700	 1043.00	  873.68	-2174.00	  736.84
      3.5700	 1129.00	  871.06	-2174.00	  734.23
      3.6700	 1352.00	  868.47	-2174.00	  731.63
      3.7700	 1413.00	  865.89	-2174.00	  729.05
      3.8700	 1616.00	  863.33	-2174.00	  726.49
      3.9700	 1578.00	  860.79	-2174.00	  723.95
      4.0700	 1629.00	  858.26	-2174.00	  721.42
      4.1700	 1733.00	  855.75	-2174.00	  718.91
      4.2700	 1644.00	  853.25	-2174.00	  716.41
      4.3700	 1657.00	  850.77	-2174.00	  713.94
      4.4700	 1561.00	  848.31	-2174.00	  711.47
      4.5700	 1598.00	  845.86	-2174.00	  709.03
      4.6700	 1576.00	  843.43	-2174.00	  706.60
      4.7700	 1398.00	  841.02	-2174.00	  704.18
      4.8700	 1408.00	  838.62	-2174.00	  701.78
      4.9700	 1384.00	  836.24	-2174.00	  699.40
      5.0700	 1386.00	  833.87	-2174.00	  697.03
      5.1700	 1303.00	  831.52	-2174.00	  694.68
      5.2700	 1213.00	  829.18	-2174.00	  692.35
      5.3700	 1159.00	  826.86	-2174.00	  690.03
      5.4700	 1186.00	  824.56	-2174.00	  687.72
      5.5700	 1211.00	  822.27	-2174.00	  685.43
      5.6700	 1196.00	  820.00	-2174.00	  683.16
      5.7700	 1224.00	  817.74	-2174.00	  680.90
      5.8700	 1135.00	  815.50	-2174.00	  678.66
      5.9700	 1114.00	  813.27	-2174.00	  676.43
      6.0700	 1043.00	  811.06	-2174.00	  674.22
      6.1700	 1101.00	  808.86	-2174.00	  672.02
      6.2700	 1002.00	  806.68	-2174.00	  669.84
      6.3700	 1014.00	  804.51	-2174.00	  667.67
      6.4700	 1019.00	  802.36	-2174.00	  665.52
      6.5700	  959.00	  800.22	-2174.00	  663.38
      6.6700	  944.00	  798.09	-2174.00	  661.26
      6.7700	  946.00	  795.99	-2174.00	  659.15
      6.8700	  931.00	  793.89	-2174.00	  657.05
      6.9700	  901.00	  791.81	-2174.00	  654.97
      7.0700	  928.00	  789.75	-2174.00	  652.91
      7.1700	  928.00	  787.70	-2174.00	  650.86
      7.2700	  855.00	  785.66	-2174.00	  648.82
      7.3700	  882.00	  783.64	-2174.00	  646.80
      7.4700	  853.00	  781.63	-2174.00	  644.79
      7.5700	  835.00	  779.64	-2174.00	  642.80
      7.6700	  851.00	  777.66	-2174.00	  640.82
      7.7700	  833.00	  775.69	-2174.00	  638.85
      7.8700	  815.00	  773.74	-2174.00	  636.90
      7.9700	  878.00	  771.80	-2174.00	  634.96
      8.0700	  865.00	  769.88	-2174.00	  633.04
      8.1700	  761.00	  767.97	-2174.00	  631.13
      8.2700	  800.00	  766.07	-2174.00	  629.23
      8.3700	  796.00	  764.19	-2174.00	  627.35
      8.4700	  844.00	  762.32	-2174.00	  625.48
      8.5700	  740.00	  760.47	-2174.00	  623.63
      8.6700	  760.00	  758.62	-2174.00	  621.78
      8.7700	  799.00	  756.79	-2174.00	  619.96
      8.8700	  743.00	  754.98	-2174.00	  618.14
      8.9700	  782.00	  753.18	-2174.00	  616.34
      9.0700	  734.00	  751.39	-2174.00	  614.55
      9.1700	  766.00	  749.61	-2174.00	  612.77
      9.2700	  752.00	  747.85	-2174.00	  611.01
      9.3700	  754.00	  746.10	-2174.00	  609.26
      9.4700	  752.00	  744.36	-2174.00	  607.52
      9.5700	  731.00	  742.64	-2174.00	  605.80
      9.6700	  687.00	  740.93	-2174.00	  604.09
      9.7700	  779.00	  739.23	-2174.00	  602.39
      9.8700	  738.00	  737.54	-2174.00	  600.71
      9.9700	  776.00	  735.87	-2174.00	  599.03
     10.0700	  767.00	  736.30	-2143.30	  597.37
     10.1700	  748.00	  734.88	-2160.88	  595.73
     10.2700	  726.00	  733.52	-2181.52	  594.09
     10.3700	  748.00	  732.23	-2158.23	  592.47
     10.4700	  728.00	  731.04	-2177.04	  590.86
     10.5700	  709.00	  729.98	-2194.98	  589.26
     10.6700	  741.00	  729.12	-2162.12	  587.67
     10.7700	  768.00	  728.52	-2134.52	  586.10
     10.8700	  754.00	  728.29	-2148.29	  584.54
     10.9700	  752.00	  728.52	-2150.52	  582.99
     11.0700	  711.00	  729.25	-2192.25	  581.45
     11.1700	  725.00	  730.51	-2179.51	  579.93
     11.2700	  690.00	  732.31	-2216.31	  578.41
     11.3700	  773.00	  734.71	-2135.71	  576.91
     11.4700	  757.00	  737.79	-2154.79	  575.42
     11.5700	  749.00	  741.69	-2166.69	  573.94
     11.6700	  691.00	  746.63	-2229.63	  572.48
     11.7700	  811.00	  752.88	-2115.88	  571.02
     11.8700	  798.00	  760.73	-2136.73	  569.58
     11.9700	  791.00	  770.22	-2153.22	  568.15
     12.0700	  805.00	  780.86	-2149.86	  566.73
     12.1700	  832.00	  791.06	-2133.06	  565.32
     12.2700	  868.00	  797.62	-2103.62	  563.92
     12.3700	  839.00	  795.92	-2130.92	  562.53
     12.4700	  784.00	  783.17	-2173.17	  561.16
     12.5700	  757.00	  763.23	-2180.23	  559.79
     12.6700	  750.00	  743.30	-2167.30	  558.44
     12.7700	  727.00	  727.26	-2174.26	  557.10
     12.8700	  661.00	  715.65	-2228.65	  555.77
     12.9700	  681.00	  707.65	-2200.65	  554.45
     13.0700	  657.00	  702.13	-2219.13	  553.14
     13.1700	  748.00	  698.14	-2124.14	  551.84
     13.2700	  693.00	  695.05	-2176.05	  550.55
     13.3700	  662.00	  692.48	-2204.48	  549.28
     13.4700	  672.00	  690.24	-2192.24	  548.01
     13.5700	  681.00	  688.23	-2181.23	  546.75
     13.6700	  662.00	  686.38	-2198.38	  545.51
     13.7700	  653.00	  684.66	-2205.66	  544.28
     13.8700	  679.00	  683.03	-2178.03	  543.05
     13.9700	  755.00	  681.48	-2100.48	  541.84
     14.0700	  700.00	  679.99	-2153.99	  540.63
     14.1700	  641.00	  678.56	-2211.56	  539.44
     14.2700	  684.00	  677.17	-2167.17	  538.26
     14.3700	  633.00	  675.82	-2216.82	  537.09
     14.4700	  659.00	  674.50	-2189.50	  535.92
     14.5700	  683.00	  673.22	-2164.22	  534.77
     14.6700	  631.00	  671.96	-2214.96	  533.63
     14.7700	  683.00	  670.72	-2161.72	  532.50
     14.8700	  628.00	  669.50	-2215.50	  531.37
     14.9700	  602.00	  668.31	-2240.31	  530.26
     15.0700	  621.00	  667.13	-2220.13	  529.16
     15.1700	  671.00	  665.97	-2168.97	  528.07
     15.2700	  695.00	  664.83	-2143.83	  526.98
     15.3700	  637.00	  663.70	-2200.70	  525.91
     15.4700	  667.00	  662.59	-2169.59	  524.84
     15.5700	  672.00	  661.49	-2163.49	  523.79
     15.6700	  621.00	  660.40	-2213.40	  522.75
     15.7700	  714.00	  659.33	-2119.33	  521.71
     15.8700	  596.00	  658.27	-2236.27	  520.68
     15.9700	  640.00	  657.22	-2191.22	  519.67
     16.0700	  705.00	  656.18	-2125.18	  518.66
     16.1700	  653.00	  655.16	-2176.16	  517.66
     16.2700	  679.00	  654.15	-2149.15	  516.67
     16.3700	  653.00	  653.14	-2174.14	  515.69
     16.4700	  646.00	  652.15	-2180.15	  514.72
     16.5700	  683.00	  651.17	-2142.17	  513.76
     16.6700	  608.00	  650.20	-2216.20	  512.81
     16.7700	  610.00	  649.24	-2213.24	  511.86
     16.8700	  705.00	  648.29	-2117.29	  510.93
     16.9700	  597.00	  647.35	-2224.35	  510.00
     17.0700	  662.00	  646.42	-2158.42	  509.08
     17.1700	  639.00	  645.50	-2180.50	  508.18
     17.2700	  659.00	  644.59	-2159.59	  507.28
     17.3700	  671.00	  643.69	-2146.69	  506.39
     17.4700	  639.00	  642.79	-2177.79	  505.50
     17.5700	  632.00	  641.91	-2183.91	  504.63
     17.6700	  630.00	  641.04	-2185.04	  503.76
     17.7700	  635.00	  640.17	-2179.17	  502.91
     17.8700	  669.00	  639.32	-2144.32	  502.06
     17.9700	  642.00	  638.47	-2170.47	  501.22
     18.0700	  643.00	  637.63	-2168.63	  500.39
     18.1700	  654.00	  636.80	-2156.80	  499.56
     18.2700	  597.00	  635.98	-2212.98	  498.75
     18.3700	  675.00	  635.17	-2134.17	  497.94
     18.4700	  634.00	  634.37	-2174.37	  497.14
     18.5700	  612.00	  633.57	-2195.57	  496.35
     18.6700	  628.00	  632.79	-2178.79	  495.57
     18.7700	  603.00	  632.01	-2203.01	  494.79
     18.8700	  636.00	  631.24	-2169.24	  494.02
     18.9700	  670.00	  630.48	-2134.48	  493.26
     19.0700	  630.00	  630.91	-2174.91	  492.51
     19.1700	  629.00	  632.20	-2177.20	  491.77
     19.2700	  621.00	  631.53	-2184.53	  491.03
     19.3700	  643.00	  630.88	-2161.88	  490.31
     19.4700	  644.00	  630.23	-2160.23	  489.59
     19.5700	  689.00	  629.59	-2114.59	  488.87
     19.6700	  630.00	  628.97	-2172.97	  488.17
     19.7700	  628.00	  628.35	-2174.35	  487.47
     19.8700	  635.00	  627.75	-2166.75	  486.78
     19.9700	  613.00	  627.16	-2188.16	  486.10
     20.0700	  625.00	  626.57	-2175.57	  485.42
     20.1700	  643.00	  626.00	-2157.00	  484.75
     20.2700	  626.00	  625.50	-2173.50	  484.09
     20.3700	  624.00	  624.95	-2174.95	  483.44
     20.4700	  616.00	  624.42	-2182.42	  482.79
     20.5700	  637.00	  623.89	-2160.89	  482.15
     20.6700	  645.00	  623.38	-2152.38	  481.52
     20.7700	  664.00	  622.88	-2132.88	  480.90
     20.8700	  620.00	  622.39	-2176.39	  480.28
     20.9700	  609.00	  621.92	-2186.92	  479.67
     21.0700	  608.00	  621.45	-2187.45	  479.06
     21.1700	  622.00	  621.01	-2173.01	  478.47
     21.2700	  671.00	  620.57	-2123.57	  477.88
     21.3700	  610.00	  620.15	-2184.15	  477.29
     21.4700	  605.00	  619.74	-2188.74	  476.72
     21.5700	  594.00	  619.35	-2199.35	  476.15
     21.6700	  597.00	  618.97	-2195.97	  475.59
     21.7700	  634.00	  618.61	-2158.61	  475.03
     21.8700	  612.00	  618.27	-2180.27	  474.48
     21.9700	  636.00	  617.94	-2155.94	  473.94
     22.0700	  591.00	  617.64	-2200.64	  473.40
     22.1700	  659.00	  617.35	-2132.35	  472.87
     22.2700	  622.00	  617.08	-2169.08	  472.35
     22.3700	  656.00	  617.04	-2135.04	  471.83
     22.4700	  637.00	  616.82	-2153.82	  471.32
     22.5700	  594.00	  616.63	-2196.63	  470.81
     22.6700	  611.00	  616.46	-2179.46	  470.31
     22.7700	  604.00	  616.32	-2186.31	  469.82
     22.8700	  625.00	  616.21	-2165.21	  469.34
     22.9700	  657.00	  616.13	-2133.13	  468.86
     23.0700	  609.00	  616.09	-2181.09	  468.38
     23.1700	  585.00	  616.10	-2205.10	  467.92
     23.2700	  650.00	  616.15	-2140.15	  467.45
     23.3700	  607.00	  616.26	-2183.26	  467.00
     23.4700	  609.00	  616.43	-2181.43	  466.55
     23.5700	  661.00	  616.67	-2129.67	  466.10
     23.6700	  614.00	  617.01	-2177.01	  465.67
     23.7700	  659.00	  617.47	-2132.47	  465.24
     23.8700	  591.00	  618.10	-2201.10	  464.81
     23.9700	  611.00	  618.93	-2181.93	  464.39
     24.0700	  595.00	  620.10	-2199.10	  463.97
     24.1700	  589.00	  621.77	-2206.77	  463.56
     24.2700	  613.00	  624.20	-2185.20	  463.16
     24.3700	  627.00	  627.76	-2174.76	  462.76
     24.4700	  683.00	  632.85	-2123.85	  462.37
     24.5700	  621.00	  639.74	-2192.74	  461.98
     24.6700	  659.00	  648.56	-2163.56	  461.60
     24.7700	  659.00	  658.77	-2173.77	  461.23
     24.8700	  690.00	  669.05	-2153.05	  460.86
     24.9700	  721.00	  676.91	-2129.91	  460.49
     25.0700	  703.00	  679.06	-2150.06	  460.13
     25.1700	  722.00	  673.78	-2125.78	  459.78
     25.2700	  708.00	  663.78	-2129.78	  459.43
     25.3700	  722.00	  653.65	-2105.65	  459.09
     25.4700	  644.00	  645.75	-2175.75	  458.75
     25.5700	  632.00	  640.67	-2182.67	  458.41
     25.6700	  680.00	  638.02	-2132.02	  458.08
     25.7700	  702.00	  637.20	-2109.20	  457.76
     25.8700	  621.00	  637.65	-2190.65	  457.44
     25.9700	  652.00	  639.00	-2161.00	  457.13
     26.0700	  589.00	  641.04	-2226.04	  456.82
     26.1700	  681.00	  643.68	-2136.68	  456.52
     26.2700	  605.00	  646.94	-2215.94	  456.22
     26.3700	  638.00	  650.85	-2186.85	  455.93
     26.4700	  664.00	  655.49	-2165.49	  455.64
     26.5700	  673.00	  660.98	-2161.98	  455.35
     26.6700	  667.00	  667.48	-2174.48	  455.07
     26.7700	  659.00	  675.21	-2190.21	  454.80
     26.8700	  672.00	  684.44	-2186.44	  454.53
     26.9700	  654.00	  695.56	-2215.56	  454.26
     27.0700	  690.00	  709.09	-2193.09	  454.00
     27.1700	  701.00	  725.76	-2198.76	  453.75
     27.2700	  684.00	  746.62	-2236.62	  453.49
     27.3700	  677.00	  773.35	-2270.35	  453.25
     27.4700	  705.00	  808.99	-2277.99	  453.00
     27.5700	  838.00	  860.08	-2196.08	  452.77
     27.6700	  837.00	  941.07	-2278.07	  452.53
     27.7700	  877.00	 1081.91	-2378.91	  452.30
     27.8700	 1075.00	 1337.18	-2436.18	  452.08
     27.9700	 1326.00	 1791.44	-2639.44	  451.86
     28.0700	 1918.00	 2547.96	-2803.96	  451.64
     28.1700	 3324.00	 3683.14	-2533.14	  451.43
     28.2700	 5398.00	 5152.91	-1928.91	  451.22
     28.3700	 7318.00	 6662.79	-1518.79	  451.01
     28.4700	 8696.00	 7614.47	-1092.47	  450.81
     28.5700	 8016.00	 7373.71	-1531.71	  450.62
     28.6700	 6116.00	 6082.63	-2140.63	  450.43
     28.7700	 4370.00	 4712.54	-2516.54	  450.24
     28.8700	 3724.00	 3942.30	-2392.30	  450.06
     28.9700	 3815.00	 3856.04	-2215.04	  449.88
     29.0700	 4448.00	 4159.52	-1885.52	  449.70
     29.1700	 4683.00	 4394.42	-1885.42	  449.53
     29.2700	 4378.00	 4148.94	-1944.94	  449.36
     29.3700	 3470.00	 3397.24	-2101.24	  449.19
     29.4700	 2371.00	 2515.78	-2318.78	  449.03
     29.5700	 1594.00	 1803.24	-2383.24	  448.88
     29.6700	 1287.00	 1336.68	-2223.68	  448.72
     29.7700	 1100.00	 1071.25	-2145.25	  448.57
     29.8700	  931.00	  929.79	-2172.79	  448.43
     29.9700	  857.00	  851.62	-2168.62	  448.29
     30.0700	  789.00	  803.19	-2188.19	  448.15
     30.1700	  775.00	  769.63	-2168.63	  448.01
     30.2700	  776.00	  744.95	-2142.95	  447.88
     30.3700	  705.00	  726.65	-2195.65	  447.75
     30.4700	  726.00	  713.81	-2161.81	  447.63
     30.5700	  742.00	  706.55	-2138.55	  447.51
     30.6700	  726.00	  705.92	-2153.92	  447.39
     30.7700	  719.00	  713.47	-2168.47	  447.28
     30.8700	  749.00	  730.13	-2155.13	  447.17
     30.9700	  819.00	  754.38	-2109.38	  447.06
     31.0700	  782.00	  780.60	-2172.60	  446.95
     31.1700	  819.00	  798.30	-2153.30	  446.85
     31.2700	  779.00	  794.86	-2189.86	  446.76
     31.3700	  757.00	  766.94	-2183.94	  446.66
     31.4700	  722.00	  727.62	-2179.62	  446.57
     31.5700	  741.00	  691.51	-2124.51	  446.48
     31.6700	  712.00	  664.66	-2126.66	  446.40
     31.7700	  674.00	  647.13	-2147.13	  446.31
     31.8700	  675.00	  636.46	-2135.46	  446.23
     31.9700	  644.00	  629.98	-2159.98	  446.16
     32.0700	  680.00	  625.79	-2119.79	  446.09
     32.1700	  639.00	  622.83	-2157.83	  446.02
     32.2700	  637.00	  620.61	-2157.61	  445.95
     32.3700	  667.00	  618.94	-2125.94	  445.88
     32.4700	  641.00	  617.69	-2150.69	  445.82
     32.5700	  615.00	  616.84	-2175.84	  445.76
     32.6700	  621.00	  616.36	-2169.36	  445.71
     32.7700	  614.00	  616.29	-2176.29	  445.66
     32.8700	  649.00	  616.60	-2141.60	  445.61
     32.9700	  616.00	  617.37	-2175.37	  445.56
     33.0700	  646.00	  618.70	-2146.70	  445.51
     33.1700	  650.00	  620.73	-2144.73	  445.47
     33.2700	  617.00	  623.73	-2180.73	  445.43
     33.3700	  645.00	  628.19	-2157.19	  445.40
     33.4700	  708.00	  635.11	-2101.11	  445.36
     33.5700	  683.00	  646.37	-2137.37	  445.33
     33.6700	  659.00	  665.37	-2180.37	  445.30
     33.7700	  721.00	  697.37	-2150.37	  445.28
     33.8700	  755.00	  748.96	-2167.96	  445.25
     33.9700	  824.00	  825.47	-2175.47	  445.23
     34.0700	  923.00	  925.82	-2176.82	  445.21
     34.1700	 1129.00	 1036.87	-2081.87	  445.19
     34.2700	 1220.00	 1130.16	-2084.16	  445.18
     34.3700	 1282.00	 1166.12	-2058.12	  445.17
     34.4700	 1242.00	 1119.24	-2051.24	  445.16
     34.5700	 1094.00	 1011.90	-2091.90	  445.15
     34.6700	  929.00	  892.70	-2137.70	  445.15
     34.7700	  793.00	  793.01	-2174.01	  445.14
     34.8700	  716.00	  722.00	-2180.00	  445.14
     34.9700	  729.00	  676.75	-2121.75	  445.15
     35.0700	  711.00	  649.88	-2112.88	  445.15
     35.1700	  675.00	  634.17	-2133.17	  445.16
     35.2700	  660.00	  624.56	-2138.56	  445.16
     35.3700	  640.00	  618.16	-2152.16	  445.17
     35.4700	  637.00	  613.54	-2150.54	  445.19
     35.5700	  623.00	  610.02	-2161.02	  445.20
     35.6700	  607.00	  607.25	-2174.25	  445.22
     35.7700	  605.00	  605.04	-2174.04	  445.24
     35.8700	  638.00	  603.25	-2139.25	  445.26
     35.9700	  627.00	  601.80	-2148.80	  445.28
     36.0700	  627.00	  600.62	-2147.62	  445.30
     36.1700	  600.00	  599.67	-2173.67	  445.33
     36.2700	  609.00	  598.91	-2163.91	  445.36
     36.3700	  620.00	  598.38	-2152.38	  445.39
     36.4700	  635.00	  597.96	-2136.96	  445.42
     36.5700	  613.00	  597.68	-2158.68	  445.45
     36.6700	  635.00	  597.55	-2136.55	  445.49
     36.7700	  594.00	  597.58	-2177.58	  445.52
     36.8700	  620.00	  597.78	-2151.78	  445.56
     36.9700	  561.00	  598.37	-2211.37	  445.60
     37.0700	  638.00	  599.02	-2135.02	  445.65
     37.1700	  608.00	  600.00	-2166.00	  445.69
     37.2700	  523.00	  601.96	-2252.96	  445.74
     37.3700	  604.00	  604.15	-2174.15	  445.78
     37.4700	  593.00	  607.49	-2188.49	  445.83
     37.5700	  639.00	  612.70	-2147.70	  445.88
     37.6700	  592.00	  620.87	-2202.87	  445.93
     37.7700	  691.00	  633.46	-2116.46	  445.99
     37.8700	  589.00	  652.05	-2237.05	  446.04
     37.9700	  656.00	  677.53	-2195.53	  446.10
     38.0700	  712.00	  707.08	-2169.08	  446.16
     38.1700	  733.00	  740.65	-2181.65	  446.22
     38.2700	  747.00	  768.87	-2195.87	  446.28
     38.3700	  733.00	  781.40	-2222.40	  446.34
     38.4700	  769.00	  770.49	-2175.49	  446.40
     38.5700	  712.00	  740.02	-2202.02	  446.47
     38.6700	  667.00	  702.78	-2209.78	  446.53
     38.7700	  646.00	  669.01	-2197.01	  446.60
     38.8700	  604.00	  642.95	-2212.95	  446.67
     38.9700	  580.00	  624.94	-2218.94	  446.74
     39.0700	  561.00	  613.46	-2226.46	  446.81
     39.1700	  591.00	  606.46	-2189.46	  446.88
     39.2700	  582.00	  602.19	-2194.19	  446.96
     39.3700	  634.00	  599.46	-2139.46	  447.03
     39.4700	  620.00	  597.60	-2151.60	  447.11
     39.5700	  620.00	  595.13	-2149.13	  447.18
     39.6700	  628.00	  594.11	-2140.11	  447.26
     39.7700	  624.00	  593.32	-2143.32	  447.34
     39.8700	  587.00	  592.70	-2179.70	  447.42
     39.9700	  632.00	  592.22	-2134.22	  447.50
     40.0700	  590.00	  591.85	-2175.85	  447.59
     40.1700	  606.00	  591.56	-2159.56	  447.67
     40.2700	  625.00	  591.34	-2140.34	  447.76
     40.3700	  580.00	  591.19	-2185.19	  447.84
     40.4700	  589.00	  591.09	-2176.09	  447.93
     40.5700	  610.00	  591.04	-2155.04	  448.01
     40.6700	  657.00	  591.03	-2108.03	  448.10
     40.7700	  623.00	  591.60	-2142.60	  448.19
