MSG Master    CELL:    5.91925   5.91925  23.27181   90.0000   90.0000  120.0000   SPGR: P 63/m m c             TEMP:   1074.95
  1   1280     2.52000     0.00000    -0.12601     0.00000     0.00000    0
    99     0     2
       0.00000      10.00000
     125.00000     130.00000
 2Theta	Yobs	Ycal	Yobs-Ycal	Backg	Posr	(hkl)	K
      0.7700	    0.00	  536.07	-1746.00	  417.25
      0.8700	    0.00	  536.98	-1746.00	  418.16
      0.9700	   36.00	  537.88	-1746.00	  419.05
      1.0700	   52.00	  538.76	-1746.00	  419.94
      1.1700	   48.00	  539.63	-1746.00	  420.81
      1.2700	   50.00	  540.49	-1746.00	  421.67
      1.3700	   52.00	  541.34	-1746.00	  422.51
      1.4700	   92.00	  542.17	-1746.00	  423.35
      1.5700	  275.00	  542.99	-1746.00	  424.17
      1.6700	  464.00	  543.80	-1746.00	  424.98
      1.7700	  586.00	  544.60	-1746.00	  425.78
      1.8700	  681.00	  545.38	-1746.00	  426.56
      1.9700	  738.00	  546.16	-1746.00	  427.33
      2.0700	  757.00	  546.92	-1746.00	  428.10
      2.1700	  807.00	  547.67	-1746.00	  428.84
      2.2700	  797.00	  548.41	-1746.00	  429.58
      2.3700	  724.00	  549.13	-1746.00	  430.31
      2.4700	  719.00	  549.85	-1746.00	  431.02
      2.5700	  702.00	  550.55	-1746.00	  431.73
      2.6700	  674.00	  551.24	-1746.00	  432.42
      2.7700	  662.00	  551.92	-1746.00	  433.10
      2.8700	  635.00	  552.59	-1746.00	  433.77
      2.9700	  677.00	  553.25	-1746.00	  434.43
      3.0700	  617.00	  553.90	-1746.00	  435.08
      3.1700	  618.00	  554.54	-1746.00	  435.71
      3.2700	  611.00	  555.16	-1746.00	  436.34
      3.3700	  659.00	  555.77	-1746.00	  436.95
      3.4700	  785.00	  556.38	-1746.00	  437.56
      3.5700	  810.00	  556.97	-1746.00	  438.15
      3.6700	  868.00	  557.55	-1746.00	  438.73
      3.7700	  964.00	  558.13	-1746.00	  439.30
      3.8700	  980.00	  558.69	-1746.00	  439.86
      3.9700	 1054.00	  559.24	-1746.00	  440.41
      4.0700	 1040.00	  559.78	-1746.00	  440.96
      4.1700	 1055.00	  560.31	-1746.00	  441.49
      4.2700	 1102.00	  560.83	-1746.00	  442.01
      4.3700	 1090.00	  561.34	-1746.00	  442.52
      4.4700	 1098.00	  561.84	-1746.00	  443.02
      4.5700	 1035.00	  562.33	-1746.00	  443.51
      4.6700	  987.00	  562.81	-1746.00	  443.99
      4.7700	  992.00	  563.28	-1746.00	  444.46
      4.8700	  963.00	  563.74	-1746.00	  444.92
      4.9700	  957.00	  564.19	-1746.00	  445.37
      5.0700	  976.00	  564.64	-1746.00	  445.81
      5.1700	  882.00	  565.07	-1746.00	  446.25
      5.2700	  925.00	  565.49	-1746.00	  446.67
      5.3700	  912.00	  565.91	-1746.00	  447.08
      5.4700	  899.00	  566.31	-1746.00	  447.49
      5.5700	  820.00	  566.70	-1746.00	  447.88
      5.6700	  850.00	  567.09	-1746.00	  448.27
      5.7700	  848.00	  567.47	-1746.00	  448.64
      5.8700	  862.00	  567.84	-1746.00	  449.01
      5.9700	  810.00	  568.19	-1746.00	  449.37
      6.0700	  790.00	  568.54	-1746.00	  449.72
      6.1700	  786.00	  568.89	-1746.00	  450.06
      6.2700	  807.00	  569.22	-1746.00	  450.40
      6.3700	  793.00	  569.54	-1746.00	  450.72
      6.4700	  766.00	  569.86	-1746.00	  451.03
      6.5700	  786.00	  570.17	-1746.00	  451.34
      6.6700	  775.00	  570.46	-1746.00	  451.64
      6.7700	  675.00	  570.75	-1746.00	  451.93
      6.8700	  722.00	  571.04	-1746.00	  452.21
      6.9700	  682.00	  571.31	-1746.00	  452.49
      7.0700	  678.00	  571.58	-1746.00	  452.75
      7.1700	  701.00	  571.83	-1746.00	  453.01
      7.2700	  715.00	  572.08	-1746.00	  453.26
      7.3700	  717.00	  572.32	-1746.00	  453.50
      7.4700	  707.00	  572.56	-1746.00	  453.73
      7.5700	  647.00	  572.78	-1746.00	  453.96
      7.6700	  661.00	  573.00	-1746.00	  454.18
      7.7700	  668.00	  573.21	-1746.00	  454.39
      7.8700	  649.00	  573.41	-1746.00	  454.59
      7.9700	  628.00	  573.61	-1746.00	  454.78
      8.0700	  680.00	  573.80	-1746.00	  454.97
      8.1700	  681.00	  573.98	-1746.00	  455.15
      8.2700	  638.00	  574.15	-1746.00	  455.32
      8.3700	  620.00	  574.31	-1746.00	  455.49
      8.4700	  652.00	  574.47	-1746.00	  455.65
      8.5700	  605.00	  574.62	-1746.00	  455.80
      8.6700	  598.00	  574.77	-1746.00	  455.94
      8.7700	  605.00	  574.90	-1746.00	  456.08
      8.8700	  620.00	  575.03	-1746.00	  456.21
      8.9700	  636.00	  575.16	-1746.00	  456.33
      9.0700	  617.00	  575.27	-1746.00	  456.45
      9.1700	  649.00	  575.38	-1746.00	  456.56
      9.2700	  645.00	  575.48	-1746.00	  456.66
      9.3700	  580.00	  575.58	-1746.00	  456.76
      9.4700	  572.00	  575.67	-1746.00	  456.84
      9.5700	  576.00	  575.75	-1746.00	  456.93
      9.6700	  582.00	  575.83	-1746.00	  457.00
      9.7700	  643.00	  575.90	-1746.00	  457.07
      9.8700	  610.00	  575.96	-1746.00	  457.14
      9.9700	  603.00	  576.02	-1746.00	  457.19
     10.0700	  649.00	  576.90	-1673.90	  457.24
     10.1700	  598.00	  577.03	-1725.03	  457.29
     10.2700	  642.00	  577.18	-1681.18	  457.33
     10.3700	  617.00	  577.35	-1706.35	  457.36
     10.4700	  588.00	  577.58	-1735.58	  457.38
     10.5700	  583.00	  577.92	-1740.92	  457.40
     10.6700	  579.00	  578.46	-1745.46	  457.42
     10.7700	  593.00	  579.32	-1732.32	  457.43
     10.8700	  612.00	  580.55	-1714.55	  457.43
     10.9700	  586.00	  582.16	-1742.16	  457.43
     11.0700	  603.00	  584.12	-1727.12	  457.42
     11.1700	  570.00	  586.41	-1762.41	  457.40
     11.2700	  589.00	  589.08	-1746.08	  457.38
     11.3700	  568.00	  592.20	-1770.20	  457.36
     11.4700	  614.00	  595.90	-1727.90	  457.33
     11.5700	  588.00	  600.38	-1758.38	  457.29
     11.6700	  579.00	  605.99	-1772.99	  457.25
     11.7700	  590.00	  613.33	-1769.33	  457.20
     11.8700	  671.00	  623.27	-1698.27	  457.15
     11.9700	  676.00	  636.40	-1706.40	  457.09
     12.0700	  705.00	  651.11	-1692.11	  457.03
     12.1700	  713.00	  661.45	-1694.45	  456.96
     12.2700	  684.00	  658.12	-1720.12	  456.89
     12.3700	  659.00	  638.31	-1725.31	  456.81
     12.4700	  683.00	  614.00	-1677.00	  456.73
     12.5700	  577.00	  596.06	-1765.06	  456.64
     12.6700	  570.00	  586.17	-1762.17	  456.55
     12.7700	  532.00	  581.61	-1795.61	  456.45
     12.8700	  525.00	  579.53	-1800.53	  456.35
     12.9700	  543.00	  578.40	-1781.40	  456.24
     13.0700	  544.00	  577.63	-1779.63	  456.13
     13.1700	  574.00	  577.05	-1749.05	  456.01
     13.2700	  581.00	  576.59	-1741.59	  455.89
     13.3700	  515.00	  576.20	-1807.20	  455.77
     13.4700	  564.00	  575.86	-1757.86	  455.64
     13.5700	  606.00	  575.56	-1715.56	  455.50
     13.6700	  543.00	  575.29	-1778.29	  455.37
     13.7700	  546.00	  575.04	-1775.04	  455.23
     13.8700	  548.00	  574.80	-1772.80	  455.08
     13.9700	  584.00	  574.57	-1736.57	  454.93
     14.0700	  508.00	  574.35	-1812.35	  454.77
     14.1700	  546.00	  574.14	-1774.14	  454.62
     14.2700	  567.00	  573.93	-1752.93	  454.45
     14.3700	  555.00	  573.72	-1764.72	  454.29
     14.4700	  578.00	  573.51	-1741.51	  454.12
     14.5700	  549.00	  573.30	-1770.30	  453.94
     14.6700	  584.00	  573.10	-1735.10	  453.76
     14.7700	  566.00	  572.89	-1752.89	  453.58
     14.8700	  543.00	  572.68	-1775.68	  453.40
     14.9700	  562.00	  572.47	-1756.47	  453.21
     15.0700	  532.00	  572.26	-1786.26	  453.01
     15.1700	  561.00	  572.05	-1757.05	  452.82
     15.2700	  594.00	  571.83	-1723.83	  452.62
     15.3700	  562.00	  571.62	-1755.62	  452.41
     15.4700	  550.00	  571.40	-1767.40	  452.21
     15.5700	  571.00	  571.17	-1746.17	  452.00
     15.6700	  594.00	  570.95	-1722.95	  451.78
     15.7700	  585.00	  570.72	-1731.72	  451.57
     15.8700	  586.00	  570.49	-1730.49	  451.35
     15.9700	  534.00	  570.26	-1782.26	  451.12
     16.0700	  553.00	  570.05	-1763.05	  450.90
     16.1700	  560.00	  569.82	-1755.82	  450.67
     16.2700	  575.00	  569.58	-1740.58	  450.43
     16.3700	  549.00	  569.34	-1766.34	  450.20
     16.4700	  531.00	  569.09	-1784.09	  449.96
     16.5700	  514.00	  568.85	-1800.85	  449.72
     16.6700	  551.00	  568.60	-1763.60	  449.47
     16.7700	  562.00	  568.35	-1752.35	  449.22
     16.8700	  574.00	  568.09	-1740.09	  448.97
     16.9700	  564.00	  567.84	-1749.84	  448.72
     17.0700	  573.00	  567.58	-1740.58	  448.46
     17.1700	  543.00	  567.32	-1770.32	  448.21
     17.2700	  540.00	  567.05	-1773.05	  447.94
     17.3700	  567.00	  566.79	-1745.79	  447.68
     17.4700	  558.00	  566.52	-1754.52	  447.41
     17.5700	  564.00	  566.25	-1748.25	  447.15
     17.6700	  577.00	  565.98	-1734.98	  446.87
     17.7700	  620.00	  565.70	-1691.70	  446.60
     17.8700	  552.00	  565.42	-1759.42	  446.32
     17.9700	  568.00	  565.24	-1743.24	  446.05
     18.0700	  592.00	  564.96	-1718.96	  445.76
     18.1700	  563.00	  564.68	-1747.68	  445.48
     18.2700	  567.00	  564.40	-1743.40	  445.20
     18.3700	  558.00	  564.11	-1752.11	  444.91
     18.4700	  568.00	  563.82	-1741.82	  444.62
     18.5700	  538.00	  563.53	-1771.53	  444.33
     18.6700	  571.00	  563.24	-1738.24	  444.03
     18.7700	  580.00	  562.95	-1728.95	  443.74
     18.8700	  529.00	  562.74	-1779.74	  443.44
     18.9700	  546.00	  562.44	-1762.44	  443.14
     19.0700	  555.00	  562.14	-1753.14	  442.84
     19.1700	  588.00	  561.85	-1719.85	  442.53
     19.2700	  584.00	  561.55	-1723.55	  442.23
     19.3700	  560.00	  561.24	-1747.24	  441.92
     19.4700	  602.00	  560.94	-1704.94	  441.61
     19.5700	  549.00	  560.64	-1757.64	  441.30
     19.6700	  550.00	  560.33	-1756.33	  440.98
     19.7700	  534.00	  560.02	-1772.02	  440.67
     19.8700	  585.00	  559.72	-1720.72	  440.35
     19.9700	  517.00	  559.41	-1788.41	  440.04
     20.0700	  558.00	  559.10	-1747.10	  439.72
     20.1700	  571.00	  558.78	-1733.78	  439.39
     20.2700	  549.00	  558.47	-1755.47	  439.07
     20.3700	  590.00	  558.16	-1714.16	  438.75
     20.4700	  567.00	  557.84	-1736.84	  438.42
     20.5700	  550.00	  557.50	-1753.50	  438.10
     20.6700	  545.00	  557.18	-1758.18	  437.77
     20.7700	  517.00	  556.87	-1785.87	  437.44
     20.8700	  574.00	  556.58	-1728.58	  437.11
     20.9700	  574.00	  556.27	-1728.27	  436.78
     21.0700	  558.00	  555.95	-1743.95	  436.44
     21.1700	  534.00	  555.64	-1767.64	  436.11
     21.2700	  538.00	  555.32	-1763.32	  435.77
     21.3700	  594.00	  555.00	-1707.00	  435.44
     21.4700	  551.00	  554.69	-1749.69	  435.10
     21.5700	  586.00	  554.37	-1714.37	  434.76
     21.6700	  548.00	  554.06	-1752.06	  434.42
     21.7700	  604.00	  553.74	-1695.74	  434.08
     21.8700	  525.00	  553.43	-1774.43	  433.74
     21.9700	  536.00	  553.12	-1763.12	  433.39
     22.0700	  579.00	  552.80	-1719.80	  433.05
     22.1700	  581.00	  552.50	-1717.50	  432.71
     22.2700	  608.00	  552.19	-1690.19	  432.36
     22.3700	  526.00	  551.89	-1771.89	  432.01
     22.4700	  594.00	  551.59	-1703.59	  431.67
     22.5700	  519.00	  551.29	-1778.29	  431.32
     22.6700	  545.00	  551.00	-1752.00	  430.97
     22.7700	  552.00	  550.72	-1744.72	  430.62
     22.8700	  553.00	  550.44	-1743.44	  430.27
     22.9700	  585.00	  550.17	-1711.17	  429.92
     23.0700	  547.00	  549.92	-1748.92	  429.57
     23.1700	  573.00	  549.68	-1722.68	  429.22
     23.2700	  532.00	  549.46	-1763.46	  428.87
     23.3700	  558.00	  549.26	-1737.26	  428.51
     23.4700	  571.00	  549.09	-1724.09	  428.16
     23.5700	  517.00	  548.97	-1777.97	  427.81
     23.6700	  515.00	  549.05	-1780.05	  427.45
     23.7700	  600.00	  549.11	-1695.11	  427.10
     23.8700	  562.00	  549.36	-1733.36	  426.74
     23.9700	  548.00	  550.01	-1748.01	  426.39
     24.0700	  570.00	  551.45	-1727.45	  426.03
     24.1700	  546.00	  554.26	-1754.26	  425.68
     24.2700	  564.00	  559.21	-1741.21	  425.32
     24.3700	  561.00	  567.15	-1752.15	  424.97
     24.4700	  654.00	  578.97	-1670.97	  424.61
     24.5700	  603.00	  594.81	-1737.81	  424.25
     24.6700	  558.00	  612.16	-1800.16	  423.90
     24.7700	  655.00	  624.16	-1715.16	  423.54
     24.8700	  608.00	  621.55	-1759.55	  423.18
     24.9700	  612.00	  603.05	-1737.05	  422.83
     25.0700	  522.00	  580.40	-1804.40	  422.47
     25.1700	  579.00	  563.23	-1730.23	  422.11
     25.2700	  565.00	  553.34	-1734.34	  421.76
     25.3700	  578.00	  548.56	-1716.56	  421.40
     25.4700	  561.00	  546.33	-1731.33	  421.04
     25.5700	  545.00	  545.12	-1746.12	  420.68
     25.6700	  567.00	  544.33	-1723.33	  420.33
     25.7700	  571.00	  543.74	-1718.74	  419.97
     25.8700	  556.00	  543.28	-1733.28	  419.61
     25.9700	  530.00	  542.93	-1758.93	  419.26
     26.0700	  557.00	  542.65	-1731.65	  418.90
     26.1700	  573.00	  542.46	-1715.46	  418.55
     26.2700	  522.00	  542.34	-1766.34	  418.19
     26.3700	  558.00	  542.29	-1730.29	  417.84
     26.4700	  537.00	  542.33	-1751.33	  417.48
     26.5700	  535.00	  542.46	-1753.46	  417.13
     26.6700	  558.00	  542.70	-1730.70	  416.77
     26.7700	  555.00	  543.07	-1734.07	  416.42
     26.8700	  581.00	  543.62	-1708.62	  416.06
     26.9700	  537.00	  544.38	-1753.38	  415.71
     27.0700	  543.00	  545.44	-1748.44	  415.36
     27.1700	  540.00	  546.93	-1752.93	  415.01
     27.2700	  541.00	  549.09	-1754.09	  414.65
     27.3700	  540.00	  552.42	-1758.42	  414.30
     27.4700	  550.00	  557.88	-1753.88	  413.95
     27.5700	  564.00	  567.20	-1749.20	  413.60
     27.6700	  589.00	  583.08	-1740.08	  413.25
     27.7700	  566.00	  609.03	-1789.03	  412.90
     27.8700	  606.00	  648.07	-1788.07	  412.55
     27.9700	  697.00	  700.29	-1749.29	  412.20
     28.0700	  832.00	  759.68	-1673.68	  411.86
     28.1700	  863.00	  811.33	-1694.33	  411.51
     28.2700	  940.00	  832.93	-1638.93	  411.16
     28.3700	  932.00	  811.44	-1625.44	  410.82
     28.4700	  737.00	  768.05	-1777.05	  410.47
     28.5700	  731.00	  737.40	-1752.40	  410.13
     28.6700	  668.00	  735.24	-1813.24	  409.79
     28.7700	  764.00	  756.99	-1738.99	  409.45
     28.8700	  774.00	  783.42	-1755.42	  409.10
     28.9700	  795.00	  787.54	-1738.54	  408.76
     29.0700	  771.00	  752.27	-1727.27	  408.42
     29.1700	  670.00	  692.44	-1768.44	  408.08
     29.2700	  649.00	  635.35	-1732.35	  407.75
     29.3700	  599.00	  594.06	-1741.06	  407.41
     29.4700	  623.00	  569.00	-1692.00	  407.07
     29.5700	  573.00	  555.39	-1728.39	  406.74
     29.6700	  585.00	  548.16	-1709.16	  406.40
     29.7700	  591.00	  544.04	-1699.04	  406.07
     29.8700	  566.00	  541.46	-1721.46	  405.74
     29.9700	  635.00	  539.81	-1650.81	  405.40
     30.0700	  566.00	  538.95	-1718.95	  405.07
     30.1700	  568.00	  539.03	-1717.03	  404.74
     30.2700	  569.00	  540.55	-1717.55	  404.41
     30.3700	  568.00	  544.53	-1722.53	  404.09
     30.4700	  584.00	  552.47	-1714.47	  403.76
     30.5700	  555.00	  565.96	-1756.96	  403.44
     30.6700	  582.00	  585.39	-1749.39	  403.11
     30.7700	  608.00	  608.36	-1746.36	  402.79
     30.8700	  596.00	  628.33	-1778.33	  402.47
     30.9700	  612.00	  635.40	-1769.40	  402.14
     31.0700	  589.00	  622.73	-1779.73	  401.83
     31.1700	  572.00	  596.91	-1770.91	  401.51
     31.2700	  532.00	  570.91	-1784.91	  401.19
     31.3700	  563.00	  551.62	-1734.62	  400.87
     31.4700	  530.00	  539.80	-1755.80	  400.56
     31.5700	  542.00	  533.42	-1737.42	  400.24
     31.6700	  544.00	  530.11	-1732.11	  399.93
     31.7700	  528.00	  528.27	-1746.27	  399.62
     31.8700	  527.00	  527.10	-1746.10	  399.31
     31.9700	  490.00	  526.28	-1782.28	  399.00
     32.0700	  532.00	  525.70	-1739.70	  398.70
     32.1700	  571.00	  525.31	-1700.31	  398.39
     32.2700	  540.00	  525.07	-1731.07	  398.08
     32.3700	  510.00	  524.99	-1760.99	  397.78
     32.4700	  539.00	  525.06	-1732.06	  397.48
     32.5700	  543.00	  525.31	-1728.31	  397.18
     32.6700	  575.00	  525.77	-1696.77	  396.88
     32.7700	  553.00	  526.48	-1719.48	  396.58
     32.8700	  556.00	  527.51	-1717.51	  396.29
     32.9700	  520.00	  529.00	-1755.00	  395.99
     33.0700	  543.00	  531.15	-1734.15	  395.70
     33.1700	  549.00	  534.46	-1731.46	  395.41
     33.2700	  558.00	  540.02	-1728.02	  395.12
     33.3700	  540.00	  550.19	-1756.19	  394.83
     33.4700	  586.00	  569.45	-1729.45	  394.54
     33.5700	  613.00	  604.84	-1737.84	  394.25
     33.6700	  652.00	  664.49	-1758.49	  393.97
     33.7700	  740.00	  751.87	-1757.87	  393.68
     33.8700	  915.00	  857.48	-1688.48	  393.40
     33.9700	 1069.00	  953.26	-1630.26	  393.12
     34.0700	 1076.00	  996.03	-1666.03	  392.84
     34.1700	 1027.00	  953.70	-1672.70	  392.57
     34.2700	  916.00	  847.91	-1677.91	  392.29
     34.3700	  790.00	  733.28	-1689.28	  392.02
     34.4700	  666.00	  643.88	-1723.88	  391.75
     34.5700	  571.00	  587.15	-1762.15	  391.48
     34.6700	  588.00	  556.09	-1714.09	  391.21
     34.7700	  544.00	  540.34	-1742.34	  390.94
     34.8700	  541.00	  532.08	-1737.08	  390.67
     34.9700	  516.00	  527.15	-1757.15	  390.41
     35.0700	  541.00	  523.75	-1728.75	  390.15
     35.1700	  512.00	  521.21	-1755.21	  389.89
     35.2700	  503.00	  519.18	-1762.18	  389.63
     35.3700	  525.00	  517.53	-1738.53	  389.37
     35.4700	  472.00	  516.15	-1790.15	  389.11
     35.5700	  509.00	  514.99	-1751.99	  388.86
     35.6700	  532.00	  513.99	-1727.99	  388.61
     35.7700	  511.00	  513.11	-1748.11	  388.36
     35.8700	  532.00	  512.34	-1726.34	  388.11
     35.9700	  520.00	  512.14	-1738.14	  387.86
     36.0700	  526.00	  511.53	-1731.53	  387.62
     36.1700	  513.00	  510.98	-1743.98	  387.37
     36.2700	  516.00	  510.47	-1740.47	  387.13
     36.3700	  542.00	  510.02	-1714.02	  386.89
     36.4700	  534.00	  509.60	-1721.60	  386.65
     36.5700	  492.00	  509.22	-1763.22	  386.41
     36.6700	  508.00	  508.89	-1746.89	  386.18
     36.7700	  516.00	  508.60	-1738.60	  385.95
     36.8700	  503.00	  508.37	-1751.37	  385.71
     36.9700	  548.00	  508.26	-1706.26	  385.49
     37.0700	  540.00	  508.36	-1714.36	  385.26
     37.1700	  560.00	  508.90	-1694.90	  385.03
     37.2700	  507.00	  510.16	-1749.16	  384.81
     37.3700	  531.00	  512.44	-1727.44	  384.59
     37.4700	  518.00	  515.76	-1743.76	  384.36
     37.5700	  503.00	  519.56	-1762.56	  384.15
     37.6700	  530.00	  522.64	-1738.64	  383.93
     37.7700	  523.00	  523.60	-1746.60	  383.71
     37.8700	  496.00	  522.06	-1772.06	  383.50
     37.9700	  497.00	  519.08	-1768.08	  383.29
     38.0700	  463.00	  515.71	-1798.71	  383.08
     38.1700	  479.00	  512.40	-1779.40	  382.87
     38.2700	  554.00	  509.47	-1701.47	  382.67
     38.3700	  476.00	  507.20	-1777.20	  382.46
     38.4700	  521.00	  505.60	-1730.60	  382.26
     38.5700	  493.00	  504.55	-1757.55	  382.06
     38.6700	  501.00	  503.87	-1748.87	  381.86
     38.7700	  488.00	  503.31	-1761.31	  381.67
     38.8700	  519.00	  502.96	-1729.96	  381.47
     38.9700	  509.00	  502.68	-1739.68	  381.28
     39.0700	  494.00	  502.43	-1754.43	  381.09
     39.1700	  519.00	  502.19	-1729.19	  380.90
     39.2700	  546.00	  501.90	-1701.90	  380.71
     39.3700	  496.00	  501.70	-1751.70	  380.53
     39.4700	  522.00	  501.65	-1725.65	  380.34
     39.5700	  505.00	  501.47	-1742.47	  380.16
     39.6700	  499.00	  501.31	-1748.31	  379.98
     39.7700	  482.00	  501.15	-1765.15	  379.81
     39.8700	  486.00	  501.01	-1761.01	  379.63
     39.9700	  474.00	  500.87	-1772.87	  379.46
     40.0700	  503.00	  500.74	-1743.74	  379.29
     40.1700	  465.00	  500.63	-1781.63	  379.12
     40.2700	  507.00	  500.53	-1739.53	  378.95
     40.3700	  501.00	  500.43	-1745.43	  378.78
     40.4700	  489.00	  500.35	-1757.35	  378.62
     40.5700	  467.00	  500.29	-1779.29	  378.46
     40.6700	  470.00	  500.25	-1776.25	  378.30
     40.7700	  469.00	  500.22	-1777.22	  378.14
