MSG Master    CELL:    5.91970   5.91970  23.28062   90.0000   90.0000  120.0000   SPGR: P 63/m m c             TEMP:   1074.85
  1   1280     2.52000     0.00000    -0.12694     0.00000     0.00000    0
    99     0     2
       0.00000      10.00000
     125.00000     130.00000
 2Theta	Yobs	Ycal	Yobs-Ycal	Backg	Posr	(hkl)	K
      0.7700	    0.00	  543.27	-1721.75	  423.98
      0.8700	    0.00	  544.06	-1721.75	  424.77
      0.9700	   39.00	  544.83	-1721.75	  425.54
      1.0700	   34.00	  545.60	-1721.75	  426.31
      1.1700	   52.00	  546.35	-1721.75	  427.06
      1.2700	   41.00	  547.09	-1721.75	  427.80
      1.3700	   41.00	  547.82	-1721.75	  428.53
      1.4700	   97.00	  548.54	-1721.75	  429.25
      1.5700	  300.00	  549.25	-1721.75	  429.96
      1.6700	  447.00	  549.95	-1721.75	  430.66
      1.7700	  577.00	  550.64	-1721.75	  431.35
      1.8700	  680.00	  551.31	-1721.75	  432.02
      1.9700	  701.00	  551.98	-1721.75	  432.69
      2.0700	  807.00	  552.63	-1721.75	  433.34
      2.1700	  770.00	  553.28	-1721.75	  433.99
      2.2700	  785.00	  553.91	-1721.75	  434.62
      2.3700	  744.00	  554.53	-1721.75	  435.24
      2.4700	  709.00	  555.15	-1721.75	  435.86
      2.5700	  724.00	  555.75	-1721.75	  436.46
      2.6700	  684.00	  556.34	-1721.75	  437.05
      2.7700	  694.00	  556.92	-1721.75	  437.63
      2.8700	  653.00	  557.50	-1721.75	  438.21
      2.9700	  641.00	  558.06	-1721.75	  438.77
      3.0700	  614.00	  558.61	-1721.75	  439.32
      3.1700	  604.00	  559.15	-1721.75	  439.86
      3.2700	  641.00	  559.69	-1721.75	  440.40
      3.3700	  692.00	  560.21	-1721.75	  440.92
      3.4700	  793.00	  560.72	-1721.75	  441.43
      3.5700	  759.00	  561.23	-1721.75	  441.94
      3.6700	  873.00	  561.72	-1721.75	  442.43
      3.7700	  964.00	  562.21	-1721.75	  442.92
      3.8700	 1005.00	  562.68	-1721.75	  443.39
      3.9700	  947.00	  563.15	-1721.75	  443.86
      4.0700	 1064.00	  563.61	-1721.75	  444.32
      4.1700	 1134.00	  564.06	-1721.75	  444.77
      4.2700	 1096.00	  564.50	-1721.75	  445.21
      4.3700	 1087.00	  564.93	-1721.75	  445.64
      4.4700	 1096.00	  565.35	-1721.75	  446.06
      4.5700	 1038.00	  565.76	-1721.75	  446.47
      4.6700	 1078.00	  566.17	-1721.75	  446.88
      4.7700	 1031.00	  566.56	-1721.75	  447.27
      4.8700	  985.00	  566.95	-1721.75	  447.66
      4.9700	  967.00	  567.32	-1721.75	  448.03
      5.0700	  941.00	  567.69	-1721.75	  448.40
      5.1700	  894.00	  568.06	-1721.75	  448.77
      5.2700	  953.00	  568.41	-1721.75	  449.12
      5.3700	  912.00	  568.75	-1721.75	  449.46
      5.4700	  875.00	  569.09	-1721.75	  449.80
      5.5700	  900.00	  569.42	-1721.75	  450.13
      5.6700	  834.00	  569.74	-1721.75	  450.45
      5.7700	  854.00	  570.05	-1721.75	  450.76
      5.8700	  848.00	  570.35	-1721.75	  451.06
      5.9700	  762.00	  570.65	-1721.75	  451.36
      6.0700	  836.00	  570.93	-1721.75	  451.64
      6.1700	  717.00	  571.21	-1721.75	  451.92
      6.2700	  769.00	  571.49	-1721.75	  452.20
      6.3700	  756.00	  571.75	-1721.75	  452.46
      6.4700	  735.00	  572.01	-1721.75	  452.72
      6.5700	  739.00	  572.26	-1721.75	  452.97
      6.6700	  738.00	  572.50	-1721.75	  453.21
      6.7700	  711.00	  572.73	-1721.75	  453.44
      6.8700	  681.00	  572.96	-1721.75	  453.67
      6.9700	  665.00	  573.18	-1721.75	  453.89
      7.0700	  686.00	  573.39	-1721.75	  454.10
      7.1700	  691.00	  573.60	-1721.75	  454.31
      7.2700	  685.00	  573.79	-1721.75	  454.50
      7.3700	  680.00	  573.99	-1721.75	  454.70
      7.4700	  682.00	  574.17	-1721.75	  454.88
      7.5700	  648.00	  574.35	-1721.75	  455.06
      7.6700	  710.00	  574.52	-1721.75	  455.23
      7.7700	  663.00	  574.68	-1721.75	  455.39
      7.8700	  626.00	  574.84	-1721.75	  455.55
      7.9700	  660.00	  574.99	-1721.75	  455.70
      8.0700	  624.00	  575.13	-1721.75	  455.84
      8.1700	  627.00	  575.27	-1721.75	  455.98
      8.2700	  605.00	  575.40	-1721.75	  456.11
      8.3700	  590.00	  575.52	-1721.75	  456.23
      8.4700	  637.00	  575.64	-1721.75	  456.35
      8.5700	  605.00	  575.75	-1721.75	  456.46
      8.6700	  605.00	  575.85	-1721.75	  456.56
      8.7700	  636.00	  575.95	-1721.75	  456.66
      8.8700	  616.00	  576.04	-1721.75	  456.75
      8.9700	  576.00	  576.13	-1721.75	  456.84
      9.0700	  646.00	  576.21	-1721.75	  456.92
      9.1700	  627.00	  576.28	-1721.75	  456.99
      9.2700	  639.00	  576.35	-1721.75	  457.06
      9.3700	  635.00	  576.41	-1721.75	  457.12
      9.4700	  635.00	  576.47	-1721.75	  457.18
      9.5700	  589.00	  576.52	-1721.75	  457.23
      9.6700	  620.00	  576.56	-1721.75	  457.27
      9.7700	  569.00	  576.60	-1721.75	  457.31
      9.8700	  594.00	  576.63	-1721.75	  457.34
      9.9700	  569.00	  576.66	-1721.75	  457.37
     10.0700	  605.00	  577.65	-1694.40	  457.39
     10.1700	  586.00	  577.77	-1713.52	  457.41
     10.2700	  615.00	  577.92	-1684.67	  457.42
     10.3700	  601.00	  578.10	-1698.85	  457.42
     10.4700	  539.00	  578.35	-1761.10	  457.43
     10.5700	  562.00	  578.72	-1738.47	  457.42
     10.6700	  606.00	  579.31	-1695.06	  457.41
     10.7700	  631.00	  580.23	-1670.98	  457.39
     10.8700	  585.00	  581.52	-1718.27	  457.37
     10.9700	  610.00	  583.20	-1694.95	  457.35
     11.0700	  581.00	  585.23	-1725.98	  457.32
     11.1700	  626.00	  587.62	-1683.37	  457.28
     11.2700	  587.00	  590.41	-1725.16	  457.24
     11.3700	  577.00	  593.67	-1738.42	  457.20
     11.4700	  592.00	  597.55	-1727.30	  457.15
     11.5700	  603.00	  602.26	-1721.01	  457.09
     11.6700	  678.00	  608.16	-1651.91	  457.03
     11.7700	  599.00	  615.85	-1738.60	  456.97
     11.8700	  674.00	  626.07	-1673.82	  456.90
     11.9700	  674.00	  639.04	-1686.79	  456.82
     12.0700	  710.00	  652.75	-1664.50	  456.75
     12.1700	  697.00	  661.50	-1686.25	  456.66
     12.2700	  709.00	  657.06	-1669.81	  456.58
     12.3700	  650.00	  637.78	-1709.53	  456.48
     12.4700	  605.00	  614.86	-1731.61	  456.39
     12.5700	  571.00	  597.68	-1748.43	  456.29
     12.6700	  605.00	  587.73	-1704.48	  456.18
     12.7700	  616.00	  582.80	-1688.55	  456.08
     12.8700	  600.00	  580.40	-1702.15	  455.96
     12.9700	  545.00	  579.06	-1755.81	  455.85
     13.0700	  593.00	  578.17	-1706.92	  455.73
     13.1700	  618.00	  577.50	-1681.25	  455.60
     13.2700	  546.00	  576.96	-1752.71	  455.47
     13.3700	  514.00	  576.51	-1784.26	  455.34
     13.4700	  565.00	  576.13	-1732.88	  455.20
     13.5700	  532.00	  575.79	-1765.54	  455.06
     13.6700	  550.00	  575.49	-1747.24	  454.92
     13.7700	  576.00	  575.21	-1720.96	  454.77
     13.8700	  592.00	  574.94	-1704.69	  454.62
     13.9700	  576.00	  574.70	-1720.45	  454.47
     14.0700	  563.00	  574.46	-1733.21	  454.31
     14.1700	  530.00	  574.23	-1765.98	  454.15
     14.2700	  570.00	  574.00	-1725.75	  453.98
     14.3700	  610.00	  573.78	-1685.53	  453.81
     14.4700	  592.00	  573.57	-1703.32	  453.64
     14.5700	  578.00	  573.35	-1717.10	  453.46
     14.6700	  528.00	  573.14	-1766.89	  453.28
     14.7700	  588.00	  572.93	-1706.68	  453.10
     14.8700	  513.00	  572.71	-1781.46	  452.91
     14.9700	  561.00	  572.50	-1733.25	  452.73
     15.0700	  595.00	  572.28	-1699.03	  452.53
     15.1700	  558.00	  572.07	-1735.82	  452.34
     15.2700	  568.00	  571.85	-1725.60	  452.14
     15.3700	  550.00	  571.63	-1743.38	  451.94
     15.4700	  542.00	  571.41	-1751.16	  451.73
     15.5700	  536.00	  571.19	-1756.94	  451.53
     15.6700	  574.00	  571.00	-1718.75	  451.32
     15.7700	  490.00	  570.77	-1802.52	  451.10
     15.8700	  557.00	  570.55	-1735.30	  450.89
     15.9700	  584.00	  570.32	-1708.07	  450.67
     16.0700	  580.00	  570.09	-1711.84	  450.45
     16.1700	  543.00	  569.86	-1748.61	  450.22
     16.2700	  546.00	  569.63	-1745.38	  450.00
     16.3700	  548.00	  569.39	-1743.14	  449.77
     16.4700	  564.00	  569.15	-1726.90	  449.54
     16.5700	  570.00	  568.91	-1720.66	  449.30
     16.6700	  591.00	  568.67	-1699.42	  449.06
     16.7700	  580.00	  568.43	-1710.18	  448.82
     16.8700	  552.00	  568.18	-1737.93	  448.58
     16.9700	  564.00	  567.93	-1725.68	  448.34
     17.0700	  571.00	  567.68	-1718.43	  448.09
     17.1700	  546.00	  567.43	-1743.18	  447.84
     17.2700	  532.00	  567.17	-1756.92	  447.59
     17.3700	  532.00	  566.92	-1756.67	  447.34
     17.4700	  538.00	  566.66	-1750.41	  447.08
     17.5700	  530.00	  566.40	-1758.15	  446.82
     17.6700	  566.00	  566.14	-1721.89	  446.56
     17.7700	  572.00	  565.87	-1715.62	  446.30
     17.8700	  597.00	  565.61	-1690.36	  446.04
     17.9700	  527.00	  565.34	-1760.09	  445.77
     18.0700	  550.00	  565.07	-1736.82	  445.50
     18.1700	  514.00	  564.90	-1772.65	  445.23
     18.2700	  554.00	  564.63	-1732.38	  444.96
     18.3700	  575.00	  564.36	-1711.11	  444.69
     18.4700	  543.00	  564.09	-1742.84	  444.41
     18.5700	  552.00	  563.81	-1733.56	  444.13
     18.6700	  522.00	  563.54	-1763.29	  443.86
     18.7700	  564.00	  563.26	-1721.01	  443.57
     18.8700	  538.00	  563.06	-1746.81	  443.29
     18.9700	  558.00	  562.78	-1726.53	  443.01
     19.0700	  572.00	  562.50	-1712.25	  442.72
     19.1700	  556.00	  562.21	-1727.96	  442.43
     19.2700	  564.00	  561.93	-1719.68	  442.14
     19.3700	  596.00	  561.65	-1687.40	  441.85
     19.4700	  574.00	  561.36	-1709.11	  441.56
     19.5700	  598.00	  561.07	-1684.82	  441.27
     19.6700	  565.00	  560.79	-1717.54	  440.97
     19.7700	  546.00	  560.50	-1736.25	  440.68
     19.8700	  513.00	  560.21	-1768.96	  440.38
     19.9700	  544.00	  559.92	-1737.67	  440.08
     20.0700	  542.00	  559.63	-1739.38	  439.78
     20.1700	  539.00	  559.33	-1742.08	  439.48
     20.2700	  595.00	  559.04	-1685.79	  439.17
     20.3700	  583.00	  558.75	-1697.50	  438.87
     20.4700	  592.00	  558.46	-1688.21	  438.56
     20.5700	  557.00	  558.16	-1722.91	  438.26
     20.6700	  515.00	  557.87	-1764.62	  437.95
     20.7700	  550.00	  557.60	-1729.35	  437.64
     20.8700	  569.00	  557.31	-1710.06	  437.33
     20.9700	  569.00	  557.01	-1709.76	  437.02
     21.0700	  539.00	  556.72	-1739.47	  436.71
     21.1700	  560.00	  556.39	-1718.14	  436.39
     21.2700	  563.00	  556.10	-1714.85	  436.08
     21.3700	  573.00	  555.81	-1704.56	  435.76
     21.4700	  571.00	  555.51	-1706.26	  435.45
     21.5700	  550.00	  555.22	-1726.97	  435.13
     21.6700	  562.00	  554.93	-1714.68	  434.81
     21.7700	  554.00	  554.64	-1722.39	  434.50
     21.8700	  559.00	  554.36	-1717.11	  434.18
     21.9700	  578.00	  554.07	-1697.82	  433.86
     22.0700	  566.00	  553.79	-1709.54	  433.54
     22.1700	  572.00	  553.51	-1703.26	  433.22
     22.2700	  552.00	  553.23	-1722.98	  432.89
     22.3700	  533.00	  552.96	-1741.71	  432.57
     22.4700	  574.00	  552.69	-1700.44	  432.25
     22.5700	  598.00	  552.43	-1676.18	  431.93
     22.6700	  548.00	  552.17	-1725.92	  431.60
     22.7700	  554.00	  551.92	-1719.67	  431.28
     22.8700	  514.00	  551.68	-1759.43	  430.95
     22.9700	  554.00	  551.45	-1719.20	  430.63
     23.0700	  505.00	  551.24	-1767.99	  430.30
     23.1700	  561.00	  551.05	-1711.80	  429.97
     23.2700	  519.00	  550.88	-1753.63	  429.65
     23.3700	  542.00	  550.74	-1730.49	  429.32
     23.4700	  528.00	  550.77	-1744.52	  428.99
     23.5700	  581.00	  550.73	-1691.48	  428.67
     23.6700	  555.00	  550.78	-1717.53	  428.34
     23.7700	  564.00	  550.96	-1708.71	  428.01
     23.8700	  518.00	  551.39	-1755.14	  427.68
     23.9700	  591.00	  552.31	-1683.06	  427.35
     24.0700	  578.00	  554.14	-1697.89	  427.02
     24.1700	  564.00	  557.48	-1715.23	  426.69
     24.2700	  578.00	  563.12	-1706.87	  426.36
     24.3700	  551.00	  571.88	-1742.63	  426.04
     24.4700	  630.00	  584.44	-1676.19	  425.71
     24.5700	  627.00	  600.47	-1695.22	  425.38
     24.6700	  622.00	  616.94	-1716.69	  425.05
     24.7700	  622.00	  627.06	-1726.81	  424.72
     24.8700	  646.00	  622.62	-1698.37	  424.39
     24.9700	  612.00	  603.97	-1713.72	  424.06
     25.0700	  626.00	  582.39	-1678.14	  423.73
     25.1700	  610.00	  566.03	-1677.78	  423.40
     25.2700	  557.00	  556.29	-1721.04	  423.07
     25.3700	  554.00	  551.31	-1719.06	  422.74
     25.4700	  536.00	  548.85	-1734.60	  422.41
     25.5700	  571.00	  547.49	-1698.24	  422.08
     25.6700	  545.00	  546.61	-1723.36	  421.76
     25.7700	  568.00	  545.96	-1699.71	  421.43
     25.8700	  537.00	  545.47	-1730.22	  421.10
     25.9700	  556.00	  545.09	-1710.84	  420.77
     26.0700	  569.00	  544.81	-1697.56	  420.44
     26.1700	  591.00	  544.61	-1675.36	  420.12
     26.2700	  546.00	  544.49	-1720.24	  419.79
     26.3700	  538.00	  544.44	-1728.19	  419.46
     26.4700	  522.00	  544.48	-1744.23	  419.14
     26.5700	  567.00	  544.62	-1699.37	  418.81
     26.6700	  501.00	  544.87	-1765.62	  418.49
     26.7700	  563.00	  545.26	-1704.01	  418.16
     26.8700	  533.00	  545.81	-1734.56	  417.84
     26.9700	  587.00	  546.59	-1681.34	  417.51
     27.0700	  568.00	  547.65	-1701.41	  417.19
     27.1700	  582.00	  549.15	-1688.90	  416.87
     27.2700	  536.00	  551.32	-1737.07	  416.54
     27.3700	  614.00	  554.68	-1662.43	  416.22
     27.4700	  588.00	  560.22	-1693.97	  415.90
     27.5700	  540.00	  569.76	-1751.51	  415.58
     27.6700	  597.00	  586.18	-1710.93	  415.26
     27.7700	  563.00	  613.23	-1771.98	  414.94
     27.8700	  636.00	  654.20	-1739.95	  414.62
     27.9700	  667.00	  709.29	-1764.04	  414.30
     28.0700	  822.00	  772.02	-1671.77	  413.98
     28.1700	  915.00	  826.10	-1632.85	  413.66
     28.2700	  943.00	  847.25	-1626.00	  413.35
     28.3700	  879.00	  821.96	-1664.71	  413.03
     28.4700	  794.00	  773.93	-1701.68	  412.72
     28.5700	  702.00	  739.91	-1759.66	  412.40
     28.6700	  705.00	  735.88	-1752.63	  412.09
     28.7700	  722.00	  756.54	-1756.29	  411.78
     28.8700	  781.00	  781.83	-1722.58	  411.47
     28.9700	  854.00	  784.57	-1652.32	  411.15
     29.0700	  743.00	  748.56	-1727.31	  410.84
     29.1700	  681.00	  689.44	-1730.19	  410.53
     29.2700	  645.00	  633.86	-1710.61	  410.23
     29.3700	  559.00	  594.06	-1756.81	  409.92
     29.4700	  568.00	  570.12	-1723.87	  409.61
     29.5700	  582.00	  557.18	-1696.93	  409.31
     29.6700	  590.00	  550.32	-1682.07	  409.00
     29.7700	  568.00	  546.40	-1700.15	  408.70
     29.8700	  580.00	  543.92	-1685.67	  408.39
     29.9700	  573.00	  542.33	-1691.08	  408.09
     30.0700	  532.00	  541.48	-1731.23	  407.79
     30.1700	  518.00	  541.51	-1745.26	  407.49
     30.2700	  545.00	  542.90	-1719.65	  407.19
     30.3700	  582.00	  546.52	-1686.27	  406.89
     30.4700	  565.00	  553.72	-1710.47	  406.60
     30.5700	  549.00	  565.81	-1738.56	  406.30
     30.6700	  530.00	  583.04	-1774.79	  406.01
     30.7700	  592.00	  603.03	-1732.78	  405.71
     30.8700	  609.00	  619.97	-1732.72	  405.42
     30.9700	  608.00	  625.23	-1738.98	  405.13
     31.0700	  629.00	  613.38	-1706.13	  404.84
     31.1700	  578.00	  590.67	-1734.42	  404.55
     31.2700	  562.00	  568.20	-1727.95	  404.26
     31.3700	  582.00	  551.62	-1691.37	  403.98
     31.4700	  570.00	  541.45	-1693.20	  403.69
     31.5700	  561.00	  535.93	-1696.68	  403.41
     31.6700	  549.00	  533.04	-1705.79	  403.12
     31.7700	  523.00	  531.42	-1730.17	  402.84
     31.8700	  575.00	  530.40	-1677.15	  402.56
     31.9700	  544.00	  529.70	-1707.45	  402.28
     32.0700	  543.00	  529.21	-1707.96	  402.00
     32.1700	  557.00	  528.89	-1693.64	  401.72
     32.2700	  548.00	  528.73	-1702.48	  401.45
     32.3700	  569.00	  528.71	-1681.46	  401.17
     32.4700	  533.00	  528.86	-1717.60	  400.90
     32.5700	  549.00	  529.17	-1701.92	  400.63
     32.6700	  566.00	  529.69	-1685.44	  400.36
     32.7700	  524.00	  530.47	-1728.22	  400.09
     32.8700	  578.00	  531.58	-1675.33	  399.82
     32.9700	  565.00	  533.15	-1689.90	  399.56
     33.0700	  533.00	  535.42	-1724.17	  399.29
     33.1700	  532.00	  538.91	-1728.66	  399.03
     33.2700	  537.00	  544.75	-1729.50	  398.77
     33.3700	  553.00	  555.33	-1724.08	  398.50
     33.4700	  586.00	  575.05	-1710.80	  398.24
     33.5700	  607.00	  610.53	-1725.28	  397.99
     33.6700	  630.00	  668.85	-1760.60	  397.73
     33.7700	  748.00	  752.16	-1725.91	  397.47
     33.8700	  892.00	  850.27	-1680.02	  397.22
     33.9700	  982.00	  936.24	-1675.99	  396.97
     34.0700	 1033.00	  970.45	-1659.20	  396.72
     34.1700	  987.00	  926.18	-1660.93	  396.47
     34.2700	  900.00	  826.70	-1648.45	  396.22
     34.3700	  744.00	  721.60	-1699.35	  395.97
     34.4700	  624.00	  640.10	-1737.85	  395.73
     34.5700	  581.00	  588.11	-1728.86	  395.49
     34.6700	  537.00	  559.26	-1744.01	  395.24
     34.7700	  521.00	  544.35	-1745.10	  395.00
     34.8700	  533.00	  536.38	-1725.13	  394.77
     34.9700	  553.00	  531.58	-1700.33	  394.53
     35.0700	  520.00	  528.26	-1730.01	  394.29
     35.1700	  508.00	  525.75	-1739.50	  394.06
     35.2700	  557.00	  523.77	-1688.52	  393.83
     35.3700	  551.00	  522.16	-1692.91	  393.60
     35.4700	  556.00	  520.83	-1686.58	  393.37
     35.5700	  516.00	  519.70	-1725.45	  393.14
     35.6700	  532.00	  518.73	-1708.48	  392.91
     35.7700	  476.00	  517.89	-1763.64	  392.69
     35.8700	  512.00	  517.15	-1726.90	  392.46
     35.9700	  543.00	  516.50	-1695.25	  392.24
     36.0700	  529.00	  515.91	-1708.66	  392.02
     36.1700	  529.00	  515.84	-1708.59	  391.81
     36.2700	  520.00	  515.37	-1717.12	  391.59
     36.3700	  542.00	  514.94	-1694.69	  391.37
     36.4700	  479.00	  514.56	-1757.31	  391.16
     36.5700	  542.00	  514.22	-1693.97	  390.95
     36.6700	  502.00	  513.93	-1733.68	  390.74
     36.7700	  522.00	  513.69	-1713.44	  390.53
     36.8700	  521.00	  513.53	-1714.28	  390.32
     36.9700	  484.00	  513.51	-1751.26	  390.12
     37.0700	  477.00	  513.77	-1758.52	  389.92
     37.1700	  549.00	  514.54	-1687.29	  389.72
     37.2700	  504.00	  516.09	-1733.84	  389.52
     37.3700	  495.00	  518.65	-1745.40	  389.32
     37.4700	  504.00	  522.08	-1739.83	  389.12
     37.5700	  535.00	  525.67	-1712.42	  388.93
     37.6700	  502.00	  528.15	-1747.90	  388.73
     37.7700	  535.00	  528.24	-1714.99	  388.54
     37.8700	  503.00	  525.90	-1744.65	  388.35
     37.9700	  521.00	  522.44	-1723.19	  388.17
     38.0700	  510.00	  518.96	-1730.71	  387.98
     38.1700	  544.00	  515.91	-1693.66	  387.79
     38.2700	  527.00	  513.49	-1708.24	  387.61
     38.3700	  479.00	  511.73	-1754.48	  387.43
     38.4700	  503.00	  510.54	-1729.29	  387.25
     38.5700	  506.00	  509.65	-1725.40	  387.07
     38.6700	  496.00	  509.11	-1734.86	  386.90
     38.7700	  522.00	  508.73	-1708.48	  386.73
     38.8700	  505.00	  508.43	-1725.18	  386.55
     38.9700	  524.00	  508.17	-1705.92	  386.38
     39.0700	  516.00	  507.95	-1713.70	  386.21
     39.1700	  563.00	  507.88	-1666.63	  386.05
     39.2700	  525.00	  507.62	-1704.37	  385.88
     39.3700	  532.00	  507.44	-1697.19	  385.72
     39.4700	  512.00	  507.28	-1717.03	  385.56
     39.5700	  568.00	  507.13	-1660.88	  385.40
     39.6700	  501.00	  506.98	-1727.73	  385.24
     39.7700	  490.00	  506.85	-1738.60	  385.08
     39.8700	  485.00	  506.73	-1743.48	  384.93
     39.9700	  485.00	  506.61	-1743.36	  384.78
     40.0700	  490.00	  506.51	-1738.26	  384.63
     40.1700	  523.00	  506.41	-1705.16	  384.48
     40.2700	  531.00	  506.33	-1697.08	  384.33
     40.3700	  510.00	  506.26	-1718.01	  384.19
     40.4700	  510.00	  506.21	-1717.96	  384.04
     40.5700	  488.00	  506.17	-1739.92	  383.90
     40.6700	  497.00	  506.14	-1730.89	  383.76
     40.7700	  533.00	  506.14	-1694.89	  383.62
