MSG Master    CELL:    5.91725   5.91725  23.27472   90.0000   90.0000  120.0000   SPGR: P 63/m m c             TEMP:   1032.65
  1   1280     2.52000     0.00000    -0.12534     0.00000     0.00000    0
    99     0     2
       0.00000      10.00000
     125.00000     130.00000
 2Theta	Yobs	Ycal	Yobs-Ycal	Backg	Posr	(hkl)	K
      0.7700	    0.00	  516.40	-1719.75	  400.23
      0.8700	    0.00	  517.49	-1719.75	  401.32
      0.9700	   42.00	  518.56	-1719.75	  402.39
      1.0700	   37.00	  519.62	-1719.75	  403.45
      1.1700	   43.00	  520.67	-1719.75	  404.50
      1.2700	   31.00	  521.70	-1719.75	  405.53
      1.3700	   38.00	  522.72	-1719.75	  406.55
      1.4700	  103.00	  523.73	-1719.75	  407.55
      1.5700	  322.00	  524.72	-1719.75	  408.55
      1.6700	  448.00	  525.70	-1719.75	  409.53
      1.7700	  576.00	  526.66	-1719.75	  410.49
      1.8700	  606.00	  527.61	-1719.75	  411.44
      1.9700	  695.00	  528.55	-1719.75	  412.38
      2.0700	  776.00	  529.48	-1719.75	  413.31
      2.1700	  795.00	  530.39	-1719.75	  414.22
      2.2700	  746.00	  531.29	-1719.75	  415.12
      2.3700	  751.00	  532.18	-1719.75	  416.01
      2.4700	  708.00	  533.06	-1719.75	  416.89
      2.5700	  674.00	  533.92	-1719.75	  417.75
      2.6700	  648.00	  534.77	-1719.75	  418.60
      2.7700	  650.00	  535.61	-1719.75	  419.44
      2.8700	  620.00	  536.43	-1719.75	  420.26
      2.9700	  646.00	  537.25	-1719.75	  421.08
      3.0700	  579.00	  538.05	-1719.75	  421.88
      3.1700	  634.00	  538.84	-1719.75	  422.67
      3.2700	  585.00	  539.62	-1719.75	  423.44
      3.3700	  646.00	  540.38	-1719.75	  424.21
      3.4700	  798.00	  541.13	-1719.75	  424.96
      3.5700	  863.00	  541.88	-1719.75	  425.71
      3.6700	  915.00	  542.61	-1719.75	  426.44
      3.7700	  976.00	  543.33	-1719.75	  427.16
      3.8700	 1070.00	  544.03	-1719.75	  427.86
      3.9700	 1067.00	  544.73	-1719.75	  428.56
      4.0700	 1087.00	  545.41	-1719.75	  429.24
      4.1700	 1123.00	  546.09	-1719.75	  429.92
      4.2700	 1210.00	  546.75	-1719.75	  430.58
      4.3700	 1163.00	  547.40	-1719.75	  431.23
      4.4700	 1162.00	  548.04	-1719.75	  431.87
      4.5700	 1114.00	  548.67	-1719.75	  432.50
      4.6700	 1044.00	  549.29	-1719.75	  433.12
      4.7700	 1044.00	  549.90	-1719.75	  433.73
      4.8700	  963.00	  550.50	-1719.75	  434.33
      4.9700	 1009.00	  551.08	-1719.75	  434.91
      5.0700	  941.00	  551.66	-1719.75	  435.49
      5.1700	  914.00	  552.23	-1719.75	  436.05
      5.2700	  953.00	  552.78	-1719.75	  436.61
      5.3700	  939.00	  553.33	-1719.75	  437.15
      5.4700	  927.00	  553.86	-1719.75	  437.69
      5.5700	  802.00	  554.39	-1719.75	  438.21
      5.6700	  854.00	  554.90	-1719.75	  438.73
      5.7700	  898.00	  555.41	-1719.75	  439.23
      5.8700	  877.00	  555.90	-1719.75	  439.73
      5.9700	  784.00	  556.39	-1719.75	  440.21
      6.0700	  847.00	  556.86	-1719.75	  440.69
      6.1700	  780.00	  557.33	-1719.75	  441.16
      6.2700	  800.00	  557.78	-1719.75	  441.61
      6.3700	  764.00	  558.23	-1719.75	  442.06
      6.4700	  764.00	  558.67	-1719.75	  442.49
      6.5700	  721.00	  559.09	-1719.75	  442.92
      6.6700	  703.00	  559.51	-1719.75	  443.34
      6.7700	  742.00	  559.92	-1719.75	  443.75
      6.8700	  767.00	  560.32	-1719.75	  444.15
      6.9700	  699.00	  560.71	-1719.75	  444.54
      7.0700	  703.00	  561.09	-1719.75	  444.92
      7.1700	  677.00	  561.47	-1719.75	  445.30
      7.2700	  683.00	  561.83	-1719.75	  445.66
      7.3700	  673.00	  562.19	-1719.75	  446.01
      7.4700	  654.00	  562.53	-1719.75	  446.36
      7.5700	  654.00	  562.87	-1719.75	  446.70
      7.6700	  681.00	  563.20	-1719.75	  447.03
      7.7700	  682.00	  563.52	-1719.75	  447.35
      7.8700	  626.00	  563.83	-1719.75	  447.66
      7.9700	  649.00	  564.14	-1719.75	  447.96
      8.0700	  666.00	  564.43	-1719.75	  448.26
      8.1700	  616.00	  564.72	-1719.75	  448.55
      8.2700	  620.00	  565.00	-1719.75	  448.83
      8.3700	  617.00	  565.27	-1719.75	  449.10
      8.4700	  672.00	  565.53	-1719.75	  449.36
      8.5700	  605.00	  565.78	-1719.75	  449.61
      8.6700	  623.00	  566.03	-1719.75	  449.86
      8.7700	  626.00	  566.27	-1719.75	  450.10
      8.8700	  635.00	  566.50	-1719.75	  450.33
      8.9700	  611.00	  566.72	-1719.75	  450.55
      9.0700	  628.00	  566.94	-1719.75	  450.77
      9.1700	  598.00	  567.15	-1719.75	  450.98
      9.2700	  589.00	  567.35	-1719.75	  451.18
      9.3700	  611.00	  567.54	-1719.75	  451.37
      9.4700	  587.00	  567.73	-1719.75	  451.56
      9.5700	  598.00	  567.91	-1719.75	  451.74
      9.6700	  606.00	  568.08	-1719.75	  451.91
      9.7700	  608.00	  568.24	-1719.75	  452.07
      9.8700	  593.00	  568.40	-1719.75	  452.23
      9.9700	  584.00	  568.55	-1719.75	  452.38
     10.0700	  597.00	  569.92	-1692.67	  452.52
     10.1700	  599.00	  570.20	-1690.95	  452.65
     10.2700	  576.00	  570.50	-1714.25	  452.78
     10.3700	  573.00	  570.84	-1717.59	  452.91
     10.4700	  629.00	  571.27	-1662.02	  453.02
     10.5700	  580.00	  571.84	-1711.59	  453.13
     10.6700	  581.00	  572.64	-1711.39	  453.23
     10.7700	  605.00	  573.80	-1688.55	  453.33
     10.8700	  597.00	  575.37	-1698.12	  453.41
     10.9700	  561.00	  577.36	-1736.11	  453.50
     11.0700	  571.00	  579.76	-1728.51	  453.57
     11.1700	  569.00	  582.56	-1733.31	  453.64
     11.2700	  587.00	  585.82	-1718.57	  453.71
     11.3700	  565.00	  589.61	-1744.36	  453.76
     11.4700	  596.00	  594.08	-1717.83	  453.81
     11.5700	  591.00	  599.48	-1728.23	  453.86
     11.6700	  639.00	  606.20	-1686.95	  453.90
     11.7700	  556.00	  614.82	-1778.57	  453.93
     11.8700	  650.00	  626.02	-1695.77	  453.96
     11.9700	  648.00	  639.78	-1711.53	  453.98
     12.0700	  654.00	  653.96	-1719.71	  453.99
     12.1700	  652.00	  663.01	-1730.76	  454.00
     12.2700	  712.00	  658.98	-1666.73	  454.00
     12.3700	  652.00	  639.84	-1707.59	  454.00
     12.4700	  589.00	  616.10	-1746.85	  453.99
     12.5700	  587.00	  597.45	-1730.20	  453.98
     12.6700	  601.00	  585.98	-1704.73	  453.96
     12.7700	  584.00	  579.91	-1715.66	  453.94
     12.8700	  587.00	  576.85	-1709.60	  453.91
     12.9700	  565.00	  575.18	-1729.93	  453.87
     13.0700	  606.00	  574.11	-1687.86	  453.83
     13.1700	  570.00	  573.35	-1723.10	  453.79
     13.2700	  592.00	  572.76	-1700.51	  453.74
     13.3700	  609.00	  572.30	-1683.05	  453.68
     13.4700	  548.00	  571.91	-1743.66	  453.62
     13.5700	  560.00	  571.59	-1731.34	  453.56
     13.6700	  594.00	  571.31	-1697.06	  453.49
     13.7700	  577.00	  571.06	-1713.81	  453.41
     13.8700	  531.00	  570.83	-1759.58	  453.33
     13.9700	  589.00	  570.63	-1701.38	  453.24
     14.0700	  593.00	  570.43	-1697.18	  453.15
     14.1700	  543.00	  570.25	-1747.00	  453.06
     14.2700	  596.00	  570.07	-1693.82	  452.96
     14.3700	  562.00	  569.90	-1727.65	  452.86
     14.4700	  535.00	  569.74	-1754.49	  452.75
     14.5700	  592.00	  569.57	-1697.32	  452.64
     14.6700	  573.00	  569.41	-1716.16	  452.52
     14.7700	  553.00	  569.25	-1736.00	  452.40
     14.8700	  561.00	  569.09	-1727.84	  452.27
     14.9700	  567.00	  568.92	-1721.67	  452.14
     15.0700	  584.00	  568.76	-1704.51	  452.01
     15.1700	  536.00	  568.63	-1752.38	  451.87
     15.2700	  544.00	  568.46	-1744.21	  451.73
     15.3700	  583.00	  568.29	-1705.04	  451.58
     15.4700	  593.00	  568.12	-1694.87	  451.43
     15.5700	  564.00	  567.95	-1723.70	  451.28
     15.6700	  550.00	  567.78	-1737.53	  451.12
     15.7700	  536.00	  567.60	-1751.35	  450.96
     15.8700	  557.00	  567.42	-1730.17	  450.79
     15.9700	  589.00	  567.24	-1697.99	  450.62
     16.0700	  535.00	  567.05	-1751.80	  450.45
     16.1700	  586.00	  566.87	-1700.62	  450.27
     16.2700	  593.00	  566.68	-1693.43	  450.09
     16.3700	  540.00	  566.48	-1746.23	  449.90
     16.4700	  570.00	  566.29	-1716.04	  449.71
     16.5700	  570.00	  566.09	-1715.84	  449.52
     16.6700	  526.00	  565.89	-1759.64	  449.33
     16.7700	  547.00	  565.68	-1738.43	  449.13
     16.8700	  560.00	  565.47	-1725.22	  448.93
     16.9700	  560.00	  565.26	-1725.01	  448.72
     17.0700	  575.00	  565.05	-1709.80	  448.51
     17.1700	  541.00	  564.83	-1743.58	  448.30
     17.2700	  531.00	  564.62	-1753.37	  448.09
     17.3700	  557.00	  564.39	-1727.14	  447.87
     17.4700	  556.00	  564.17	-1727.92	  447.65
     17.5700	  562.00	  563.94	-1721.69	  447.42
     17.6700	  583.00	  563.71	-1700.46	  447.20
     17.7700	  540.00	  563.48	-1743.23	  446.97
     17.8700	  534.00	  563.36	-1749.11	  446.74
     17.9700	  556.00	  563.12	-1726.87	  446.50
     18.0700	  605.00	  562.88	-1677.63	  446.26
     18.1700	  572.00	  562.64	-1710.39	  446.02
     18.2700	  524.00	  562.40	-1758.15	  445.78
     18.3700	  527.00	  562.15	-1754.90	  445.53
     18.4700	  576.00	  561.91	-1705.66	  445.28
     18.5700	  569.00	  561.75	-1712.50	  445.03
     18.6700	  526.00	  561.50	-1755.25	  444.77
     18.7700	  546.00	  561.24	-1734.99	  444.51
     18.8700	  537.00	  560.99	-1743.74	  444.26
     18.9700	  519.00	  560.73	-1761.48	  443.99
     19.0700	  544.00	  560.47	-1736.22	  443.73
     19.1700	  566.00	  560.21	-1713.96	  443.46
     19.2700	  560.00	  559.95	-1719.70	  443.19
     19.3700	  546.00	  559.69	-1733.44	  442.92
     19.4700	  549.00	  559.42	-1730.17	  442.65
     19.5700	  533.00	  559.15	-1745.90	  442.37
     19.6700	  530.00	  558.88	-1748.63	  442.09
     19.7700	  522.00	  558.61	-1756.36	  441.81
     19.8700	  562.00	  558.34	-1716.09	  441.53
     19.9700	  563.00	  558.06	-1714.81	  441.25
     20.0700	  517.00	  557.79	-1760.54	  440.96
     20.1700	  535.00	  557.51	-1742.26	  440.67
     20.2700	  611.00	  557.23	-1665.98	  440.38
     20.3700	  537.00	  556.99	-1739.74	  440.09
     20.4700	  524.00	  556.71	-1752.46	  439.79
     20.5700	  557.00	  556.43	-1719.18	  439.50
     20.6700	  569.00	  556.15	-1706.90	  439.20
     20.7700	  564.00	  555.86	-1711.61	  438.90
     20.8700	  573.00	  555.58	-1702.33	  438.60
     20.9700	  522.00	  555.30	-1753.05	  438.30
     21.0700	  579.00	  555.01	-1695.76	  437.99
     21.1700	  526.00	  554.73	-1748.48	  437.68
     21.2700	  574.00	  554.44	-1700.19	  437.38
     21.3700	  547.00	  554.16	-1726.91	  437.07
     21.4700	  555.00	  553.87	-1718.62	  436.76
     21.5700	  560.00	  553.59	-1713.34	  436.44
     21.6700	  535.00	  553.27	-1738.02	  436.13
     21.7700	  533.00	  552.99	-1739.74	  435.82
     21.8700	  558.00	  552.71	-1714.46	  435.50
     21.9700	  568.00	  552.43	-1704.18	  435.18
     22.0700	  551.00	  552.15	-1720.90	  434.86
     22.1700	  550.00	  551.88	-1721.63	  434.54
     22.2700	  533.00	  551.61	-1738.36	  434.22
     22.3700	  498.00	  551.35	-1773.10	  433.90
     22.4700	  574.00	  551.09	-1696.84	  433.57
     22.5700	  569.00	  550.83	-1701.58	  433.25
     22.6700	  561.00	  550.58	-1709.33	  432.92
     22.7700	  547.00	  550.34	-1723.09	  432.59
     22.8700	  558.00	  550.12	-1711.87	  432.26
     22.9700	  594.00	  549.90	-1675.65	  431.94
     23.0700	  576.00	  549.70	-1693.45	  431.60
     23.1700	  547.00	  549.67	-1722.42	  431.27
     23.2700	  575.00	  549.53	-1694.28	  430.94
     23.3700	  555.00	  549.41	-1714.16	  430.61
     23.4700	  551.00	  549.35	-1718.10	  430.27
     23.5700	  535.00	  549.35	-1734.10	  429.94
     23.6700	  585.00	  549.44	-1684.19	  429.60
     23.7700	  541.00	  549.69	-1728.44	  429.27
     23.8700	  567.00	  550.22	-1702.97	  428.93
     23.9700	  555.00	  551.25	-1716.00	  428.59
     24.0700	  521.00	  553.19	-1751.94	  428.25
     24.1700	  565.00	  556.64	-1711.39	  427.91
     24.2700	  570.00	  562.34	-1712.09	  427.58
     24.3700	  572.00	  571.05	-1718.80	  427.23
     24.4700	  587.00	  583.30	-1716.05	  426.89
     24.5700	  599.00	  598.61	-1719.36	  426.55
     24.6700	  623.00	  614.23	-1710.98	  426.21
     24.7700	  643.00	  624.20	-1700.95	  425.87
     24.8700	  638.00	  621.10	-1702.85	  425.53
     24.9700	  627.00	  604.42	-1697.17	  425.18
     25.0700	  578.00	  583.87	-1725.62	  424.84
     25.1700	  559.00	  567.41	-1728.16	  424.50
     25.2700	  604.00	  556.94	-1672.69	  424.15
     25.3700	  582.00	  551.18	-1688.93	  423.81
     25.4700	  576.00	  548.19	-1691.94	  423.46
     25.5700	  552.00	  546.54	-1714.29	  423.12
     25.6700	  551.00	  545.49	-1714.24	  422.77
     25.7700	  566.00	  544.74	-1698.49	  422.43
     25.8700	  576.00	  544.18	-1687.93	  422.08
     25.9700	  569.00	  543.76	-1694.51	  421.73
     26.0700	  578.00	  543.44	-1685.19	  421.39
     26.1700	  564.00	  543.23	-1698.98	  421.04
     26.2700	  526.00	  543.10	-1736.85	  420.70
     26.3700	  557.00	  543.07	-1705.81	  420.35
     26.4700	  556.00	  543.12	-1706.87	  420.00
     26.5700	  534.00	  543.29	-1729.04	  419.66
     26.6700	  538.00	  543.58	-1725.33	  419.31
     26.7700	  569.00	  544.02	-1694.77	  418.97
     26.8700	  548.00	  544.64	-1716.39	  418.62
     26.9700	  575.00	  545.51	-1690.26	  418.27
     27.0700	  568.00	  546.70	-1698.45	  417.93
     27.1700	  555.00	  548.34	-1713.09	  417.58
     27.2700	  573.00	  550.70	-1697.45	  417.24
     27.3700	  529.00	  554.28	-1745.03	  416.89
     27.4700	  590.00	  560.06	-1689.81	  416.55
     27.5700	  483.00	  569.77	-1806.52	  416.20
     27.6700	  535.00	  586.17	-1770.92	  415.86
     27.7700	  559.00	  612.85	-1773.60	  415.52
     27.8700	  645.00	  653.00	-1727.75	  415.17
     27.9700	  689.00	  706.96	-1737.71	  414.83
     28.0700	  762.00	  769.12	-1726.87	  414.49
     28.1700	  871.00	  825.04	-1673.79	  414.14
     28.2700	  966.00	  852.18	-1605.93	  413.80
     28.3700	  904.00	  834.84	-1650.59	  413.46
     28.4700	  807.00	  790.95	-1703.70	  413.12
     28.5700	  706.00	  756.47	-1770.22	  412.78
     28.6700	  697.00	  749.76	-1772.51	  412.44
     28.7700	  735.00	  768.01	-1752.76	  412.10
     28.8700	  799.00	  793.40	-1714.15	  411.76
     28.9700	  845.00	  799.61	-1674.36	  411.42
     29.0700	  764.00	  767.71	-1723.46	  411.08
     29.1700	  714.00	  708.79	-1714.54	  410.74
     29.2700	  674.00	  649.76	-1695.51	  410.41
     29.3700	  587.00	  605.21	-1737.96	  410.07
     29.4700	  615.00	  576.91	-1681.66	  409.73
     29.5700	  588.00	  560.84	-1692.59	  409.40
     29.6700	  575.00	  552.06	-1696.81	  409.06
     29.7700	  590.00	  547.06	-1676.81	  408.73
     29.8700	  571.00	  543.95	-1692.70	  408.40
     29.9700	  559.00	  541.97	-1702.72	  408.07
     30.0700	  623.00	  540.87	-1637.62	  407.73
     30.1700	  549.00	  540.75	-1711.50	  407.40
     30.2700	  558.00	  542.09	-1703.84	  407.07
     30.3700	  548.00	  545.66	-1717.41	  406.74
     30.4700	  545.00	  552.74	-1727.49	  406.42
     30.5700	  552.00	  564.58	-1732.33	  406.09
     30.6700	  540.00	  581.44	-1761.19	  405.76
     30.7700	  610.00	  601.27	-1711.02	  405.44
     30.8700	  650.00	  618.81	-1688.56	  405.11
     30.9700	  622.00	  625.95	-1723.70	  404.79
     31.0700	  540.00	  616.47	-1796.22	  404.47
     31.1700	  574.00	  594.78	-1740.53	  404.14
     31.2700	  547.00	  571.70	-1744.45	  403.82
     31.3700	  527.00	  553.68	-1746.43	  403.50
     31.4700	  579.00	  541.97	-1682.72	  403.18
     31.5700	  552.00	  535.24	-1702.99	  402.87
     31.6700	  575.00	  531.57	-1676.32	  402.55
     31.7700	  492.00	  529.51	-1757.26	  402.23
     31.8700	  531.00	  528.23	-1716.98	  401.92
     31.9700	  571.00	  527.37	-1676.12	  401.61
     32.0700	  597.00	  526.78	-1649.53	  401.29
     32.1700	  513.00	  526.39	-1733.14	  400.98
     32.2700	  531.00	  526.18	-1714.93	  400.67
     32.3700	  548.00	  526.15	-1697.90	  400.36
     32.4700	  537.00	  526.29	-1709.04	  400.05
     32.5700	  568.00	  526.63	-1678.38	  399.75
     32.6700	  544.00	  527.21	-1702.96	  399.44
     32.7700	  546.00	  528.07	-1701.82	  399.14
     32.8700	  574.00	  529.31	-1675.06	  398.83
     32.9700	  570.00	  531.05	-1680.80	  398.53
     33.0700	  569.00	  533.57	-1684.32	  398.23
     33.1700	  567.00	  537.39	-1690.14	  397.93
     33.2700	  551.00	  543.65	-1712.40	  397.63
     33.3700	  555.00	  554.65	-1719.40	  397.34
     33.4700	  525.00	  574.50	-1769.25	  397.04
     33.5700	  592.00	  609.30	-1737.05	  396.75
     33.6700	  650.00	  665.49	-1735.24	  396.46
     33.7700	  759.00	  745.31	-1706.06	  396.16
     33.8700	  880.00	  840.30	-1680.05	  395.87
     33.9700	  977.00	  926.97	-1669.72	  395.58
     34.0700	 1044.00	  969.03	-1644.78	  395.30
     34.1700	 1035.00	  937.36	-1622.11	  395.01
     34.2700	  869.00	  846.46	-1697.21	  394.73
     34.3700	  766.00	  742.50	-1696.25	  394.44
     34.4700	  676.00	  657.13	-1700.88	  394.16
     34.5700	  559.00	  599.32	-1760.07	  393.88
     34.6700	  567.00	  565.15	-1717.91	  393.60
     34.7700	  579.00	  546.55	-1687.30	  393.32
     34.8700	  571.00	  536.40	-1685.15	  393.05
     34.9700	  529.00	  530.34	-1721.09	  392.77
     35.0700	  553.00	  526.26	-1693.01	  392.50
     35.1700	  493.00	  523.23	-1749.98	  392.23
     35.2700	  539.00	  520.85	-1701.60	  391.96
     35.3700	  504.00	  518.92	-1734.67	  391.69
     35.4700	  503.00	  517.33	-1734.08	  391.42
     35.5700	  516.00	  515.98	-1719.73	  391.16
     35.6700	  515.00	  514.83	-1719.58	  390.89
     35.7700	  484.00	  513.83	-1749.58	  390.63
     35.8700	  514.00	  513.42	-1719.17	  390.37
     35.9700	  467.00	  512.66	-1765.41	  390.11
     36.0700	  536.00	  511.97	-1695.72	  389.85
     36.1700	  538.00	  511.36	-1693.11	  389.59
     36.2700	  497.00	  510.80	-1733.55	  389.34
     36.3700	  544.00	  510.30	-1686.05	  389.09
     36.4700	  502.00	  509.86	-1727.61	  388.84
     36.5700	  536.00	  509.46	-1693.21	  388.59
     36.6700	  495.00	  509.12	-1733.87	  388.34
     36.7700	  525.00	  508.85	-1703.60	  388.09
     36.8700	  527.00	  508.68	-1701.43	  387.85
     36.9700	  483.00	  508.70	-1745.45	  387.60
     37.0700	  500.00	  509.05	-1728.80	  387.36
     37.1700	  546.00	  509.96	-1683.71	  387.12
     37.2700	  484.00	  511.76	-1747.51	  386.88
     37.3700	  535.00	  514.63	-1699.38	  386.65
     37.4700	  510.00	  518.44	-1728.19	  386.41
     37.5700	  536.00	  522.40	-1706.15	  386.18
     37.6700	  518.00	  525.13	-1726.88	  385.95
     37.7700	  514.00	  525.13	-1730.88	  385.72
     37.8700	  526.00	  522.19	-1715.94	  385.49
     37.9700	  516.00	  517.83	-1721.58	  385.26
     38.0700	  489.00	  513.56	-1744.31	  385.04
     38.1700	  520.00	  510.08	-1709.83	  384.81
     38.2700	  468.00	  507.52	-1759.27	  384.59
     38.3700	  557.00	  505.79	-1668.54	  384.37
     38.4700	  512.00	  504.65	-1712.40	  384.16
     38.5700	  481.00	  503.87	-1742.62	  383.94
     38.6700	  476.00	  503.48	-1747.23	  383.73
     38.7700	  547.00	  502.95	-1675.70	  383.51
     38.8700	  506.00	  502.60	-1716.35	  383.30
     38.9700	  515.00	  502.29	-1707.04	  383.09
     39.0700	  490.00	  502.02	-1731.77	  382.89
     39.1700	  513.00	  501.77	-1708.52	  382.68
     39.2700	  511.00	  501.53	-1710.28	  382.48
     39.3700	  539.00	  501.31	-1682.06	  382.28
     39.4700	  529.00	  501.10	-1691.85	  382.08
     39.5700	  529.00	  500.82	-1691.57	  381.88
     39.6700	  473.00	  500.64	-1747.39	  381.68
     39.7700	  515.00	  500.47	-1705.22	  381.49
     39.8700	  505.00	  500.30	-1715.05	  381.30
     39.9700	  470.00	  500.15	-1749.90	  381.11
     40.0700	  481.00	  500.01	-1738.76	  380.92
     40.1700	  514.00	  499.88	-1705.63	  380.73
     40.2700	  519.00	  499.77	-1700.52	  380.54
     40.3700	  483.00	  499.67	-1736.42	  380.36
     40.4700	  496.00	  499.58	-1723.33	  380.18
     40.5700	  515.00	  499.51	-1704.26	  380.00
     40.6700	  480.00	  499.46	-1739.21	  379.82
     40.7700	  488.00	  499.43	-1731.18	  379.64
