MSG Master    CELL:    5.89620   5.89620  23.16872   90.0000   90.0000  120.0000   SPGR: P 63/m m c             TEMP:    737.65
  1   1280     2.52000     0.00000    -0.13261     0.00000     0.00000    0
    96     0     2
       0.00000      10.00000
     125.00000     130.00000
 2Theta	Yobs	Ycal	Yobs-Ycal	Backg	Posr	(hkl)	K
      0.7700	    0.00	  445.47	-1815.25	  334.10
      0.8700	    0.00	  448.29	-1815.25	  336.92
      0.9700	   50.00	  451.08	-1815.25	  339.72
      1.0700	   49.00	  453.85	-1815.25	  342.48
      1.1700	   43.00	  456.59	-1815.25	  345.22
      1.2700	   39.00	  459.30	-1815.25	  347.93
      1.3700	   48.00	  461.98	-1815.25	  350.61
      1.4700	   93.00	  464.64	-1815.25	  353.27
      1.5700	  305.00	  467.27	-1815.25	  355.90
      1.6700	  462.00	  469.87	-1815.25	  358.50
      1.7700	  604.00	  472.45	-1815.25	  361.08
      1.8700	  684.00	  475.00	-1815.25	  363.63
      1.9700	  753.00	  477.52	-1815.25	  366.15
      2.0700	  758.00	  480.02	-1815.25	  368.65
      2.1700	  706.00	  482.49	-1815.25	  371.12
      2.2700	  777.00	  484.93	-1815.25	  373.57
      2.3700	  716.00	  487.35	-1815.25	  375.99
      2.4700	  739.00	  489.75	-1815.25	  378.38
      2.5700	  660.00	  492.12	-1815.25	  380.75
      2.6700	  680.00	  494.46	-1815.25	  383.10
      2.7700	  656.00	  496.78	-1815.25	  385.42
      2.8700	  613.00	  499.08	-1815.25	  387.71
      2.9700	  577.00	  501.35	-1815.25	  389.98
      3.0700	  626.00	  503.59	-1815.25	  392.22
      3.1700	  603.00	  505.81	-1815.25	  394.45
      3.2700	  720.00	  508.01	-1815.25	  396.64
      3.3700	  852.00	  510.18	-1815.25	  398.81
      3.4700	  926.00	  512.33	-1815.25	  400.96
      3.5700	 1149.00	  514.45	-1815.25	  403.09
      3.6700	 1254.00	  516.55	-1815.25	  405.19
      3.7700	 1343.00	  518.63	-1815.25	  407.26
      3.8700	 1393.00	  520.68	-1815.25	  409.32
      3.9700	 1457.00	  522.72	-1815.25	  411.35
      4.0700	 1506.00	  524.72	-1815.25	  413.36
      4.1700	 1593.00	  526.71	-1815.25	  415.34
      4.2700	 1558.00	  528.67	-1815.25	  417.30
      4.3700	 1594.00	  530.61	-1815.25	  419.24
      4.4700	 1500.00	  532.52	-1815.25	  421.16
      4.5700	 1478.00	  534.42	-1815.25	  423.05
      4.6700	 1406.00	  536.29	-1815.25	  424.92
      4.7700	 1306.00	  538.14	-1815.25	  426.77
      4.8700	 1303.00	  539.96	-1815.25	  428.60
      4.9700	 1256.00	  541.77	-1815.25	  430.40
      5.0700	 1253.00	  543.55	-1815.25	  432.19
      5.1700	 1199.00	  545.32	-1815.25	  433.95
      5.2700	 1173.00	  547.06	-1815.25	  435.69
      5.3700	 1104.00	  548.78	-1815.25	  437.41
      5.4700	 1119.00	  550.47	-1815.25	  439.11
      5.5700	 1093.00	  552.15	-1815.25	  440.78
      5.6700	 1087.00	  553.81	-1815.25	  442.44
      5.7700	 1021.00	  555.44	-1815.25	  444.07
      5.8700	 1083.00	  557.06	-1815.25	  445.69
      5.9700	 1017.00	  558.65	-1815.25	  447.28
      6.0700	  962.00	  560.22	-1815.25	  448.86
      6.1700	  971.00	  561.78	-1815.25	  450.41
      6.2700	  942.00	  563.31	-1815.25	  451.94
      6.3700	  986.00	  564.82	-1815.25	  453.46
      6.4700	  882.00	  566.32	-1815.25	  454.95
      6.5700	  893.00	  567.79	-1815.25	  456.42
      6.6700	  915.00	  569.25	-1815.25	  457.88
      6.7700	  869.00	  570.68	-1815.25	  459.31
      6.8700	  878.00	  572.10	-1815.25	  460.73
      6.9700	  839.00	  573.49	-1815.25	  462.13
      7.0700	  840.00	  574.87	-1815.25	  463.50
      7.1700	  766.00	  576.23	-1815.25	  464.86
      7.2700	  768.00	  577.57	-1815.25	  466.20
      7.3700	  774.00	  578.89	-1815.25	  467.52
      7.4700	  784.00	  580.19	-1815.25	  468.82
      7.5700	  801.00	  581.47	-1815.25	  470.11
      7.6700	  716.00	  582.74	-1815.25	  471.37
      7.7700	  747.00	  583.99	-1815.25	  472.62
      7.8700	  784.00	  585.21	-1815.25	  473.85
      7.9700	  759.00	  586.43	-1815.25	  475.06
      8.0700	  740.00	  587.62	-1815.25	  476.25
      8.1700	  764.00	  588.79	-1815.25	  477.43
      8.2700	  734.00	  589.95	-1815.25	  478.59
      8.3700	  702.00	  591.09	-1815.25	  479.73
      8.4700	  735.00	  592.22	-1815.25	  480.85
      8.5700	  708.00	  593.32	-1815.25	  481.96
      8.6700	  695.00	  594.41	-1815.25	  483.04
      8.7700	  699.00	  595.48	-1815.25	  484.12
      8.8700	  714.00	  596.54	-1815.25	  485.17
      8.9700	  714.00	  597.58	-1815.25	  486.21
      9.0700	  699.00	  598.60	-1815.25	  487.23
      9.1700	  705.00	  599.60	-1815.25	  488.24
      9.2700	  666.00	  600.59	-1815.25	  489.22
      9.3700	  692.00	  601.56	-1815.25	  490.20
      9.4700	  669.00	  602.52	-1815.25	  491.15
      9.5700	  691.00	  603.46	-1815.25	  492.09
      9.6700	  648.00	  604.39	-1815.25	  493.02
      9.7700	  657.00	  605.29	-1815.25	  493.93
      9.8700	  690.00	  606.19	-1815.25	  494.82
      9.9700	  685.00	  607.06	-1815.25	  495.70
     10.0700	  667.00	  610.23	-1758.48	  496.56
     10.1700	  692.00	  611.35	-1734.60	  497.41
     10.2700	  689.00	  612.51	-1738.76	  498.24
     10.3700	  684.00	  613.74	-1744.99	  499.05
     10.4700	  683.00	  615.08	-1747.33	  499.85
     10.5700	  676.00	  616.59	-1755.84	  500.64
     10.6700	  617.00	  618.36	-1816.61	  501.41
     10.7700	  662.00	  620.50	-1773.75	  502.17
     10.8700	  663.00	  623.11	-1775.36	  502.91
     10.9700	  662.00	  626.24	-1779.49	  503.64
     11.0700	  625.00	  629.91	-1820.16	  504.35
     11.1700	  684.00	  634.14	-1765.39	  505.05
     11.2700	  678.00	  638.96	-1776.21	  505.74
     11.3700	  682.00	  644.47	-1777.72	  506.41
     11.4700	  649.00	  650.82	-1817.07	  507.07
     11.5700	  659.00	  658.24	-1814.49	  507.71
     11.6700	  713.00	  667.07	-1769.32	  508.34
     11.7700	  711.00	  677.70	-1781.95	  508.96
     11.8700	  719.00	  690.35	-1786.60	  509.56
     11.9700	  744.00	  704.68	-1775.93	  510.15
     12.0700	  787.00	  719.08	-1747.33	  510.72
     12.1700	  757.00	  730.01	-1788.26	  511.29
     12.2700	  752.00	  731.90	-1795.15	  511.84
     12.3700	  755.00	  720.48	-1780.73	  512.37
     12.4700	  697.00	  699.56	-1817.81	  512.90
     12.5700	  634.00	  678.15	-1859.40	  513.41
     12.6700	  674.00	  661.43	-1802.68	  513.91
     12.7700	  626.00	  650.15	-1839.40	  514.40
     12.8700	  659.00	  643.20	-1799.45	  514.87
     12.9700	  571.00	  639.14	-1883.39	  515.33
     13.0700	  659.00	  636.81	-1793.06	  515.78
     13.1700	  623.00	  635.39	-1827.64	  516.22
     13.2700	  636.00	  634.49	-1813.74	  516.64
     13.3700	  610.00	  633.91	-1839.16	  517.05
     13.4700	  620.00	  633.53	-1828.78	  517.46
     13.5700	  631.00	  633.31	-1817.56	  517.85
     13.6700	  625.00	  633.18	-1823.43	  518.22
     13.7700	  619.00	  633.14	-1829.39	  518.59
     13.8700	  615.00	  633.16	-1833.41	  518.95
     13.9700	  601.00	  633.21	-1847.46	  519.29
     14.0700	  639.00	  633.30	-1809.55	  519.62
     14.1700	  645.00	  633.42	-1803.67	  519.94
     14.2700	  627.00	  633.55	-1821.80	  520.25
     14.3700	  597.00	  633.69	-1851.94	  520.55
     14.4700	  665.00	  633.84	-1784.09	  520.84
     14.5700	  589.00	  634.00	-1860.25	  521.12
     14.6700	  584.00	  634.16	-1865.41	  521.38
     14.7700	  637.00	  634.33	-1812.58	  521.64
     14.8700	  601.00	  634.49	-1848.74	  521.89
     14.9700	  628.00	  634.65	-1821.90	  522.12
     15.0700	  644.00	  634.81	-1806.06	  522.35
     15.1700	  633.00	  634.97	-1817.22	  522.56
     15.2700	  646.00	  635.12	-1804.37	  522.77
     15.3700	  616.00	  635.26	-1834.51	  522.96
     15.4700	  619.00	  635.40	-1831.65	  523.15
     15.5700	  630.00	  635.54	-1820.79	  523.32
     15.6700	  615.00	  635.66	-1835.92	  523.49
     15.7700	  612.00	  635.79	-1839.04	  523.64
     15.8700	  594.00	  635.90	-1857.15	  523.79
     15.9700	  627.00	  636.01	-1824.26	  523.93
     16.0700	  573.00	  636.11	-1878.36	  524.05
     16.1700	  652.00	  636.20	-1799.45	  524.17
     16.2700	  575.00	  636.29	-1876.54	  524.28
     16.3700	  598.00	  636.37	-1853.62	  524.38
     16.4700	  586.00	  636.44	-1865.69	  524.47
     16.5700	  619.00	  636.51	-1832.76	  524.55
     16.6700	  654.00	  636.56	-1797.81	  524.62
     16.7700	  595.00	  636.61	-1856.86	  524.69
     16.8700	  636.00	  636.65	-1815.90	  524.74
     16.9700	  650.00	  636.69	-1801.94	  524.79
     17.0700	  614.00	  636.71	-1837.96	  524.83
     17.1700	  633.00	  636.73	-1818.98	  524.86
     17.2700	  584.00	  636.74	-1867.99	  524.88
     17.3700	  614.00	  636.91	-1838.16	  524.89
     17.4700	  585.00	  636.91	-1867.16	  524.90
     17.5700	  593.00	  636.90	-1859.15	  524.89
     17.6700	  588.00	  636.88	-1864.13	  524.88
     17.7700	  617.00	  637.04	-1835.29	  524.86
     17.8700	  606.00	  637.02	-1846.27	  524.83
     17.9700	  579.00	  636.98	-1873.23	  524.80
     18.0700	  621.00	  636.94	-1831.19	  524.76
     18.1700	  640.00	  636.90	-1812.15	  524.71
     18.2700	  606.00	  636.84	-1846.09	  524.65
     18.3700	  642.00	  636.78	-1810.03	  524.58
     18.4700	  607.00	  636.71	-1844.96	  524.51
     18.5700	  627.00	  636.64	-1824.89	  524.43
     18.6700	  612.00	  636.56	-1839.81	  524.34
     18.7700	  615.00	  636.47	-1836.72	  524.25
     18.8700	  622.00	  636.38	-1829.63	  524.15
     18.9700	  636.00	  636.28	-1815.53	  524.04
     19.0700	  571.00	  636.17	-1880.42	  523.92
     19.1700	  570.00	  636.06	-1881.31	  523.80
     19.2700	  611.00	  636.00	-1840.25	  523.67
     19.3700	  594.00	  635.87	-1857.12	  523.53
     19.4700	  570.00	  635.74	-1880.99	  523.39
     19.5700	  617.00	  635.61	-1833.86	  523.24
     19.6700	  583.00	  635.47	-1867.72	  523.09
     19.7700	  627.00	  635.33	-1823.58	  522.93
     19.8700	  595.00	  635.18	-1855.43	  522.76
     19.9700	  571.00	  635.02	-1879.27	  522.58
     20.0700	  577.00	  634.86	-1873.11	  522.40
     20.1700	  582.00	  634.69	-1867.94	  522.22
     20.2700	  574.00	  634.52	-1875.77	  522.02
     20.3700	  632.00	  634.35	-1817.60	  521.83
     20.4700	  583.00	  634.17	-1866.42	  521.62
     20.5700	  614.00	  633.99	-1835.24	  521.41
     20.6700	  613.00	  633.80	-1836.05	  521.19
     20.7700	  550.00	  633.61	-1898.86	  520.97
     20.8700	  589.00	  633.41	-1859.66	  520.75
     20.9700	  607.00	  633.21	-1841.46	  520.51
     21.0700	  594.00	  633.01	-1854.26	  520.27
     21.1700	  604.00	  632.81	-1844.06	  520.03
     21.2700	  625.00	  632.60	-1822.85	  519.78
     21.3700	  603.00	  632.39	-1844.64	  519.53
     21.4700	  600.00	  632.17	-1847.42	  519.27
     21.5700	  615.00	  631.96	-1832.21	  519.00
     21.6700	  580.00	  631.75	-1867.00	  518.73
     21.7700	  612.00	  631.67	-1834.92	  518.46
     21.8700	  635.00	  631.45	-1811.70	  518.18
     21.9700	  623.00	  631.24	-1823.49	  517.89
     22.0700	  618.00	  631.02	-1828.27	  517.60
     22.1700	  629.00	  630.81	-1817.06	  517.31
     22.2700	  601.00	  630.60	-1844.85	  517.01
     22.3700	  626.00	  630.40	-1819.65	  516.71
     22.4700	  625.00	  630.20	-1820.45	  516.40
     22.5700	  565.00	  630.01	-1880.26	  516.09
     22.6700	  590.00	  629.82	-1855.07	  515.77
     22.7700	  631.00	  629.65	-1813.90	  515.45
     22.8700	  584.00	  629.49	-1860.74	  515.13
     22.9700	  630.00	  629.35	-1814.60	  514.80
     23.0700	  572.00	  629.23	-1872.48	  514.46
     23.1700	  556.00	  629.13	-1888.38	  514.13
     23.2700	  618.00	  629.08	-1826.33	  513.78
     23.3700	  604.00	  629.06	-1840.31	  513.44
     23.4700	  627.00	  629.11	-1817.36	  513.09
     23.5700	  598.00	  629.24	-1846.49	  512.73
     23.6700	  613.00	  629.48	-1831.73	  512.38
     23.7700	  671.00	  629.89	-1774.14	  512.02
     23.8700	  683.00	  630.49	-1762.74	  511.65
     23.9700	  658.00	  631.57	-1788.82	  511.28
     24.0700	  627.00	  633.31	-1821.56	  510.91
     24.1700	  625.00	  636.12	-1826.37	  510.54
     24.2700	  650.00	  640.53	-1805.78	  510.16
     24.3700	  642.00	  647.10	-1820.35	  509.78
     24.4700	  678.00	  656.24	-1793.49	  509.39
     24.5700	  672.00	  667.90	-1811.15	  509.00
     24.6700	  678.00	  681.13	-1818.39	  508.61
     24.7700	  726.00	  693.65	-1782.90	  508.21
     24.8700	  686.00	  701.37	-1830.62	  507.82
     24.9700	  722.00	  699.56	-1792.81	  507.42
     25.0700	  696.00	  687.56	-1806.81	  507.01
     25.1700	  719.00	  671.10	-1767.35	  506.60
     25.2700	  668.00	  656.05	-1803.30	  506.19
     25.3700	  629.00	  644.73	-1830.98	  505.78
     25.4700	  666.00	  637.09	-1786.34	  505.37
     25.5700	  613.00	  632.29	-1834.54	  504.95
     25.6700	  666.00	  629.33	-1778.58	  504.53
     25.7700	  653.00	  627.47	-1789.72	  504.10
     25.8700	  677.00	  626.24	-1764.49	  503.68
     25.9700	  670.00	  625.40	-1770.65	  503.25
     26.0700	  668.00	  624.81	-1772.06	  502.82
     26.1700	  727.00	  624.43	-1712.68	  502.38
     26.2700	  725.00	  624.22	-1714.47	  501.95
     26.3700	  681.00	  624.17	-1758.42	  501.51
     26.4700	  659.00	  624.28	-1780.53	  501.07
     26.5700	  634.00	  624.56	-1805.81	  500.63
     26.6700	  697.00	  625.03	-1743.28	  500.18
     26.7700	  660.00	  625.71	-1780.96	  499.74
     26.8700	  677.00	  626.66	-1764.91	  499.29
     26.9700	  698.00	  627.94	-1745.19	  498.84
     27.0700	  725.00	  629.63	-1719.88	  498.38
     27.1700	  702.00	  631.87	-1745.12	  497.93
     27.2700	  741.00	  634.90	-1709.15	  497.47
     27.3700	  715.00	  639.16	-1739.41	  497.02
     27.4700	  747.00	  645.43	-1713.68	  496.56
     27.5700	  770.00	  655.21	-1700.46	  496.09
     27.6700	  768.00	  671.00	-1718.25	  495.63
     27.7700	  836.00	  696.61	-1675.86	  495.17
     27.8700	  783.00	  736.65	-1768.90	  494.70
     27.9700	  813.00	  794.73	-1796.98	  494.23
     28.0700	 1005.00	  870.33	-1680.58	  493.76
     28.1700	 1056.00	  955.35	-1714.60	  493.29
     28.2700	 1148.00	 1031.23	-1698.48	  492.82
     28.3700	 1164.00	 1070.44	-1721.69	  492.35
     28.4700	 1188.00	 1056.06	-1683.31	  491.87
     28.5700	 1183.00	 1012.87	-1645.12	  491.39
     28.6700	 1014.00	  985.42	-1786.67	  490.92
     28.7700	  986.00	  995.04	-1824.29	  490.44
     28.8700	 1053.00	 1035.50	-1797.75	  489.96
     28.9700	 1108.00	 1080.21	-1787.46	  489.48
     29.0700	 1144.00	 1090.37	-1761.62	  489.00
     29.1700	 1132.00	 1038.58	-1721.83	  488.51
     29.2700	 1025.00	  941.86	-1732.11	  488.03
     29.3700	  901.00	  841.59	-1755.84	  487.55
     29.4700	  905.00	  761.96	-1672.21	  487.06
     29.5700	  774.00	  707.69	-1748.94	  486.57
     29.6700	  795.00	  674.24	-1694.49	  486.09
     29.7700	  808.00	  654.66	-1661.91	  485.60
     29.8700	  756.00	  643.14	-1702.39	  485.11
     29.9700	  690.00	  636.03	-1761.28	  484.62
     30.0700	  729.00	  631.52	-1717.77	  484.13
     30.1700	  728.00	  628.91	-1716.16	  483.64
     30.2700	  695.00	  628.19	-1748.44	  483.15
     30.3700	  728.00	  629.84	-1717.09	  482.66
     30.4700	  690.00	  634.85	-1760.10	  482.17
     30.5700	  704.00	  644.54	-1755.79	  481.68
     30.6700	  666.00	  660.04	-1809.29	  481.18
     30.7700	  706.00	  681.20	-1790.45	  480.69
     30.8700	  732.00	  705.42	-1788.67	  480.20
     30.9700	  759.00	  726.86	-1783.11	  479.70
     31.0700	  784.00	  736.57	-1767.82	  479.21
     31.1700	  711.00	  727.19	-1831.44	  478.71
     31.2700	  688.00	  702.01	-1829.26	  478.22
     31.3700	  735.00	  672.73	-1752.98	  477.73
     31.4700	  709.00	  647.77	-1754.02	  477.23
     31.5700	  651.00	  629.69	-1793.94	  476.74
     31.6700	  657.00	  617.91	-1776.16	  476.24
     31.7700	  604.00	  610.67	-1821.92	  475.75
     31.8700	  646.00	  606.25	-1775.50	  475.25
     31.9700	  627.00	  603.41	-1791.66	  474.76
     32.0700	  605.00	  601.46	-1811.71	  474.26
     32.1700	  595.00	  600.03	-1820.28	  473.77
     32.2700	  618.00	  598.98	-1796.23	  473.28
     32.3700	  619.00	  598.22	-1794.47	  472.78
     32.4700	  678.00	  597.73	-1734.98	  472.29
     32.5700	  605.00	  597.48	-1807.73	  471.80
     32.6700	  575.00	  597.54	-1837.79	  471.30
     32.7700	  602.00	  597.84	-1811.09	  470.81
     32.8700	  610.00	  598.49	-1803.74	  470.32
     32.9700	  561.00	  599.56	-1853.81	  469.83
     33.0700	  626.00	  601.21	-1790.46	  469.33
     33.1700	  638.00	  603.71	-1780.96	  468.84
     33.2700	  629.00	  607.57	-1793.82	  468.35
     33.3700	  636.00	  613.77	-1793.02	  467.86
     33.4700	  580.00	  624.03	-1859.28	  467.37
     33.5700	  602.00	  641.07	-1854.32	  466.89
     33.6700	  663.00	  668.48	-1820.73	  466.40
     33.7700	  748.00	  709.67	-1776.92	  465.91
     33.8700	  753.00	  765.55	-1827.80	  465.42
     33.9700	  836.00	  831.35	-1810.60	  464.94
     34.0700	  989.00	  894.09	-1720.34	  464.45
     34.1700	 1022.00	  932.62	-1725.87	  463.97
     34.2700	 1043.00	  925.94	-1698.19	  463.48
     34.3700	  994.00	  874.02	-1695.27	  463.00
     34.4700	  825.00	  801.98	-1792.23	  462.52
     34.5700	  763.00	  734.27	-1786.52	  462.04
     34.6700	  716.00	  681.68	-1780.93	  461.56
     34.7700	  669.00	  645.42	-1791.67	  461.08
     34.8700	  622.00	  622.37	-1815.62	  460.60
     34.9700	  606.00	  608.29	-1817.54	  460.12
     35.0700	  603.00	  599.52	-1811.77	  459.64
     35.1700	  551.00	  593.72	-1857.97	  459.17
     35.2700	  570.00	  589.54	-1834.79	  458.69
     35.3700	  577.00	  586.32	-1824.57	  458.22
     35.4700	  559.00	  584.21	-1840.46	  457.75
     35.5700	  574.00	  582.05	-1823.30	  457.28
     35.6700	  561.00	  580.21	-1834.46	  456.81
     35.7700	  534.00	  578.63	-1859.88	  456.34
     35.8700	  549.00	  577.24	-1843.49	  455.87
     35.9700	  572.00	  576.02	-1819.27	  455.40
     36.0700	  617.00	  574.92	-1773.17	  454.94
     36.1700	  532.00	  573.94	-1857.19	  454.47
     36.2700	  493.00	  573.06	-1895.31	  454.01
     36.3700	  573.00	  572.26	-1814.51	  453.55
     36.4700	  569.00	  571.53	-1817.78	  453.09
     36.5700	  581.00	  570.89	-1805.14	  452.63
     36.6700	  552.00	  570.33	-1833.58	  452.17
     36.7700	  558.00	  569.86	-1827.11	  451.72
     36.8700	  592.00	  569.51	-1792.76	  451.26
     36.9700	  577.00	  569.51	-1807.76	  450.81
     37.0700	  582.00	  569.56	-1802.81	  450.36
     37.1700	  542.00	  570.05	-1843.30	  449.91
     37.2700	  592.00	  571.18	-1794.43	  449.46
     37.3700	  560.00	  573.19	-1828.44	  449.01
     37.4700	  575.00	  576.31	-1816.56	  448.57
     37.5700	  564.00	  580.53	-1831.78	  448.12
     37.6700	  572.00	  585.47	-1828.72	  447.68
     37.7700	  592.00	  590.17	-1813.42	  447.24
     37.8700	  595.00	  593.13	-1813.38	  446.80
     37.9700	  553.00	  593.10	-1855.35	  446.36
     38.0700	  532.00	  590.16	-1873.41	  445.93
     38.1700	  553.00	  585.54	-1847.79	  445.49
     38.2700	  503.00	  580.25	-1892.50	  445.06
     38.3700	  578.00	  575.02	-1812.27	  444.63
     38.4700	  546.00	  570.31	-1839.56	  444.20
     38.5700	  551.00	  566.55	-1830.80	  443.77
     38.6700	  550.00	  563.74	-1828.99	  443.35
     38.7700	  537.00	  561.69	-1839.94	  442.92
     38.8700	  531.00	  560.21	-1844.46	  442.50
     38.9700	  605.00	  559.09	-1769.34	  442.08
     39.0700	  548.00	  558.21	-1825.46	  441.66
     39.1700	  577.00	  557.47	-1795.72	  441.25
     39.2700	  575.00	  556.81	-1797.06	  440.83
     39.3700	  556.00	  556.06	-1815.31	  440.42
     39.4700	  537.00	  555.52	-1833.77	  440.01
     39.5700	  514.00	  555.00	-1856.25	  439.60
     39.6700	  548.00	  554.52	-1821.77	  439.19
     39.7700	  500.00	  554.06	-1869.31	  438.79
     39.8700	  531.00	  554.17	-1838.42	  438.39
     39.9700	  524.00	  553.75	-1845.00	  437.98
     40.0700	  521.00	  553.36	-1847.61	  437.59
     40.1700	  554.00	  552.97	-1814.22	  437.19
     40.2700	  495.00	  552.61	-1872.86	  436.79
     40.3700	  576.00	  552.26	-1791.51	  436.40
     40.4700	  519.00	  551.92	-1848.17	  436.01
     40.5700	  507.00	  551.43	-1859.68	  435.62
     40.6700	  536.00	  551.14	-1830.39	  435.23
     40.7700	  520.00	  550.86	-1846.11	  434.85
