MSG Master    CELL:    5.88086   5.88086  23.10500   90.0000   90.0000  120.0000   SPGR: P 63/m m c             TEMP:    531.25
  2   1280     2.52000     0.00000    -0.08666     0.00000     0.00000    0
    96    96     0     0     2
       0.00000      10.00000
     125.00000     130.00000
 2Theta	Yobs	Ycal	Yobs-Ycal	Backg	Posr	(hkl)	K
      0.7700	    0.00	  924.61	-1987.75	  791.70
      0.8700	    1.00	  921.75	-1987.75	  788.84
      0.9700	   47.00	  918.90	-1987.75	  785.99
      1.0700	   37.00	  916.08	-1987.75	  783.17
      1.1700	   39.00	  913.27	-1987.75	  780.36
      1.2700	   55.00	  910.48	-1987.75	  777.57
      1.3700	   44.00	  907.71	-1987.75	  774.80
      1.4700	   96.00	  904.95	-1987.75	  772.04
      1.5700	  278.00	  902.21	-1987.75	  769.30
      1.6700	  438.00	  899.48	-1987.75	  766.57
      1.7700	  531.00	  896.77	-1987.75	  763.87
      1.8700	  620.00	  894.08	-1987.75	  761.17
      1.9700	  719.00	  891.41	-1987.75	  758.50
      2.0700	  751.00	  888.75	-1987.75	  755.84
      2.1700	  752.00	  886.11	-1987.75	  753.20
      2.2700	  766.00	  883.48	-1987.75	  750.57
      2.3700	  755.00	  880.87	-1987.75	  747.96
      2.4700	  724.00	  878.28	-1987.75	  745.37
      2.5700	  684.00	  875.70	-1987.75	  742.79
      2.6700	  670.00	  873.14	-1987.75	  740.23
      2.7700	  687.00	  870.59	-1987.75	  737.68
      2.8700	  613.00	  868.06	-1987.75	  735.15
      2.9700	  612.00	  865.55	-1987.75	  732.64
      3.0700	  588.00	  863.05	-1987.75	  730.14
      3.1700	  649.00	  860.56	-1987.75	  727.65
      3.2700	  725.00	  858.10	-1987.75	  725.19
      3.3700	  853.00	  855.64	-1987.75	  722.73
      3.4700	 1039.00	  853.21	-1987.75	  720.30
      3.5700	 1177.00	  850.78	-1987.75	  717.88
      3.6700	 1336.00	  848.38	-1987.75	  715.47
      3.7700	 1398.00	  845.99	-1987.75	  713.08
      3.8700	 1558.00	  843.61	-1987.75	  710.70
      3.9700	 1524.00	  841.25	-1987.75	  708.34
      4.0700	 1659.00	  838.90	-1987.75	  706.00
      4.1700	 1701.00	  836.57	-1987.75	  703.66
      4.2700	 1674.00	  834.26	-1987.75	  701.35
      4.3700	 1604.00	  831.96	-1987.75	  699.05
      4.4700	 1583.00	  829.67	-1987.75	  696.76
      4.5700	 1537.00	  827.40	-1987.75	  694.49
      4.6700	 1554.00	  825.14	-1987.75	  692.23
      4.7700	 1504.00	  822.90	-1987.75	  689.99
      4.8700	 1391.00	  820.67	-1987.75	  687.76
      4.9700	 1366.00	  818.46	-1987.75	  685.55
      5.0700	 1306.00	  816.26	-1987.75	  683.35
      5.1700	 1256.00	  814.08	-1987.75	  681.17
      5.2700	 1230.00	  811.91	-1987.75	  679.00
      5.3700	 1226.00	  809.75	-1987.75	  676.84
      5.4700	 1189.00	  807.61	-1987.75	  674.70
      5.5700	 1181.00	  805.48	-1987.75	  672.57
      5.6700	 1200.00	  803.37	-1987.75	  670.46
      5.7700	 1092.00	  801.27	-1987.75	  668.36
      5.8700	 1103.00	  799.19	-1987.75	  666.28
      5.9700	 1206.00	  797.11	-1987.75	  664.21
      6.0700	 1064.00	  795.06	-1987.75	  662.15
      6.1700	 1037.00	  793.01	-1987.75	  660.10
      6.2700	  991.00	  790.98	-1987.75	  658.07
      6.3700	 1064.00	  788.97	-1987.75	  656.06
      6.4700	 1011.00	  786.96	-1987.75	  654.05
      6.5700	 1014.00	  784.97	-1987.75	  652.07
      6.6700	  937.00	  783.00	-1987.75	  650.09
      6.7700	  905.00	  781.04	-1987.75	  648.13
      6.8700	  931.00	  779.09	-1987.75	  646.18
      6.9700	  927.00	  777.15	-1987.75	  644.24
      7.0700	  864.00	  775.23	-1987.75	  642.32
      7.1700	  843.00	  773.32	-1987.75	  640.41
      7.2700	  880.00	  771.42	-1987.75	  638.51
      7.3700	  876.00	  769.54	-1987.75	  636.63
      7.4700	  839.00	  767.67	-1987.75	  634.76
      7.5700	  841.00	  765.81	-1987.75	  632.90
      7.6700	  856.00	  763.97	-1987.75	  631.06
      7.7700	  861.00	  762.14	-1987.75	  629.23
      7.8700	  774.00	  760.32	-1987.75	  627.41
      7.9700	  804.00	  758.51	-1987.75	  625.60
      8.0700	  805.00	  756.72	-1987.75	  623.81
      8.1700	  809.00	  754.94	-1987.75	  622.03
      8.2700	  779.00	  753.17	-1987.75	  620.26
      8.3700	  774.00	  751.42	-1987.75	  618.51
      8.4700	  801.00	  749.67	-1987.75	  616.76
      8.5700	  807.00	  747.94	-1987.75	  615.03
      8.6700	  750.00	  746.22	-1987.75	  613.31
      8.7700	  734.00	  744.52	-1987.75	  611.61
      8.8700	  764.00	  742.82	-1987.75	  609.91
      8.9700	  729.00	  741.14	-1987.75	  608.23
      9.0700	  771.00	  739.47	-1987.75	  606.56
      9.1700	  776.00	  737.81	-1987.75	  604.91
      9.2700	  742.00	  736.17	-1987.75	  603.26
      9.3700	  788.00	  734.54	-1987.75	  601.63
      9.4700	  762.00	  732.91	-1987.75	  600.00
      9.5700	  780.00	  731.30	-1987.75	  598.39
      9.6700	  712.00	  729.71	-1987.75	  596.80
      9.7700	  749.00	  728.12	-1987.75	  595.21
      9.8700	  725.00	  726.55	-1987.75	  593.64
      9.9700	  791.00	  724.98	-1987.75	  592.07
     10.0700	  764.00	  725.65	-1949.40	  590.52
     10.1700	  729.00	  724.35	-1983.10	  588.98
     10.2700	  737.00	  723.11	-1973.86	  587.45
     10.3700	  752.00	  721.94	-1957.69	  585.94
     10.4700	  691.00	  720.88	-2017.63	  584.43
     10.5700	  665.00	  719.95	-2042.70	  582.94
     10.6700	  746.00	  719.23	-1960.98	  581.45
     10.7700	  723.00	  718.79	-1983.54	  579.98
     10.8700	  714.00	  718.73	-1992.48	  578.52
     10.9700	  721.00	  719.14	-1985.89	  577.07
     11.0700	  717.00	  720.06	-1990.81	  575.63
     11.1700	  675.00	  721.51	-2034.26	  574.20
     11.2700	  733.00	  723.53	-1978.28	  572.79
     11.3700	  691.00	  726.15	-2022.90	  571.38
     11.4700	  765.00	  729.48	-1952.23	  569.99
     11.5700	  727.00	  733.65	-1994.40	  568.60
     11.6700	  732.00	  738.90	-1994.65	  567.23
     11.7700	  739.00	  745.51	-1994.26	  565.86
     11.8700	  788.00	  753.72	-1953.47	  564.51
     11.9700	  810.00	  763.57	-1941.32	  563.17
     12.0700	  862.00	  774.45	-1900.20	  561.84
     12.1700	  893.00	  784.64	-1879.39	  560.52
     12.2700	  860.00	  790.77	-1918.52	  559.21
     12.3700	  833.00	  788.20	-1942.95	  557.91
     12.4700	  795.00	  774.57	-1967.32	  556.62
     12.5700	  788.00	  754.36	-1954.11	  555.34
     12.6700	  707.00	  734.57	-2015.32	  554.07
     12.7700	  683.00	  718.81	-2023.56	  552.81
     12.8700	  681.00	  707.47	-2014.22	  551.56
     12.9700	  733.00	  699.67	-1954.42	  550.32
     13.0700	  680.00	  694.28	-2002.03	  549.09
     13.1700	  701.00	  690.39	-1977.14	  547.88
     13.2700	  664.00	  687.38	-2011.13	  546.67
     13.3700	  646.00	  684.89	-2026.64	  545.47
     13.4700	  672.00	  682.72	-1998.47	  544.28
     13.5700	  658.00	  680.78	-2010.53	  543.10
     13.6700	  626.00	  679.00	-2040.75	  541.93
     13.7700	  614.00	  677.34	-2051.09	  540.77
     13.8700	  647.00	  675.78	-2016.53	  539.62
     13.9700	  740.00	  674.30	-1922.05	  538.48
     14.0700	  688.00	  672.88	-1972.63	  537.35
     14.1700	  700.00	  671.51	-1959.26	  536.22
     14.2700	  716.00	  670.19	-1941.94	  535.11
     14.3700	  644.00	  668.91	-2012.66	  534.01
     14.4700	  637.00	  667.66	-2018.41	  532.91
     14.5700	  647.00	  666.43	-2007.18	  531.83
     14.6700	  672.00	  665.24	-1980.99	  530.76
     14.7700	  664.00	  664.06	-1987.81	  529.69
     14.8700	  646.00	  662.91	-2004.66	  528.63
     14.9700	  652.00	  661.78	-1997.53	  527.58
     15.0700	  639.00	  660.67	-2009.42	  526.55
     15.1700	  653.00	  659.57	-1994.32	  525.52
     15.2700	  618.00	  658.49	-2028.24	  524.49
     15.3700	  629.00	  657.42	-2016.17	  523.48
     15.4700	  618.00	  656.37	-2026.12	  522.48
     15.5700	  598.00	  655.33	-2045.08	  521.49
     15.6700	  608.00	  654.30	-2034.05	  520.50
     15.7700	  656.00	  653.28	-1985.03	  519.52
     15.8700	  662.00	  652.28	-1978.03	  518.56
     15.9700	  617.00	  651.29	-2022.04	  517.60
     16.0700	  635.00	  650.31	-2003.06	  516.65
     16.1700	  623.00	  649.34	-2014.09	  515.70
     16.2700	  656.00	  648.38	-1980.13	  514.77
     16.3700	  682.00	  647.43	-1953.18	  513.84
     16.4700	  647.00	  646.49	-1987.24	  512.93
     16.5700	  615.00	  645.57	-2018.32	  512.02
     16.6700	  686.00	  644.65	-1946.40	  511.12
     16.7700	  612.00	  643.74	-2019.49	  510.23
     16.8700	  618.00	  642.84	-2012.59	  509.34
     16.9700	  651.00	  641.95	-1978.70	  508.47
     17.0700	  648.00	  641.07	-1980.82	  507.60
     17.1700	  586.00	  640.20	-2041.95	  506.74
     17.2700	  676.00	  639.33	-1951.08	  505.89
     17.3700	  635.00	  638.48	-1991.23	  505.04
     17.4700	  627.00	  637.63	-1998.38	  504.21
     17.5700	  645.00	  636.80	-1979.55	  503.38
     17.6700	  649.00	  635.97	-1974.72	  502.56
     17.7700	  621.00	  635.15	-2001.90	  501.75
     17.8700	  605.00	  634.34	-2017.09	  500.95
     17.9700	  605.00	  633.54	-2016.29	  500.15
     18.0700	  642.00	  632.74	-1978.49	  499.36
     18.1700	  639.00	  631.96	-1980.71	  498.58
     18.2700	  646.00	  631.18	-1972.93	  497.81
     18.3700	  671.00	  630.41	-1947.16	  497.04
     18.4700	  646.00	  629.65	-1971.40	  496.28
     18.5700	  650.00	  628.89	-1966.64	  495.53
     18.6700	  639.00	  628.15	-1976.90	  494.79
     18.7700	  659.00	  627.41	-1956.16	  494.05
     18.8700	  648.00	  626.68	-1966.43	  493.32
     18.9700	  644.00	  628.93	-1972.68	  492.60
     19.0700	  610.00	  628.27	-2006.02	  491.89
     19.1700	  698.00	  627.63	-1917.38	  491.18
     19.2700	  679.00	  627.00	-1935.75	  490.48
     19.3700	  619.00	  626.37	-1995.12	  489.79
     19.4700	  622.00	  625.76	-1991.51	  489.10
     19.5700	  614.00	  625.16	-1998.91	  488.43
     19.6700	  604.00	  624.56	-2008.31	  487.75
     19.7700	  651.00	  623.98	-1960.73	  487.09
     19.8700	  590.00	  623.40	-2021.15	  486.43
     19.9700	  644.00	  622.84	-1966.59	  485.78
     20.0700	  667.00	  622.34	-1943.09	  485.14
     20.1700	  618.00	  621.80	-1991.55	  484.50
     20.2700	  614.00	  621.27	-1995.02	  483.87
     20.3700	  635.00	  620.75	-1973.50	  483.25
     20.4700	  603.00	  620.24	-2004.99	  482.63
     20.5700	  577.00	  619.74	-2030.49	  482.02
     20.6700	  611.00	  619.25	-1996.00	  481.42
     20.7700	  638.00	  618.78	-1968.53	  480.82
     20.8700	  631.00	  618.32	-1975.07	  480.23
     20.9700	  647.00	  617.86	-1958.61	  479.65
     21.0700	  618.00	  617.42	-1987.17	  479.07
     21.1700	  635.00	  617.00	-1969.75	  478.50
     21.2700	  618.00	  616.58	-1986.33	  477.93
     21.3700	  622.00	  616.18	-1981.93	  477.38
     21.4700	  579.00	  615.80	-2024.55	  476.82
     21.5700	  679.00	  615.43	-1924.18	  476.28
     21.6700	  663.00	  615.07	-1939.82	  475.74
     21.7700	  576.00	  614.73	-2026.48	  475.21
     21.8700	  638.00	  614.40	-1964.15	  474.68
     21.9700	  623.00	  614.09	-1978.84	  474.16
     22.0700	  649.00	  613.80	-1952.55	  473.64
     22.1700	  591.00	  613.53	-2010.28	  473.13
     22.2700	  663.00	  613.48	-1938.23	  472.63
     22.3700	  634.00	  613.25	-1967.00	  472.13
     22.4700	  629.00	  613.05	-1971.80	  471.64
     22.5700	  599.00	  612.87	-2001.62	  471.16
     22.6700	  599.00	  612.71	-2001.46	  470.68
     22.7700	  642.00	  612.58	-1958.33	  470.20
     22.8700	  656.00	  612.49	-1944.24	  469.74
     22.9700	  621.00	  612.42	-1979.17	  469.27
     23.0700	  623.00	  612.40	-1977.15	  468.82
     23.1700	  595.00	  612.42	-2005.17	  468.37
     23.2700	  620.00	  612.49	-1980.24	  467.92
     23.3700	  583.00	  612.61	-2017.36	  467.48
     23.4700	  627.00	  612.80	-1973.55	  467.05
     23.5700	  603.00	  613.06	-1997.81	  466.62
     23.6700	  622.00	  613.43	-1979.18	  466.20
     23.7700	  639.00	  613.92	-1962.67	  465.78
     23.8700	  644.00	  614.58	-1958.33	  465.37
     23.9700	  645.00	  615.48	-1958.23	  464.96
     24.0700	  614.00	  616.74	-1990.49	  464.56
     24.1700	  622.00	  618.55	-1984.30	  464.16
     24.2700	  617.00	  621.19	-1991.94	  463.77
     24.3700	  629.00	  624.98	-1983.73	  463.39
     24.4700	  642.00	  630.45	-1976.20	  463.01
     24.5700	  625.00	  637.81	-2000.56	  462.63
     24.6700	  687.00	  647.01	-1947.76	  462.26
     24.7700	  669.00	  657.43	-1976.18	  461.90
     24.8700	  694.00	  667.54	-1961.29	  461.54
     24.9700	  683.00	  674.66	-1979.41	  461.18
     25.0700	  701.00	  675.49	-1962.24	  460.83
     25.1700	  763.00	  668.99	-1893.74	  460.48
     25.2700	  704.00	  658.59	-1942.34	  460.14
     25.3700	  667.00	  648.50	-1969.25	  459.81
     25.4700	  635.00	  640.90	-1993.65	  459.48
     25.5700	  608.00	  636.08	-2015.83	  459.15
     25.6700	  665.00	  633.61	-1956.36	  458.83
     25.7700	  643.00	  632.88	-1977.62	  458.51
     25.8700	  647.00	  633.34	-1974.09	  458.20
     25.9700	  654.00	  634.66	-1968.41	  457.90
     26.0700	  648.00	  636.64	-1976.39	  457.59
     26.1700	  647.00	  639.21	-1979.96	  457.30
     26.2700	  635.00	  642.37	-1995.12	  457.00
     26.3700	  610.00	  646.17	-2023.92	  456.71
     26.4700	  694.00	  650.69	-1944.44	  456.43
     26.5700	  700.00	  656.04	-1943.79	  456.15
     26.6700	  638.00	  662.38	-2012.13	  455.88
     26.7700	  692.00	  669.93	-1965.68	  455.60
     26.8700	  618.00	  678.95	-2048.70	  455.34
     26.9700	  736.00	  689.84	-1941.59	  455.08
     27.0700	  692.00	  703.10	-1998.85	  454.82
     27.1700	  691.00	  719.47	-2016.22	  454.56
     27.2700	  677.00	  739.98	-2050.73	  454.31
     27.3700	  749.00	  766.36	-2005.11	  454.07
     27.4700	  775.00	  801.77	-2014.52	  453.83
     27.5700	  757.00	  852.96	-2083.71	  453.59
     27.6700	  820.00	  934.57	-2102.32	  453.36
     27.7700	  906.00	 1076.13	-2157.88	  453.13
     27.8700	 1045.00	 1329.99	-2272.74	  452.91
     27.9700	 1351.00	 1774.84	-2411.59	  452.69
     28.0700	 1984.00	 2501.71	-2505.46	  452.47
     28.1700	 3183.00	 3567.85	-2372.60	  452.26
     28.2700	 5025.00	 4909.68	-1872.43	  452.05
     28.3700	 7154.00	 6234.57	-1068.32	  451.84
     28.4700	 7951.00	 6993.67	-1030.42	  451.64
     28.5700	 7184.00	 6664.15	-1467.90	  451.44
     28.6700	 5568.00	 5476.30	-1896.05	  451.25
     28.7700	 3992.00	 4302.56	-2298.31	  451.06
     28.8700	 3382.00	 3684.43	-2290.18	  450.88
     28.9700	 3681.00	 3653.86	-1960.61	  450.69
     29.0700	 4211.00	 3929.59	-1706.34	  450.51
     29.1700	 4575.00	 4097.67	-1510.42	  450.34
     29.2700	 3925.00	 3810.36	-1873.11	  450.17
     29.3700	 3064.00	 3094.73	-2018.48	  450.00
     29.4700	 2099.00	 2299.87	-2188.62	  449.84
     29.5700	 1498.00	 1671.02	-2160.77	  449.68
     29.6700	 1127.00	 1262.28	-2123.03	  449.52
     29.7700	 1011.00	 1029.04	-2005.79	  449.37
     29.8700	  961.00	  903.18	-1929.93	  449.22
     29.9700	  830.00	  832.40	-1990.15	  449.07
     30.0700	  794.00	  787.93	-1981.68	  448.93
     30.1700	  783.00	  756.94	-1961.69	  448.79
     30.2700	  736.00	  734.16	-1985.91	  448.65
     30.3700	  701.00	  717.43	-2004.18	  448.52
     30.4700	  693.00	  706.03	-2000.78	  448.39
     30.5700	  707.00	  700.28	-1981.03	  448.26
     30.6700	  633.00	  701.34	-2056.09	  448.13
     30.7700	  733.00	  710.76	-1965.51	  448.01
     30.8700	  691.00	  729.18	-2025.93	  447.90
     30.9700	  765.00	  754.57	-1977.32	  447.78
     31.0700	  770.00	  780.65	-1998.40	  447.67
     31.1700	  816.00	  796.41	-1968.16	  447.56
     31.2700	  765.00	  789.69	-2012.44	  447.46
     31.3700	  812.00	  759.41	-1935.16	  447.36
     31.4700	  766.00	  719.85	-1941.60	  447.26
     31.5700	  703.00	  684.62	-1969.37	  447.16
     31.6700	  704.00	  658.80	-1942.55	  447.07
     31.7700	  644.00	  642.03	-1985.78	  446.98
     31.8700	  692.00	  631.82	-1927.57	  446.89
     31.9700	  667.00	  625.58	-1946.33	  446.81
     32.0700	  658.00	  621.50	-1951.25	  446.72
     32.1700	  579.00	  618.62	-2027.37	  446.65
     32.2700	  643.00	  616.47	-1961.22	  446.57
     32.3700	  654.00	  614.84	-1948.59	  446.50
     32.4700	  677.00	  613.65	-1924.40	  446.43
     32.5700	  625.00	  612.85	-1975.60	  446.36
     32.6700	  653.00	  612.46	-1947.21	  446.29
     32.7700	  613.00	  612.41	-1987.16	  446.23
     32.8700	  658.00	  612.78	-1942.53	  446.17
     32.9700	  681.00	  613.62	-1920.37	  446.11
     33.0700	  634.00	  615.03	-1968.78	  446.06
     33.1700	  649.00	  617.17	-1955.92	  446.00
     33.2700	  645.00	  620.33	-1963.08	  445.95
     33.3700	  656.00	  625.07	-1956.82	  445.91
     33.4700	  599.00	  632.46	-2021.21	  445.86
     33.5700	  631.00	  644.54	-2001.29	  445.82
     33.6700	  645.00	  664.88	-2007.63	  445.78
     33.7700	  696.00	  698.77	-1990.52	  445.74
     33.8700	  697.00	  752.41	-2043.16	  445.71
     33.9700	  864.00	  830.12	-1953.87	  445.67
     34.0700	  911.00	  929.16	-2005.91	  445.64
     34.1700	 1146.00	 1034.68	-1876.43	  445.61
     34.2700	 1210.00	 1117.36	-1895.11	  445.59
     34.3700	 1199.00	 1139.55	-1928.30	  445.56
     34.4700	 1178.00	 1082.99	-1892.74	  445.54
     34.5700	  996.00	  975.81	-1967.56	  445.52
     34.6700	  892.00	  863.42	-1959.17	  445.50
     34.7700	  781.00	  771.85	-1978.60	  445.49
     34.8700	  718.00	  707.51	-1977.26	  445.48
     34.9700	  680.00	  666.75	-1974.50	  445.47
     35.0700	  708.00	  642.49	-1922.24	  445.46
     35.1700	  714.00	  628.16	-1901.91	  445.45
     35.2700	  648.00	  619.26	-1959.01	  445.44
     35.3700	  620.00	  613.25	-1981.00	  445.44
     35.4700	  629.00	  608.86	-1967.61	  445.44
     35.5700	  647.00	  605.49	-1946.24	  445.44
     35.6700	  602.00	  602.84	-1988.59	  445.44
     35.7700	  580.00	  600.70	-2008.45	  445.45
     35.8700	  650.00	  598.98	-1936.73	  445.45
     35.9700	  568.00	  597.57	-2017.32	  445.46
     36.0700	  574.00	  596.43	-2010.18	  445.47
     36.1700	  587.00	  595.50	-1996.25	  445.49
     36.2700	  628.00	  594.77	-1954.52	  445.50
     36.3700	  598.00	  594.20	-1983.95	  445.52
     36.4700	  605.00	  593.78	-1976.53	  445.53
     36.5700	  616.00	  593.56	-1965.31	  445.55
     36.6700	  619.00	  593.44	-1962.19	  445.57
     36.7700	  619.00	  593.47	-1962.22	  445.59
     36.8700	  550.00	  593.88	-2031.63	  445.62
     36.9700	  600.00	  594.29	-1982.04	  445.64
     37.0700	  561.00	  595.46	-2022.21	  445.67
     37.1700	  575.00	  596.48	-2009.23	  445.70
     37.2700	  561.00	  598.01	-2024.76	  445.73
     37.3700	  613.00	  600.31	-1975.06	  445.76
     37.4700	  583.00	  603.82	-2008.57	  445.80
     37.5700	  624.00	  609.34	-1973.09	  445.83
     37.6700	  613.00	  617.92	-1992.67	  445.87
     37.7700	  584.00	  630.94	-2034.69	  445.91
     37.8700	  693.00	  649.72	-1944.47	  445.95
     37.9700	  667.00	  674.74	-1995.49	  445.99
     38.0700	  698.00	  704.62	-1994.37	  446.03
     38.1700	  728.00	  733.38	-1993.13	  446.07
     38.2700	  741.00	  757.18	-2003.93	  446.12
     38.3700	  720.00	  764.62	-2032.37	  446.16
     38.4700	  725.00	  750.16	-2012.91	  446.21
     38.5700	  664.00	  719.67	-2043.42	  446.26
     38.6700	  648.00	  685.17	-2024.92	  446.31
     38.7700	  643.00	  654.97	-1999.72	  446.36
     38.8700	  663.00	  632.13	-1956.88	  446.41
     38.9700	  627.00	  616.53	-1977.28	  446.47
     39.0700	  624.00	  606.62	-1970.37	  446.52
     39.1700	  557.00	  600.56	-2031.31	  446.58
     39.2700	  592.00	  596.82	-1992.57	  446.64
     39.3700	  595.00	  594.40	-1987.15	  446.69
     39.4700	  564.00	  592.71	-2016.46	  446.75
     39.5700	  544.00	  590.40	-2034.15	  446.82
     39.6700	  598.00	  589.46	-1979.21	  446.88
     39.7700	  620.00	  588.73	-1956.48	  446.94
     39.8700	  610.00	  588.16	-1965.91	  447.00
     39.9700	  615.00	  587.71	-1960.46	  447.07
     40.0700	  590.00	  587.35	-1985.10	  447.13
     40.1700	  587.00	  587.08	-1987.83	  447.20
     40.2700	  614.00	  586.88	-1960.63	  447.27
     40.3700	  574.00	  586.74	-2000.49	  447.34
     40.4700	  586.00	  586.64	-1988.39	  447.41
     40.5700	  623.00	  586.60	-1951.35	  447.48
     40.6700	  574.00	  587.14	-2000.89	  447.55
     40.7700	  571.00	  587.18	-2003.93	  447.62
