MSG Master    CELL:    5.91919   5.91919  23.27360   90.0000   90.0000  120.0000   SPGR: P 63/m m c             TEMP:   1074.85
  1   1280     2.52000     0.00000    -0.12512     0.00000     0.00000    0
    99     0     2
       0.00000      10.00000
     125.00000     130.00000
 2Theta	Yobs	Ycal	Yobs-Ycal	Backg	Posr	(hkl)	K
      0.7700	    0.00	  538.13	-1759.00	  419.89
      0.8700	    0.00	  538.89	-1759.00	  420.66
      0.9700	   36.00	  539.65	-1759.00	  421.41
      1.0700	   40.00	  540.39	-1759.00	  422.15
      1.1700	   41.00	  541.12	-1759.00	  422.88
      1.2700	   31.00	  541.84	-1759.00	  423.60
      1.3700	   47.00	  542.55	-1759.00	  424.31
      1.4700	   99.00	  543.25	-1759.00	  425.01
      1.5700	  272.00	  543.94	-1759.00	  425.70
      1.6700	  468.00	  544.61	-1759.00	  426.38
      1.7700	  592.00	  545.28	-1759.00	  427.04
      1.8700	  657.00	  545.94	-1759.00	  427.70
      1.9700	  728.00	  546.59	-1759.00	  428.35
      2.0700	  761.00	  547.22	-1759.00	  428.98
      2.1700	  816.00	  547.85	-1759.00	  429.61
      2.2700	  787.00	  548.46	-1759.00	  430.23
      2.3700	  758.00	  549.07	-1759.00	  430.83
      2.4700	  690.00	  549.67	-1759.00	  431.43
      2.5700	  740.00	  550.25	-1759.00	  432.02
      2.6700	  687.00	  550.83	-1759.00	  432.59
      2.7700	  661.00	  551.40	-1759.00	  433.16
      2.8700	  658.00	  551.96	-1759.00	  433.72
      2.9700	  639.00	  552.50	-1759.00	  434.27
      3.0700	  591.00	  553.04	-1759.00	  434.80
      3.1700	  599.00	  553.57	-1759.00	  435.33
      3.2700	  600.00	  554.09	-1759.00	  435.85
      3.3700	  688.00	  554.60	-1759.00	  436.36
      3.4700	  724.00	  555.10	-1759.00	  436.87
      3.5700	  804.00	  555.60	-1759.00	  437.36
      3.6700	  849.00	  556.08	-1759.00	  437.84
      3.7700	  897.00	  556.55	-1759.00	  438.31
      3.8700	  962.00	  557.02	-1759.00	  438.78
      3.9700	  990.00	  557.47	-1759.00	  439.23
      4.0700	 1101.00	  557.92	-1759.00	  439.68
      4.1700	 1063.00	  558.36	-1759.00	  440.12
      4.2700	 1097.00	  558.79	-1759.00	  440.55
      4.3700	 1121.00	  559.21	-1759.00	  440.97
      4.4700	 1043.00	  559.62	-1759.00	  441.38
      4.5700	 1132.00	  560.03	-1759.00	  441.79
      4.6700	 1036.00	  560.42	-1759.00	  442.18
      4.7700	  985.00	  560.81	-1759.00	  442.57
      4.8700	  955.00	  561.19	-1759.00	  442.95
      4.9700	 1000.00	  561.56	-1759.00	  443.32
      5.0700	  999.00	  561.92	-1759.00	  443.68
      5.1700	  906.00	  562.28	-1759.00	  444.04
      5.2700	  927.00	  562.62	-1759.00	  444.38
      5.3700	  904.00	  562.96	-1759.00	  444.72
      5.4700	  877.00	  563.29	-1759.00	  445.05
      5.5700	  852.00	  563.61	-1759.00	  445.38
      5.6700	  856.00	  563.93	-1759.00	  445.69
      5.7700	  848.00	  564.23	-1759.00	  446.00
      5.8700	  826.00	  564.53	-1759.00	  446.30
      5.9700	  858.00	  564.83	-1759.00	  446.59
      6.0700	  782.00	  565.11	-1759.00	  446.87
      6.1700	  764.00	  565.39	-1759.00	  447.15
      6.2700	  769.00	  565.66	-1759.00	  447.42
      6.3700	  778.00	  565.92	-1759.00	  447.68
      6.4700	  792.00	  566.17	-1759.00	  447.93
      6.5700	  693.00	  566.42	-1759.00	  448.18
      6.6700	  756.00	  566.66	-1759.00	  448.42
      6.7700	  742.00	  566.89	-1759.00	  448.65
      6.8700	  711.00	  567.12	-1759.00	  448.88
      6.9700	  689.00	  567.34	-1759.00	  449.10
      7.0700	  675.00	  567.55	-1759.00	  449.31
      7.1700	  767.00	  567.75	-1759.00	  449.52
      7.2700	  709.00	  567.95	-1759.00	  449.71
      7.3700	  687.00	  568.14	-1759.00	  449.90
      7.4700	  659.00	  568.33	-1759.00	  450.09
      7.5700	  661.00	  568.51	-1759.00	  450.27
      7.6700	  632.00	  568.68	-1759.00	  450.44
      7.7700	  694.00	  568.84	-1759.00	  450.60
      7.8700	  617.00	  569.00	-1759.00	  450.76
      7.9700	  653.00	  569.15	-1759.00	  450.91
      8.0700	  638.00	  569.30	-1759.00	  451.06
      8.1700	  626.00	  569.44	-1759.00	  451.20
      8.2700	  647.00	  569.57	-1759.00	  451.33
      8.3700	  631.00	  569.69	-1759.00	  451.46
      8.4700	  590.00	  569.81	-1759.00	  451.58
      8.5700	  585.00	  569.93	-1759.00	  451.69
      8.6700	  625.00	  570.04	-1759.00	  451.80
      8.7700	  652.00	  570.14	-1759.00	  451.90
      8.8700	  597.00	  570.24	-1759.00	  452.00
      8.9700	  648.00	  570.33	-1759.00	  452.09
      9.0700	  615.00	  570.41	-1759.00	  452.17
      9.1700	  616.00	  570.49	-1759.00	  452.25
      9.2700	  642.00	  570.56	-1759.00	  452.32
      9.3700	  642.00	  570.63	-1759.00	  452.39
      9.4700	  604.00	  570.69	-1759.00	  452.45
      9.5700	  632.00	  570.75	-1759.00	  452.51
      9.6700	  615.00	  570.80	-1759.00	  452.56
      9.7700	  584.00	  570.84	-1759.00	  452.60
      9.8700	  585.00	  570.88	-1759.00	  452.64
      9.9700	  592.00	  570.92	-1759.00	  452.68
     10.0700	  559.00	  571.73	-1771.73	  452.71
     10.1700	  608.00	  571.84	-1722.84	  452.73
     10.2700	  586.00	  571.96	-1744.96	  452.75
     10.3700	  594.00	  572.11	-1737.11	  452.76
     10.4700	  561.00	  572.31	-1770.31	  452.77
     10.5700	  593.00	  572.61	-1738.61	  452.77
     10.6700	  613.00	  573.12	-1719.12	  452.77
     10.7700	  575.00	  573.94	-1757.94	  452.76
     10.8700	  576.00	  575.15	-1758.15	  452.75
     10.9700	  567.00	  576.72	-1768.72	  452.74
     11.0700	  620.00	  578.64	-1717.64	  452.71
     11.1700	  589.00	  580.89	-1750.89	  452.69
     11.2700	  559.00	  583.51	-1783.51	  452.66
     11.3700	  591.00	  586.58	-1754.58	  452.62
     11.4700	  609.00	  590.22	-1740.22	  452.58
     11.5700	  603.00	  594.63	-1750.63	  452.54
     11.6700	  601.00	  600.16	-1758.16	  452.49
     11.7700	  624.00	  607.40	-1742.40	  452.43
     11.8700	  670.00	  617.27	-1706.27	  452.37
     11.9700	  640.00	  630.42	-1749.42	  452.31
     12.0700	  627.00	  645.32	-1777.32	  452.24
     12.1700	  638.00	  655.92	-1776.92	  452.17
     12.2700	  650.00	  652.62	-1761.62	  452.10
     12.3700	  660.00	  632.52	-1731.52	  452.02
     12.4700	  633.00	  607.94	-1733.94	  451.93
     12.5700	  593.00	  589.99	-1755.99	  451.85
     12.6700	  578.00	  580.26	-1761.26	  451.75
     12.7700	  575.00	  575.88	-1759.88	  451.66
     12.8700	  508.00	  573.91	-1824.91	  451.56
     12.9700	  553.00	  572.84	-1778.84	  451.45
     13.0700	  579.00	  572.12	-1752.12	  451.35
     13.1700	  555.00	  571.57	-1775.57	  451.23
     13.2700	  574.00	  571.13	-1756.13	  451.12
     13.3700	  603.00	  570.76	-1726.76	  451.00
     13.4700	  563.00	  570.44	-1766.44	  450.88
     13.5700	  567.00	  570.15	-1762.15	  450.75
     13.6700	  608.00	  569.90	-1720.90	  450.62
     13.7700	  583.00	  569.66	-1745.66	  450.49
     13.8700	  541.00	  569.44	-1787.44	  450.35
     13.9700	  598.00	  569.22	-1730.22	  450.21
     14.0700	  537.00	  569.01	-1791.01	  450.06
     14.1700	  553.00	  568.81	-1774.81	  449.92
     14.2700	  572.00	  568.62	-1755.62	  449.77
     14.3700	  524.00	  568.42	-1803.42	  449.61
     14.4700	  554.00	  568.23	-1773.23	  449.45
     14.5700	  564.00	  568.04	-1763.04	  449.29
     14.6700	  583.00	  567.85	-1743.85	  449.13
     14.7700	  534.00	  567.66	-1792.66	  448.96
     14.8700	  528.00	  567.46	-1798.46	  448.79
     14.9700	  543.00	  567.27	-1783.27	  448.62
     15.0700	  520.00	  567.08	-1806.08	  448.44
     15.1700	  557.00	  566.88	-1768.88	  448.26
     15.2700	  561.00	  566.69	-1764.69	  448.08
     15.3700	  521.00	  566.49	-1804.49	  447.90
     15.4700	  545.00	  566.29	-1780.29	  447.71
     15.5700	  572.00	  566.09	-1753.09	  447.52
     15.6700	  579.00	  565.88	-1745.88	  447.32
     15.7700	  549.00	  565.68	-1775.68	  447.13
     15.8700	  603.00	  565.47	-1721.47	  446.93
     15.9700	  603.00	  565.26	-1721.26	  446.73
     16.0700	  583.00	  565.05	-1741.05	  446.52
     16.1700	  534.00	  564.86	-1789.86	  446.31
     16.2700	  599.00	  564.65	-1724.65	  446.10
     16.3700	  579.00	  564.43	-1744.43	  445.89
     16.4700	  505.00	  564.21	-1818.21	  445.68
     16.5700	  564.00	  563.99	-1758.99	  445.46
     16.6700	  568.00	  563.77	-1754.77	  445.24
     16.7700	  570.00	  563.54	-1752.54	  445.02
     16.8700	  609.00	  563.31	-1713.31	  444.80
     16.9700	  520.00	  563.08	-1802.08	  444.57
     17.0700	  544.00	  562.85	-1777.85	  444.34
     17.1700	  534.00	  562.62	-1787.62	  444.11
     17.2700	  565.00	  562.38	-1756.38	  443.88
     17.3700	  567.00	  562.15	-1754.15	  443.64
     17.4700	  580.00	  561.91	-1740.91	  443.40
     17.5700	  576.00	  561.67	-1744.67	  443.16
     17.6700	  513.00	  561.42	-1807.42	  442.92
     17.7700	  548.00	  561.18	-1772.18	  442.68
     17.8700	  518.00	  560.93	-1801.93	  442.43
     17.9700	  594.00	  560.68	-1725.68	  442.19
     18.0700	  531.00	  560.53	-1788.53	  441.94
     18.1700	  568.00	  560.28	-1751.28	  441.69
     18.2700	  595.00	  560.03	-1724.03	  441.43
     18.3700	  583.00	  559.77	-1735.77	  441.18
     18.4700	  579.00	  559.52	-1739.52	  440.92
     18.5700	  552.00	  559.26	-1766.26	  440.66
     18.6700	  521.00	  559.00	-1797.00	  440.40
     18.7700	  555.00	  558.75	-1762.75	  440.14
     18.8700	  573.00	  558.48	-1744.48	  439.88
     18.9700	  545.00	  558.31	-1772.31	  439.61
     19.0700	  576.00	  558.05	-1741.05	  439.35
     19.1700	  519.00	  557.79	-1797.79	  439.08
     19.2700	  527.00	  557.52	-1789.52	  438.81
     19.3700	  541.00	  557.26	-1775.26	  438.54
     19.4700	  531.00	  556.99	-1784.99	  438.27
     19.5700	  506.00	  556.72	-1809.72	  437.99
     19.6700	  553.00	  556.46	-1762.46	  437.72
     19.7700	  532.00	  556.19	-1783.19	  437.44
     19.8700	  566.00	  555.92	-1748.92	  437.16
     19.9700	  563.00	  555.64	-1751.64	  436.88
     20.0700	  560.00	  555.37	-1754.37	  436.60
     20.1700	  591.00	  555.10	-1723.10	  436.32
     20.2700	  528.00	  554.83	-1785.83	  436.04
     20.3700	  555.00	  554.55	-1758.55	  435.75
     20.4700	  544.00	  554.28	-1769.28	  435.47
     20.5700	  588.00	  554.00	-1725.00	  435.18
     20.6700	  555.00	  553.70	-1757.70	  434.90
     20.7700	  537.00	  553.42	-1775.42	  434.61
     20.8700	  555.00	  553.18	-1757.18	  434.32
     20.9700	  536.00	  552.91	-1775.91	  434.03
     21.0700	  541.00	  552.63	-1770.63	  433.74
     21.1700	  569.00	  552.36	-1742.36	  433.44
     21.2700	  573.00	  552.09	-1738.09	  433.15
     21.3700	  561.00	  551.81	-1749.81	  432.86
     21.4700	  605.00	  551.54	-1705.54	  432.56
     21.5700	  563.00	  551.26	-1747.26	  432.27
     21.6700	  550.00	  550.99	-1759.99	  431.97
     21.7700	  533.00	  550.72	-1776.72	  431.67
     21.8700	  529.00	  550.45	-1780.45	  431.37
     21.9700	  559.00	  550.18	-1750.18	  431.08
     22.0700	  495.00	  549.91	-1813.91	  430.78
     22.1700	  526.00	  549.65	-1782.65	  430.48
     22.2700	  561.00	  549.39	-1747.39	  430.18
     22.3700	  567.00	  549.13	-1741.13	  429.87
     22.4700	  558.00	  548.87	-1749.87	  429.57
     22.5700	  561.00	  548.62	-1746.62	  429.27
     22.6700	  565.00	  548.37	-1742.37	  428.97
     22.7700	  585.00	  548.13	-1722.13	  428.66
     22.8700	  551.00	  547.90	-1755.90	  428.36
     22.9700	  511.00	  547.68	-1795.68	  428.06
     23.0700	  556.00	  547.46	-1750.46	  427.75
     23.1700	  524.00	  547.27	-1782.27	  427.45
     23.2700	  542.00	  547.09	-1764.09	  427.14
     23.3700	  528.00	  546.93	-1777.93	  426.83
     23.4700	  578.00	  546.81	-1727.81	  426.53
     23.5700	  575.00	  546.73	-1730.73	  426.22
     23.6700	  551.00	  546.72	-1754.72	  425.91
     23.7700	  525.00	  546.94	-1780.94	  425.61
     23.8700	  570.00	  547.23	-1736.23	  425.30
     23.9700	  499.00	  547.92	-1807.92	  424.99
     24.0700	  547.00	  549.42	-1761.42	  424.69
     24.1700	  548.00	  552.33	-1763.33	  424.38
     24.2700	  571.00	  557.44	-1745.44	  424.07
     24.3700	  581.00	  565.64	-1743.64	  423.76
     24.4700	  543.00	  577.88	-1793.88	  423.45
     24.5700	  629.00	  594.40	-1724.40	  423.15
     24.6700	  607.00	  612.59	-1764.59	  422.84
     24.7700	  606.00	  625.15	-1778.15	  422.53
     24.8700	  601.00	  622.30	-1780.30	  422.22
     24.9700	  568.00	  602.84	-1793.84	  421.91
     25.0700	  627.00	  579.25	-1711.25	  421.60
     25.1700	  559.00	  561.61	-1761.61	  421.30
     25.2700	  622.00	  551.66	-1688.66	  420.99
     25.3700	  618.00	  546.98	-1687.98	  420.68
     25.4700	  545.00	  544.85	-1758.85	  420.37
     25.5700	  625.00	  543.72	-1677.72	  420.07
     25.6700	  554.00	  542.99	-1747.99	  419.76
     25.7700	  555.00	  542.45	-1746.45	  419.45
     25.8700	  575.00	  542.04	-1726.04	  419.14
     25.9700	  582.00	  541.73	-1718.73	  418.84
     26.0700	  544.00	  541.50	-1756.50	  418.53
     26.1700	  526.00	  541.34	-1774.34	  418.23
     26.2700	  594.00	  541.26	-1706.26	  417.92
     26.3700	  573.00	  541.24	-1727.24	  417.61
     26.4700	  534.00	  541.30	-1766.30	  417.31
     26.5700	  497.00	  541.45	-1803.45	  417.00
     26.6700	  540.00	  541.71	-1760.71	  416.70
     26.7700	  570.00	  542.09	-1731.09	  416.39
     26.8700	  549.00	  542.62	-1752.62	  416.09
     26.9700	  519.00	  543.37	-1783.37	  415.79
     27.0700	  550.00	  544.38	-1753.38	  415.49
     27.1700	  565.00	  545.80	-1739.80	  415.18
     27.2700	  532.00	  547.83	-1774.83	  414.88
     27.3700	  567.00	  550.94	-1742.94	  414.58
     27.4700	  536.00	  556.01	-1779.01	  414.28
     27.5700	  581.00	  564.63	-1742.63	  413.98
     27.6700	  592.00	  579.32	-1746.32	  413.68
     27.7700	  561.00	  603.37	-1801.37	  413.38
     27.8700	  609.00	  639.65	-1789.65	  413.08
     27.9700	  637.00	  688.39	-1810.39	  412.78
     28.0700	  770.00	  744.12	-1733.12	  412.49
     28.1700	  885.00	  793.10	-1667.10	  412.19
     28.2700	  949.00	  814.61	-1624.61	  411.89
     28.3700	  881.00	  796.44	-1674.44	  411.60
     28.4700	  782.00	  758.57	-1735.57	  411.30
     28.5700	  695.00	  734.01	-1798.01	  411.01
     28.6700	  748.00	  737.82	-1748.82	  410.72
     28.7700	  749.00	  765.13	-1775.13	  410.42
     28.8700	  789.00	  796.03	-1766.03	  410.13
     28.9700	  810.00	  802.22	-1751.22	  409.84
     29.0700	  776.00	  765.56	-1748.56	  409.55
     29.1700	  707.00	  702.01	-1754.01	  409.26
     29.2700	  647.00	  641.19	-1753.19	  408.97
     29.3700	  651.00	  597.33	-1705.33	  408.69
     29.4700	  594.00	  570.90	-1735.90	  408.40
     29.5700	  608.00	  556.70	-1707.70	  408.11
     29.6700	  608.00	  549.27	-1700.27	  407.83
     29.7700	  621.00	  545.10	-1683.10	  407.54
     29.8700	  557.00	  542.53	-1744.53	  407.26
     29.9700	  548.00	  540.92	-1751.92	  406.98
     30.0700	  546.00	  540.11	-1753.11	  406.70
     30.1700	  556.00	  540.28	-1743.28	  406.42
     30.2700	  563.00	  541.96	-1737.96	  406.14
     30.3700	  506.00	  546.22	-1799.22	  405.86
     30.4700	  564.00	  554.69	-1749.69	  405.58
     30.5700	  608.00	  569.10	-1720.10	  405.31
     30.6700	  607.00	  589.97	-1741.97	  405.03
     30.7700	  577.00	  614.74	-1796.74	  404.76
     30.8700	  622.00	  636.42	-1773.42	  404.48
     30.9700	  652.00	  644.25	-1751.25	  404.21
     31.0700	  579.00	  630.84	-1810.84	  403.94
     31.1700	  575.00	  603.14	-1787.14	  403.67
     31.2700	  535.00	  575.24	-1799.24	  403.40
     31.3700	  506.00	  554.63	-1807.63	  403.13
     31.4700	  523.00	  542.11	-1778.11	  402.87
     31.5700	  526.00	  535.44	-1768.44	  402.60
     31.6700	  521.00	  532.02	-1770.02	  402.34
     31.7700	  560.00	  530.15	-1729.15	  402.07
     31.8700	  560.00	  528.98	-1727.98	  401.81
     31.9700	  506.00	  528.17	-1781.17	  401.55
     32.0700	  537.00	  527.60	-1749.60	  401.29
     32.1700	  545.00	  527.22	-1741.22	  401.03
     32.2700	  536.00	  526.99	-1749.99	  400.77
     32.3700	  611.00	  526.92	-1674.92	  400.52
     32.4700	  547.00	  527.00	-1739.00	  400.26
     32.5700	  550.00	  527.26	-1736.26	  400.01
     32.6700	  521.00	  527.71	-1765.71	  399.76
     32.7700	  587.00	  528.41	-1700.41	  399.50
     32.8700	  544.00	  529.41	-1744.41	  399.26
     32.9700	  585.00	  530.85	-1704.85	  399.01
     33.0700	  565.00	  532.92	-1726.92	  398.76
     33.1700	  533.00	  536.10	-1762.10	  398.51
     33.2700	  573.00	  541.42	-1727.42	  398.27
     33.3700	  520.00	  551.17	-1790.17	  398.03
     33.4700	  544.00	  569.77	-1784.77	  397.78
     33.5700	  586.00	  604.20	-1777.20	  397.54
     33.6700	  642.00	  662.68	-1779.68	  397.30
     33.7700	  716.00	  748.92	-1791.92	  397.07
     33.8700	  920.00	  853.73	-1692.73	  396.83
     33.9700	 1025.00	  949.20	-1683.20	  396.59
     34.0700	 1008.00	  992.10	-1743.10	  396.36
     34.1700	 1056.00	  950.19	-1653.19	  396.13
     34.2700	  884.00	  844.99	-1719.99	  395.90
     34.3700	  775.00	  731.21	-1715.21	  395.67
     34.4700	  673.00	  642.90	-1728.90	  395.44
     34.5700	  591.00	  587.32	-1755.32	  395.21
     34.6700	  565.00	  557.24	-1751.24	  394.99
     34.7700	  505.00	  542.16	-1796.16	  394.76
     34.8700	  568.00	  534.32	-1725.32	  394.54
     34.9700	  527.00	  529.66	-1761.66	  394.32
     35.0700	  580.00	  526.46	-1705.46	  394.10
     35.1700	  505.00	  524.05	-1778.05	  393.88
     35.2700	  514.00	  522.16	-1767.16	  393.67
     35.3700	  514.00	  520.62	-1765.62	  393.45
     35.4700	  533.00	  519.33	-1745.33	  393.24
     35.5700	  534.00	  518.26	-1743.26	  393.02
     35.6700	  551.00	  517.33	-1725.33	  392.81
     35.7700	  543.00	  516.53	-1732.53	  392.61
     35.8700	  492.00	  515.83	-1782.83	  392.40
     35.9700	  522.00	  515.20	-1752.20	  392.19
     36.0700	  492.00	  515.13	-1782.13	  391.99
     36.1700	  508.00	  514.63	-1765.63	  391.78
     36.2700	  518.00	  514.19	-1755.19	  391.58
     36.3700	  505.00	  513.79	-1767.79	  391.38
     36.4700	  527.00	  513.42	-1745.42	  391.19
     36.5700	  525.00	  513.10	-1747.10	  390.99
     36.6700	  520.00	  512.81	-1751.81	  390.79
     36.7700	  509.00	  512.57	-1762.57	  390.60
     36.8700	  512.00	  512.40	-1759.40	  390.41
     36.9700	  543.00	  512.33	-1728.33	  390.22
     37.0700	  493.00	  512.50	-1778.50	  390.03
     37.1700	  510.00	  513.12	-1762.12	  389.84
     37.2700	  505.00	  514.51	-1768.51	  389.66
     37.3700	  528.00	  517.01	-1748.01	  389.47
     37.4700	  522.00	  520.65	-1757.65	  389.29
     37.5700	  538.00	  524.85	-1745.85	  389.11
     37.6700	  499.00	  528.37	-1788.37	  388.93
     37.7700	  561.00	  529.72	-1727.72	  388.75
     37.8700	  536.00	  528.48	-1751.48	  388.58
     37.9700	  457.00	  525.73	-1827.73	  388.40
     38.0700	  523.00	  522.37	-1758.37	  388.23
     38.1700	  524.00	  518.78	-1753.78	  388.06
     38.2700	  515.00	  515.39	-1759.39	  387.89
     38.3700	  504.00	  512.68	-1767.68	  387.72
     38.4700	  498.00	  510.75	-1771.75	  387.56
     38.5700	  511.00	  509.51	-1757.51	  387.39
     38.6700	  533.00	  508.65	-1734.65	  387.23
     38.7700	  491.00	  508.17	-1776.17	  387.07
     38.8700	  458.00	  507.83	-1808.83	  386.91
     38.9700	  488.00	  507.57	-1778.57	  386.75
     39.0700	  518.00	  507.34	-1748.34	  386.59
     39.1700	  496.00	  507.14	-1770.14	  386.44
     39.2700	  534.00	  506.87	-1731.87	  386.29
     39.3700	  505.00	  506.70	-1760.70	  386.14
     39.4700	  509.00	  506.54	-1756.54	  385.99
     39.5700	  481.00	  506.52	-1784.52	  385.84
     39.6700	  470.00	  506.39	-1795.39	  385.69
     39.7700	  497.00	  506.26	-1768.26	  385.55
     39.8700	  516.00	  506.15	-1749.15	  385.41
     39.9700	  476.00	  506.05	-1789.05	  385.26
     40.0700	  482.00	  505.95	-1782.95	  385.13
     40.1700	  530.00	  505.87	-1734.87	  384.99
     40.2700	  496.00	  505.79	-1768.79	  384.85
     40.3700	  451.00	  505.73	-1813.73	  384.72
     40.4700	  501.00	  505.68	-1763.68	  384.59
     40.5700	  492.00	  505.65	-1772.65	  384.45
     40.6700	  500.00	  505.63	-1764.63	  384.33
     40.7700	  490.00	  505.64	-1774.64	  384.20
