MSG Master    CELL:    5.91926   5.91926  23.27730   90.0000   90.0000  120.0000   SPGR: P 63/m m c             TEMP:   1074.85
  1   1280     2.52000     0.00000    -0.12286     0.00000     0.00000    0
    99     0     2
       0.00000      10.00000
     125.00000     130.00000
 2Theta	Yobs	Ycal	Yobs-Ycal	Backg	Posr	(hkl)	K
      0.7700	    0.00	  556.59	-1774.00	  437.37
      0.8700	    0.00	  557.18	-1774.00	  437.96
      0.9700	   44.00	  557.75	-1774.00	  438.53
      1.0700	   55.00	  558.32	-1774.00	  439.10
      1.1700	   42.00	  558.87	-1774.00	  439.66
      1.2700	   56.00	  559.42	-1774.00	  440.20
      1.3700	   46.00	  559.96	-1774.00	  440.74
      1.4700	   79.00	  560.48	-1774.00	  441.26
      1.5700	  283.00	  561.00	-1774.00	  441.78
      1.6700	  460.00	  561.51	-1774.00	  442.29
      1.7700	  574.00	  562.01	-1774.00	  442.79
      1.8700	  712.00	  562.50	-1774.00	  443.28
      1.9700	  722.00	  562.98	-1774.00	  443.76
      2.0700	  794.00	  563.45	-1774.00	  444.23
      2.1700	  834.00	  563.91	-1774.00	  444.69
      2.2700	  799.00	  564.36	-1774.00	  445.14
      2.3700	  716.00	  564.80	-1774.00	  445.58
      2.4700	  729.00	  565.24	-1774.00	  446.02
      2.5700	  736.00	  565.66	-1774.00	  446.44
      2.6700	  684.00	  566.08	-1774.00	  446.86
      2.7700	  640.00	  566.48	-1774.00	  447.27
      2.8700	  652.00	  566.88	-1774.00	  447.66
      2.9700	  615.00	  567.27	-1774.00	  448.05
      3.0700	  637.00	  567.65	-1774.00	  448.44
      3.1700	  583.00	  568.03	-1774.00	  448.81
      3.2700	  645.00	  568.39	-1774.00	  449.17
      3.3700	  676.00	  568.75	-1774.00	  449.53
      3.4700	  716.00	  569.10	-1774.00	  449.88
      3.5700	  835.00	  569.44	-1774.00	  450.22
      3.6700	  808.00	  569.77	-1774.00	  450.55
      3.7700	  883.00	  570.09	-1774.00	  450.87
      3.8700	  966.00	  570.40	-1774.00	  451.19
      3.9700	  985.00	  570.71	-1774.00	  451.49
      4.0700	 1056.00	  571.01	-1774.00	  451.79
      4.1700	 1070.00	  571.30	-1774.00	  452.08
      4.2700	 1136.00	  571.59	-1774.00	  452.37
      4.3700	 1102.00	  571.86	-1774.00	  452.64
      4.4700	 1130.00	  572.13	-1774.00	  452.91
      4.5700	 1048.00	  572.39	-1774.00	  453.17
      4.6700	 1015.00	  572.64	-1774.00	  453.42
      4.7700	  976.00	  572.89	-1774.00	  453.67
      4.8700	  979.00	  573.13	-1774.00	  453.91
      4.9700	 1031.00	  573.36	-1774.00	  454.14
      5.0700	  886.00	  573.58	-1774.00	  454.36
      5.1700	  910.00	  573.79	-1774.00	  454.57
      5.2700	  900.00	  574.00	-1774.00	  454.78
      5.3700	  879.00	  574.20	-1774.00	  454.98
      5.4700	  886.00	  574.40	-1774.00	  455.18
      5.5700	  875.00	  574.59	-1774.00	  455.37
      5.6700	  898.00	  574.77	-1774.00	  455.55
      5.7700	  865.00	  574.94	-1774.00	  455.72
      5.8700	  798.00	  575.11	-1774.00	  455.89
      5.9700	  791.00	  575.27	-1774.00	  456.05
      6.0700	  861.00	  575.42	-1774.00	  456.20
      6.1700	  799.00	  575.57	-1774.00	  456.35
      6.2700	  798.00	  575.70	-1774.00	  456.49
      6.3700	  783.00	  575.84	-1774.00	  456.62
      6.4700	  792.00	  575.96	-1774.00	  456.74
      6.5700	  728.00	  576.08	-1774.00	  456.86
      6.6700	  767.00	  576.20	-1774.00	  456.98
      6.7700	  752.00	  576.31	-1774.00	  457.09
      6.8700	  698.00	  576.41	-1774.00	  457.19
      6.9700	  715.00	  576.50	-1774.00	  457.28
      7.0700	  700.00	  576.59	-1774.00	  457.37
      7.1700	  670.00	  576.67	-1774.00	  457.45
      7.2700	  708.00	  576.75	-1774.00	  457.53
      7.3700	  738.00	  576.82	-1774.00	  457.60
      7.4700	  661.00	  576.88	-1774.00	  457.67
      7.5700	  659.00	  576.94	-1774.00	  457.72
      7.6700	  648.00	  577.00	-1774.00	  457.78
      7.7700	  643.00	  577.04	-1774.00	  457.82
      7.8700	  633.00	  577.08	-1774.00	  457.86
      7.9700	  634.00	  577.12	-1774.00	  457.90
      8.0700	  615.00	  577.15	-1774.00	  457.93
      8.1700	  653.00	  577.17	-1774.00	  457.95
      8.2700	  607.00	  577.19	-1774.00	  457.97
      8.3700	  648.00	  577.21	-1774.00	  457.99
      8.4700	  621.00	  577.21	-1774.00	  458.00
      8.5700	  593.00	  577.22	-1774.00	  458.00
      8.6700	  663.00	  577.21	-1774.00	  458.00
      8.7700	  636.00	  577.21	-1774.00	  457.99
      8.8700	  643.00	  577.19	-1774.00	  457.97
      8.9700	  596.00	  577.18	-1774.00	  457.96
      9.0700	  615.00	  577.15	-1774.00	  457.93
      9.1700	  650.00	  577.12	-1774.00	  457.90
      9.2700	  590.00	  577.09	-1774.00	  457.87
      9.3700	  634.00	  577.05	-1774.00	  457.83
      9.4700	  608.00	  577.01	-1774.00	  457.79
      9.5700	  616.00	  576.96	-1774.00	  457.74
      9.6700	  556.00	  576.91	-1774.00	  457.69
      9.7700	  651.00	  576.85	-1774.00	  457.63
      9.8700	  618.00	  576.79	-1774.00	  457.57
      9.9700	  583.00	  576.72	-1774.00	  457.50
     10.0700	  601.00	  577.46	-1750.46	  457.43
     10.1700	  572.00	  577.47	-1779.47	  457.35
     10.2700	  609.00	  577.49	-1742.49	  457.27
     10.3700	  581.00	  577.55	-1770.55	  457.19
     10.4700	  648.00	  577.66	-1703.66	  457.10
     10.5700	  561.00	  577.88	-1790.88	  457.00
     10.6700	  637.00	  578.32	-1715.32	  456.90
     10.7700	  557.00	  579.07	-1796.07	  456.80
     10.8700	  600.00	  580.23	-1754.23	  456.69
     10.9700	  603.00	  581.77	-1752.77	  456.58
     11.0700	  623.00	  583.67	-1734.67	  456.47
     11.1700	  580.00	  585.91	-1779.91	  456.35
     11.2700	  629.00	  588.54	-1733.54	  456.22
     11.3700	  579.00	  591.63	-1786.63	  456.10
     11.4700	  582.00	  595.32	-1787.32	  455.97
     11.5700	  626.00	  599.81	-1747.81	  455.83
     11.6700	  624.00	  605.46	-1755.46	  455.69
     11.7700	  624.00	  612.89	-1762.89	  455.55
     11.8700	  658.00	  623.04	-1739.04	  455.40
     11.9700	  631.00	  636.57	-1779.57	  455.25
     12.0700	  690.00	  651.90	-1735.90	  455.10
     12.1700	  696.00	  662.79	-1740.79	  454.94
     12.2700	  693.00	  659.36	-1740.36	  454.78
     12.3700	  653.00	  638.53	-1759.53	  454.61
     12.4700	  631.00	  613.00	-1756.00	  454.44
     12.5700	  599.00	  594.27	-1769.27	  454.27
     12.6700	  548.00	  584.06	-1810.06	  454.10
     12.7700	  537.00	  579.39	-1816.39	  453.92
     12.8700	  580.00	  577.25	-1771.25	  453.74
     12.9700	  554.00	  576.05	-1796.05	  453.55
     13.0700	  628.00	  575.22	-1721.22	  453.36
     13.1700	  578.00	  574.57	-1770.57	  453.17
     13.2700	  530.00	  574.03	-1818.03	  452.98
     13.3700	  590.00	  573.57	-1757.57	  452.78
     13.4700	  584.00	  573.17	-1763.17	  452.58
     13.5700	  578.00	  572.80	-1768.80	  452.37
     13.6700	  505.00	  572.46	-1841.46	  452.17
     13.7700	  572.00	  572.14	-1774.14	  451.95
     13.8700	  557.00	  571.84	-1788.84	  451.74
     13.9700	  523.00	  571.54	-1822.54	  451.53
     14.0700	  603.00	  571.26	-1742.26	  451.31
     14.1700	  539.00	  570.98	-1805.98	  451.09
     14.2700	  520.00	  570.71	-1824.71	  450.86
     14.3700	  554.00	  570.44	-1790.44	  450.63
     14.4700	  535.00	  570.17	-1809.17	  450.40
     14.5700	  580.00	  569.91	-1763.91	  450.17
     14.6700	  530.00	  569.65	-1813.65	  449.94
     14.7700	  584.00	  569.38	-1759.38	  449.70
     14.8700	  546.00	  569.12	-1797.12	  449.46
     14.9700	  559.00	  568.86	-1783.86	  449.22
     15.0700	  558.00	  568.59	-1784.59	  448.97
     15.1700	  558.00	  568.33	-1784.33	  448.72
     15.2700	  556.00	  568.07	-1786.07	  448.47
     15.3700	  556.00	  567.80	-1785.80	  448.22
     15.4700	  534.00	  567.53	-1807.53	  447.97
     15.5700	  561.00	  567.27	-1780.27	  447.71
     15.6700	  553.00	  567.00	-1788.00	  447.45
     15.7700	  559.00	  566.73	-1781.73	  447.19
     15.8700	  528.00	  566.45	-1812.45	  446.93
     15.9700	  578.00	  566.18	-1762.18	  446.66
     16.0700	  543.00	  565.90	-1796.90	  446.39
     16.1700	  620.00	  565.65	-1719.65	  446.12
     16.2700	  530.00	  565.38	-1809.38	  445.85
     16.3700	  578.00	  565.10	-1761.10	  445.58
     16.4700	  550.00	  564.82	-1788.82	  445.30
     16.5700	  547.00	  564.53	-1791.53	  445.03
     16.6700	  525.00	  564.25	-1813.25	  444.75
     16.7700	  514.00	  563.97	-1823.97	  444.47
     16.8700	  561.00	  563.68	-1776.68	  444.18
     16.9700	  549.00	  563.39	-1788.39	  443.90
     17.0700	  586.00	  563.10	-1751.10	  443.61
     17.1700	  537.00	  562.81	-1799.81	  443.32
     17.2700	  582.00	  562.52	-1754.52	  443.03
     17.3700	  543.00	  562.23	-1793.23	  442.74
     17.4700	  554.00	  561.93	-1781.93	  442.45
     17.5700	  507.00	  561.63	-1828.63	  442.15
     17.6700	  577.00	  561.34	-1758.34	  441.86
     17.7700	  563.00	  561.04	-1772.04	  441.56
     17.8700	  595.00	  560.74	-1739.74	  441.26
     17.9700	  550.00	  560.44	-1784.44	  440.96
     18.0700	  559.00	  560.24	-1775.24	  440.66
     18.1700	  566.00	  559.94	-1767.94	  440.36
     18.2700	  577.00	  559.63	-1756.63	  440.05
     18.3700	  569.00	  559.33	-1764.33	  439.75
     18.4700	  574.00	  559.02	-1759.02	  439.44
     18.5700	  541.00	  558.72	-1791.72	  439.13
     18.6700	  585.00	  558.41	-1747.41	  438.82
     18.7700	  515.00	  558.10	-1817.10	  438.51
     18.8700	  579.00	  557.79	-1752.79	  438.20
     18.9700	  546.00	  557.56	-1785.56	  437.88
     19.0700	  537.00	  557.25	-1794.25	  437.57
     19.1700	  543.00	  556.94	-1787.94	  437.25
     19.2700	  570.00	  556.63	-1760.63	  436.94
     19.3700	  549.00	  556.32	-1781.32	  436.62
     19.4700	  523.00	  556.01	-1807.01	  436.30
     19.5700	  590.00	  555.70	-1739.70	  435.98
     19.6700	  580.00	  555.38	-1749.38	  435.66
     19.7700	  590.00	  555.07	-1739.07	  435.34
     19.8700	  524.00	  554.76	-1804.76	  435.02
     19.9700	  503.00	  554.44	-1825.44	  434.70
     20.0700	  561.00	  554.13	-1767.13	  434.37
     20.1700	  537.00	  553.81	-1790.81	  434.05
     20.2700	  572.00	  553.50	-1755.50	  433.72
     20.3700	  536.00	  553.18	-1791.18	  433.40
     20.4700	  569.00	  552.87	-1757.87	  433.07
     20.5700	  560.00	  552.52	-1766.52	  432.75
     20.6700	  577.00	  552.20	-1749.20	  432.42
     20.7700	  528.00	  551.89	-1797.89	  432.09
     20.8700	  539.00	  551.57	-1786.57	  431.76
     20.9700	  543.00	  551.29	-1782.29	  431.43
     21.0700	  557.00	  550.98	-1767.98	  431.10
     21.1700	  553.00	  550.67	-1771.67	  430.77
     21.2700	  496.00	  550.35	-1828.35	  430.44
     21.3700	  540.00	  550.04	-1784.04	  430.11
     21.4700	  536.00	  549.73	-1787.73	  429.78
     21.5700	  564.00	  549.42	-1759.42	  429.44
     21.6700	  577.00	  549.11	-1746.11	  429.11
     21.7700	  534.00	  548.81	-1788.81	  428.78
     21.8700	  509.00	  548.50	-1813.50	  428.45
     21.9700	  558.00	  548.20	-1764.20	  428.11
     22.0700	  535.00	  547.90	-1786.90	  427.78
     22.1700	  571.00	  547.60	-1750.60	  427.44
     22.2700	  544.00	  547.30	-1777.30	  427.11
     22.3700	  529.00	  547.01	-1792.01	  426.78
     22.4700	  547.00	  546.72	-1773.72	  426.44
     22.5700	  559.00	  546.43	-1761.43	  426.11
     22.6700	  529.00	  546.16	-1791.16	  425.77
     22.7700	  553.00	  545.88	-1766.88	  425.44
     22.8700	  513.00	  545.62	-1806.62	  425.10
     22.9700	  584.00	  545.37	-1735.37	  424.77
     23.0700	  537.00	  545.12	-1782.12	  424.43
     23.1700	  520.00	  544.90	-1798.90	  424.10
     23.2700	  536.00	  544.69	-1782.69	  423.76
     23.3700	  554.00	  544.50	-1764.50	  423.42
     23.4700	  548.00	  544.35	-1770.35	  423.09
     23.5700	  555.00	  544.24	-1763.24	  422.76
     23.6700	  562.00	  544.19	-1756.19	  422.42
     23.7700	  575.00	  544.38	-1743.38	  422.09
     23.8700	  565.00	  544.63	-1753.63	  421.75
     23.9700	  531.00	  545.29	-1788.29	  421.42
     24.0700	  567.00	  546.73	-1753.73	  421.08
     24.1700	  543.00	  549.56	-1780.56	  420.75
     24.2700	  552.00	  554.54	-1776.54	  420.41
     24.3700	  565.00	  562.53	-1771.53	  420.08
     24.4700	  617.00	  574.43	-1731.43	  419.75
     24.5700	  605.00	  590.43	-1759.43	  419.41
     24.6700	  608.00	  607.91	-1773.91	  419.08
     24.7700	  638.00	  619.75	-1755.75	  418.75
     24.8700	  619.00	  616.60	-1771.60	  418.42
     24.9700	  601.00	  597.58	-1770.58	  418.09
     25.0700	  588.00	  574.86	-1760.86	  417.76
     25.1700	  580.00	  557.95	-1751.95	  417.42
     25.2700	  550.00	  548.42	-1772.42	  417.09
     25.3700	  561.00	  543.92	-1756.92	  416.76
     25.4700	  521.00	  541.85	-1794.85	  416.44
     25.5700	  559.00	  540.75	-1755.75	  416.11
     25.6700	  525.00	  540.02	-1789.02	  415.78
     25.7700	  556.00	  539.48	-1757.48	  415.45
     25.8700	  557.00	  539.08	-1756.08	  415.12
     25.9700	  548.00	  538.77	-1764.77	  414.80
     26.0700	  541.00	  538.54	-1771.54	  414.47
     26.1700	  547.00	  538.38	-1765.38	  414.15
     26.2700	  541.00	  538.30	-1771.30	  413.82
     26.3700	  564.00	  538.30	-1748.30	  413.50
     26.4700	  533.00	  538.37	-1779.37	  413.17
     26.5700	  541.00	  538.54	-1771.54	  412.85
     26.6700	  518.00	  538.83	-1794.83	  412.53
     26.7700	  562.00	  539.25	-1751.25	  412.21
     26.8700	  549.00	  539.84	-1764.84	  411.89
     26.9700	  526.00	  540.65	-1788.65	  411.57
     27.0700	  589.00	  541.77	-1726.77	  411.25
     27.1700	  529.00	  543.32	-1788.32	  410.93
     27.2700	  588.00	  545.56	-1731.56	  410.61
     27.3700	  570.00	  548.99	-1752.99	  410.29
     27.4700	  607.00	  554.60	-1721.60	  409.98
     27.5700	  593.00	  564.21	-1745.21	  409.66
     27.6700	  588.00	  580.69	-1766.69	  409.35
     27.7700	  562.00	  607.82	-1819.82	  409.03
     27.8700	  598.00	  648.98	-1824.98	  408.72
     27.9700	  674.00	  704.53	-1804.53	  408.41
     28.0700	  772.00	  768.29	-1770.29	  408.10
     28.1700	  882.00	  824.33	-1716.33	  407.79
     28.2700	  974.00	  848.26	-1648.26	  407.48
     28.3700	  910.00	  824.77	-1688.77	  407.17
     28.4700	  783.00	  775.48	-1766.48	  406.87
     28.5700	  725.00	  738.15	-1787.15	  406.56
     28.6700	  694.00	  730.64	-1810.64	  406.26
     28.7700	  653.00	  749.05	-1870.05	  405.95
     28.8700	  807.00	  774.16	-1741.16	  405.65
     28.9700	  816.00	  778.74	-1736.74	  405.35
     29.0700	  735.00	  744.88	-1783.88	  405.05
     29.1700	  676.00	  686.29	-1784.29	  404.75
     29.2700	  647.00	  630.04	-1757.04	  404.45
     29.3700	  648.00	  589.39	-1715.39	  404.15
     29.4700	  615.00	  564.85	-1723.85	  403.86
     29.5700	  586.00	  551.61	-1739.61	  403.56
     29.6700	  592.00	  544.63	-1726.63	  403.27
     29.7700	  605.00	  540.67	-1709.67	  402.97
     29.8700	  603.00	  538.19	-1709.19	  402.68
     29.9700	  571.00	  536.59	-1739.59	  402.39
     30.0700	  600.00	  535.74	-1709.74	  402.10
     30.1700	  600.00	  535.77	-1709.77	  401.81
     30.2700	  551.00	  537.16	-1760.16	  401.53
     30.3700	  527.00	  540.86	-1787.86	  401.24
     30.4700	  554.00	  548.34	-1768.34	  400.96
     30.5700	  594.00	  561.17	-1741.17	  400.67
     30.6700	  533.00	  579.85	-1820.85	  400.39
     30.7700	  586.00	  602.13	-1790.13	  400.11
     30.8700	  599.00	  621.74	-1796.74	  399.83
     30.9700	  604.00	  628.98	-1798.98	  399.56
     31.0700	  628.00	  617.05	-1763.05	  399.28
     31.1700	  522.00	  592.08	-1844.08	  399.00
     31.2700	  559.00	  566.82	-1781.82	  398.73
     31.3700	  566.00	  548.13	-1756.13	  398.46
     31.4700	  563.00	  536.76	-1747.76	  398.19
     31.5700	  520.00	  530.70	-1784.70	  397.92
     31.6700	  548.00	  527.60	-1753.60	  397.65
     31.7700	  529.00	  525.89	-1770.89	  397.38
     31.8700	  550.00	  524.82	-1748.82	  397.11
     31.9700	  563.00	  524.09	-1735.09	  396.85
     32.0700	  551.00	  523.57	-1746.57	  396.59
     32.1700	  552.00	  523.22	-1745.22	  396.33
     32.2700	  539.00	  523.03	-1758.03	  396.07
     32.3700	  512.00	  522.98	-1784.98	  395.81
     32.4700	  534.00	  523.08	-1763.08	  395.55
     32.5700	  558.00	  523.35	-1739.35	  395.29
     32.6700	  520.00	  523.81	-1777.81	  395.04
     32.7700	  516.00	  524.51	-1782.51	  394.79
     32.8700	  562.00	  525.52	-1737.52	  394.54
     32.9700	  563.00	  526.95	-1737.95	  394.29
     33.0700	  559.00	  529.02	-1744.02	  394.04
     33.1700	  583.00	  532.17	-1723.17	  393.79
     33.2700	  492.00	  537.46	-1819.46	  393.55
     33.3700	  543.00	  547.15	-1778.15	  393.30
     33.4700	  590.00	  565.61	-1749.61	  393.06
     33.5700	  605.00	  599.91	-1768.91	  392.82
     33.6700	  653.00	  658.17	-1779.17	  392.58
     33.7700	  747.00	  744.20	-1771.20	  392.34
     33.8700	  883.00	  848.93	-1739.93	  392.11
     33.9700	 1005.00	  944.47	-1713.47	  391.87
     34.0700	 1072.00	  987.66	-1689.66	  391.64
     34.1700	 1040.00	  946.09	-1680.09	  391.41
     34.2700	  883.00	  841.07	-1732.07	  391.18
     34.3700	  723.00	  727.29	-1778.29	  390.95
     34.4700	  642.00	  638.98	-1770.98	  390.72
     34.5700	  534.00	  583.40	-1823.40	  390.50
     34.6700	  523.00	  553.35	-1804.35	  390.28
     34.7700	  498.00	  538.29	-1814.29	  390.05
     34.8700	  557.00	  530.49	-1747.49	  389.83
     34.9700	  531.00	  525.85	-1768.85	  389.62
     35.0700	  519.00	  522.66	-1777.66	  389.40
     35.1700	  545.00	  520.26	-1749.26	  389.18
     35.2700	  547.00	  518.38	-1745.38	  388.97
     35.3700	  492.00	  516.85	-1798.85	  388.76
     35.4700	  515.00	  515.58	-1774.58	  388.55
     35.5700	  502.00	  514.51	-1786.51	  388.34
     35.6700	  510.00	  513.59	-1777.59	  388.13
     35.7700	  479.00	  512.80	-1807.80	  387.93
     35.8700	  540.00	  512.10	-1746.10	  387.73
     35.9700	  534.00	  511.49	-1751.49	  387.52
     36.0700	  532.00	  511.40	-1753.40	  387.32
     36.1700	  454.00	  510.92	-1830.92	  387.13
     36.2700	  502.00	  510.48	-1782.48	  386.93
     36.3700	  466.00	  510.08	-1818.08	  386.73
     36.4700	  506.00	  509.73	-1777.73	  386.54
     36.5700	  540.00	  509.42	-1743.42	  386.35
     36.6700	  538.00	  509.14	-1745.14	  386.16
     36.7700	  515.00	  508.92	-1767.92	  385.97
     36.8700	  504.00	  508.77	-1778.77	  385.79
     36.9700	  523.00	  508.75	-1759.75	  385.60
     37.0700	  525.00	  509.01	-1758.01	  385.42
     37.1700	  501.00	  509.80	-1782.80	  385.24
     37.2700	  543.00	  511.52	-1742.52	  385.06
     37.3700	  525.00	  514.50	-1763.50	  384.88
     37.4700	  474.00	  518.73	-1818.73	  384.71
     37.5700	  522.00	  523.39	-1775.39	  384.53
     37.6700	  502.00	  526.88	-1798.88	  384.36
     37.7700	  521.00	  527.43	-1780.43	  384.19
     37.8700	  569.00	  524.77	-1729.77	  384.02
     37.9700	  493.00	  520.56	-1801.56	  383.85
     38.0700	  481.00	  516.31	-1809.31	  383.69
     38.1700	  556.00	  512.65	-1730.65	  383.52
     38.2700	  473.00	  509.79	-1810.79	  383.36
     38.3700	  497.00	  507.75	-1784.75	  383.20
     38.4700	  473.00	  506.39	-1807.39	  383.04
     38.5700	  507.00	  505.52	-1772.52	  382.89
     38.6700	  476.00	  504.86	-1802.86	  382.73
     38.7700	  555.00	  504.48	-1723.48	  382.58
     38.8700	  487.00	  504.20	-1791.20	  382.43
     38.9700	  500.00	  503.96	-1777.96	  382.28
     39.0700	  495.00	  503.76	-1782.76	  382.13
     39.1700	  479.00	  503.50	-1798.50	  381.99
     39.2700	  551.00	  503.33	-1726.33	  381.84
     39.3700	  508.00	  503.18	-1769.18	  381.70
     39.4700	  505.00	  503.03	-1772.03	  381.56
     39.5700	  482.00	  503.02	-1795.02	  381.42
     39.6700	  541.00	  502.90	-1735.90	  381.29
     39.7700	  459.00	  502.79	-1817.79	  381.15
     39.8700	  475.00	  502.68	-1801.68	  381.02
     39.9700	  502.00	  502.59	-1774.59	  380.89
     40.0700	  473.00	  502.51	-1803.51	  380.76
     40.1700	  517.00	  502.43	-1759.43	  380.63
     40.2700	  496.00	  502.37	-1780.37	  380.50
     40.3700	  519.00	  502.32	-1757.32	  380.38
     40.4700	  525.00	  502.28	-1751.28	  380.26
     40.5700	  545.00	  502.25	-1731.25	  380.14
     40.6700	  519.00	  502.25	-1757.25	  380.02
     40.7700	  497.00	  502.26	-1779.26	  379.90
