MSG Master    CELL:    5.90639   5.90639  23.20723   90.0000   90.0000  120.0000   SPGR: P 63/m m c             TEMP:    864.85
  1   1280     2.52000     0.00000    -0.12493     0.00000     0.00000    0
    98     0     2
       0.00000      10.00000
     125.00000     130.00000
 2Theta	Yobs	Ycal	Yobs-Ycal	Backg	Posr	(hkl)	K
      0.7700	    0.00	  452.14	-1754.00	  343.77
      0.8700	    0.00	  453.98	-1754.00	  345.62
      0.9700	   49.00	  455.81	-1754.00	  347.44
      1.0700	   38.00	  457.61	-1754.00	  349.25
      1.1700	   42.00	  459.40	-1754.00	  351.03
      1.2700	   37.00	  461.16	-1754.00	  352.80
      1.3700	   45.00	  462.91	-1754.00	  354.54
      1.4700	   98.00	  464.63	-1754.00	  356.27
      1.5700	  290.00	  466.34	-1754.00	  357.97
      1.6700	  464.00	  468.03	-1754.00	  359.66
      1.7700	  559.00	  469.69	-1754.00	  361.33
      1.8700	  670.00	  471.34	-1754.00	  362.98
      1.9700	  733.00	  472.97	-1754.00	  364.61
      2.0700	  762.00	  474.59	-1754.00	  366.22
      2.1700	  770.00	  476.18	-1754.00	  367.82
      2.2700	  770.00	  477.75	-1754.00	  369.39
      2.3700	  722.00	  479.31	-1754.00	  370.95
      2.4700	  737.00	  480.85	-1754.00	  372.48
      2.5700	  652.00	  482.37	-1754.00	  374.00
      2.6700	  681.00	  483.87	-1754.00	  375.51
      2.7700	  652.00	  485.36	-1754.00	  376.99
      2.8700	  662.00	  486.82	-1754.00	  378.46
      2.9700	  614.00	  488.27	-1754.00	  379.91
      3.0700	  579.00	  489.70	-1754.00	  381.34
      3.1700	  649.00	  491.12	-1754.00	  382.75
      3.2700	  651.00	  492.51	-1754.00	  384.15
      3.3700	  745.00	  493.89	-1754.00	  385.53
      3.4700	  923.00	  495.25	-1754.00	  386.89
      3.5700	  999.00	  496.60	-1754.00	  388.23
      3.6700	 1091.00	  497.93	-1754.00	  389.56
      3.7700	 1142.00	  499.24	-1754.00	  390.87
      3.8700	 1207.00	  500.53	-1754.00	  392.17
      3.9700	 1239.00	  501.81	-1754.00	  393.45
      4.0700	 1254.00	  503.07	-1754.00	  394.71
      4.1700	 1272.00	  504.32	-1754.00	  395.95
      4.2700	 1281.00	  505.55	-1754.00	  397.18
      4.3700	 1281.00	  506.76	-1754.00	  398.40
      4.4700	 1214.00	  507.96	-1754.00	  399.59
      4.5700	 1222.00	  509.14	-1754.00	  400.77
      4.6700	 1151.00	  510.30	-1754.00	  401.94
      4.7700	 1124.00	  511.45	-1754.00	  403.09
      4.8700	 1095.00	  512.59	-1754.00	  404.22
      4.9700	 1077.00	  513.71	-1754.00	  405.34
      5.0700	 1063.00	  514.81	-1754.00	  406.44
      5.1700	 1019.00	  515.90	-1754.00	  407.53
      5.2700	 1011.00	  516.97	-1754.00	  408.60
      5.3700	  933.00	  518.03	-1754.00	  409.66
      5.4700	  957.00	  519.07	-1754.00	  410.70
      5.5700	  976.00	  520.10	-1754.00	  411.73
      5.6700	  907.00	  521.11	-1754.00	  412.74
      5.7700	  899.00	  522.11	-1754.00	  413.74
      5.8700	  870.00	  523.09	-1754.00	  414.73
      5.9700	  908.00	  524.06	-1754.00	  415.70
      6.0700	  849.00	  525.01	-1754.00	  416.65
      6.1700	  806.00	  525.95	-1754.00	  417.59
      6.2700	  833.00	  526.88	-1754.00	  418.52
      6.3700	  766.00	  527.79	-1754.00	  419.43
      6.4700	  755.00	  528.69	-1754.00	  420.33
      6.5700	  826.00	  529.58	-1754.00	  421.21
      6.6700	  799.00	  530.45	-1754.00	  422.08
      6.7700	  731.00	  531.30	-1754.00	  422.94
      6.8700	  784.00	  532.15	-1754.00	  423.78
      6.9700	  719.00	  532.98	-1754.00	  424.61
      7.0700	  750.00	  533.79	-1754.00	  425.43
      7.1700	  695.00	  534.60	-1754.00	  426.23
      7.2700	  739.00	  535.39	-1754.00	  427.02
      7.3700	  703.00	  536.16	-1754.00	  427.80
      7.4700	  685.00	  536.93	-1754.00	  428.56
      7.5700	  688.00	  537.68	-1754.00	  429.31
      7.6700	  628.00	  538.42	-1754.00	  430.05
      7.7700	  697.00	  539.14	-1754.00	  430.78
      7.8700	  639.00	  539.85	-1754.00	  431.49
      7.9700	  625.00	  540.55	-1754.00	  432.19
      8.0700	  618.00	  541.24	-1754.00	  432.88
      8.1700	  608.00	  541.92	-1754.00	  433.55
      8.2700	  598.00	  542.58	-1754.00	  434.22
      8.3700	  637.00	  543.23	-1754.00	  434.87
      8.4700	  623.00	  543.87	-1754.00	  435.51
      8.5700	  590.00	  544.50	-1754.00	  436.13
      8.6700	  618.00	  545.11	-1754.00	  436.75
      8.7700	  629.00	  545.72	-1754.00	  437.35
      8.8700	  589.00	  546.31	-1754.00	  437.94
      8.9700	  583.00	  546.89	-1754.00	  438.52
      9.0700	  590.00	  547.46	-1754.00	  439.09
      9.1700	  605.00	  548.01	-1754.00	  439.65
      9.2700	  635.00	  548.56	-1754.00	  440.20
      9.3700	  620.00	  549.09	-1754.00	  440.73
      9.4700	  633.00	  549.62	-1754.00	  441.25
      9.5700	  644.00	  550.13	-1754.00	  441.77
      9.6700	  616.00	  550.63	-1754.00	  442.27
      9.7700	  608.00	  551.12	-1754.00	  442.76
      9.8700	  561.00	  551.60	-1754.00	  443.24
      9.9700	  589.00	  552.07	-1754.00	  443.71
     10.0700	  590.00	  554.21	-1718.21	  444.16
     10.1700	  564.00	  554.82	-1744.82	  444.61
     10.2700	  625.00	  555.46	-1684.46	  445.05
     10.3700	  571.00	  556.15	-1739.15	  445.48
     10.4700	  543.00	  556.90	-1767.90	  445.89
     10.5700	  592.00	  557.78	-1719.78	  446.30
     10.6700	  589.00	  558.86	-1723.86	  446.69
     10.7700	  576.00	  560.23	-1738.23	  447.08
     10.8700	  555.00	  561.97	-1760.97	  447.46
     10.9700	  535.00	  564.11	-1783.11	  447.82
     11.0700	  609.00	  566.64	-1711.64	  448.18
     11.1700	  597.00	  569.59	-1726.59	  448.52
     11.2700	  631.00	  572.97	-1695.97	  448.86
     11.3700	  622.00	  576.85	-1708.85	  449.19
     11.4700	  574.00	  581.36	-1761.36	  449.51
     11.5700	  570.00	  586.69	-1770.69	  449.82
     11.6700	  583.00	  593.14	-1764.14	  450.11
     11.7700	  650.00	  601.12	-1705.12	  450.40
     11.8700	  601.00	  611.00	-1764.00	  450.69
     11.9700	  634.00	  622.68	-1742.68	  450.96
     12.0700	  681.00	  634.82	-1707.82	  451.22
     12.1700	  692.00	  644.02	-1706.02	  451.47
     12.2700	  706.00	  644.77	-1692.77	  451.72
     12.3700	  668.00	  633.28	-1719.28	  451.95
     12.4700	  639.00	  614.34	-1729.34	  452.18
     12.5700	  596.00	  596.54	-1754.54	  452.40
     12.6700	  572.00	  583.75	-1765.75	  452.61
     12.7700	  563.00	  575.86	-1766.86	  452.81
     12.8700	  556.00	  571.44	-1769.44	  453.01
     12.9700	  548.00	  569.01	-1775.01	  453.19
     13.0700	  577.00	  567.61	-1744.61	  453.37
     13.1700	  531.00	  566.73	-1789.73	  453.54
     13.2700	  499.00	  566.12	-1821.12	  453.70
     13.3700	  586.00	  565.70	-1733.70	  453.85
     13.4700	  518.00	  565.39	-1801.39	  453.99
     13.5700	  555.00	  565.17	-1764.17	  454.13
     13.6700	  530.00	  565.01	-1789.01	  454.26
     13.7700	  583.00	  564.89	-1735.89	  454.38
     13.8700	  566.00	  564.80	-1752.80	  454.50
     13.9700	  522.00	  564.74	-1796.74	  454.60
     14.0700	  531.00	  564.70	-1787.70	  454.70
     14.1700	  578.00	  564.70	-1740.70	  454.79
     14.2700	  549.00	  564.68	-1769.68	  454.87
     14.3700	  537.00	  564.66	-1781.66	  454.95
     14.4700	  537.00	  564.65	-1781.65	  455.02
     14.5700	  548.00	  564.65	-1770.65	  455.08
     14.6700	  532.00	  564.64	-1786.64	  455.14
     14.7700	  521.00	  564.64	-1797.64	  455.19
     14.8700	  539.00	  564.63	-1779.63	  455.23
     14.9700	  598.00	  564.62	-1720.62	  455.26
     15.0700	  568.00	  564.61	-1750.61	  455.29
     15.1700	  548.00	  564.59	-1770.59	  455.31
     15.2700	  556.00	  564.58	-1762.58	  455.32
     15.3700	  552.00	  564.56	-1766.56	  455.33
     15.4700	  596.00	  564.53	-1722.53	  455.33
     15.5700	  562.00	  564.50	-1756.50	  455.33
     15.6700	  588.00	  564.47	-1730.47	  455.32
     15.7700	  537.00	  564.43	-1781.43	  455.30
     15.8700	  559.00	  564.39	-1759.39	  455.27
     15.9700	  583.00	  564.34	-1735.34	  455.24
     16.0700	  573.00	  564.29	-1745.29	  455.21
     16.1700	  559.00	  564.24	-1759.24	  455.16
     16.2700	  544.00	  564.18	-1774.18	  455.11
     16.3700	  516.00	  564.11	-1802.11	  455.06
     16.4700	  523.00	  564.04	-1795.04	  455.00
     16.5700	  546.00	  563.96	-1771.96	  454.93
     16.6700	  543.00	  563.88	-1774.88	  454.86
     16.7700	  505.00	  563.79	-1812.79	  454.78
     16.8700	  520.00	  563.70	-1797.70	  454.70
     16.9700	  561.00	  563.61	-1756.61	  454.61
     17.0700	  546.00	  563.51	-1771.51	  454.52
     17.1700	  614.00	  563.40	-1703.40	  454.42
     17.2700	  570.00	  563.29	-1747.29	  454.31
     17.3700	  514.00	  563.18	-1803.18	  454.20
     17.4700	  553.00	  563.06	-1764.06	  454.08
     17.5700	  540.00	  563.04	-1777.04	  453.96
     17.6700	  543.00	  562.91	-1773.91	  453.84
     17.7700	  532.00	  562.78	-1784.78	  453.71
     17.8700	  540.00	  562.64	-1776.64	  453.57
     17.9700	  565.00	  562.50	-1751.50	  453.43
     18.0700	  574.00	  562.45	-1742.45	  453.28
     18.1700	  589.00	  562.31	-1727.31	  453.13
     18.2700	  538.00	  562.15	-1778.15	  452.98
     18.3700	  551.00	  562.00	-1765.00	  452.82
     18.4700	  517.00	  561.84	-1798.84	  452.65
     18.5700	  591.00	  561.67	-1724.67	  452.48
     18.6700	  578.00	  561.50	-1737.50	  452.31
     18.7700	  534.00	  561.33	-1781.33	  452.13
     18.8700	  551.00	  561.15	-1764.15	  451.95
     18.9700	  557.00	  560.97	-1757.97	  451.76
     19.0700	  563.00	  560.78	-1751.78	  451.57
     19.1700	  548.00	  560.60	-1766.60	  451.37
     19.2700	  564.00	  560.40	-1750.40	  451.17
     19.3700	  542.00	  560.21	-1772.21	  450.97
     19.4700	  542.00	  560.01	-1772.01	  450.76
     19.5700	  517.00	  559.81	-1796.81	  450.55
     19.6700	  559.00	  559.60	-1754.60	  450.33
     19.7700	  523.00	  559.43	-1790.43	  450.11
     19.8700	  577.00	  559.22	-1736.22	  449.89
     19.9700	  575.00	  559.00	-1738.00	  449.66
     20.0700	  528.00	  558.78	-1784.78	  449.43
     20.1700	  562.00	  558.56	-1750.56	  449.20
     20.2700	  522.00	  558.34	-1790.34	  448.96
     20.3700	  519.00	  558.11	-1793.11	  448.71
     20.4700	  551.00	  557.88	-1760.88	  448.47
     20.5700	  575.00	  557.65	-1736.65	  448.22
     20.6700	  580.00	  557.41	-1731.41	  447.97
     20.7700	  565.00	  557.18	-1746.18	  447.71
     20.8700	  562.00	  556.94	-1748.94	  447.45
     20.9700	  547.00	  556.70	-1763.70	  447.19
     21.0700	  549.00	  556.46	-1761.46	  446.92
     21.1700	  590.00	  556.21	-1720.21	  446.65
     21.2700	  541.00	  555.97	-1768.97	  446.38
     21.3700	  555.00	  555.72	-1754.72	  446.11
     21.4700	  571.00	  555.47	-1738.47	  445.83
     21.5700	  545.00	  555.22	-1764.22	  445.55
     21.6700	  531.00	  554.97	-1777.97	  445.26
     21.7700	  537.00	  554.72	-1771.72	  444.97
     21.8700	  554.00	  554.47	-1754.47	  444.68
     21.9700	  512.00	  554.22	-1796.22	  444.39
     22.0700	  572.00	  553.98	-1735.98	  444.10
     22.1700	  543.00	  553.73	-1764.73	  443.80
     22.2700	  571.00	  553.49	-1736.49	  443.50
     22.3700	  555.00	  553.40	-1752.40	  443.19
     22.4700	  539.00	  553.17	-1768.17	  442.89
     22.5700	  562.00	  552.94	-1744.94	  442.58
     22.6700	  545.00	  552.71	-1761.71	  442.27
     22.7700	  564.00	  552.46	-1742.46	  441.95
     22.8700	  586.00	  552.25	-1720.25	  441.64
     22.9700	  562.00	  552.06	-1744.06	  441.32
     23.0700	  553.00	  551.89	-1752.89	  441.00
     23.1700	  560.00	  551.73	-1745.73	  440.68
     23.2700	  516.00	  551.60	-1789.60	  440.35
     23.3700	  591.00	  551.51	-1714.51	  440.03
     23.4700	  564.00	  551.45	-1741.45	  439.70
     23.5700	  557.00	  551.46	-1748.46	  439.36
     23.6700	  554.00	  551.55	-1751.55	  439.03
     23.7700	  531.00	  551.77	-1774.77	  438.70
     23.8700	  598.00	  552.20	-1708.20	  438.36
     23.9700	  552.00	  552.97	-1754.97	  438.02
     24.0700	  583.00	  554.35	-1725.35	  437.68
     24.1700	  582.00	  556.71	-1728.71	  437.34
     24.2700	  539.00	  560.58	-1775.58	  436.99
     24.3700	  583.00	  566.56	-1737.56	  436.65
     24.4700	  585.00	  575.06	-1744.06	  436.30
     24.5700	  596.00	  586.06	-1744.06	  435.95
     24.6700	  656.00	  598.47	-1696.47	  435.60
     24.7700	  634.00	  609.55	-1729.55	  435.25
     24.8700	  599.00	  614.57	-1769.57	  434.89
     24.9700	  680.00	  609.14	-1683.14	  434.54
     25.0700	  632.00	  595.08	-1717.08	  434.18
     25.1700	  590.00	  579.50	-1743.50	  433.82
     25.2700	  584.00	  567.04	-1737.04	  433.46
     25.3700	  519.00	  558.65	-1793.65	  433.10
     25.4700	  558.00	  553.58	-1749.58	  432.74
     25.5700	  522.00	  550.64	-1782.64	  432.37
     25.6700	  596.00	  548.89	-1706.89	  432.01
     25.7700	  561.00	  547.75	-1740.75	  431.64
     25.8700	  595.00	  546.94	-1705.94	  431.28
     25.9700	  570.00	  546.34	-1730.34	  430.91
     26.0700	  571.00	  545.89	-1728.89	  430.54
     26.1700	  561.00	  545.57	-1738.57	  430.17
     26.2700	  600.00	  545.35	-1699.35	  429.80
     26.3700	  564.00	  545.23	-1735.23	  429.43
     26.4700	  526.00	  545.21	-1773.21	  429.05
     26.5700	  581.00	  545.31	-1718.31	  428.68
     26.6700	  558.00	  545.53	-1741.53	  428.30
     26.7700	  579.00	  545.89	-1720.89	  427.93
     26.8700	  558.00	  546.43	-1742.43	  427.55
     26.9700	  533.00	  547.18	-1768.18	  427.18
     27.0700	  566.00	  548.23	-1736.23	  426.80
     27.1700	  538.00	  549.66	-1765.66	  426.42
     27.2700	  598.00	  551.68	-1707.68	  426.04
     27.3700	  563.00	  554.62	-1745.62	  425.66
     27.4700	  532.00	  559.16	-1781.16	  425.28
     27.5700	  584.00	  566.49	-1736.49	  424.90
     27.6700	  559.00	  578.62	-1773.62	  424.52
     27.7700	  566.00	  598.36	-1786.36	  424.14
     27.8700	  582.00	  628.75	-1800.75	  423.75
     27.9700	  628.00	  671.41	-1797.41	  423.37
     28.0700	  719.00	  724.24	-1759.24	  422.99
     28.1700	  840.00	  779.01	-1693.01	  422.61
     28.2700	  922.00	  820.06	-1652.06	  422.22
     28.3700	  940.00	  828.84	-1642.84	  421.84
     28.4700	  849.00	  804.12	-1709.12	  421.45
     28.5700	  789.00	  772.52	-1737.52	  421.07
     28.6700	  716.00	  759.53	-1797.53	  420.69
     28.7700	  696.00	  771.41	-1829.41	  420.30
     28.8700	  775.00	  798.34	-1777.34	  419.92
     28.9700	  844.00	  819.18	-1729.18	  419.53
     29.0700	  797.00	  809.49	-1766.49	  419.15
     29.1700	  766.00	  762.48	-1750.48	  418.76
     29.2700	  708.00	  699.60	-1745.60	  418.38
     29.3700	  660.00	  643.71	-1737.71	  417.99
     29.4700	  655.00	  603.46	-1702.46	  417.61
     29.5700	  612.00	  578.05	-1720.05	  417.22
     29.6700	  596.00	  563.29	-1721.29	  416.84
     29.7700	  592.00	  554.89	-1716.89	  416.45
     29.8700	  614.00	  549.91	-1689.91	  416.07
     29.9700	  635.00	  546.80	-1665.80	  415.69
     30.0700	  534.00	  544.93	-1764.93	  415.30
     30.1700	  621.00	  544.14	-1677.15	  414.92
     30.2700	  566.00	  544.69	-1732.69	  414.53
     30.3700	  584.00	  547.17	-1717.17	  414.15
     30.4700	  595.00	  552.59	-1711.59	  413.77
     30.5700	  589.00	  562.15	-1727.15	  413.39
     30.6700	  579.00	  576.61	-1751.61	  413.00
     30.7700	  603.00	  595.24	-1746.24	  412.62
     30.8700	  638.00	  614.84	-1730.84	  412.24
     30.9700	  591.00	  629.19	-1792.19	  411.86
     31.0700	  620.00	  630.50	-1764.50	  411.48
     31.1700	  622.00	  615.89	-1747.89	  411.10
     31.2700	  613.00	  592.81	-1733.81	  410.72
     31.3700	  620.00	  570.73	-1704.73	  410.34
     31.4700	  571.00	  553.99	-1736.99	  409.97
     31.5700	  565.00	  543.00	-1732.00	  409.59
     31.6700	  591.00	  536.42	-1699.42	  409.21
     31.7700	  572.00	  532.63	-1714.63	  408.84
     31.8700	  563.00	  530.37	-1721.37	  408.46
     31.9700	  511.00	  528.93	-1771.93	  408.09
     32.0700	  538.00	  527.94	-1743.94	  407.71
     32.1700	  535.00	  527.27	-1746.27	  407.34
     32.2700	  526.00	  526.84	-1754.84	  406.97
     32.3700	  527.00	  526.63	-1753.63	  406.59
     32.4700	  550.00	  526.63	-1730.63	  406.22
     32.5700	  557.00	  526.85	-1723.85	  405.85
     32.6700	  549.00	  527.32	-1732.32	  405.48
     32.7700	  529.00	  528.08	-1753.08	  405.12
     32.8700	  545.00	  529.21	-1738.21	  404.75
     32.9700	  519.00	  530.82	-1765.82	  404.38
     33.0700	  522.00	  533.11	-1765.11	  404.02
     33.1700	  545.00	  536.47	-1745.47	  403.65
     33.2700	  551.00	  541.63	-1744.63	  403.29
     33.3700	  536.00	  550.08	-1768.08	  402.93
     33.4700	  590.00	  564.49	-1728.49	  402.57
     33.5700	  652.00	  589.03	-1691.03	  402.21
     33.6700	  608.00	  628.88	-1774.88	  401.85
     33.7700	  672.00	  688.18	-1770.18	  401.49
     33.8700	  723.00	  765.77	-1796.77	  401.13
     33.9700	  845.00	  850.63	-1759.63	  400.77
     34.0700	  998.00	  919.74	-1675.74	  400.42
     34.1700	  998.00	  942.07	-1698.07	  400.07
     34.2700	  953.00	  900.07	-1701.07	  399.71
     34.3700	  846.00	  814.68	-1722.68	  399.36
     34.4700	  802.00	  723.84	-1675.84	  399.01
     34.5700	  634.00	  649.95	-1769.95	  398.66
     34.6700	  591.00	  598.63	-1761.63	  398.31
     34.7700	  581.00	  566.68	-1739.68	  397.97
     34.8700	  548.00	  548.02	-1754.02	  397.62
     34.9700	  501.00	  537.12	-1790.12	  397.28
     35.0700	  577.00	  530.34	-1707.34	  396.94
     35.1700	  511.00	  525.68	-1768.68	  396.60
     35.2700	  533.00	  522.20	-1743.20	  396.26
     35.3700	  511.00	  519.46	-1762.46	  395.92
     35.4700	  521.00	  517.22	-1750.22	  395.58
     35.5700	  506.00	  515.83	-1763.83	  395.24
     35.6700	  548.00	  514.25	-1720.25	  394.91
     35.7700	  513.00	  512.90	-1753.90	  394.58
     35.8700	  535.00	  511.69	-1730.69	  394.25
     35.9700	  486.00	  510.66	-1778.66	  393.92
     36.0700	  506.00	  509.73	-1757.73	  393.59
     36.1700	  525.00	  508.90	-1737.90	  393.26
     36.2700	  516.00	  508.16	-1746.16	  392.93
     36.3700	  505.00	  507.48	-1756.48	  392.61
     36.4700	  545.00	  506.87	-1715.87	  392.29
     36.5700	  515.00	  506.32	-1745.32	  391.97
     36.6700	  518.00	  505.83	-1741.83	  391.65
     36.7700	  527.00	  505.40	-1732.40	  391.33
     36.8700	  551.00	  505.05	-1708.05	  391.01
     36.9700	  446.00	  504.82	-1812.82	  390.70
     37.0700	  498.00	  504.77	-1760.77	  390.39
     37.1700	  490.00	  505.03	-1769.03	  390.07
     37.2700	  509.00	  505.76	-1750.76	  389.76
     37.3700	  482.00	  507.18	-1779.18	  389.46
     37.4700	  492.00	  509.38	-1771.38	  389.15
     37.5700	  484.00	  512.26	-1782.26	  388.84
     37.6700	  475.00	  515.31	-1794.31	  388.54
     37.7700	  509.00	  517.58	-1762.58	  388.24
     37.8700	  471.00	  518.13	-1801.13	  387.94
     37.9700	  505.00	  516.26	-1765.26	  387.64
     38.0700	  509.00	  513.00	-1758.00	  387.35
     38.1700	  537.00	  509.44	-1726.44	  387.05
     38.2700	  495.00	  506.18	-1765.18	  386.76
     38.3700	  495.00	  503.50	-1762.50	  386.47
     38.4700	  487.00	  501.49	-1768.49	  386.18
     38.5700	  493.00	  500.04	-1761.04	  385.89
     38.6700	  487.00	  499.02	-1766.02	  385.61
     38.7700	  515.00	  498.28	-1737.28	  385.32
     38.8700	  517.00	  497.70	-1734.70	  385.04
     38.9700	  507.00	  497.23	-1744.23	  384.76
     39.0700	  453.00	  496.81	-1797.81	  384.48
     39.1700	  488.00	  496.44	-1762.44	  384.20
     39.2700	  524.00	  496.00	-1726.00	  383.93
     39.3700	  475.00	  495.68	-1774.68	  383.66
     39.4700	  466.00	  495.38	-1783.38	  383.39
     39.5700	  486.00	  495.10	-1763.10	  383.12
     39.6700	  485.00	  494.83	-1763.83	  382.85
     39.7700	  461.00	  494.57	-1787.57	  382.58
     39.8700	  461.00	  494.33	-1787.33	  382.32
     39.9700	  475.00	  494.10	-1773.10	  382.06
     40.0700	  454.00	  493.88	-1793.88	  381.80
     40.1700	  479.00	  493.58	-1768.58	  381.54
     40.2700	  493.00	  493.39	-1754.39	  381.28
     40.3700	  505.00	  493.21	-1742.21	  381.03
     40.4700	  440.00	  493.58	-1807.58	  380.78
     40.5700	  468.00	  493.44	-1779.44	  380.53
     40.6700	  467.00	  493.33	-1780.33	  380.28
     40.7700	  513.00	  493.23	-1734.23	  380.03
