MSG Master    CELL:    5.91092   5.91092  23.23886   90.0000   90.0000  120.0000   SPGR: P 63/m m c             TEMP:    933.95
  1   1280     2.52000     0.00000    -0.12773     0.00000     0.00000    0
    98     0     2
       0.00000      10.00000
     125.00000     130.00000
 2Theta	Yobs	Ycal	Yobs-Ycal	Backg	Posr	(hkl)	K
      0.7700	    0.00	  524.30	-1727.50	  412.23
      0.8700	    0.00	  525.23	-1727.50	  413.15
      0.9700	   36.00	  526.14	-1727.50	  414.07
      1.0700	   47.00	  527.04	-1727.50	  414.97
      1.1700	   38.00	  527.93	-1727.50	  415.86
      1.2700	   44.00	  528.80	-1727.50	  416.73
      1.3700	   56.00	  529.67	-1727.50	  417.60
      1.4700	   98.00	  530.52	-1727.50	  418.45
      1.5700	  281.00	  531.36	-1727.50	  419.29
      1.6700	  437.00	  532.19	-1727.50	  420.11
      1.7700	  561.00	  533.00	-1727.50	  420.93
      1.8700	  705.00	  533.80	-1727.50	  421.73
      1.9700	  752.00	  534.60	-1727.50	  422.52
      2.0700	  775.00	  535.37	-1727.50	  423.30
      2.1700	  769.00	  536.14	-1727.50	  424.07
      2.2700	  754.00	  536.90	-1727.50	  424.83
      2.3700	  713.00	  537.64	-1727.50	  425.57
      2.4700	  721.00	  538.38	-1727.50	  426.31
      2.5700	  695.00	  539.10	-1727.50	  427.03
      2.6700	  662.00	  539.81	-1727.50	  427.74
      2.7700	  630.00	  540.51	-1727.50	  428.44
      2.8700	  640.00	  541.20	-1727.50	  429.13
      2.9700	  591.00	  541.87	-1727.50	  429.80
      3.0700	  617.00	  542.54	-1727.50	  430.47
      3.1700	  561.00	  543.20	-1727.50	  431.12
      3.2700	  638.00	  543.84	-1727.50	  431.77
      3.3700	  761.00	  544.47	-1727.50	  432.40
      3.4700	  827.00	  545.10	-1727.50	  433.02
      3.5700	  960.00	  545.71	-1727.50	  433.64
      3.6700	 1003.00	  546.31	-1727.50	  434.24
      3.7700	 1049.00	  546.90	-1727.50	  434.83
      3.8700	 1099.00	  547.48	-1727.50	  435.41
      3.9700	 1167.00	  548.05	-1727.50	  435.98
      4.0700	 1230.00	  548.61	-1727.50	  436.54
      4.1700	 1227.00	  549.16	-1727.50	  437.09
      4.2700	 1186.00	  549.70	-1727.50	  437.63
      4.3700	 1263.00	  550.23	-1727.50	  438.16
      4.4700	 1194.00	  550.75	-1727.50	  438.68
      4.5700	 1145.00	  551.26	-1727.50	  439.19
      4.6700	 1108.00	  551.77	-1727.50	  439.69
      4.7700	 1074.00	  552.26	-1727.50	  440.18
      4.8700	 1030.00	  552.74	-1727.50	  440.67
      4.9700	 1002.00	  553.21	-1727.50	  441.14
      5.0700	 1038.00	  553.67	-1727.50	  441.60
      5.1700	  985.00	  554.12	-1727.50	  442.05
      5.2700	  967.00	  554.57	-1727.50	  442.49
      5.3700	  998.00	  555.00	-1727.50	  442.93
      5.4700	  880.00	  555.42	-1727.50	  443.35
      5.5700	  912.00	  555.84	-1727.50	  443.77
      5.6700	  880.00	  556.25	-1727.50	  444.18
      5.7700	  863.00	  556.64	-1727.50	  444.57
      5.8700	  815.00	  557.03	-1727.50	  444.96
      5.9700	  806.00	  557.41	-1727.50	  445.34
      6.0700	  815.00	  557.78	-1727.50	  445.71
      6.1700	  850.00	  558.14	-1727.50	  446.07
      6.2700	  793.00	  558.50	-1727.50	  446.43
      6.3700	  758.00	  558.84	-1727.50	  446.77
      6.4700	  796.00	  559.18	-1727.50	  447.11
      6.5700	  819.00	  559.51	-1727.50	  447.44
      6.6700	  775.00	  559.83	-1727.50	  447.75
      6.7700	  731.00	  560.14	-1727.50	  448.07
      6.8700	  726.00	  560.44	-1727.50	  448.37
      6.9700	  747.00	  560.73	-1727.50	  448.66
      7.0700	  758.00	  561.02	-1727.50	  448.95
      7.1700	  729.00	  561.30	-1727.50	  449.23
      7.2700	  655.00	  561.57	-1727.50	  449.50
      7.3700	  659.00	  561.83	-1727.50	  449.76
      7.4700	  650.00	  562.08	-1727.50	  450.01
      7.5700	  665.00	  562.33	-1727.50	  450.26
      7.6700	  634.00	  562.57	-1727.50	  450.50
      7.7700	  646.00	  562.80	-1727.50	  450.73
      7.8700	  677.00	  563.02	-1727.50	  450.95
      7.9700	  601.00	  563.24	-1727.50	  451.17
      8.0700	  624.00	  563.45	-1727.50	  451.38
      8.1700	  675.00	  563.65	-1727.50	  451.58
      8.2700	  679.00	  563.84	-1727.50	  451.77
      8.3700	  632.00	  564.03	-1727.50	  451.96
      8.4700	  637.00	  564.21	-1727.50	  452.14
      8.5700	  609.00	  564.38	-1727.50	  452.31
      8.6700	  604.00	  564.54	-1727.50	  452.47
      8.7700	  651.00	  564.70	-1727.50	  452.63
      8.8700	  584.00	  564.85	-1727.50	  452.78
      8.9700	  612.00	  565.00	-1727.50	  452.92
      9.0700	  601.00	  565.13	-1727.50	  453.06
      9.1700	  625.00	  565.26	-1727.50	  453.19
      9.2700	  594.00	  565.39	-1727.50	  453.31
      9.3700	  576.00	  565.50	-1727.50	  453.43
      9.4700	  592.00	  565.61	-1727.50	  453.54
      9.5700	  576.00	  565.71	-1727.50	  453.64
      9.6700	  554.00	  565.81	-1727.50	  453.74
      9.7700	  577.00	  565.90	-1727.50	  453.83
      9.8700	  601.00	  565.98	-1727.50	  453.91
      9.9700	  628.00	  566.06	-1727.50	  453.99
     10.0700	  584.00	  567.77	-1711.27	  454.06
     10.1700	  552.00	  568.01	-1743.51	  454.13
     10.2700	  640.00	  568.29	-1655.79	  454.18
     10.3700	  578.00	  568.63	-1718.13	  454.24
     10.4700	  577.00	  569.05	-1719.55	  454.28
     10.5700	  589.00	  569.63	-1708.13	  454.32
     10.6700	  594.00	  570.44	-1703.94	  454.36
     10.7700	  550.00	  571.57	-1749.07	  454.39
     10.8700	  564.00	  573.12	-1736.62	  454.41
     10.9700	  607.00	  575.09	-1695.59	  454.43
     11.0700	  605.00	  577.48	-1699.98	  454.44
     11.1700	  595.00	  580.30	-1712.80	  454.44
     11.2700	  564.00	  583.60	-1747.10	  454.44
     11.3700	  596.00	  587.45	-1718.95	  454.44
     11.4700	  601.00	  592.00	-1718.50	  454.43
     11.5700	  635.00	  597.46	-1689.96	  454.41
     11.6700	  565.00	  604.19	-1766.69	  454.39
     11.7700	  630.00	  612.63	-1710.13	  454.36
     11.8700	  646.00	  623.13	-1704.63	  454.33
     11.9700	  688.00	  635.44	-1674.94	  454.29
     12.0700	  698.00	  647.76	-1677.26	  454.25
     12.1700	  681.00	  655.96	-1702.46	  454.20
     12.2700	  669.00	  653.99	-1712.49	  454.14
     12.3700	  639.00	  639.16	-1727.66	  454.09
     12.4700	  645.00	  618.36	-1700.86	  454.02
     12.5700	  581.00	  600.14	-1746.64	  453.95
     12.6700	  595.00	  587.48	-1719.98	  453.88
     12.7700	  594.00	  579.79	-1713.29	  453.80
     12.8700	  582.00	  575.42	-1720.92	  453.72
     12.9700	  527.00	  572.90	-1773.40	  453.63
     13.0700	  558.00	  571.31	-1740.81	  453.54
     13.1700	  597.00	  570.20	-1700.70	  453.44
     13.2700	  556.00	  569.35	-1740.85	  453.34
     13.3700	  545.00	  568.67	-1751.17	  453.23
     13.4700	  560.00	  568.11	-1735.61	  453.12
     13.5700	  533.00	  567.64	-1762.14	  453.01
     13.6700	  569.00	  567.23	-1725.73	  452.89
     13.7700	  563.00	  566.87	-1731.37	  452.77
     13.8700	  540.00	  566.54	-1754.04	  452.64
     13.9700	  534.00	  566.24	-1759.74	  452.51
     14.0700	  584.00	  565.96	-1709.46	  452.37
     14.1700	  576.00	  565.73	-1717.23	  452.23
     14.2700	  565.00	  565.48	-1727.98	  452.09
     14.3700	  523.00	  565.24	-1769.74	  451.94
     14.4700	  607.00	  565.01	-1685.51	  451.78
     14.5700	  549.00	  564.78	-1743.28	  451.63
     14.6700	  595.00	  564.56	-1697.06	  451.47
     14.7700	  539.00	  564.34	-1752.84	  451.30
     14.8700	  557.00	  564.12	-1734.62	  451.13
     14.9700	  554.00	  563.91	-1737.41	  450.96
     15.0700	  522.00	  563.69	-1769.19	  450.79
     15.1700	  555.00	  563.48	-1735.98	  450.61
     15.2700	  581.00	  563.27	-1709.77	  450.43
     15.3700	  611.00	  563.05	-1679.55	  450.24
     15.4700	  574.00	  562.83	-1716.33	  450.05
     15.5700	  552.00	  562.62	-1738.12	  449.86
     15.6700	  553.00	  562.40	-1736.90	  449.66
     15.7700	  546.00	  562.18	-1743.68	  449.46
     15.8700	  520.00	  561.96	-1769.46	  449.25
     15.9700	  532.00	  561.73	-1757.23	  449.05
     16.0700	  598.00	  561.51	-1691.01	  448.84
     16.1700	  515.00	  561.28	-1773.78	  448.62
     16.2700	  554.00	  561.05	-1734.55	  448.41
     16.3700	  529.00	  560.82	-1759.32	  448.19
     16.4700	  549.00	  560.58	-1739.08	  447.96
     16.5700	  542.00	  560.35	-1745.85	  447.74
     16.6700	  563.00	  560.11	-1724.61	  447.51
     16.7700	  527.00	  559.87	-1760.37	  447.28
     16.8700	  565.00	  559.63	-1722.13	  447.04
     16.9700	  505.00	  559.38	-1781.88	  446.80
     17.0700	  553.00	  559.14	-1733.64	  446.56
     17.1700	  547.00	  558.89	-1739.39	  446.32
     17.2700	  577.00	  558.63	-1709.13	  446.07
     17.3700	  561.00	  558.38	-1724.88	  445.83
     17.4700	  543.00	  558.12	-1742.62	  445.57
     17.5700	  538.00	  557.87	-1747.37	  445.32
     17.6700	  570.00	  557.61	-1715.11	  445.06
     17.7700	  590.00	  557.45	-1694.95	  444.80
     17.8700	  536.00	  557.19	-1748.69	  444.54
     17.9700	  536.00	  556.92	-1748.42	  444.28
     18.0700	  541.00	  556.65	-1743.15	  444.01
     18.1700	  534.00	  556.38	-1749.88	  443.74
     18.2700	  535.00	  556.21	-1748.71	  443.47
     18.3700	  580.00	  555.94	-1703.44	  443.20
     18.4700	  609.00	  555.66	-1674.16	  442.92
     18.5700	  541.00	  555.39	-1741.89	  442.64
     18.6700	  534.00	  555.11	-1748.61	  442.36
     18.7700	  527.00	  554.84	-1755.34	  442.08
     18.8700	  526.00	  554.56	-1756.06	  441.79
     18.9700	  528.00	  554.27	-1753.77	  441.51
     19.0700	  480.00	  553.99	-1801.49	  441.22
     19.1700	  535.00	  553.71	-1746.21	  440.93
     19.2700	  555.00	  553.42	-1725.92	  440.63
     19.3700	  559.00	  553.13	-1721.63	  440.34
     19.4700	  550.00	  552.85	-1730.35	  440.04
     19.5700	  578.00	  552.56	-1702.06	  439.74
     19.6700	  541.00	  552.26	-1738.76	  439.44
     19.7700	  576.00	  551.97	-1703.47	  439.14
     19.8700	  483.00	  551.68	-1796.18	  438.83
     19.9700	  527.00	  551.42	-1751.92	  438.53
     20.0700	  577.00	  551.12	-1701.62	  438.22
     20.1700	  548.00	  550.83	-1730.33	  437.91
     20.2700	  551.00	  550.53	-1727.03	  437.60
     20.3700	  554.00	  550.23	-1723.73	  437.29
     20.4700	  522.00	  549.93	-1755.43	  436.97
     20.5700	  570.00	  549.64	-1707.14	  436.66
     20.6700	  512.00	  549.34	-1764.84	  436.34
     20.7700	  508.00	  549.04	-1768.54	  436.02
     20.8700	  559.00	  548.74	-1717.24	  435.70
     20.9700	  528.00	  548.44	-1747.94	  435.38
     21.0700	  529.00	  548.14	-1746.64	  435.06
     21.1700	  532.00	  547.84	-1743.34	  434.73
     21.2700	  543.00	  547.54	-1732.04	  434.41
     21.3700	  538.00	  547.25	-1736.75	  434.08
     21.4700	  493.00	  546.95	-1781.45	  433.75
     21.5700	  565.00	  546.65	-1709.15	  433.42
     21.6700	  569.00	  546.36	-1704.86	  433.09
     21.7700	  523.00	  546.07	-1750.57	  432.76
     21.8700	  563.00	  545.78	-1710.28	  432.43
     21.9700	  532.00	  545.49	-1740.99	  432.09
     22.0700	  575.00	  545.21	-1697.71	  431.76
     22.1700	  569.00	  544.88	-1703.38	  431.42
     22.2700	  531.00	  544.60	-1741.10	  431.09
     22.3700	  520.00	  544.33	-1751.83	  430.75
     22.4700	  513.00	  544.07	-1758.57	  430.41
     22.5700	  552.00	  543.97	-1719.47	  430.07
     22.6700	  538.00	  543.73	-1733.23	  429.73
     22.7700	  537.00	  543.50	-1734.00	  429.39
     22.8700	  598.00	  543.28	-1672.78	  429.05
     22.9700	  543.00	  543.07	-1727.57	  428.70
     23.0700	  540.00	  542.89	-1730.39	  428.36
     23.1700	  531.00	  542.74	-1739.24	  428.02
     23.2700	  546.00	  542.62	-1724.12	  427.67
     23.3700	  539.00	  542.53	-1731.03	  427.33
     23.4700	  565.00	  542.51	-1705.01	  426.98
     23.5700	  551.00	  542.56	-1719.06	  426.63
     23.6700	  534.00	  542.72	-1736.22	  426.29
     23.7700	  532.00	  543.04	-1738.54	  425.94
     23.8700	  561.00	  543.65	-1710.15	  425.59
     23.9700	  544.00	  544.73	-1728.23	  425.24
     24.0700	  518.00	  546.62	-1756.12	  424.89
     24.1700	  547.00	  549.81	-1730.31	  424.54
     24.2700	  631.00	  554.95	-1651.45	  424.19
     24.3700	  563.00	  562.66	-1727.16	  423.84
     24.4700	  539.00	  573.29	-1761.79	  423.49
     24.5700	  599.00	  586.47	-1714.97	  423.14
     24.6700	  621.00	  600.40	-1706.90	  422.79
     24.7700	  634.00	  611.10	-1704.60	  422.43
     24.8700	  648.00	  612.77	-1692.27	  422.08
     24.9700	  621.00	  602.26	-1708.76	  421.73
     25.0700	  623.00	  584.86	-1689.36	  421.38
     25.1700	  564.00	  568.33	-1731.83	  421.02
     25.2700	  586.00	  556.12	-1697.62	  420.67
     25.3700	  625.00	  548.33	-1650.83	  420.32
     25.4700	  566.00	  543.76	-1705.26	  419.96
     25.5700	  565.00	  541.13	-1703.63	  419.61
     25.6700	  555.00	  539.51	-1712.01	  419.26
     25.7700	  539.00	  538.43	-1726.93	  418.90
     25.8700	  617.00	  537.64	-1648.14	  418.55
     25.9700	  531.00	  537.05	-1733.55	  418.20
     26.0700	  555.00	  536.60	-1709.10	  417.84
     26.1700	  560.00	  536.28	-1703.78	  417.49
     26.2700	  560.00	  536.06	-1703.56	  417.14
     26.3700	  545.00	  535.94	-1718.44	  416.78
     26.4700	  536.00	  535.93	-1727.43	  416.43
     26.5700	  576.00	  536.03	-1687.53	  416.08
     26.6700	  559.00	  536.25	-1704.75	  415.72
     26.7700	  553.00	  536.62	-1711.12	  415.37
     26.8700	  554.00	  537.16	-1710.66	  415.02
     26.9700	  482.00	  537.94	-1783.44	  414.67
     27.0700	  565.00	  539.01	-1701.51	  414.32
     27.1700	  560.00	  540.49	-1707.99	  413.96
     27.2700	  539.00	  542.58	-1731.08	  413.61
     27.3700	  557.00	  545.71	-1716.21	  413.26
     27.4700	  586.00	  550.63	-1692.13	  412.91
     27.5700	  590.00	  558.77	-1696.27	  412.56
     27.6700	  548.00	  572.44	-1751.94	  412.21
     27.7700	  616.00	  594.81	-1706.31	  411.86
     27.8700	  617.00	  629.07	-1739.57	  411.51
     27.9700	  665.00	  676.45	-1738.95	  411.17
     28.0700	  750.00	  733.55	-1711.05	  410.82
     28.1700	  779.00	  789.54	-1738.04	  410.47
     28.2700	  915.00	  825.45	-1637.95	  410.12
     28.3700	  894.00	  822.66	-1656.16	  409.78
     28.4700	  862.00	  787.80	-1653.30	  409.43
     28.5700	  775.00	  753.16	-1705.66	  409.08
     28.6700	  689.00	  741.55	-1780.05	  408.74
     28.7700	  676.00	  755.12	-1806.62	  408.40
     28.8700	  786.00	  780.61	-1722.11	  408.05
     28.9700	  871.00	  794.77	-1651.27	  407.71
     29.0700	  809.00	  775.31	-1693.81	  407.37
     29.1700	  728.00	  723.38	-1722.88	  407.03
     29.2700	  660.00	  663.46	-1730.96	  406.68
     29.3700	  593.00	  614.19	-1748.69	  406.34
     29.4700	  585.00	  580.60	-1723.10	  406.01
     29.5700	  607.00	  560.40	-1680.90	  405.67
     29.6700	  597.00	  548.98	-1679.48	  405.33
     29.7700	  584.00	  542.50	-1686.00	  404.99
     29.8700	  594.00	  538.58	-1672.08	  404.65
     29.9700	  531.00	  536.09	-1732.59	  404.32
     30.0700	  573.00	  534.60	-1689.10	  403.98
     30.1700	  545.00	  534.08	-1716.58	  403.65
     30.2700	  540.00	  534.82	-1722.32	  403.32
     30.3700	  581.00	  537.42	-1683.92	  402.99
     30.4700	  537.00	  542.86	-1733.36	  402.65
     30.5700	  569.00	  552.19	-1710.69	  402.32
     30.6700	  554.00	  565.83	-1739.33	  401.99
     30.7700	  596.00	  582.62	-1714.12	  401.67
     30.8700	  606.00	  599.00	-1720.50	  401.34
     30.9700	  607.00	  608.79	-1729.29	  401.01
     31.0700	  625.00	  605.55	-1708.05	  400.69
     31.1700	  548.00	  589.53	-1769.03	  400.36
     31.2700	  545.00	  569.01	-1751.51	  400.04
     31.3700	  547.00	  551.16	-1731.66	  399.72
     31.4700	  551.00	  538.45	-1714.95	  399.40
     31.5700	  520.00	  530.51	-1738.01	  399.08
     31.6700	  535.00	  525.93	-1718.43	  398.76
     31.7700	  524.00	  523.34	-1726.84	  398.44
     31.8700	  541.00	  521.78	-1708.28	  398.12
     31.9700	  552.00	  520.79	-1696.29	  397.80
     32.0700	  541.00	  520.13	-1706.63	  397.49
     32.1700	  567.00	  519.71	-1680.21	  397.18
     32.2700	  540.00	  519.50	-1707.00	  396.86
     32.3700	  574.00	  519.49	-1672.99	  396.55
     32.4700	  562.00	  519.67	-1685.17	  396.24
     32.5700	  554.00	  520.07	-1693.57	  395.93
     32.6700	  560.00	  520.72	-1688.22	  395.63
     32.7700	  549.00	  521.67	-1700.17	  395.32
     32.8700	  517.00	  523.01	-1733.51	  395.01
     32.9700	  546.00	  524.88	-1706.38	  394.71
     33.0700	  567.00	  527.51	-1688.01	  394.41
     33.1700	  560.00	  531.38	-1698.88	  394.11
     33.2700	  514.00	  537.45	-1750.95	  393.81
     33.3700	  514.00	  547.57	-1761.07	  393.51
     33.4700	  541.00	  564.99	-1751.49	  393.21
     33.5700	  630.00	  594.58	-1692.08	  392.91
     33.6700	  614.00	  641.81	-1755.31	  392.62
     33.7700	  692.00	  709.83	-1745.33	  392.33
     33.8700	  790.00	  794.46	-1731.96	  392.03
     33.9700	  960.00	  879.94	-1647.44	  391.74
     34.0700	 1069.00	  938.09	-1596.59	  391.45
     34.1700	  970.00	  937.62	-1695.12	  391.16
     34.2700	  920.00	  873.33	-1680.83	  390.88
     34.3700	  788.00	  778.84	-1718.34	  390.59
     34.4700	  674.00	  690.07	-1743.57	  390.31
     34.5700	  661.00	  622.97	-1689.47	  390.03
     34.6700	  567.00	  578.92	-1739.42	  389.75
     34.7700	  562.00	  552.68	-1718.18	  389.47
     34.8700	  556.00	  537.70	-1709.20	  389.19
     34.9700	  533.00	  528.90	-1723.40	  388.91
     35.0700	  477.00	  523.26	-1773.76	  388.64
     35.1700	  495.00	  519.23	-1751.73	  388.36
     35.2700	  523.00	  516.19	-1720.69	  388.09
     35.3700	  502.00	  513.76	-1739.26	  387.82
     35.4700	  536.00	  511.78	-1703.28	  387.55
     35.5700	  512.00	  510.13	-1725.63	  387.28
     35.6700	  513.00	  508.73	-1723.23	  387.02
     35.7700	  486.00	  508.00	-1749.50	  386.75
     35.8700	  487.00	  506.97	-1747.47	  386.49
     35.9700	  536.00	  506.07	-1697.57	  386.23
     36.0700	  476.00	  505.27	-1756.77	  385.97
     36.1700	  499.00	  504.57	-1733.07	  385.71
     36.2700	  483.00	  503.93	-1748.43	  385.45
     36.3700	  474.00	  503.37	-1756.87	  385.20
     36.4700	  541.00	  502.87	-1689.37	  384.94
     36.5700	  509.00	  502.44	-1720.94	  384.69
     36.6700	  510.00	  502.07	-1719.57	  384.44
     36.7700	  509.00	  501.78	-1720.28	  384.19
     36.8700	  534.00	  501.59	-1695.09	  383.94
     36.9700	  473.00	  501.59	-1756.09	  383.70
     37.0700	  480.00	  501.87	-1749.37	  383.46
     37.1700	  510.00	  502.64	-1720.14	  383.21
     37.2700	  519.00	  504.12	-1712.62	  382.97
     37.3700	  448.00	  506.52	-1786.02	  382.73
     37.4700	  488.00	  509.83	-1749.33	  382.50
     37.5700	  524.00	  513.61	-1717.11	  382.26
     37.6700	  496.00	  516.89	-1748.39	  382.03
     37.7700	  551.00	  518.27	-1694.77	  381.79
     37.8700	  535.00	  516.95	-1709.45	  381.56
     37.9700	  552.00	  513.16	-1688.66	  381.33
     38.0700	  509.00	  508.68	-1727.18	  381.11
     38.1700	  483.00	  504.65	-1749.15	  380.88
     38.2700	  504.00	  501.53	-1725.03	  380.66
     38.3700	  492.00	  499.34	-1734.84	  380.43
     38.4700	  469.00	  497.88	-1756.38	  380.21
     38.5700	  465.00	  496.91	-1759.41	  380.00
     38.6700	  435.00	  496.24	-1788.74	  379.78
     38.7700	  491.00	  495.73	-1732.23	  379.56
     38.8700	  489.00	  495.32	-1733.82	  379.35
     38.9700	  501.00	  494.97	-1721.47	  379.14
     39.0700	  476.00	  494.56	-1746.06	  378.93
     39.1700	  449.00	  494.27	-1772.77	  378.72
     39.2700	  458.00	  494.01	-1763.51	  378.51
     39.3700	  485.00	  493.77	-1736.27	  378.31
     39.4700	  480.00	  493.55	-1741.05	  378.10
     39.5700	  546.00	  493.34	-1674.84	  377.90
     39.6700	  516.00	  493.14	-1704.64	  377.70
     39.7700	  505.00	  492.96	-1715.46	  377.50
     39.8700	  515.00	  492.70	-1705.20	  377.31
     39.9700	  447.00	  492.54	-1773.04	  377.11
     40.0700	  485.00	  492.40	-1734.90	  376.92
     40.1700	  483.00	  492.27	-1736.77	  376.73
     40.2700	  485.00	  492.15	-1734.65	  376.54
     40.3700	  514.00	  492.05	-1705.55	  376.35
     40.4700	  479.00	  491.97	-1740.47	  376.17
     40.5700	  460.00	  492.41	-1759.91	  375.99
     40.6700	  480.00	  492.38	-1739.88	  375.80
     40.7700	  487.00	  492.36	-1732.86	  375.62
