MSG Master    CELL:    5.91930   5.91930  23.27281   90.0000   90.0000  120.0000   SPGR: P 63/m m c             TEMP:   1074.85
  1   1280     2.52000     0.00000    -0.12408     0.00000     0.00000    0
    99     0     2
       0.00000      10.00000
     125.00000     130.00000
 2Theta	Yobs	Ycal	Yobs-Ycal	Backg	Posr	(hkl)	K
      0.7700	    0.00	  554.87	-1796.75	  437.09
      0.8700	    0.00	  555.52	-1796.75	  437.74
      0.9700	   40.00	  556.16	-1796.75	  438.38
      1.0700	   41.00	  556.78	-1796.75	  439.00
      1.1700	   42.00	  557.40	-1796.75	  439.62
      1.2700	   57.00	  558.01	-1796.75	  440.23
      1.3700	   55.00	  558.61	-1796.75	  440.83
      1.4700	   95.00	  559.20	-1796.75	  441.42
      1.5700	  295.00	  559.77	-1796.75	  441.99
      1.6700	  417.00	  560.34	-1796.75	  442.56
      1.7700	  594.00	  560.90	-1796.75	  443.12
      1.8700	  646.00	  561.45	-1796.75	  443.67
      1.9700	  738.00	  561.98	-1796.75	  444.20
      2.0700	  763.00	  562.51	-1796.75	  444.73
      2.1700	  784.00	  563.03	-1796.75	  445.25
      2.2700	  766.00	  563.54	-1796.75	  445.76
      2.3700	  784.00	  564.04	-1796.75	  446.26
      2.4700	  697.00	  564.53	-1796.75	  446.75
      2.5700	  688.00	  565.01	-1796.75	  447.23
      2.6700	  688.00	  565.48	-1796.75	  447.70
      2.7700	  624.00	  565.94	-1796.75	  448.16
      2.8700	  667.00	  566.39	-1796.75	  448.61
      2.9700	  637.00	  566.83	-1796.75	  449.05
      3.0700	  600.00	  567.27	-1796.75	  449.49
      3.1700	  571.00	  567.69	-1796.75	  449.91
      3.2700	  585.00	  568.11	-1796.75	  450.33
      3.3700	  694.00	  568.52	-1796.75	  450.74
      3.4700	  723.00	  568.92	-1796.75	  451.14
      3.5700	  778.00	  569.31	-1796.75	  451.53
      3.6700	  834.00	  569.69	-1796.75	  451.91
      3.7700	  945.00	  570.06	-1796.75	  452.28
      3.8700	 1017.00	  570.42	-1796.75	  452.64
      3.9700	  987.00	  570.78	-1796.75	  453.00
      4.0700	  986.00	  571.13	-1796.75	  453.35
      4.1700	 1120.00	  571.46	-1796.75	  453.68
      4.2700	 1082.00	  571.80	-1796.75	  454.02
      4.3700	 1058.00	  572.12	-1796.75	  454.34
      4.4700	 1018.00	  572.43	-1796.75	  454.65
      4.5700	 1039.00	  572.74	-1796.75	  454.96
      4.6700	 1069.00	  573.04	-1796.75	  455.26
      4.7700	 1039.00	  573.33	-1796.75	  455.55
      4.8700	  937.00	  573.61	-1796.75	  455.83
      4.9700	 1002.00	  573.88	-1796.75	  456.10
      5.0700	  955.00	  574.15	-1796.75	  456.37
      5.1700	  946.00	  574.41	-1796.75	  456.63
      5.2700	  862.00	  574.66	-1796.75	  456.88
      5.3700	  904.00	  574.90	-1796.75	  457.12
      5.4700	  868.00	  575.14	-1796.75	  457.36
      5.5700	  838.00	  575.37	-1796.75	  457.59
      5.6700	  804.00	  575.59	-1796.75	  457.81
      5.7700	  810.00	  575.80	-1796.75	  458.02
      5.8700	  826.00	  576.01	-1796.75	  458.23
      5.9700	  813.00	  576.21	-1796.75	  458.43
      6.0700	  784.00	  576.40	-1796.75	  458.62
      6.1700	  801.00	  576.59	-1796.75	  458.81
      6.2700	  785.00	  576.76	-1796.75	  458.98
      6.3700	  736.00	  576.93	-1796.75	  459.15
      6.4700	  802.00	  577.10	-1796.75	  459.32
      6.5700	  740.00	  577.26	-1796.75	  459.48
      6.6700	  712.00	  577.41	-1796.75	  459.63
      6.7700	  765.00	  577.55	-1796.75	  459.77
      6.8700	  750.00	  577.69	-1796.75	  459.91
      6.9700	  713.00	  577.82	-1796.75	  460.04
      7.0700	  707.00	  577.94	-1796.75	  460.16
      7.1700	  721.00	  578.06	-1796.75	  460.28
      7.2700	  722.00	  578.17	-1796.75	  460.39
      7.3700	  686.00	  578.27	-1796.75	  460.49
      7.4700	  648.00	  578.37	-1796.75	  460.59
      7.5700	  670.00	  578.46	-1796.75	  460.68
      7.6700	  704.00	  578.55	-1796.75	  460.77
      7.7700	  651.00	  578.63	-1796.75	  460.85
      7.8700	  636.00	  578.70	-1796.75	  460.92
      7.9700	  650.00	  578.77	-1796.75	  460.99
      8.0700	  666.00	  578.83	-1796.75	  461.05
      8.1700	  624.00	  578.89	-1796.75	  461.11
      8.2700	  629.00	  578.94	-1796.75	  461.16
      8.3700	  648.00	  578.98	-1796.75	  461.20
      8.4700	  649.00	  579.02	-1796.75	  461.24
      8.5700	  623.00	  579.05	-1796.75	  461.27
      8.6700	  654.00	  579.08	-1796.75	  461.30
      8.7700	  654.00	  579.10	-1796.75	  461.32
      8.8700	  576.00	  579.11	-1796.75	  461.33
      8.9700	  593.00	  579.12	-1796.75	  461.34
      9.0700	  624.00	  579.13	-1796.75	  461.35
      9.1700	  646.00	  579.13	-1796.75	  461.35
      9.2700	  604.00	  579.12	-1796.75	  461.34
      9.3700	  597.00	  579.11	-1796.75	  461.33
      9.4700	  678.00	  579.09	-1796.75	  461.31
      9.5700	  603.00	  579.07	-1796.75	  461.29
      9.6700	  627.00	  579.04	-1796.75	  461.26
      9.7700	  620.00	  579.01	-1796.75	  461.23
      9.8700	  583.00	  578.97	-1796.75	  461.19
      9.9700	  525.00	  578.93	-1796.75	  461.15
     10.0700	  628.00	  579.67	-1748.42	  461.10
     10.1700	  615.00	  579.70	-1761.45	  461.05
     10.2700	  579.00	  579.75	-1797.50	  460.99
     10.3700	  624.00	  579.82	-1752.57	  460.93
     10.4700	  571.00	  579.95	-1805.70	  460.86
     10.5700	  567.00	  580.19	-1809.94	  460.79
     10.6700	  558.00	  580.62	-1819.37	  460.71
     10.7700	  592.00	  581.37	-1786.12	  460.63
     10.8700	  583.00	  582.51	-1796.26	  460.55
     10.9700	  568.00	  584.02	-1812.77	  460.46
     11.0700	  573.00	  585.88	-1809.63	  460.36
     11.1700	  625.00	  588.07	-1759.82	  460.26
     11.2700	  615.00	  590.64	-1772.39	  460.16
     11.3700	  567.00	  593.66	-1823.41	  460.05
     11.4700	  640.00	  597.25	-1754.00	  459.94
     11.5700	  605.00	  601.62	-1793.37	  459.83
     11.6700	  616.00	  607.11	-1787.86	  459.71
     11.7700	  624.00	  614.33	-1787.08	  459.58
     11.8700	  620.00	  624.17	-1800.92	  459.45
     11.9700	  631.00	  637.32	-1803.07	  459.32
     12.0700	  644.00	  652.26	-1805.01	  459.18
     12.1700	  692.00	  662.98	-1767.73	  459.04
     12.2700	  708.00	  659.83	-1748.58	  458.90
     12.3700	  663.00	  639.69	-1773.44	  458.75
     12.4700	  634.00	  614.82	-1777.57	  458.60
     12.5700	  605.00	  596.53	-1788.28	  458.44
     12.6700	  640.00	  586.55	-1743.30	  458.28
     12.7700	  580.00	  582.00	-1798.75	  458.12
     12.8700	  596.00	  579.92	-1780.67	  457.96
     12.9700	  589.00	  578.76	-1786.51	  457.79
     13.0700	  552.00	  577.96	-1822.71	  457.61
     13.1700	  545.00	  577.34	-1829.09	  457.43
     13.2700	  593.00	  576.83	-1780.58	  457.25
     13.3700	  586.00	  576.39	-1787.14	  457.07
     13.4700	  560.00	  576.00	-1812.75	  456.88
     13.5700	  581.00	  575.65	-1791.40	  456.69
     13.6700	  597.00	  575.33	-1775.08	  456.50
     13.7700	  559.00	  575.03	-1812.78	  456.30
     13.8700	  582.00	  574.74	-1789.49	  456.10
     13.9700	  554.00	  574.46	-1817.21	  455.90
     14.0700	  538.00	  574.19	-1832.94	  455.69
     14.1700	  577.00	  573.93	-1793.68	  455.48
     14.2700	  534.00	  573.67	-1836.42	  455.27
     14.3700	  538.00	  573.41	-1832.16	  455.05
     14.4700	  570.00	  573.16	-1799.91	  454.83
     14.5700	  585.00	  572.90	-1784.65	  454.61
     14.6700	  590.00	  572.65	-1779.40	  454.39
     14.7700	  552.00	  572.40	-1817.15	  454.16
     14.8700	  546.00	  572.15	-1822.90	  453.93
     14.9700	  515.00	  571.90	-1853.65	  453.70
     15.0700	  547.00	  571.64	-1821.39	  453.46
     15.1700	  534.00	  571.39	-1834.14	  453.22
     15.2700	  572.00	  571.13	-1795.88	  452.98
     15.3700	  531.00	  570.88	-1836.63	  452.74
     15.4700	  600.00	  570.62	-1767.37	  452.49
     15.5700	  531.00	  570.36	-1836.11	  452.24
     15.6700	  562.00	  570.10	-1804.85	  451.99
     15.7700	  554.00	  569.84	-1812.59	  451.74
     15.8700	  530.00	  569.57	-1836.32	  451.48
     15.9700	  560.00	  569.31	-1806.06	  451.23
     16.0700	  565.00	  569.04	-1800.79	  450.97
     16.1700	  563.00	  568.80	-1802.55	  450.70
     16.2700	  542.00	  568.52	-1823.27	  450.44
     16.3700	  579.00	  568.25	-1786.00	  450.17
     16.4700	  559.00	  567.98	-1805.73	  449.90
     16.5700	  542.00	  567.70	-1822.45	  449.63
     16.6700	  521.00	  567.43	-1843.18	  449.36
     16.7700	  584.00	  567.15	-1779.90	  449.08
     16.8700	  566.00	  566.87	-1797.62	  448.80
     16.9700	  569.00	  566.58	-1794.33	  448.52
     17.0700	  566.00	  566.30	-1797.05	  448.24
     17.1700	  536.00	  566.01	-1826.76	  447.96
     17.2700	  529.00	  565.72	-1833.47	  447.67
     17.3700	  621.00	  565.44	-1741.19	  447.39
     17.4700	  586.00	  565.14	-1775.89	  447.10
     17.5700	  559.00	  564.85	-1802.60	  446.81
     17.6700	  574.00	  564.56	-1787.31	  446.51
     17.7700	  581.00	  564.26	-1780.01	  446.22
     17.8700	  590.00	  564.07	-1770.82	  445.92
     17.9700	  555.00	  563.77	-1805.52	  445.63
     18.0700	  599.00	  563.47	-1761.22	  445.33
     18.1700	  541.00	  563.17	-1818.92	  445.03
     18.2700	  552.00	  562.87	-1807.62	  444.72
     18.3700	  520.00	  562.57	-1839.32	  444.42
     18.4700	  577.00	  562.27	-1782.02	  444.11
     18.5700	  555.00	  561.96	-1803.71	  443.81
     18.6700	  539.00	  561.66	-1819.41	  443.50
     18.7700	  566.00	  561.35	-1792.10	  443.19
     18.8700	  566.00	  561.14	-1791.89	  442.88
     18.9700	  580.00	  560.83	-1777.58	  442.57
     19.0700	  531.00	  560.52	-1826.27	  442.25
     19.1700	  589.00	  560.21	-1767.96	  441.94
     19.2700	  562.00	  559.90	-1794.65	  441.62
     19.3700	  521.00	  559.59	-1835.34	  441.31
     19.4700	  590.00	  559.28	-1766.03	  440.99
     19.5700	  523.00	  558.97	-1832.72	  440.67
     19.6700	  547.00	  558.66	-1808.41	  440.35
     19.7700	  506.00	  558.34	-1849.09	  440.03
     19.8700	  526.00	  558.03	-1828.78	  439.70
     19.9700	  557.00	  557.71	-1797.46	  439.38
     20.0700	  547.00	  557.40	-1807.15	  439.06
     20.1700	  551.00	  557.08	-1802.83	  438.73
     20.2700	  556.00	  556.77	-1797.52	  438.40
     20.3700	  556.00	  556.45	-1797.20	  438.08
     20.4700	  580.00	  556.13	-1772.88	  437.75
     20.5700	  551.00	  555.82	-1801.57	  437.42
     20.6700	  546.00	  555.47	-1806.22	  437.09
     20.7700	  562.00	  555.15	-1789.90	  436.76
     20.8700	  536.00	  554.87	-1815.62	  436.43
     20.9700	  523.00	  554.56	-1828.31	  436.10
     21.0700	  544.00	  554.24	-1806.99	  435.76
     21.1700	  526.00	  553.93	-1824.68	  435.43
     21.2700	  555.00	  553.61	-1795.36	  435.10
     21.3700	  556.00	  553.30	-1794.05	  434.76
     21.4700	  574.00	  552.99	-1775.74	  434.43
     21.5700	  560.00	  552.67	-1789.43	  434.09
     21.6700	  561.00	  552.36	-1788.11	  433.75
     21.7700	  557.00	  552.05	-1791.80	  433.42
     21.8700	  624.00	  551.75	-1724.50	  433.08
     21.9700	  542.00	  551.44	-1806.19	  432.74
     22.0700	  586.00	  551.14	-1761.89	  432.41
     22.1700	  519.00	  550.84	-1828.59	  432.07
     22.2700	  576.00	  550.54	-1771.29	  431.73
     22.3700	  540.00	  550.24	-1806.99	  431.39
     22.4700	  560.00	  549.95	-1786.70	  431.05
     22.5700	  547.00	  549.67	-1799.42	  430.71
     22.6700	  552.00	  549.39	-1794.14	  430.37
     22.7700	  498.00	  549.11	-1847.86	  430.03
     22.8700	  561.00	  548.85	-1784.60	  429.69
     22.9700	  545.00	  548.59	-1800.34	  429.35
     23.0700	  521.00	  548.35	-1824.10	  429.01
     23.1700	  553.00	  548.12	-1791.87	  428.67
     23.2700	  531.00	  547.91	-1813.66	  428.33
     23.3700	  557.00	  547.73	-1787.48	  427.99
     23.4700	  573.00	  547.58	-1771.33	  427.64
     23.5700	  554.00	  547.48	-1790.23	  427.30
     23.6700	  569.00	  547.57	-1775.32	  426.96
     23.7700	  564.00	  547.64	-1780.39	  426.62
     23.8700	  570.00	  547.91	-1774.66	  426.28
     23.9700	  541.00	  548.60	-1804.35	  425.94
     24.0700	  588.00	  550.10	-1758.85	  425.60
     24.1700	  580.00	  553.05	-1769.80	  425.26
     24.2700	  603.00	  558.26	-1752.01	  424.92
     24.3700	  557.00	  566.63	-1806.38	  424.57
     24.4700	  614.00	  579.16	-1761.91	  424.23
     24.5700	  635.00	  596.09	-1757.84	  423.89
     24.6700	  562.00	  614.83	-1849.58	  423.55
     24.7700	  636.00	  627.94	-1788.69	  423.21
     24.8700	  618.00	  625.34	-1804.09	  422.87
     24.9700	  627.00	  605.50	-1775.25	  422.53
     25.0700	  598.00	  581.15	-1779.90	  422.20
     25.1700	  580.00	  562.81	-1779.56	  421.86
     25.2700	  608.00	  552.40	-1741.15	  421.52
     25.3700	  561.00	  547.48	-1783.23	  421.18
     25.4700	  538.00	  545.24	-1803.99	  420.84
     25.5700	  607.00	  544.05	-1733.80	  420.51
     25.6700	  574.00	  543.27	-1766.02	  420.17
     25.7700	  608.00	  542.71	-1731.46	  419.83
     25.8700	  572.00	  542.28	-1767.03	  419.50
     25.9700	  560.00	  541.96	-1778.71	  419.16
     26.0700	  584.00	  541.72	-1754.47	  418.83
     26.1700	  521.00	  541.56	-1817.31	  418.49
     26.2700	  545.00	  541.47	-1793.22	  418.16
     26.3700	  532.00	  541.47	-1806.22	  417.82
     26.4700	  530.00	  541.55	-1808.30	  417.49
     26.5700	  559.00	  541.73	-1779.48	  417.16
     26.6700	  586.00	  542.02	-1752.77	  416.83
     26.7700	  508.00	  542.45	-1831.20	  416.50
     26.8700	  554.00	  543.06	-1785.81	  416.16
     26.9700	  570.00	  543.90	-1770.65	  415.84
     27.0700	  554.00	  545.05	-1787.80	  415.51
     27.1700	  547.00	  546.64	-1796.39	  415.18
     27.2700	  544.00	  548.92	-1801.67	  414.85
     27.3700	  584.00	  552.41	-1765.16	  414.52
     27.4700	  542.00	  558.06	-1812.81	  414.20
     27.5700	  562.00	  567.60	-1802.35	  413.87
     27.6700	  523.00	  583.75	-1857.50	  413.55
     27.7700	  606.00	  609.98	-1800.73	  413.22
     27.8700	  569.00	  649.24	-1876.99	  412.90
     27.9700	  612.00	  701.59	-1886.34	  412.58
     28.0700	  767.00	  761.11	-1790.86	  412.26
     28.1700	  889.00	  813.20	-1720.95	  411.94
     28.2700	  945.00	  836.03	-1687.78	  411.62
     28.3700	  926.00	  816.67	-1687.42	  411.30
     28.4700	  826.00	  775.85	-1746.60	  410.98
     28.5700	  733.00	  748.14	-1811.89	  410.66
     28.6700	  723.00	  749.53	-1823.28	  410.35
     28.7700	  681.00	  775.27	-1891.02	  410.03
     28.8700	  790.00	  805.25	-1812.00	  409.72
     28.9700	  857.00	  810.78	-1750.53	  409.40
     29.0700	  801.00	  773.27	-1769.02	  409.09
     29.1700	  719.00	  708.44	-1786.19	  408.78
     29.2700	  645.00	  646.08	-1797.83	  408.47
     29.3700	  617.00	  600.70	-1780.45	  408.16
     29.4700	  577.00	  573.00	-1792.75	  407.86
     29.5700	  603.00	  557.87	-1751.62	  407.55
     29.6700	  568.00	  549.84	-1778.59	  407.24
     29.7700	  601.00	  545.27	-1741.02	  406.94
     29.8700	  608.00	  542.42	-1731.17	  406.63
     29.9700	  617.00	  540.58	-1720.33	  406.33
     30.0700	  598.00	  539.57	-1738.32	  406.03
     30.1700	  564.00	  539.52	-1772.27	  405.73
     30.2700	  564.00	  540.92	-1773.67	  405.43
     30.3700	  576.00	  544.72	-1765.47	  405.13
     30.4700	  562.00	  552.42	-1787.17	  404.84
     30.5700	  556.00	  565.55	-1806.30	  404.54
     30.6700	  553.00	  584.54	-1828.29	  404.25
     30.7700	  619.00	  607.04	-1784.79	  403.96
     30.8700	  636.00	  626.72	-1787.47	  403.66
     30.9700	  624.00	  633.85	-1806.60	  403.37
     31.0700	  628.00	  621.70	-1790.45	  403.08
     31.1700	  599.00	  596.45	-1794.20	  402.80
     31.2700	  571.00	  570.87	-1796.62	  402.51
     31.3700	  511.00	  551.83	-1837.58	  402.23
     31.4700	  536.00	  540.13	-1800.88	  401.94
     31.5700	  504.00	  533.80	-1826.55	  401.66
     31.6700	  556.00	  530.52	-1771.27	  401.38
     31.7700	  575.00	  528.70	-1750.45	  401.10
     31.8700	  558.00	  527.55	-1766.30	  400.82
     31.9700	  488.00	  526.76	-1835.51	  400.54
     32.0700	  530.00	  526.20	-1792.95	  400.27
     32.1700	  530.00	  525.82	-1792.57	  399.99
     32.2700	  513.00	  525.60	-1809.35	  399.72
     32.3700	  532.00	  525.53	-1790.28	  399.45
     32.4700	  565.00	  525.62	-1757.37	  399.18
     32.5700	  515.00	  525.88	-1807.63	  398.91
     32.6700	  532.00	  526.33	-1791.08	  398.64
     32.7700	  535.00	  527.04	-1788.79	  398.38
     32.8700	  515.00	  528.06	-1809.81	  398.11
     32.9700	  517.00	  529.52	-1809.27	  397.85
     33.0700	  515.00	  531.62	-1813.37	  397.59
     33.1700	  500.00	  534.85	-1831.60	  397.33
     33.2700	  517.00	  540.25	-1820.00	  397.07
     33.3700	  507.00	  550.11	-1839.86	  396.81
     33.4700	  596.00	  568.81	-1769.56	  396.56
     33.5700	  626.00	  603.27	-1774.02	  396.30
     33.6700	  625.00	  661.46	-1833.21	  396.05
     33.7700	  772.00	  747.00	-1771.75	  395.80
     33.8700	  891.00	  850.79	-1756.54	  395.55
     33.9700	  993.00	  945.40	-1749.15	  395.30
     34.0700	 1068.00	  988.38	-1717.13	  395.06
     34.1700	 1049.00	  947.70	-1695.45	  394.81
     34.2700	  926.00	  844.02	-1714.77	  394.57
     34.3700	  771.00	  731.17	-1756.92	  394.33
     34.4700	  613.00	  643.03	-1826.78	  394.09
     34.5700	  574.00	  587.10	-1809.85	  393.85
     34.6700	  574.00	  556.54	-1779.29	  393.61
     34.7700	  550.00	  541.08	-1787.83	  393.38
     34.8700	  552.00	  533.01	-1777.76	  393.14
     34.9700	  529.00	  528.22	-1795.97	  392.91
     35.0700	  580.00	  524.92	-1741.67	  392.68
     35.1700	  507.00	  522.46	-1812.21	  392.45
     35.2700	  533.00	  520.50	-1784.25	  392.23
     35.3700	  489.00	  518.91	-1826.66	  392.00
     35.4700	  553.00	  517.60	-1761.35	  391.78
     35.5700	  500.00	  516.48	-1813.23	  391.56
     35.6700	  509.00	  515.53	-1803.28	  391.34
     35.7700	  504.00	  514.71	-1807.46	  391.12
     35.8700	  553.00	  514.46	-1758.21	  390.90
     35.9700	  523.00	  513.82	-1787.57	  390.69
     36.0700	  532.00	  513.25	-1778.00	  390.47
     36.1700	  517.00	  512.74	-1792.49	  390.26
     36.2700	  514.00	  512.27	-1795.02	  390.05
     36.3700	  510.00	  511.85	-1798.60	  389.84
     36.4700	  506.00	  511.47	-1802.22	  389.64
     36.5700	  538.00	  511.13	-1769.88	  389.43
     36.6700	  521.00	  510.83	-1786.58	  389.23
     36.7700	  515.00	  510.57	-1792.32	  389.03
     36.8700	  506.00	  510.38	-1801.13	  388.83
     36.9700	  554.00	  510.30	-1753.05	  388.63
     37.0700	  539.00	  510.45	-1768.20	  388.43
     37.1700	  524.00	  511.06	-1783.81	  388.24
     37.2700	  477.00	  512.45	-1832.20	  388.05
     37.3700	  573.00	  514.94	-1738.69	  387.85
     37.4700	  494.00	  518.55	-1821.30	  387.66
     37.5700	  536.00	  522.63	-1783.38	  387.48
     37.6700	  530.00	  525.82	-1792.57	  387.29
     37.7700	  484.00	  526.54	-1839.29	  387.11
     37.8700	  533.00	  524.44	-1788.19	  386.93
     37.9700	  512.00	  520.85	-1805.60	  386.75
     38.0700	  530.00	  517.10	-1783.85	  386.57
     38.1700	  507.00	  513.76	-1803.51	  386.39
     38.2700	  498.00	  511.07	-1809.82	  386.22
     38.3700	  484.00	  509.10	-1821.85	  386.04
     38.4700	  510.00	  507.77	-1794.52	  385.87
     38.5700	  496.00	  506.90	-1807.65	  385.70
     38.6700	  483.00	  506.34	-1820.09	  385.53
     38.7700	  461.00	  505.85	-1841.60	  385.37
     38.8700	  520.00	  505.56	-1782.31	  385.20
     38.9700	  516.00	  505.32	-1786.07	  385.04
     39.0700	  518.00	  505.10	-1783.85	  384.88
     39.1700	  498.00	  504.90	-1803.65	  384.72
     39.2700	  508.00	  504.64	-1793.39	  384.56
     39.3700	  512.00	  504.47	-1789.22	  384.41
     39.4700	  514.00	  504.31	-1787.06	  384.26
     39.5700	  508.00	  504.29	-1793.04	  384.10
     39.6700	  491.00	  504.16	-1809.91	  383.95
     39.7700	  518.00	  504.03	-1782.78	  383.81
     39.8700	  532.00	  503.91	-1768.66	  383.66
     39.9700	  503.00	  503.81	-1797.56	  383.52
     40.0700	  515.00	  503.71	-1785.46	  383.37
     40.1700	  451.00	  503.62	-1849.37	  383.23
     40.2700	  488.00	  503.54	-1812.29	  383.09
     40.3700	  508.00	  503.47	-1792.22	  382.96
     40.4700	  449.00	  503.42	-1851.17	  382.82
     40.5700	  487.00	  503.38	-1813.13	  382.69
     40.6700	  520.00	  503.35	-1780.10	  382.56
     40.7700	  526.00	  503.34	-1774.09	  382.43
