MSG Master    CELL:    5.91308   5.91308  23.25230   90.0000   90.0000  120.0000   SPGR: P 63/m m c             TEMP:    968.15
  1   1280     2.52000     0.00000    -0.12777     0.00000     0.00000    0
    99     0     2
       0.00000      10.00000
     125.00000     130.00000
 2Theta	Yobs	Ycal	Yobs-Ycal	Backg	Posr	(hkl)	K
      0.7700	    0.00	  469.45	-1747.00	  356.19
      0.8700	    0.00	  471.00	-1747.00	  357.74
      0.9700	   41.00	  472.53	-1747.00	  359.28
      1.0700	   44.00	  474.05	-1747.00	  360.80
      1.1700	   36.00	  475.55	-1747.00	  362.30
      1.2700	   38.00	  477.04	-1747.00	  363.78
      1.3700	   51.00	  478.51	-1747.00	  365.25
      1.4700	  103.00	  479.96	-1747.00	  366.70
      1.5700	  297.00	  481.39	-1747.00	  368.14
      1.6700	  470.00	  482.81	-1747.00	  369.55
      1.7700	  623.00	  484.21	-1747.00	  370.95
      1.8700	  671.00	  485.59	-1747.00	  372.34
      1.9700	  712.00	  486.96	-1747.00	  373.71
      2.0700	  756.00	  488.32	-1747.00	  375.06
      2.1700	  807.00	  489.65	-1747.00	  376.40
      2.2700	  795.00	  490.97	-1747.00	  377.72
      2.3700	  770.00	  492.28	-1747.00	  379.02
      2.4700	  710.00	  493.57	-1747.00	  380.31
      2.5700	  715.00	  494.84	-1747.00	  381.59
      2.6700	  687.00	  496.10	-1747.00	  382.84
      2.7700	  665.00	  497.34	-1747.00	  384.09
      2.8700	  670.00	  498.57	-1747.00	  385.31
      2.9700	  615.00	  499.78	-1747.00	  386.53
      3.0700	  611.00	  500.98	-1747.00	  387.72
      3.1700	  579.00	  502.16	-1747.00	  388.91
      3.2700	  645.00	  503.33	-1747.00	  390.07
      3.3700	  740.00	  504.48	-1747.00	  391.23
      3.4700	  799.00	  505.62	-1747.00	  392.36
      3.5700	  862.00	  506.74	-1747.00	  393.49
      3.6700	  966.00	  507.85	-1747.00	  394.59
      3.7700	  979.00	  508.94	-1747.00	  395.69
      3.8700	 1075.00	  510.02	-1747.00	  396.77
      3.9700	 1119.00	  511.09	-1747.00	  397.83
      4.0700	 1163.00	  512.14	-1747.00	  398.89
      4.1700	 1202.00	  513.18	-1747.00	  399.92
      4.2700	 1205.00	  514.20	-1747.00	  400.95
      4.3700	 1156.00	  515.21	-1747.00	  401.96
      4.4700	 1110.00	  516.21	-1747.00	  402.95
      4.5700	 1182.00	  517.19	-1747.00	  403.93
      4.6700	 1118.00	  518.16	-1747.00	  404.90
      4.7700	 1057.00	  519.11	-1747.00	  405.86
      4.8700	 1042.00	  520.05	-1747.00	  406.80
      4.9700	  983.00	  520.98	-1747.00	  407.73
      5.0700	  956.00	  521.90	-1747.00	  408.64
      5.1700	  943.00	  522.80	-1747.00	  409.54
      5.2700	  868.00	  523.69	-1747.00	  410.43
      5.3700	  904.00	  524.56	-1747.00	  411.31
      5.4700	  953.00	  525.43	-1747.00	  412.17
      5.5700	  865.00	  526.28	-1747.00	  413.02
      5.6700	  903.00	  527.11	-1747.00	  413.86
      5.7700	  873.00	  527.94	-1747.00	  414.68
      5.8700	  819.00	  528.75	-1747.00	  415.50
      5.9700	  839.00	  529.55	-1747.00	  416.30
      6.0700	  788.00	  530.34	-1747.00	  417.08
      6.1700	  807.00	  531.11	-1747.00	  417.86
      6.2700	  752.00	  531.88	-1747.00	  418.62
      6.3700	  812.00	  532.63	-1747.00	  419.37
      6.4700	  810.00	  533.37	-1747.00	  420.11
      6.5700	  739.00	  534.09	-1747.00	  420.84
      6.6700	  752.00	  534.81	-1747.00	  421.55
      6.7700	  715.00	  535.51	-1747.00	  422.26
      6.8700	  724.00	  536.21	-1747.00	  422.95
      6.9700	  745.00	  536.89	-1747.00	  423.63
      7.0700	  686.00	  537.55	-1747.00	  424.30
      7.1700	  689.00	  538.21	-1747.00	  424.96
      7.2700	  726.00	  538.86	-1747.00	  425.60
      7.3700	  668.00	  539.49	-1747.00	  426.24
      7.4700	  713.00	  540.12	-1747.00	  426.86
      7.5700	  672.00	  540.73	-1747.00	  427.48
      7.6700	  622.00	  541.33	-1747.00	  428.08
      7.7700	  624.00	  541.92	-1747.00	  428.67
      7.8700	  660.00	  542.50	-1747.00	  429.25
      7.9700	  683.00	  543.07	-1747.00	  429.82
      8.0700	  678.00	  543.63	-1747.00	  430.38
      8.1700	  679.00	  544.18	-1747.00	  430.92
      8.2700	  635.00	  544.72	-1747.00	  431.46
      8.3700	  638.00	  545.24	-1747.00	  431.99
      8.4700	  628.00	  545.76	-1747.00	  432.51
      8.5700	  608.00	  546.27	-1747.00	  433.01
      8.6700	  621.00	  546.76	-1747.00	  433.51
      8.7700	  566.00	  547.25	-1747.00	  433.99
      8.8700	  611.00	  547.73	-1747.00	  434.47
      8.9700	  623.00	  548.19	-1747.00	  434.94
      9.0700	  618.00	  548.65	-1747.00	  435.39
      9.1700	  630.00	  549.09	-1747.00	  435.84
      9.2700	  590.00	  549.53	-1747.00	  436.28
      9.3700	  581.00	  549.96	-1747.00	  436.70
      9.4700	  618.00	  550.38	-1747.00	  437.12
      9.5700	  596.00	  550.78	-1747.00	  437.53
      9.6700	  655.00	  551.18	-1747.00	  437.93
      9.7700	  562.00	  551.57	-1747.00	  438.32
      9.8700	  621.00	  551.95	-1747.00	  438.70
      9.9700	  595.00	  552.32	-1747.00	  439.07
     10.0700	  587.00	  554.33	-1714.33	  439.43
     10.1700	  566.00	  554.87	-1735.87	  439.78
     10.2700	  584.00	  555.44	-1718.44	  440.13
     10.3700	  601.00	  556.06	-1702.06	  440.46
     10.4700	  539.00	  556.77	-1764.77	  440.79
     10.5700	  624.00	  557.64	-1680.64	  441.11
     10.6700	  586.00	  558.75	-1719.75	  441.41
     10.7700	  608.00	  560.19	-1699.19	  441.71
     10.8700	  564.00	  562.04	-1745.04	  442.01
     10.9700	  560.00	  564.31	-1751.31	  442.29
     11.0700	  544.00	  567.01	-1770.01	  442.56
     11.1700	  543.00	  570.13	-1774.13	  442.83
     11.2700	  552.00	  573.73	-1768.73	  443.09
     11.3700	  583.00	  577.89	-1741.89	  443.34
     11.4700	  600.00	  582.76	-1729.76	  443.58
     11.5700	  589.00	  588.57	-1746.57	  443.81
     11.6700	  585.00	  595.67	-1757.67	  444.04
     11.7700	  635.00	  604.52	-1716.52	  444.26
     11.8700	  658.00	  615.47	-1704.47	  444.47
     11.9700	  599.00	  628.18	-1776.18	  444.67
     12.0700	  680.00	  640.71	-1707.71	  444.87
     12.1700	  706.00	  648.71	-1689.71	  445.05
     12.2700	  701.00	  646.07	-1692.07	  445.23
     12.3700	  649.00	  630.63	-1728.63	  445.40
     12.4700	  645.00	  609.87	-1711.87	  445.57
     12.5700	  530.00	  592.11	-1809.11	  445.73
     12.6700	  612.00	  580.00	-1715.00	  445.88
     12.7700	  534.00	  572.80	-1785.80	  446.02
     12.8700	  559.00	  568.82	-1756.82	  446.15
     12.9700	  557.00	  566.60	-1756.60	  446.28
     13.0700	  573.00	  565.27	-1739.27	  446.40
     13.1700	  551.00	  564.39	-1760.40	  446.52
     13.2700	  579.00	  563.77	-1731.77	  446.63
     13.3700	  554.00	  563.31	-1756.31	  446.73
     13.4700	  527.00	  562.97	-1782.97	  446.82
     13.5700	  535.00	  562.70	-1774.70	  446.91
     13.6700	  554.00	  562.50	-1755.50	  446.99
     13.7700	  497.00	  562.33	-1812.33	  447.06
     13.8700	  540.00	  562.20	-1769.20	  447.13
     13.9700	  556.00	  562.10	-1753.10	  447.19
     14.0700	  514.00	  562.01	-1795.01	  447.25
     14.1700	  490.00	  561.97	-1818.97	  447.30
     14.2700	  563.00	  561.91	-1745.91	  447.34
     14.3700	  536.00	  561.85	-1772.85	  447.37
     14.4700	  571.00	  561.81	-1737.81	  447.40
     14.5700	  536.00	  561.76	-1772.76	  447.43
     14.6700	  574.00	  561.72	-1734.72	  447.45
     14.7700	  590.00	  561.67	-1718.67	  447.46
     14.8700	  568.00	  561.63	-1740.63	  447.46
     14.9700	  524.00	  561.59	-1784.59	  447.46
     15.0700	  550.00	  561.54	-1758.54	  447.46
     15.1700	  564.00	  561.50	-1744.50	  447.45
     15.2700	  511.00	  561.45	-1797.45	  447.43
     15.3700	  564.00	  561.40	-1744.40	  447.41
     15.4700	  553.00	  561.34	-1755.34	  447.38
     15.5700	  549.00	  561.29	-1759.29	  447.34
     15.6700	  550.00	  561.22	-1758.22	  447.31
     15.7700	  561.00	  561.16	-1747.16	  447.26
     15.8700	  562.00	  561.09	-1746.09	  447.21
     15.9700	  558.00	  561.02	-1750.02	  447.16
     16.0700	  560.00	  560.95	-1747.95	  447.10
     16.1700	  552.00	  560.87	-1755.87	  447.03
     16.2700	  573.00	  560.78	-1734.78	  446.96
     16.3700	  577.00	  560.70	-1730.70	  446.88
     16.4700	  556.00	  560.60	-1751.60	  446.80
     16.5700	  590.00	  560.51	-1717.51	  446.72
     16.6700	  560.00	  560.41	-1747.41	  446.63
     16.7700	  564.00	  560.31	-1743.31	  446.53
     16.8700	  528.00	  560.20	-1779.20	  446.43
     16.9700	  536.00	  560.09	-1771.09	  446.33
     17.0700	  583.00	  559.97	-1723.97	  446.22
     17.1700	  548.00	  559.85	-1758.85	  446.11
     17.2700	  556.00	  559.73	-1750.73	  445.99
     17.3700	  538.00	  559.60	-1768.60	  445.87
     17.4700	  555.00	  559.47	-1751.47	  445.74
     17.5700	  540.00	  559.33	-1766.33	  445.61
     17.6700	  577.00	  559.19	-1729.19	  445.47
     17.7700	  572.00	  559.05	-1734.05	  445.33
     17.8700	  547.00	  559.00	-1759.00	  445.19
     17.9700	  532.00	  558.85	-1773.85	  445.04
     18.0700	  519.00	  558.70	-1786.70	  444.89
     18.1700	  557.00	  558.54	-1748.54	  444.73
     18.2700	  553.00	  558.38	-1752.38	  444.57
     18.3700	  588.00	  558.31	-1717.31	  444.41
     18.4700	  541.00	  558.14	-1764.14	  444.24
     18.5700	  561.00	  557.97	-1743.97	  444.06
     18.6700	  574.00	  557.80	-1730.80	  443.89
     18.7700	  549.00	  557.63	-1755.63	  443.71
     18.8700	  569.00	  557.45	-1735.45	  443.53
     18.9700	  526.00	  557.26	-1778.26	  443.34
     19.0700	  523.00	  557.08	-1781.08	  443.15
     19.1700	  545.00	  556.89	-1758.89	  442.95
     19.2700	  556.00	  556.70	-1747.70	  442.75
     19.3700	  559.00	  556.50	-1744.50	  442.55
     19.4700	  532.00	  556.31	-1771.31	  442.35
     19.5700	  580.00	  556.11	-1723.11	  442.14
     19.6700	  557.00	  555.90	-1745.90	  441.93
     19.7700	  503.00	  555.70	-1799.70	  441.71
     19.8700	  536.00	  555.49	-1766.49	  441.50
     19.9700	  552.00	  555.31	-1750.31	  441.27
     20.0700	  524.00	  555.10	-1778.10	  441.05
     20.1700	  546.00	  554.88	-1755.88	  440.82
     20.2700	  553.00	  554.67	-1748.67	  440.59
     20.3700	  566.00	  554.45	-1735.45	  440.36
     20.4700	  532.00	  554.23	-1769.23	  440.12
     20.5700	  546.00	  554.00	-1755.00	  439.88
     20.6700	  558.00	  553.78	-1742.78	  439.64
     20.7700	  529.00	  553.55	-1771.55	  439.40
     20.8700	  569.00	  553.32	-1731.32	  439.15
     20.9700	  558.00	  553.09	-1742.09	  438.90
     21.0700	  537.00	  552.86	-1762.86	  438.64
     21.1700	  534.00	  552.63	-1765.63	  438.39
     21.2700	  519.00	  552.40	-1780.40	  438.13
     21.3700	  579.00	  552.16	-1720.16	  437.87
     21.4700	  520.00	  551.93	-1778.93	  437.61
     21.5700	  547.00	  551.69	-1751.69	  437.34
     21.6700	  547.00	  551.46	-1751.46	  437.07
     21.7700	  541.00	  551.22	-1757.22	  436.80
     21.8700	  551.00	  550.99	-1746.99	  436.53
     21.9700	  547.00	  550.76	-1750.76	  436.25
     22.0700	  506.00	  550.53	-1791.53	  435.97
     22.1700	  553.00	  550.30	-1744.30	  435.69
     22.2700	  561.00	  550.07	-1736.07	  435.41
     22.3700	  534.00	  549.85	-1762.85	  435.13
     22.4700	  527.00	  549.63	-1769.63	  434.84
     22.5700	  568.00	  549.58	-1728.58	  434.55
     22.6700	  603.00	  549.34	-1693.34	  434.26
     22.7700	  566.00	  549.15	-1730.15	  433.97
     22.8700	  550.00	  548.97	-1745.97	  433.68
     22.9700	  568.00	  548.80	-1727.80	  433.38
     23.0700	  535.00	  548.65	-1760.65	  433.08
     23.1700	  538.00	  548.53	-1757.53	  432.78
     23.2700	  512.00	  548.44	-1783.44	  432.48
     23.3700	  563.00	  548.38	-1732.38	  432.18
     23.4700	  574.00	  548.38	-1721.38	  431.87
     23.5700	  598.00	  548.44	-1697.44	  431.56
     23.6700	  582.00	  548.61	-1713.61	  431.26
     23.7700	  575.00	  548.94	-1720.94	  430.94
     23.8700	  609.00	  549.55	-1687.55	  430.63
     23.9700	  554.00	  550.62	-1743.62	  430.32
     24.0700	  577.00	  552.48	-1722.48	  430.01
     24.1700	  599.00	  555.62	-1703.62	  429.69
     24.2700	  559.00	  560.61	-1748.61	  429.37
     24.3700	  614.00	  568.01	-1701.01	  429.05
     24.4700	  614.00	  578.09	-1711.09	  428.73
     24.5700	  586.00	  590.38	-1751.38	  428.41
     24.6700	  646.00	  602.97	-1703.97	  428.09
     24.7700	  608.00	  611.91	-1750.91	  427.76
     24.8700	  633.00	  611.85	-1725.85	  427.44
     24.9700	  645.00	  600.85	-1702.85	  427.11
     25.0700	  614.00	  584.67	-1717.67	  426.78
     25.1700	  549.00	  570.03	-1768.03	  426.46
     25.2700	  596.00	  559.51	-1710.51	  426.13
     25.3700	  603.00	  552.91	-1696.91	  425.79
     25.4700	  605.00	  549.07	-1691.07	  425.46
     25.5700	  569.00	  546.85	-1724.85	  425.13
     25.6700	  582.00	  545.47	-1710.47	  424.80
     25.7700	  535.00	  544.53	-1756.53	  424.46
     25.8700	  540.00	  543.83	-1750.83	  424.13
     25.9700	  584.00	  543.30	-1706.30	  423.79
     26.0700	  548.00	  542.91	-1741.91	  423.45
     26.1700	  542.00	  542.61	-1747.61	  423.12
     26.2700	  522.00	  542.42	-1767.42	  422.78
     26.3700	  585.00	  542.31	-1704.31	  422.44
     26.4700	  543.00	  542.31	-1746.31	  422.10
     26.5700	  572.00	  542.40	-1717.40	  421.76
     26.6700	  540.00	  542.61	-1749.61	  421.42
     26.7700	  587.00	  542.96	-1702.96	  421.07
     26.8700	  560.00	  543.47	-1730.47	  420.73
     26.9700	  545.00	  544.21	-1746.21	  420.39
     27.0700	  537.00	  545.22	-1755.22	  420.04
     27.1700	  531.00	  546.63	-1762.63	  419.70
     27.2700	  529.00	  548.65	-1766.65	  419.36
     27.3700	  590.00	  551.68	-1708.68	  419.01
     27.4700	  586.00	  556.50	-1717.50	  418.67
     27.5700	  553.00	  564.56	-1758.56	  418.32
     27.6700	  617.00	  578.14	-1708.14	  417.97
     27.7700	  563.00	  600.39	-1784.39	  417.63
     27.8700	  653.00	  634.35	-1728.35	  417.28
     27.9700	  644.00	  680.95	-1783.95	  416.94
     28.0700	  682.00	  736.34	-1801.34	  416.59
     28.1700	  840.00	  789.22	-1696.22	  416.24
     28.2700	  942.00	  820.45	-1625.45	  415.89
     28.3700	  885.00	  813.06	-1675.06	  415.55
     28.4700	  813.00	  776.90	-1710.90	  415.20
     28.5700	  751.00	  743.93	-1739.93	  414.85
     28.6700	  735.00	  734.22	-1746.22	  414.50
     28.7700	  738.00	  748.11	-1757.11	  414.16
     28.8700	  789.00	  771.70	-1729.70	  413.81
     28.9700	  761.00	  782.32	-1768.32	  413.46
     29.0700	  801.00	  760.15	-1706.15	  413.11
     29.1700	  688.00	  709.46	-1768.46	  412.77
     29.2700	  655.00	  653.94	-1745.94	  412.42
     29.3700	  578.00	  609.60	-1778.60	  412.07
     29.4700	  566.00	  579.99	-1760.99	  411.73
     29.5700	  535.00	  562.49	-1774.49	  411.38
     29.6700	  580.00	  552.68	-1719.68	  411.03
     29.7700	  572.00	  547.09	-1722.09	  410.69
     29.8700	  556.00	  543.70	-1734.70	  410.34
     29.9700	  557.00	  541.54	-1731.54	  409.99
     30.0700	  538.00	  540.31	-1749.31	  409.65
     30.1700	  587.00	  540.00	-1700.00	  409.30
     30.2700	  597.00	  540.97	-1690.97	  408.96
     30.3700	  560.00	  543.86	-1730.86	  408.61
     30.4700	  535.00	  549.67	-1761.67	  408.27
     30.5700	  555.00	  559.44	-1751.44	  407.93
     30.6700	  581.00	  573.47	-1739.47	  407.58
     30.7700	  603.00	  590.36	-1734.36	  407.24
     30.8700	  642.00	  606.24	-1711.24	  406.90
     30.9700	  624.00	  614.69	-1737.69	  406.56
     31.0700	  592.00	  609.67	-1764.67	  406.22
     31.1700	  597.00	  592.64	-1742.64	  405.87
     31.2700	  582.00	  572.31	-1737.31	  405.53
     31.3700	  574.00	  555.20	-1728.20	  405.19
     31.4700	  568.00	  543.31	-1722.31	  404.86
     31.5700	  540.00	  536.01	-1743.01	  404.52
     31.6700	  559.00	  531.85	-1719.85	  404.18
     31.7700	  515.00	  529.49	-1761.49	  403.84
     31.8700	  518.00	  528.08	-1757.08	  403.51
     31.9700	  502.00	  527.16	-1772.16	  403.17
     32.0700	  556.00	  526.56	-1717.56	  402.84
     32.1700	  518.00	  526.20	-1755.20	  402.50
     32.2700	  558.00	  526.03	-1715.03	  402.17
     32.3700	  555.00	  526.06	-1718.06	  401.84
     32.4700	  546.00	  526.29	-1727.29	  401.50
     32.5700	  544.00	  526.75	-1729.75	  401.17
     32.6700	  555.00	  527.47	-1719.47	  400.84
     32.7700	  486.00	  528.51	-1789.51	  400.51
     32.8700	  527.00	  529.97	-1749.97	  400.19
     32.9700	  491.00	  532.00	-1788.00	  399.86
     33.0700	  503.00	  534.88	-1778.88	  399.53
     33.1700	  555.00	  539.14	-1731.14	  399.21
     33.2700	  605.00	  545.90	-1687.90	  398.88
     33.3700	  505.00	  557.27	-1799.27	  398.56
     33.4700	  595.00	  576.94	-1728.94	  398.24
     33.5700	  594.00	  610.23	-1763.23	  397.91
     33.6700	  637.00	  662.93	-1772.93	  397.59
     33.7700	  731.00	  737.53	-1753.53	  397.27
     33.8700	  814.00	  828.08	-1761.08	  396.96
     33.9700	  952.00	  915.89	-1710.89	  396.64
     34.0700	 1004.00	  969.59	-1712.59	  396.32
     34.1700	 1085.00	  957.91	-1619.91	  396.01
     34.2700	  933.00	  882.29	-1696.29	  395.69
     34.3700	  779.00	  781.74	-1749.74	  395.38
     34.4700	  678.00	  691.34	-1760.34	  395.07
     34.5700	  673.00	  624.90	-1698.90	  394.76
     34.6700	  587.00	  582.22	-1742.22	  394.45
     34.7700	  546.00	  557.18	-1758.18	  394.14
     34.8700	  529.00	  542.93	-1760.93	  393.83
     34.9700	  533.00	  534.49	-1748.49	  393.53
     35.0700	  526.00	  528.98	-1749.98	  393.22
     35.1700	  504.00	  525.02	-1768.02	  392.92
     35.2700	  508.00	  521.97	-1760.97	  392.62
     35.3700	  535.00	  519.52	-1731.52	  392.32
     35.4700	  497.00	  517.51	-1767.51	  392.02
     35.5700	  533.00	  515.83	-1729.83	  391.72
     35.6700	  512.00	  514.39	-1749.39	  391.42
     35.7700	  519.00	  513.13	-1741.13	  391.13
     35.8700	  522.00	  512.52	-1737.52	  390.83
     35.9700	  472.00	  511.58	-1786.58	  390.54
     36.0700	  490.00	  510.74	-1767.74	  390.25
     36.1700	  520.00	  509.99	-1736.99	  389.96
     36.2700	  492.00	  509.32	-1764.32	  389.67
     36.3700	  517.00	  508.72	-1738.72	  389.38
     36.4700	  523.00	  508.18	-1732.18	  389.10
     36.5700	  485.00	  507.69	-1769.69	  388.81
     36.6700	  478.00	  507.28	-1776.28	  388.53
     36.7700	  524.00	  506.94	-1729.94	  388.25
     36.8700	  508.00	  506.71	-1745.71	  387.97
     36.9700	  514.00	  506.65	-1739.65	  387.69
     37.0700	  481.00	  506.87	-1772.87	  387.41
     37.1700	  507.00	  507.56	-1747.56	  387.14
     37.2700	  508.00	  508.92	-1747.92	  386.86
     37.3700	  527.00	  511.10	-1731.10	  386.59
     37.4700	  520.00	  514.02	-1741.02	  386.32
     37.5700	  540.00	  517.22	-1724.22	  386.05
     37.6700	  524.00	  519.74	-1742.74	  385.78
     37.7700	  524.00	  520.36	-1743.36	  385.52
     37.8700	  520.00	  518.66	-1745.66	  385.25
     37.9700	  507.00	  515.08	-1755.08	  384.99
     38.0700	  507.00	  511.17	-1751.17	  384.73
     38.1700	  524.00	  507.78	-1730.78	  384.47
     38.2700	  496.00	  505.17	-1756.17	  384.21
     38.3700	  510.00	  503.34	-1740.34	  383.95
     38.4700	  534.00	  502.09	-1715.09	  383.70
     38.5700	  477.00	  501.23	-1771.23	  383.44
     38.6700	  514.00	  500.61	-1733.61	  383.19
     38.7700	  523.00	  500.12	-1724.12	  382.94
     38.8700	  484.00	  499.71	-1762.71	  382.69
     38.9700	  454.00	  499.25	-1792.25	  382.45
     39.0700	  503.00	  498.92	-1742.92	  382.20
     39.1700	  480.00	  498.61	-1765.61	  381.96
     39.2700	  468.00	  498.33	-1777.33	  381.72
     39.3700	  534.00	  498.06	-1711.06	  381.48
     39.4700	  487.00	  497.81	-1757.81	  381.24
     39.5700	  482.00	  497.57	-1762.57	  381.00
     39.6700	  511.00	  497.35	-1733.35	  380.77
     39.7700	  527.00	  497.13	-1717.13	  380.53
     39.8700	  494.00	  496.85	-1749.85	  380.30
     39.9700	  460.00	  496.66	-1783.66	  380.07
     40.0700	  493.00	  496.49	-1750.49	  379.84
     40.1700	  491.00	  496.33	-1752.33	  379.62
     40.2700	  494.00	  496.18	-1749.18	  379.39
     40.3700	  493.00	  496.05	-1750.05	  379.17
     40.4700	  513.00	  495.93	-1729.93	  378.95
     40.5700	  509.00	  496.34	-1734.34	  378.73
     40.6700	  475.00	  496.27	-1768.27	  378.51
     40.7700	  490.00	  496.23	-1753.23	  378.30
