MSG Master    CELL:    5.91614   5.91614  23.25913   90.0000   90.0000  120.0000   SPGR: P 63/m m c             TEMP:   1017.65
  1   1280     2.52000     0.00000    -0.13292     0.00000     0.00000    0
    99     0     2
       0.00000      10.00000
     125.00000     130.00000
 2Theta	Yobs	Ycal	Yobs-Ycal	Backg	Posr	(hkl)	K
      0.7700	    0.00	  528.25	-1727.50	  411.55
      0.8700	    0.00	  529.13	-1727.50	  412.43
      0.9700	   49.00	  529.99	-1727.50	  413.29
      1.0700	   43.00	  530.85	-1727.50	  414.14
      1.1700	   48.00	  531.69	-1727.50	  414.99
      1.2700	   53.00	  532.52	-1727.50	  415.81
      1.3700	   37.00	  533.33	-1727.50	  416.63
      1.4700	   93.00	  534.14	-1727.50	  417.44
      1.5700	  316.00	  534.94	-1727.50	  418.23
      1.6700	  455.00	  535.72	-1727.50	  419.02
      1.7700	  576.00	  536.49	-1727.50	  419.79
      1.8700	  659.00	  537.26	-1727.50	  420.55
      1.9700	  765.00	  538.01	-1727.50	  421.30
      2.0700	  818.00	  538.75	-1727.50	  422.05
      2.1700	  782.00	  539.48	-1727.50	  422.77
      2.2700	  790.00	  540.19	-1727.50	  423.49
      2.3700	  712.00	  540.90	-1727.50	  424.20
      2.4700	  722.00	  541.60	-1727.50	  424.90
      2.5700	  710.00	  542.29	-1727.50	  425.59
      2.6700	  649.00	  542.96	-1727.50	  426.26
      2.7700	  660.00	  543.63	-1727.50	  426.93
      2.8700	  603.00	  544.29	-1727.50	  427.58
      2.9700	  616.00	  544.93	-1727.50	  428.23
      3.0700	  601.00	  545.57	-1727.50	  428.87
      3.1700	  635.00	  546.19	-1727.50	  429.49
      3.2700	  614.00	  546.81	-1727.50	  430.11
      3.3700	  693.00	  547.41	-1727.50	  430.71
      3.4700	  869.00	  548.01	-1727.50	  431.31
      3.5700	  878.00	  548.59	-1727.50	  431.89
      3.6700	  893.00	  549.17	-1727.50	  432.47
      3.7700	  969.00	  549.74	-1727.50	  433.03
      3.8700	 1024.00	  550.29	-1727.50	  433.59
      3.9700	 1136.00	  550.84	-1727.50	  434.14
      4.0700	 1098.00	  551.38	-1727.50	  434.68
      4.1700	 1151.00	  551.91	-1727.50	  435.20
      4.2700	 1187.00	  552.42	-1727.50	  435.72
      4.3700	 1098.00	  552.93	-1727.50	  436.23
      4.4700	 1140.00	  553.43	-1727.50	  436.73
      4.5700	 1096.00	  553.93	-1727.50	  437.22
      4.6700	 1080.00	  554.41	-1727.50	  437.71
      4.7700	 1063.00	  554.88	-1727.50	  438.18
      4.8700	 1066.00	  555.34	-1727.50	  438.64
      4.9700	 1029.00	  555.80	-1727.50	  439.10
      5.0700	  972.00	  556.25	-1727.50	  439.55
      5.1700	 1007.00	  556.68	-1727.50	  439.98
      5.2700	  915.00	  557.11	-1727.50	  440.41
      5.3700	  930.00	  557.53	-1727.50	  440.83
      5.4700	  832.00	  557.95	-1727.50	  441.24
      5.5700	  874.00	  558.35	-1727.50	  441.65
      5.6700	  879.00	  558.74	-1727.50	  442.04
      5.7700	  888.00	  559.13	-1727.50	  442.43
      5.8700	  874.00	  559.51	-1727.50	  442.81
      5.9700	  839.00	  559.88	-1727.50	  443.18
      6.0700	  785.00	  560.24	-1727.50	  443.54
      6.1700	  833.00	  560.59	-1727.50	  443.89
      6.2700	  786.00	  560.94	-1727.50	  444.24
      6.3700	  767.00	  561.28	-1727.50	  444.57
      6.4700	  754.00	  561.61	-1727.50	  444.90
      6.5700	  790.00	  561.93	-1727.50	  445.23
      6.6700	  741.00	  562.24	-1727.50	  445.54
      6.7700	  708.00	  562.55	-1727.50	  445.85
      6.8700	  764.00	  562.85	-1727.50	  446.14
      6.9700	  679.00	  563.14	-1727.50	  446.44
      7.0700	  681.00	  563.42	-1727.50	  446.72
      7.1700	  735.00	  563.70	-1727.50	  446.99
      7.2700	  678.00	  563.96	-1727.50	  447.26
      7.3700	  687.00	  564.23	-1727.50	  447.52
      7.4700	  655.00	  564.48	-1727.50	  447.78
      7.5700	  637.00	  564.72	-1727.50	  448.02
      7.6700	  630.00	  564.96	-1727.50	  448.26
      7.7700	  649.00	  565.20	-1727.50	  448.49
      7.8700	  629.00	  565.42	-1727.50	  448.72
      7.9700	  627.00	  565.64	-1727.50	  448.94
      8.0700	  597.00	  565.85	-1727.50	  449.15
      8.1700	  612.00	  566.05	-1727.50	  449.35
      8.2700	  614.00	  566.25	-1727.50	  449.55
      8.3700	  667.00	  566.44	-1727.50	  449.74
      8.4700	  627.00	  566.62	-1727.50	  449.92
      8.5700	  611.00	  566.80	-1727.50	  450.10
      8.6700	  706.00	  566.97	-1727.50	  450.27
      8.7700	  629.00	  567.13	-1727.50	  450.43
      8.8700	  629.00	  567.29	-1727.50	  450.59
      8.9700	  591.00	  567.44	-1727.50	  450.74
      9.0700	  624.00	  567.58	-1727.50	  450.88
      9.1700	  604.00	  567.72	-1727.50	  451.02
      9.2700	  603.00	  567.85	-1727.50	  451.15
      9.3700	  609.00	  567.98	-1727.50	  451.28
      9.4700	  567.00	  568.10	-1727.50	  451.39
      9.5700	  637.00	  568.21	-1727.50	  451.51
      9.6700	  565.00	  568.32	-1727.50	  451.61
      9.7700	  612.00	  568.42	-1727.50	  451.71
      9.8700	  662.00	  568.51	-1727.50	  451.81
      9.9700	  601.00	  568.60	-1727.50	  451.90
     10.0700	  647.00	  570.10	-1650.60	  451.98
     10.1700	  603.00	  570.34	-1694.84	  452.06
     10.2700	  574.00	  570.61	-1724.11	  452.13
     10.3700	  568.00	  570.93	-1730.43	  452.19
     10.4700	  604.00	  571.35	-1694.85	  452.25
     10.5700	  542.00	  571.92	-1757.42	  452.31
     10.6700	  600.00	  572.76	-1700.26	  452.35
     10.7700	  616.00	  573.96	-1685.46	  452.40
     10.8700	  603.00	  575.59	-1700.09	  452.43
     10.9700	  567.00	  577.68	-1738.18	  452.47
     11.0700	  613.00	  580.20	-1694.70	  452.49
     11.1700	  604.00	  583.16	-1706.66	  452.51
     11.2700	  616.00	  586.60	-1698.10	  452.53
     11.3700	  580.00	  590.63	-1738.13	  452.54
     11.4700	  597.00	  595.40	-1725.90	  452.55
     11.5700	  586.00	  601.15	-1742.65	  452.55
     11.6700	  589.00	  608.30	-1746.80	  452.54
     11.7700	  573.00	  617.44	-1771.94	  452.53
     11.8700	  630.00	  629.14	-1726.64	  452.52
     11.9700	  657.00	  643.21	-1713.71	  452.50
     12.0700	  687.00	  657.41	-1697.91	  452.47
     12.1700	  672.00	  666.24	-1721.74	  452.45
     12.2700	  720.00	  662.02	-1669.52	  452.41
     12.3700	  664.00	  642.80	-1706.30	  452.37
     12.4700	  645.00	  618.73	-1701.23	  452.33
     12.5700	  573.00	  599.40	-1753.90	  452.28
     12.6700	  626.00	  587.10	-1688.60	  452.23
     12.7700	  615.00	  580.29	-1692.79	  452.17
     12.8700	  583.00	  576.72	-1721.22	  452.11
     12.9700	  539.00	  574.72	-1763.22	  452.04
     13.0700	  599.00	  573.45	-1701.95	  451.97
     13.1700	  542.00	  572.53	-1758.03	  451.90
     13.2700	  555.00	  571.83	-1744.33	  451.82
     13.3700	  568.00	  571.27	-1730.77	  451.73
     13.4700	  556.00	  570.80	-1742.30	  451.65
     13.5700	  565.00	  570.41	-1732.91	  451.55
     13.6700	  528.00	  570.07	-1769.57	  451.46
     13.7700	  528.00	  569.76	-1769.26	  451.36
     13.8700	  585.00	  569.49	-1711.99	  451.25
     13.9700	  616.00	  569.24	-1680.74	  451.15
     14.0700	  528.00	  569.01	-1768.51	  451.03
     14.1700	  527.00	  568.79	-1769.29	  450.92
     14.2700	  555.00	  568.58	-1741.08	  450.80
     14.3700	  560.00	  568.38	-1735.88	  450.67
     14.4700	  568.00	  568.18	-1727.68	  450.55
     14.5700	  575.00	  567.99	-1720.49	  450.42
     14.6700	  586.00	  567.80	-1709.30	  450.28
     14.7700	  564.00	  567.62	-1731.12	  450.14
     14.8700	  563.00	  567.46	-1731.96	  450.00
     14.9700	  570.00	  567.28	-1724.78	  449.85
     15.0700	  534.00	  567.10	-1760.60	  449.70
     15.1700	  567.00	  566.91	-1727.41	  449.55
     15.2700	  515.00	  566.73	-1779.23	  449.40
     15.3700	  529.00	  566.54	-1765.04	  449.24
     15.4700	  575.00	  566.36	-1718.86	  449.07
     15.5700	  570.00	  566.17	-1723.67	  448.91
     15.6700	  558.00	  565.98	-1735.48	  448.74
     15.7700	  567.00	  565.79	-1726.29	  448.56
     15.8700	  621.00	  565.60	-1672.10	  448.39
     15.9700	  593.00	  565.41	-1699.91	  448.21
     16.0700	  583.00	  565.21	-1709.71	  448.03
     16.1700	  566.00	  565.02	-1726.52	  447.84
     16.2700	  525.00	  564.82	-1767.32	  447.65
     16.3700	  550.00	  564.62	-1742.12	  447.46
     16.4700	  526.00	  564.41	-1765.91	  447.27
     16.5700	  608.00	  564.21	-1683.71	  447.07
     16.6700	  560.00	  564.00	-1731.50	  446.87
     16.7700	  535.00	  563.79	-1756.29	  446.67
     16.8700	  561.00	  563.58	-1730.08	  446.46
     16.9700	  558.00	  563.36	-1732.86	  446.25
     17.0700	  548.00	  563.14	-1742.64	  446.04
     17.1700	  550.00	  562.92	-1740.42	  445.83
     17.2700	  567.00	  562.70	-1723.20	  445.61
     17.3700	  553.00	  562.48	-1736.98	  445.39
     17.4700	  553.00	  562.25	-1736.75	  445.17
     17.5700	  578.00	  562.03	-1711.53	  444.95
     17.6700	  521.00	  561.80	-1768.30	  444.72
     17.7700	  556.00	  561.56	-1733.06	  444.49
     17.8700	  546.00	  561.33	-1742.83	  444.26
     17.9700	  555.00	  561.09	-1733.59	  444.02
     18.0700	  520.00	  560.95	-1768.45	  443.79
     18.1700	  557.00	  560.71	-1731.21	  443.55
     18.2700	  531.00	  560.47	-1756.97	  443.31
     18.3700	  540.00	  560.23	-1747.73	  443.07
     18.4700	  511.00	  559.98	-1776.48	  442.82
     18.5700	  573.00	  559.74	-1714.24	  442.57
     18.6700	  552.00	  559.59	-1735.09	  442.32
     18.7700	  574.00	  559.34	-1712.84	  442.07
     18.8700	  494.00	  559.09	-1792.59	  441.82
     18.9700	  569.00	  558.84	-1717.34	  441.56
     19.0700	  546.00	  558.59	-1740.09	  441.30
     19.1700	  546.00	  558.33	-1739.83	  441.04
     19.2700	  566.00	  558.08	-1719.58	  440.78
     19.3700	  561.00	  557.82	-1724.32	  440.52
     19.4700	  512.00	  557.56	-1773.06	  440.25
     19.5700	  557.00	  557.30	-1727.80	  439.98
     19.6700	  542.00	  557.04	-1742.54	  439.71
     19.7700	  585.00	  556.78	-1699.28	  439.44
     19.8700	  499.00	  556.51	-1785.01	  439.17
     19.9700	  543.00	  556.25	-1740.75	  438.90
     20.0700	  537.00	  555.98	-1746.48	  438.62
     20.1700	  530.00	  555.72	-1753.22	  438.34
     20.2700	  552.00	  555.45	-1730.95	  438.06
     20.3700	  545.00	  555.21	-1737.71	  437.78
     20.4700	  543.00	  554.94	-1739.44	  437.50
     20.5700	  513.00	  554.67	-1769.17	  437.21
     20.6700	  599.00	  554.40	-1682.90	  436.93
     20.7700	  548.00	  554.13	-1733.63	  436.64
     20.8700	  578.00	  553.86	-1703.36	  436.35
     20.9700	  561.00	  553.59	-1720.09	  436.06
     21.0700	  507.00	  553.32	-1773.82	  435.77
     21.1700	  565.00	  553.05	-1715.55	  435.48
     21.2700	  505.00	  552.78	-1775.28	  435.19
     21.3700	  576.00	  552.51	-1704.01	  434.89
     21.4700	  531.00	  552.24	-1748.74	  434.59
     21.5700	  576.00	  551.97	-1703.47	  434.30
     21.6700	  570.00	  551.70	-1709.20	  434.00
     21.7700	  533.00	  551.44	-1745.94	  433.70
     21.8700	  509.00	  551.17	-1769.67	  433.40
     21.9700	  531.00	  550.86	-1747.36	  433.10
     22.0700	  590.00	  550.60	-1688.10	  432.79
     22.1700	  553.00	  550.35	-1724.85	  432.49
     22.2700	  545.00	  550.10	-1732.60	  432.18
     22.3700	  568.00	  549.85	-1709.35	  431.88
     22.4700	  533.00	  549.60	-1744.10	  431.57
     22.5700	  579.00	  549.37	-1697.87	  431.26
     22.6700	  593.00	  549.14	-1683.64	  430.95
     22.7700	  538.00	  548.92	-1738.42	  430.64
     22.8700	  563.00	  548.71	-1713.21	  430.33
     22.9700	  542.00	  548.52	-1734.02	  430.02
     23.0700	  528.00	  548.49	-1747.99	  429.71
     23.1700	  579.00	  548.34	-1696.84	  429.40
     23.2700	  579.00	  548.22	-1696.72	  429.08
     23.3700	  552.00	  548.13	-1723.63	  428.77
     23.4700	  561.00	  548.09	-1714.59	  428.45
     23.5700	  579.00	  548.12	-1696.62	  428.14
     23.6700	  547.00	  548.25	-1728.75	  427.82
     23.7700	  530.00	  548.53	-1746.03	  427.50
     23.8700	  551.00	  549.09	-1725.59	  427.19
     23.9700	  540.00	  550.14	-1737.64	  426.87
     24.0700	  556.00	  552.05	-1723.55	  426.55
     24.1700	  561.00	  555.38	-1721.88	  426.23
     24.2700	  573.00	  560.83	-1715.33	  425.91
     24.3700	  566.00	  569.08	-1730.58	  425.59
     24.4700	  609.00	  580.58	-1699.08	  425.27
     24.5700	  584.00	  594.85	-1738.35	  424.95
     24.6700	  601.00	  609.51	-1736.01	  424.63
     24.7700	  607.00	  619.38	-1739.88	  424.31
     24.8700	  641.00	  617.73	-1704.23	  423.98
     24.9700	  635.00	  603.21	-1695.71	  423.66
     25.0700	  635.00	  584.03	-1676.53	  423.34
     25.1700	  594.00	  567.95	-1701.45	  423.02
     25.2700	  569.00	  557.24	-1715.74	  422.69
     25.3700	  526.00	  551.06	-1752.56	  422.37
     25.4700	  605.00	  547.73	-1670.23	  422.05
     25.5700	  565.00	  545.87	-1708.37	  421.72
     25.6700	  576.00	  544.71	-1696.21	  421.40
     25.7700	  554.00	  543.90	-1717.40	  421.08
     25.8700	  509.00	  543.29	-1761.79	  420.75
     25.9700	  593.00	  542.82	-1677.32	  420.43
     26.0700	  546.00	  542.48	-1723.98	  420.10
     26.1700	  572.00	  542.22	-1697.72	  419.78
     26.2700	  542.00	  542.06	-1727.56	  419.46
     26.3700	  541.00	  541.98	-1728.48	  419.13
     26.4700	  562.00	  541.99	-1707.49	  418.81
     26.5700	  555.00	  542.09	-1714.59	  418.48
     26.6700	  545.00	  542.31	-1724.81	  418.16
     26.7700	  568.00	  542.66	-1702.16	  417.84
     26.8700	  532.00	  543.17	-1738.67	  417.51
     26.9700	  561.00	  543.90	-1710.40	  417.19
     27.0700	  557.00	  544.90	-1715.40	  416.86
     27.1700	  610.00	  546.29	-1663.79	  416.54
     27.2700	  570.00	  548.29	-1705.79	  416.22
     27.3700	  543.00	  551.34	-1735.84	  415.89
     27.4700	  549.00	  556.27	-1734.77	  415.57
     27.5700	  571.00	  564.64	-1721.14	  415.25
     27.6700	  557.00	  578.91	-1749.41	  414.93
     27.7700	  611.00	  602.36	-1718.86	  414.61
     27.8700	  613.00	  638.01	-1752.51	  414.28
     27.9700	  630.00	  686.43	-1783.93	  413.96
     28.0700	  726.00	  742.73	-1744.23	  413.64
     28.1700	  841.00	  793.81	-1680.31	  413.32
     28.2700	  920.00	  819.19	-1626.69	  413.00
     28.3700	  867.00	  805.14	-1665.64	  412.68
     28.4700	  796.00	  769.49	-1700.99	  412.36
     28.5700	  741.00	  745.83	-1732.33	  412.04
     28.6700	  721.00	  750.57	-1757.07	  411.72
     28.7700	  751.00	  779.52	-1756.02	  411.41
     28.8700	  804.00	  813.08	-1736.58	  411.09
     28.9700	  885.00	  822.63	-1665.13	  410.77
     29.0700	  810.00	  787.97	-1705.47	  410.46
     29.1700	  704.00	  722.74	-1746.24	  410.14
     29.2700	  681.00	  657.60	-1704.10	  409.82
     29.3700	  580.00	  608.88	-1756.38	  409.51
     29.4700	  535.00	  578.35	-1770.85	  409.20
     29.5700	  575.00	  561.29	-1713.79	  408.88
     29.6700	  585.00	  552.13	-1694.63	  408.57
     29.7700	  607.00	  546.96	-1667.46	  408.26
     29.8700	  566.00	  543.77	-1705.27	  407.95
     29.9700	  610.00	  541.70	-1659.20	  407.63
     30.0700	  541.00	  540.51	-1727.01	  407.32
     30.1700	  555.00	  540.31	-1712.81	  407.01
     30.2700	  545.00	  541.39	-1723.89	  406.71
     30.3700	  565.00	  544.57	-1707.07	  406.40
     30.4700	  578.00	  550.98	-1700.48	  406.09
     30.5700	  558.00	  561.77	-1731.27	  405.78
     30.6700	  567.00	  577.18	-1737.68	  405.48
     30.7700	  601.00	  595.36	-1721.86	  405.17
     30.8700	  616.00	  611.50	-1723.00	  404.87
     30.9700	  570.00	  618.15	-1775.65	  404.57
     31.0700	  565.00	  609.57	-1772.07	  404.26
     31.1700	  556.00	  589.69	-1761.19	  403.96
     31.2700	  560.00	  568.47	-1735.97	  403.66
     31.3700	  559.00	  551.86	-1720.36	  403.36
     31.4700	  575.00	  541.05	-1693.55	  403.06
     31.5700	  526.00	  534.84	-1736.34	  402.76
     31.6700	  484.00	  531.46	-1774.96	  402.47
     31.7700	  569.00	  529.57	-1688.07	  402.17
     31.8700	  574.00	  528.41	-1681.91	  401.88
     31.9700	  586.00	  527.64	-1669.14	  401.58
     32.0700	  548.00	  527.12	-1706.62	  401.29
     32.1700	  578.00	  526.79	-1676.29	  401.00
     32.2700	  549.00	  526.65	-1705.15	  400.70
     32.3700	  553.00	  526.67	-1701.17	  400.41
     32.4700	  561.00	  526.86	-1693.36	  400.13
     32.5700	  568.00	  527.26	-1686.76	  399.84
     32.6700	  532.00	  527.89	-1723.39	  399.55
     32.7700	  564.00	  528.80	-1692.30	  399.26
     32.8700	  549.00	  530.09	-1708.59	  398.98
     32.9700	  561.00	  531.90	-1698.40	  398.69
     33.0700	  555.00	  534.48	-1706.98	  398.41
     33.1700	  524.00	  538.36	-1741.86	  398.13
     33.2700	  563.00	  544.67	-1709.17	  397.85
     33.3700	  543.00	  555.67	-1740.17	  397.57
     33.4700	  569.00	  575.36	-1733.86	  397.29
     33.5700	  625.00	  609.70	-1712.20	  397.01
     33.6700	  638.00	  665.01	-1754.51	  396.74
     33.7700	  763.00	  743.62	-1708.12	  396.46
     33.8700	  885.00	  837.54	-1680.04	  396.19
     33.9700	 1004.00	  924.24	-1647.74	  395.92
     34.0700	  999.00	  968.32	-1696.82	  395.65
     34.1700	 1006.00	  940.17	-1661.67	  395.38
     34.2700	  912.00	  851.92	-1667.42	  395.11
     34.3700	  849.00	  748.70	-1627.20	  394.84
     34.4700	  655.00	  662.74	-1735.24	  394.57
     34.5700	  691.00	  603.77	-1640.27	  394.31
     34.6700	  576.00	  568.49	-1719.99	  394.04
     34.7700	  546.00	  549.06	-1730.56	  393.78
     34.8700	  581.00	  538.42	-1684.92	  393.52
     34.9700	  534.00	  532.10	-1725.60	  393.26
     35.0700	  552.00	  527.84	-1703.34	  393.00
     35.1700	  471.00	  524.73	-1781.23	  392.75
     35.2700	  514.00	  522.29	-1735.79	  392.49
     35.3700	  532.00	  520.32	-1715.82	  392.23
     35.4700	  477.00	  518.69	-1769.19	  391.98
     35.5700	  537.00	  517.33	-1707.83	  391.73
     35.6700	  504.00	  516.17	-1739.67	  391.48
     35.7700	  459.00	  515.16	-1783.66	  391.23
     35.8700	  514.00	  514.28	-1727.78	  390.98
     35.9700	  495.00	  513.51	-1746.01	  390.74
     36.0700	  516.00	  513.26	-1724.76	  390.49
     36.1700	  490.00	  512.65	-1750.15	  390.25
     36.2700	  504.00	  512.11	-1735.61	  390.00
     36.3700	  493.00	  511.62	-1746.12	  389.76
     36.4700	  486.00	  511.18	-1752.68	  389.52
     36.5700	  531.00	  510.80	-1707.30	  389.29
     36.6700	  501.00	  510.49	-1736.99	  389.05
     36.7700	  530.00	  510.24	-1707.74	  388.81
     36.8700	  492.00	  510.09	-1745.59	  388.58
     36.9700	  491.00	  510.12	-1746.62	  388.35
     37.0700	  485.00	  510.47	-1752.97	  388.12
     37.1700	  450.00	  511.36	-1788.86	  387.89
     37.2700	  484.00	  513.09	-1756.59	  387.66
     37.3700	  528.00	  515.86	-1715.36	  387.43
     37.4700	  497.00	  519.59	-1750.09	  387.21
     37.5700	  536.00	  523.64	-1715.14	  386.99
     37.6700	  518.00	  526.75	-1736.25	  386.76
     37.7700	  535.00	  527.40	-1719.90	  386.54
     37.8700	  537.00	  525.07	-1715.57	  386.32
     37.9700	  568.00	  520.96	-1680.46	  386.11
     38.0700	  539.00	  516.62	-1705.12	  385.89
     38.1700	  551.00	  512.86	-1689.36	  385.68
     38.2700	  477.00	  509.95	-1760.45	  385.46
     38.3700	  515.00	  507.91	-1720.41	  385.25
     38.4700	  502.00	  506.70	-1732.20	  385.04
     38.5700	  535.00	  505.78	-1698.28	  384.83
     38.6700	  511.00	  505.06	-1721.56	  384.63
     38.7700	  498.00	  504.59	-1734.09	  384.42
     38.8700	  500.00	  504.21	-1731.71	  384.22
     38.9700	  474.00	  503.89	-1757.39	  384.02
     39.0700	  473.00	  503.61	-1758.11	  383.82
     39.1700	  483.00	  503.35	-1747.85	  383.62
     39.2700	  503.00	  503.11	-1727.61	  383.42
     39.3700	  547.00	  502.89	-1683.39	  383.22
     39.4700	  508.00	  502.59	-1722.09	  383.03
     39.5700	  520.00	  502.40	-1709.90	  382.84
     39.6700	  495.00	  502.22	-1734.72	  382.65
     39.7700	  493.00	  502.05	-1736.55	  382.46
     39.8700	  546.00	  501.90	-1683.40	  382.27
     39.9700	  483.00	  501.75	-1746.25	  382.08
     40.0700	  517.00	  501.62	-1712.12	  381.90
     40.1700	  491.00	  501.50	-1738.00	  381.72
     40.2700	  499.00	  501.39	-1729.89	  381.54
     40.3700	  500.00	  501.30	-1728.80	  381.36
     40.4700	  485.00	  501.22	-1743.72	  381.18
     40.5700	  481.00	  501.17	-1747.67	  381.00
     40.6700	  510.00	  501.13	-1718.63	  380.83
     40.7700	  509.00	  501.12	-1719.62	  380.65
