MSG Master    CELL:    5.91672   5.91672  23.25915   90.0000   90.0000  120.0000   SPGR: P 63/m m c             TEMP:   1021.85
  1   1280     2.52000     0.00000    -0.12129     0.00000     0.00000    0
    99     0     2
       0.00000      10.00000
     125.00000     130.00000
 2Theta	Yobs	Ycal	Yobs-Ycal	Backg	Posr	(hkl)	K
      0.7700	    0.00	  550.30	-1778.25	  433.94
      0.8700	    0.00	  550.98	-1778.25	  434.62
      0.9700	   41.00	  551.65	-1778.25	  435.28
      1.0700	   30.00	  552.30	-1778.25	  435.94
      1.1700	   38.00	  552.95	-1778.25	  436.58
      1.2700	   41.00	  553.58	-1778.25	  437.22
      1.3700	   35.00	  554.21	-1778.25	  437.84
      1.4700	   97.00	  554.82	-1778.25	  438.46
      1.5700	  294.00	  555.43	-1778.25	  439.06
      1.6700	  426.00	  556.02	-1778.25	  439.66
      1.7700	  544.00	  556.60	-1778.25	  440.24
      1.8700	  638.00	  557.18	-1778.25	  440.81
      1.9700	  730.00	  557.74	-1778.25	  441.38
      2.0700	  746.00	  558.29	-1778.25	  441.93
      2.1700	  764.00	  558.84	-1778.25	  442.47
      2.2700	  777.00	  559.37	-1778.25	  443.01
      2.3700	  759.00	  559.90	-1778.25	  443.53
      2.4700	  726.00	  560.41	-1778.25	  444.05
      2.5700	  697.00	  560.91	-1778.25	  444.55
      2.6700	  701.00	  561.41	-1778.25	  445.05
      2.7700	  649.00	  561.90	-1778.25	  445.53
      2.8700	  653.00	  562.37	-1778.25	  446.01
      2.9700	  607.00	  562.84	-1778.25	  446.48
      3.0700	  630.00	  563.30	-1778.25	  446.93
      3.1700	  578.00	  563.75	-1778.25	  447.38
      3.2700	  605.00	  564.19	-1778.25	  447.82
      3.3700	  680.00	  564.62	-1778.25	  448.25
      3.4700	  759.00	  565.04	-1778.25	  448.68
      3.5700	  826.00	  565.45	-1778.25	  449.09
      3.6700	  841.00	  565.86	-1778.25	  449.49
      3.7700	  874.00	  566.25	-1778.25	  449.89
      3.8700	  903.00	  566.64	-1778.25	  450.27
      3.9700	 1022.00	  567.01	-1778.25	  450.65
      4.0700	 1101.00	  567.38	-1778.25	  451.02
      4.1700	 1095.00	  567.74	-1778.25	  451.38
      4.2700	 1144.00	  568.10	-1778.25	  451.73
      4.3700	 1081.00	  568.44	-1778.25	  452.08
      4.4700	 1065.00	  568.78	-1778.25	  452.41
      4.5700	 1023.00	  569.10	-1778.25	  452.74
      4.6700	  973.00	  569.42	-1778.25	  453.06
      4.7700	  995.00	  569.73	-1778.25	  453.37
      4.8700	  977.00	  570.04	-1778.25	  453.67
      4.9700	  906.00	  570.33	-1778.25	  453.97
      5.0700	  924.00	  570.62	-1778.25	  454.25
      5.1700	  908.00	  570.90	-1778.25	  454.53
      5.2700	  907.00	  571.17	-1778.25	  454.80
      5.3700	  876.00	  571.43	-1778.25	  455.07
      5.4700	  890.00	  571.69	-1778.25	  455.32
      5.5700	  857.00	  571.93	-1778.25	  455.57
      5.6700	  829.00	  572.18	-1778.25	  455.81
      5.7700	  812.00	  572.41	-1778.25	  456.05
      5.8700	  791.00	  572.63	-1778.25	  456.27
      5.9700	  805.00	  572.85	-1778.25	  456.49
      6.0700	  835.00	  573.06	-1778.25	  456.70
      6.1700	  797.00	  573.27	-1778.25	  456.90
      6.2700	  797.00	  573.46	-1778.25	  457.10
      6.3700	  821.00	  573.65	-1778.25	  457.29
      6.4700	  802.00	  573.83	-1778.25	  457.47
      6.5700	  814.00	  574.01	-1778.25	  457.65
      6.6700	  735.00	  574.18	-1778.25	  457.81
      6.7700	  784.00	  574.34	-1778.25	  457.98
      6.8700	  698.00	  574.49	-1778.25	  458.13
      6.9700	  702.00	  574.64	-1778.25	  458.28
      7.0700	  673.00	  574.78	-1778.25	  458.42
      7.1700	  686.00	  574.92	-1778.25	  458.55
      7.2700	  675.00	  575.04	-1778.25	  458.68
      7.3700	  702.00	  575.16	-1778.25	  458.80
      7.4700	  717.00	  575.28	-1778.25	  458.91
      7.5700	  659.00	  575.39	-1778.25	  459.02
      7.6700	  619.00	  575.49	-1778.25	  459.12
      7.7700	  694.00	  575.58	-1778.25	  459.22
      7.8700	  646.00	  575.67	-1778.25	  459.31
      7.9700	  605.00	  575.75	-1778.25	  459.39
      8.0700	  645.00	  575.83	-1778.25	  459.47
      8.1700	  663.00	  575.90	-1778.25	  459.54
      8.2700	  648.00	  575.97	-1778.25	  459.60
      8.3700	  601.00	  576.02	-1778.25	  459.66
      8.4700	  594.00	  576.08	-1778.25	  459.71
      8.5700	  627.00	  576.12	-1778.25	  459.76
      8.6700	  608.00	  576.16	-1778.25	  459.80
      8.7700	  650.00	  576.20	-1778.25	  459.84
      8.8700	  618.00	  576.23	-1778.25	  459.86
      8.9700	  586.00	  576.25	-1778.25	  459.89
      9.0700	  607.00	  576.27	-1778.25	  459.91
      9.1700	  578.00	  576.28	-1778.25	  459.92
      9.2700	  592.00	  576.29	-1778.25	  459.92
      9.3700	  589.00	  576.29	-1778.25	  459.93
      9.4700	  598.00	  576.29	-1778.25	  459.92
      9.5700	  595.00	  576.28	-1778.25	  459.91
      9.6700	  597.00	  576.26	-1778.25	  459.90
      9.7700	  562.00	  576.24	-1778.25	  459.88
      9.8700	  597.00	  576.22	-1778.25	  459.85
      9.9700	  596.00	  576.19	-1778.25	  459.82
     10.0700	  610.00	  576.93	-1745.18	  459.79
     10.1700	  607.00	  576.97	-1748.22	  459.75
     10.2700	  626.00	  577.02	-1729.27	  459.70
     10.3700	  600.00	  577.09	-1755.34	  459.65
     10.4700	  607.00	  577.21	-1748.46	  459.59
     10.5700	  551.00	  577.42	-1804.67	  459.53
     10.6700	  533.00	  577.81	-1823.06	  459.47
     10.7700	  635.00	  578.47	-1721.72	  459.40
     10.8700	  560.00	  579.49	-1797.74	  459.32
     10.9700	  624.00	  580.87	-1735.12	  459.25
     11.0700	  588.00	  582.57	-1772.82	  459.16
     11.1700	  568.00	  584.58	-1794.83	  459.07
     11.2700	  564.00	  586.94	-1801.19	  458.98
     11.3700	  565.00	  589.70	-1802.95	  458.88
     11.4700	  580.00	  592.99	-1791.24	  458.78
     11.5700	  625.00	  596.97	-1750.22	  458.67
     11.6700	  589.00	  601.96	-1791.21	  458.56
     11.7700	  663.00	  608.48	-1723.73	  458.45
     11.8700	  635.00	  617.34	-1760.59	  458.33
     11.9700	  662.00	  629.23	-1745.48	  458.21
     12.0700	  695.00	  643.05	-1726.30	  458.08
     12.1700	  677.00	  653.72	-1754.97	  457.95
     12.2700	  678.00	  652.45	-1752.70	  457.81
     12.3700	  638.00	  635.08	-1775.33	  457.67
     12.4700	  645.00	  611.90	-1745.15	  457.53
     12.5700	  577.00	  594.13	-1795.38	  457.38
     12.6700	  630.00	  584.14	-1732.39	  457.23
     12.7700	  572.00	  579.50	-1785.75	  457.08
     12.8700	  550.00	  577.39	-1805.64	  456.92
     12.9700	  519.00	  576.25	-1835.50	  456.76
     13.0700	  525.00	  575.47	-1828.72	  456.59
     13.1700	  536.00	  574.86	-1817.11	  456.42
     13.2700	  553.00	  574.37	-1799.62	  456.25
     13.3700	  581.00	  573.95	-1771.20	  456.07
     13.4700	  553.00	  573.57	-1798.82	  455.89
     13.5700	  583.00	  573.24	-1768.49	  455.71
     13.6700	  511.00	  572.93	-1840.18	  455.52
     13.7700	  585.00	  572.63	-1765.88	  455.33
     13.8700	  554.00	  572.36	-1796.61	  455.13
     13.9700	  544.00	  572.09	-1806.34	  454.94
     14.0700	  526.00	  571.83	-1824.08	  454.74
     14.1700	  550.00	  571.57	-1799.82	  454.53
     14.2700	  563.00	  571.32	-1786.57	  454.32
     14.3700	  551.00	  571.07	-1798.32	  454.11
     14.4700	  559.00	  570.82	-1790.07	  453.90
     14.5700	  576.00	  570.58	-1772.83	  453.69
     14.6700	  586.00	  570.33	-1762.58	  453.47
     14.7700	  582.00	  570.09	-1766.34	  453.24
     14.8700	  596.00	  569.84	-1752.09	  453.02
     14.9700	  510.00	  569.60	-1837.85	  452.79
     15.0700	  561.00	  569.35	-1786.60	  452.56
     15.1700	  542.00	  569.10	-1805.35	  452.33
     15.2700	  564.00	  568.85	-1783.10	  452.09
     15.3700	  567.00	  568.60	-1779.85	  451.85
     15.4700	  600.00	  568.34	-1746.59	  451.61
     15.5700	  563.00	  568.09	-1783.34	  451.37
     15.6700	  570.00	  567.83	-1776.08	  451.12
     15.7700	  593.00	  567.58	-1752.83	  450.87
     15.8700	  561.00	  567.32	-1784.57	  450.62
     15.9700	  525.00	  567.05	-1820.30	  450.36
     16.0700	  601.00	  566.79	-1744.04	  450.11
     16.1700	  540.00	  566.55	-1804.80	  449.85
     16.2700	  590.00	  566.28	-1754.53	  449.59
     16.3700	  556.00	  566.02	-1788.27	  449.32
     16.4700	  578.00	  565.74	-1765.99	  449.05
     16.5700	  591.00	  565.47	-1752.72	  448.79
     16.6700	  544.00	  565.20	-1799.45	  448.52
     16.7700	  584.00	  564.92	-1759.17	  448.24
     16.8700	  592.00	  564.64	-1750.89	  447.97
     16.9700	  541.00	  564.36	-1801.61	  447.69
     17.0700	  597.00	  564.08	-1745.33	  447.41
     17.1700	  527.00	  563.80	-1815.05	  447.13
     17.2700	  546.00	  563.51	-1795.76	  446.85
     17.3700	  563.00	  563.23	-1778.48	  446.56
     17.4700	  576.00	  562.94	-1765.19	  446.27
     17.5700	  571.00	  562.65	-1769.90	  445.98
     17.6700	  523.00	  562.35	-1817.60	  445.69
     17.7700	  578.00	  562.06	-1762.31	  445.40
     17.8700	  578.00	  561.76	-1762.01	  445.11
     17.9700	  526.00	  561.57	-1813.82	  444.81
     18.0700	  572.00	  561.27	-1767.52	  444.51
     18.1700	  567.00	  560.97	-1772.22	  444.21
     18.2700	  571.00	  560.67	-1767.92	  443.91
     18.3700	  531.00	  560.37	-1807.62	  443.61
     18.4700	  580.00	  560.07	-1758.32	  443.30
     18.5700	  517.00	  559.77	-1821.02	  443.00
     18.6700	  568.00	  559.46	-1769.71	  442.69
     18.7700	  571.00	  559.15	-1766.40	  442.38
     18.8700	  508.00	  558.94	-1829.19	  442.07
     18.9700	  507.00	  558.63	-1829.88	  441.76
     19.0700	  545.00	  558.32	-1791.57	  441.44
     19.1700	  554.00	  558.01	-1782.26	  441.13
     19.2700	  539.00	  557.70	-1796.95	  440.81
     19.3700	  597.00	  557.39	-1738.64	  440.49
     19.4700	  535.00	  557.08	-1800.33	  440.18
     19.5700	  540.00	  556.77	-1795.02	  439.86
     19.6700	  533.00	  556.45	-1801.70	  439.53
     19.7700	  566.00	  556.14	-1768.39	  439.21
     19.8700	  559.00	  555.82	-1775.07	  438.89
     19.9700	  550.00	  555.51	-1783.76	  438.56
     20.0700	  559.00	  555.19	-1774.44	  438.24
     20.1700	  576.00	  554.87	-1757.12	  437.91
     20.2700	  554.00	  554.56	-1778.81	  437.58
     20.3700	  567.00	  554.24	-1765.49	  437.25
     20.4700	  498.00	  553.92	-1834.17	  436.92
     20.5700	  550.00	  553.60	-1781.85	  436.59
     20.6700	  570.00	  553.25	-1761.50	  436.26
     20.7700	  541.00	  552.94	-1790.19	  435.93
     20.8700	  542.00	  552.65	-1788.91	  435.60
     20.9700	  525.00	  552.34	-1805.59	  435.26
     21.0700	  578.00	  552.02	-1752.27	  434.93
     21.1700	  544.00	  551.70	-1785.95	  434.59
     21.2700	  558.00	  551.39	-1771.64	  434.25
     21.3700	  576.00	  551.07	-1753.32	  433.92
     21.4700	  562.00	  550.75	-1767.00	  433.58
     21.5700	  549.00	  550.44	-1779.69	  433.24
     21.6700	  537.00	  550.13	-1791.38	  432.90
     21.7700	  523.00	  549.81	-1805.06	  432.56
     21.8700	  578.00	  549.50	-1749.75	  432.22
     21.9700	  514.00	  549.19	-1813.44	  431.88
     22.0700	  566.00	  548.89	-1761.14	  431.54
     22.1700	  533.00	  548.58	-1793.83	  431.20
     22.2700	  601.00	  548.28	-1725.53	  430.86
     22.3700	  503.00	  547.98	-1823.23	  430.51
     22.4700	  597.00	  547.68	-1728.93	  430.17
     22.5700	  528.00	  547.39	-1797.64	  429.83
     22.6700	  524.00	  547.11	-1801.36	  429.48
     22.7700	  529.00	  546.83	-1796.08	  429.14
     22.8700	  563.00	  546.56	-1761.81	  428.80
     22.9700	  522.00	  546.30	-1802.55	  428.45
     23.0700	  567.00	  546.05	-1757.30	  428.11
     23.1700	  588.00	  545.82	-1736.07	  427.76
     23.2700	  569.00	  545.60	-1754.85	  427.42
     23.3700	  534.00	  545.41	-1789.66	  427.07
     23.4700	  514.00	  545.25	-1809.50	  426.72
     23.5700	  511.00	  545.14	-1812.39	  426.38
     23.6700	  559.00	  545.09	-1764.34	  426.03
     23.7700	  550.00	  545.26	-1773.51	  425.69
     23.8700	  559.00	  545.50	-1764.75	  425.34
     23.9700	  583.00	  546.10	-1741.35	  424.99
     24.0700	  552.00	  547.44	-1773.69	  424.65
     24.1700	  539.00	  550.11	-1789.36	  424.30
     24.2700	  577.00	  554.91	-1756.16	  423.96
     24.3700	  580.00	  562.74	-1760.99	  423.61
     24.4700	  598.00	  574.58	-1754.83	  423.26
     24.5700	  620.00	  590.91	-1749.16	  422.92
     24.6700	  610.00	  609.77	-1778.02	  422.57
     24.7700	  612.00	  624.58	-1790.83	  422.23
     24.8700	  620.00	  625.24	-1783.49	  421.88
     24.9700	  617.00	  607.70	-1768.95	  421.54
     25.0700	  589.00	  583.05	-1772.30	  421.19
     25.1700	  602.00	  563.23	-1739.48	  420.85
     25.2700	  577.00	  551.45	-1752.70	  420.50
     25.3700	  575.00	  545.71	-1748.96	  420.16
     25.4700	  545.00	  543.10	-1776.35	  419.81
     25.5700	  552.00	  541.75	-1768.00	  419.47
     25.6700	  548.00	  540.91	-1771.16	  419.13
     25.7700	  541.00	  540.29	-1777.54	  418.78
     25.8700	  589.00	  539.82	-1729.07	  418.44
     25.9700	  548.00	  539.46	-1769.71	  418.10
     26.0700	  578.00	  539.19	-1739.44	  417.76
     26.1700	  584.00	  539.00	-1733.25	  417.41
     26.2700	  539.00	  538.89	-1778.14	  417.07
     26.3700	  613.00	  538.85	-1704.10	  416.73
     26.4700	  562.00	  538.89	-1755.14	  416.39
     26.5700	  574.00	  539.03	-1743.28	  416.05
     26.6700	  572.00	  539.28	-1745.53	  415.71
     26.7700	  521.00	  539.66	-1796.91	  415.38
     26.8700	  550.00	  540.20	-1768.45	  415.04
     26.9700	  597.00	  540.96	-1722.21	  414.70
     27.0700	  540.00	  542.00	-1780.25	  414.36
     27.1700	  541.00	  543.45	-1780.70	  414.03
     27.2700	  594.00	  545.52	-1729.77	  413.69
     27.3700	  557.00	  548.66	-1769.91	  413.36
     27.4700	  522.00	  553.73	-1809.98	  413.02
     27.5700	  545.00	  562.31	-1795.56	  412.69
     27.6700	  534.00	  576.95	-1821.20	  412.36
     27.7700	  557.00	  601.08	-1822.33	  412.03
     27.8700	  582.00	  637.95	-1834.20	  411.70
     27.9700	  655.00	  688.39	-1811.64	  411.37
     28.0700	  802.00	  747.65	-1723.90	  411.04
     28.1700	  850.00	  802.49	-1730.74	  410.71
     28.2700	 1027.00	  831.36	-1582.61	  410.38
     28.3700	  915.00	  817.72	-1680.97	  410.05
     28.4700	  796.00	  777.07	-1759.32	  409.73
     28.5700	  700.00	  745.21	-1823.46	  409.40
     28.6700	  671.00	  741.92	-1849.17	  409.08
     28.7700	  728.00	  765.31	-1815.56	  408.75
     28.8700	  808.00	  797.11	-1767.36	  408.43
     28.9700	  819.00	  808.90	-1768.15	  408.11
     29.0700	  787.00	  778.24	-1769.49	  407.79
     29.1700	  699.00	  715.42	-1794.67	  407.47
     29.2700	  625.00	  651.11	-1804.36	  407.15
     29.3700	  606.00	  602.82	-1775.07	  406.83
     29.4700	  606.00	  572.81	-1745.06	  406.51
     29.5700	  631.00	  556.35	-1703.60	  406.20
     29.6700	  593.00	  547.70	-1732.95	  405.88
     29.7700	  594.00	  542.89	-1727.14	  405.57
     29.8700	  590.00	  539.96	-1728.21	  405.26
     29.9700	  569.00	  538.10	-1747.35	  404.95
     30.0700	  562.00	  537.09	-1753.34	  404.64
     30.1700	  533.00	  537.05	-1782.30	  404.33
     30.2700	  527.00	  538.47	-1789.72	  404.02
     30.3700	  548.00	  542.34	-1772.59	  403.71
     30.4700	  508.00	  550.29	-1820.54	  403.40
     30.5700	  543.00	  564.14	-1799.39	  403.10
     30.6700	  613.00	  584.77	-1750.02	  402.80
     30.7700	  617.00	  610.22	-1771.47	  402.49
     30.8700	  631.00	  634.09	-1781.34	  402.19
     30.9700	  606.00	  645.66	-1817.91	  401.89
     31.0700	  608.00	  635.68	-1805.93	  401.59
     31.1700	  612.00	  608.40	-1774.65	  401.30
     31.2700	  584.00	  578.52	-1772.77	  401.00
     31.3700	  542.00	  555.37	-1791.62	  400.70
     31.4700	  550.00	  540.79	-1769.04	  400.41
     31.5700	  536.00	  532.82	-1775.07	  400.12
     31.6700	  556.00	  528.71	-1750.96	  399.83
     31.7700	  530.00	  526.48	-1774.73	  399.54
     31.8700	  525.00	  525.10	-1778.35	  399.25
     31.9700	  552.00	  524.16	-1750.41	  398.96
     32.0700	  566.00	  523.48	-1735.73	  398.67
     32.1700	  548.00	  523.01	-1753.26	  398.39
     32.2700	  568.00	  522.70	-1732.95	  398.11
     32.3700	  511.00	  522.55	-1789.80	  397.82
     32.4700	  558.00	  522.56	-1742.81	  397.54
     32.5700	  531.00	  522.74	-1769.99	  397.26
     32.6700	  554.00	  523.11	-1747.36	  396.99
     32.7700	  551.00	  523.72	-1750.97	  396.71
     32.8700	  553.00	  524.62	-1749.87	  396.43
     32.9700	  563.00	  525.93	-1741.18	  396.16
     33.0700	  564.00	  527.81	-1742.06	  395.89
     33.1700	  528.00	  530.67	-1780.92	  395.62
     33.2700	  542.00	  535.39	-1771.64	  395.35
     33.3700	  553.00	  543.91	-1769.16	  395.08
     33.4700	  567.00	  560.07	-1771.32	  394.81
     33.5700	  575.00	  590.25	-1793.50	  394.55
     33.6700	  630.00	  642.44	-1790.69	  394.29
     33.7700	  709.00	  721.77	-1791.02	  394.02
     33.8700	  855.00	  822.38	-1745.63	  393.76
     33.9700	  981.00	  920.84	-1718.09	  393.51
     34.0700	 1078.00	  977.01	-1677.26	  393.25
     34.1700	 1070.00	  953.54	-1661.79	  392.99
     34.2700	  910.00	  859.12	-1727.37	  392.74
     34.3700	  788.00	  745.61	-1735.86	  392.49
     34.4700	  684.00	  652.37	-1746.62	  392.24
     34.5700	  601.00	  591.14	-1768.39	  391.99
     34.6700	  542.00	  556.90	-1793.15	  391.74
     34.7700	  515.00	  539.48	-1802.73	  391.49
     34.8700	  514.00	  530.54	-1794.79	  391.25
     34.9700	  512.00	  525.38	-1791.63	  391.00
     35.0700	  529.00	  521.92	-1771.17	  390.76
     35.1700	  481.00	  519.35	-1816.60	  390.52
     35.2700	  530.00	  517.34	-1765.59	  390.28
     35.3700	  488.00	  515.71	-1805.96	  390.05
     35.4700	  554.00	  514.36	-1738.61	  389.81
     35.5700	  506.00	  513.22	-1785.47	  389.58
     35.6700	  518.00	  512.25	-1772.50	  389.35
     35.7700	  480.00	  511.40	-1809.65	  389.12
     35.8700	  521.00	  510.66	-1767.91	  388.89
     35.9700	  515.00	  510.00	-1773.25	  388.66
     36.0700	  497.00	  509.90	-1791.15	  388.44
     36.1700	  499.00	  509.38	-1788.63	  388.21
     36.2700	  475.00	  508.91	-1812.16	  387.99
     36.3700	  488.00	  508.48	-1798.73	  387.77
     36.4700	  486.00	  508.09	-1800.34	  387.55
     36.5700	  482.00	  507.74	-1803.99	  387.34
     36.6700	  507.00	  507.44	-1778.69	  387.12
     36.7700	  533.00	  507.17	-1752.42	  386.91
     36.8700	  499.00	  506.97	-1786.22	  386.70
     36.9700	  510.00	  506.87	-1775.12	  386.49
     37.0700	  492.00	  506.96	-1793.21	  386.28
     37.1700	  497.00	  507.43	-1788.68	  386.07
     37.2700	  530.00	  508.60	-1756.85	  385.87
     37.3700	  507.00	  510.82	-1782.07	  385.67
     37.4700	  500.00	  514.28	-1792.53	  385.47
     37.5700	  504.00	  518.66	-1792.91	  385.27
     37.6700	  518.00	  522.98	-1783.23	  385.07
     37.7700	  526.00	  525.76	-1778.01	  384.87
     37.8700	  515.00	  526.07	-1789.32	  384.68
     37.9700	  523.00	  524.41	-1779.66	  384.49
     38.0700	  503.00	  521.53	-1796.78	  384.30
     38.1700	  517.00	  517.64	-1778.89	  384.11
     38.2700	  496.00	  513.31	-1795.56	  383.92
     38.3700	  490.00	  509.45	-1797.70	  383.74
     38.4700	  496.00	  506.55	-1788.80	  383.55
     38.5700	  496.00	  504.63	-1786.88	  383.37
     38.6700	  513.00	  503.46	-1768.71	  383.19
     38.7700	  492.00	  502.66	-1788.91	  383.01
     38.8700	  572.00	  502.20	-1708.45	  382.84
     38.9700	  485.00	  501.86	-1795.11	  382.66
     39.0700	  490.00	  501.59	-1789.84	  382.49
     39.1700	  488.00	  501.34	-1791.59	  382.32
     39.2700	  496.00	  501.04	-1783.29	  382.15
     39.3700	  509.00	  500.84	-1770.09	  381.98
     39.4700	  524.00	  500.66	-1754.91	  381.82
     39.5700	  559.00	  500.61	-1719.86	  381.65
     39.6700	  478.00	  500.45	-1800.70	  381.49
     39.7700	  485.00	  500.31	-1793.56	  381.33
     39.8700	  496.00	  500.18	-1782.43	  381.18
     39.9700	  457.00	  500.05	-1821.30	  381.02
     40.0700	  511.00	  499.94	-1767.19	  380.86
     40.1700	  512.00	  499.84	-1766.09	  380.71
     40.2700	  527.00	  499.75	-1751.00	  380.56
     40.3700	  494.00	  499.67	-1783.92	  380.41
     40.4700	  459.00	  499.61	-1818.86	  380.26
     40.5700	  487.00	  499.56	-1790.81	  380.12
     40.6700	  501.00	  499.53	-1776.78	  379.98
     40.7700	  518.00	  499.52	-1759.77	  379.83
