MSG Master    CELL:    5.91918   5.91918  23.27133   90.0000   90.0000  120.0000   SPGR: P 63/m m c             TEMP:   1074.75
  1   1280     2.52000     0.00000    -0.13144     0.00000     0.00000    0
    99     0     2
       0.00000      10.00000
     125.00000     130.00000
 2Theta	Yobs	Ycal	Yobs-Ycal	Backg	Posr	(hkl)	K
      0.7700	    0.00	  561.34	-1771.50	  442.61
      0.8700	    0.00	  561.87	-1771.50	  443.14
      0.9700	   42.00	  562.40	-1771.50	  443.66
      1.0700	   57.00	  562.91	-1771.50	  444.18
      1.1700	   42.00	  563.41	-1771.50	  444.68
      1.2700	   40.00	  563.91	-1771.50	  445.18
      1.3700	   44.00	  564.40	-1771.50	  445.67
      1.4700	   97.00	  564.87	-1771.50	  446.14
      1.5700	  256.00	  565.34	-1771.50	  446.61
      1.6700	  468.00	  565.80	-1771.50	  447.07
      1.7700	  614.00	  566.25	-1771.50	  447.52
      1.8700	  631.00	  566.70	-1771.50	  447.96
      1.9700	  736.00	  567.13	-1771.50	  448.40
      2.0700	  772.00	  567.55	-1771.50	  448.82
      2.1700	  802.00	  567.97	-1771.50	  449.24
      2.2700	  752.00	  568.38	-1771.50	  449.65
      2.3700	  739.00	  568.77	-1771.50	  450.04
      2.4700	  692.00	  569.17	-1771.50	  450.43
      2.5700	  659.00	  569.55	-1771.50	  450.82
      2.6700	  619.00	  569.92	-1771.50	  451.19
      2.7700	  680.00	  570.29	-1771.50	  451.56
      2.8700	  657.00	  570.64	-1771.50	  451.91
      2.9700	  628.00	  570.99	-1771.50	  452.26
      3.0700	  598.00	  571.33	-1771.50	  452.60
      3.1700	  621.00	  571.67	-1771.50	  452.94
      3.2700	  597.00	  571.99	-1771.50	  453.26
      3.3700	  656.00	  572.31	-1771.50	  453.58
      3.4700	  760.00	  572.62	-1771.50	  453.89
      3.5700	  792.00	  572.92	-1771.50	  454.19
      3.6700	  854.00	  573.21	-1771.50	  454.48
      3.7700	  948.00	  573.50	-1771.50	  454.77
      3.8700	  954.00	  573.78	-1771.50	  455.05
      3.9700	 1006.00	  574.05	-1771.50	  455.32
      4.0700	 1076.00	  574.31	-1771.50	  455.58
      4.1700	 1147.00	  574.57	-1771.50	  455.84
      4.2700	 1097.00	  574.82	-1771.50	  456.09
      4.3700	  999.00	  575.06	-1771.50	  456.33
      4.4700	 1127.00	  575.29	-1771.50	  456.56
      4.5700	 1034.00	  575.52	-1771.50	  456.79
      4.6700	 1037.00	  575.74	-1771.50	  457.01
      4.7700	  982.00	  575.95	-1771.50	  457.22
      4.8700	  947.00	  576.16	-1771.50	  457.43
      4.9700	  948.00	  576.36	-1771.50	  457.63
      5.0700	  944.00	  576.55	-1771.50	  457.82
      5.1700	  893.00	  576.73	-1771.50	  458.00
      5.2700	  887.00	  576.91	-1771.50	  458.18
      5.3700	  840.00	  577.08	-1771.50	  458.35
      5.4700	  901.00	  577.25	-1771.50	  458.52
      5.5700	  840.00	  577.41	-1771.50	  458.67
      5.6700	  832.00	  577.56	-1771.50	  458.83
      5.7700	  854.00	  577.70	-1771.50	  458.97
      5.8700	  835.00	  577.84	-1771.50	  459.11
      5.9700	  796.00	  577.97	-1771.50	  459.24
      6.0700	  777.00	  578.10	-1771.50	  459.37
      6.1700	  787.00	  578.22	-1771.50	  459.49
      6.2700	  736.00	  578.33	-1771.50	  459.60
      6.3700	  795.00	  578.44	-1771.50	  459.71
      6.4700	  735.00	  578.54	-1771.50	  459.81
      6.5700	  743.00	  578.64	-1771.50	  459.90
      6.6700	  741.00	  578.72	-1771.50	  459.99
      6.7700	  709.00	  578.81	-1771.50	  460.08
      6.8700	  725.00	  578.88	-1771.50	  460.15
      6.9700	  774.00	  578.95	-1771.50	  460.22
      7.0700	  651.00	  579.02	-1771.50	  460.29
      7.1700	  669.00	  579.08	-1771.50	  460.35
      7.2700	  650.00	  579.13	-1771.50	  460.40
      7.3700	  704.00	  579.18	-1771.50	  460.45
      7.4700	  683.00	  579.22	-1771.50	  460.49
      7.5700	  631.00	  579.26	-1771.50	  460.53
      7.6700	  677.00	  579.29	-1771.50	  460.56
      7.7700	  701.00	  579.32	-1771.50	  460.59
      7.8700	  617.00	  579.34	-1771.50	  460.61
      7.9700	  608.00	  579.35	-1771.50	  460.62
      8.0700	  636.00	  579.36	-1771.50	  460.63
      8.1700	  645.00	  579.37	-1771.50	  460.64
      8.2700	  643.00	  579.37	-1771.50	  460.64
      8.3700	  606.00	  579.36	-1771.50	  460.63
      8.4700	  625.00	  579.35	-1771.50	  460.62
      8.5700	  642.00	  579.33	-1771.50	  460.60
      8.6700	  666.00	  579.31	-1771.50	  460.58
      8.7700	  599.00	  579.29	-1771.50	  460.56
      8.8700	  615.00	  579.26	-1771.50	  460.53
      8.9700	  615.00	  579.22	-1771.50	  460.49
      9.0700	  626.00	  579.18	-1771.50	  460.45
      9.1700	  646.00	  579.13	-1771.50	  460.40
      9.2700	  601.00	  579.08	-1771.50	  460.35
      9.3700	  618.00	  579.03	-1771.50	  460.30
      9.4700	  633.00	  578.97	-1771.50	  460.24
      9.5700	  593.00	  578.91	-1771.50	  460.17
      9.6700	  654.00	  578.84	-1771.50	  460.11
      9.7700	  579.00	  578.76	-1771.50	  460.03
      9.8700	  608.00	  578.69	-1771.50	  459.96
      9.9700	  629.00	  578.60	-1771.50	  459.87
     10.0700	  626.00	  579.39	-1724.89	  459.79
     10.1700	  573.00	  579.40	-1777.90	  459.70
     10.2700	  601.00	  579.42	-1749.92	  459.60
     10.3700	  595.00	  579.48	-1755.98	  459.50
     10.4700	  553.00	  579.59	-1798.09	  459.40
     10.5700	  599.00	  579.83	-1752.33	  459.29
     10.6700	  599.00	  580.29	-1752.79	  459.18
     10.7700	  580.00	  581.07	-1772.57	  459.06
     10.8700	  545.00	  582.23	-1808.73	  458.94
     10.9700	  547.00	  583.78	-1808.28	  458.82
     11.0700	  568.00	  585.68	-1789.18	  458.69
     11.1700	  613.00	  587.93	-1746.43	  458.56
     11.2700	  599.00	  590.57	-1763.07	  458.43
     11.3700	  569.00	  593.68	-1796.18	  458.29
     11.4700	  573.00	  597.39	-1795.89	  458.14
     11.5700	  633.00	  601.92	-1740.42	  458.00
     11.6700	  593.00	  607.63	-1786.13	  457.85
     11.7700	  670.00	  615.13	-1716.63	  457.69
     11.8700	  626.00	  625.28	-1770.78	  457.53
     11.9700	  686.00	  638.51	-1724.01	  457.37
     12.0700	  677.00	  652.93	-1747.43	  457.21
     12.1700	  694.00	  662.46	-1739.96	  457.04
     12.2700	  722.00	  658.04	-1707.54	  456.87
     12.3700	  671.00	  637.69	-1738.19	  456.69
     12.4700	  601.00	  613.58	-1784.08	  456.52
     12.5700	  628.00	  595.89	-1739.39	  456.34
     12.6700	  587.00	  586.01	-1770.51	  456.15
     12.7700	  586.00	  581.32	-1766.82	  455.96
     12.8700	  578.00	  579.09	-1772.59	  455.77
     12.9700	  584.00	  577.82	-1765.32	  455.58
     13.0700	  594.00	  576.93	-1754.43	  455.38
     13.1700	  555.00	  576.25	-1792.75	  455.18
     13.2700	  590.00	  575.68	-1757.18	  454.98
     13.3700	  557.00	  575.19	-1789.69	  454.77
     13.4700	  530.00	  574.76	-1816.26	  454.56
     13.5700	  588.00	  574.37	-1757.87	  454.35
     13.6700	  598.00	  574.01	-1747.51	  454.13
     13.7700	  606.00	  573.68	-1739.18	  453.92
     13.8700	  519.00	  573.36	-1825.86	  453.69
     13.9700	  570.00	  573.05	-1774.55	  453.47
     14.0700	  566.00	  572.76	-1778.26	  453.25
     14.1700	  531.00	  572.47	-1812.97	  453.02
     14.2700	  588.00	  572.19	-1755.69	  452.79
     14.3700	  564.00	  571.91	-1779.41	  452.55
     14.4700	  548.00	  571.63	-1795.13	  452.31
     14.5700	  547.00	  571.36	-1795.86	  452.08
     14.6700	  533.00	  571.08	-1809.58	  451.83
     14.7700	  515.00	  570.81	-1827.31	  451.59
     14.8700	  599.00	  570.54	-1743.04	  451.34
     14.9700	  562.00	  570.27	-1779.77	  451.09
     15.0700	  557.00	  570.00	-1784.50	  450.84
     15.1700	  595.00	  569.73	-1746.23	  450.59
     15.2700	  562.00	  569.46	-1778.96	  450.33
     15.3700	  596.00	  569.18	-1744.68	  450.08
     15.4700	  574.00	  568.91	-1766.41	  449.82
     15.5700	  564.00	  568.64	-1776.14	  449.55
     15.6700	  544.00	  568.36	-1795.86	  449.29
     15.7700	  544.00	  568.08	-1795.58	  449.02
     15.8700	  593.00	  567.80	-1746.30	  448.75
     15.9700	  573.00	  567.56	-1766.06	  448.48
     16.0700	  576.00	  567.27	-1762.77	  448.21
     16.1700	  526.00	  566.99	-1812.49	  447.94
     16.2700	  521.00	  566.71	-1817.21	  447.66
     16.3700	  562.00	  566.43	-1775.93	  447.38
     16.4700	  532.00	  566.14	-1805.64	  447.10
     16.5700	  588.00	  565.85	-1749.35	  446.82
     16.6700	  576.00	  565.57	-1761.07	  446.53
     16.7700	  559.00	  565.28	-1777.78	  446.25
     16.8700	  551.00	  564.98	-1785.48	  445.96
     16.9700	  562.00	  564.69	-1774.19	  445.67
     17.0700	  556.00	  564.40	-1779.90	  445.38
     17.1700	  566.00	  564.10	-1769.60	  445.09
     17.2700	  552.00	  563.81	-1783.31	  444.79
     17.3700	  585.00	  563.51	-1750.01	  444.50
     17.4700	  559.00	  563.21	-1775.71	  444.20
     17.5700	  558.00	  562.91	-1776.41	  443.90
     17.6700	  575.00	  562.61	-1759.11	  443.60
     17.7700	  549.00	  562.30	-1784.80	  443.30
     17.8700	  546.00	  562.00	-1787.50	  443.00
     17.9700	  533.00	  561.70	-1800.20	  442.69
     18.0700	  548.00	  561.49	-1784.99	  442.39
     18.1700	  542.00	  561.18	-1790.68	  442.08
     18.2700	  535.00	  560.88	-1797.38	  441.77
     18.3700	  565.00	  560.57	-1767.07	  441.46
     18.4700	  537.00	  560.26	-1794.76	  441.15
     18.5700	  496.00	  559.95	-1835.45	  440.84
     18.6700	  597.00	  559.64	-1734.14	  440.53
     18.7700	  582.00	  559.33	-1748.83	  440.21
     18.8700	  582.00	  559.01	-1748.51	  439.90
     18.9700	  516.00	  558.79	-1814.29	  439.58
     19.0700	  569.00	  558.48	-1760.98	  439.26
     19.1700	  577.00	  558.16	-1752.66	  438.94
     19.2700	  558.00	  557.85	-1771.35	  438.62
     19.3700	  542.00	  557.54	-1787.04	  438.30
     19.4700	  562.00	  557.22	-1766.72	  437.98
     19.5700	  548.00	  556.91	-1780.41	  437.66
     19.6700	  575.00	  556.59	-1753.09	  437.33
     19.7700	  559.00	  556.27	-1768.77	  437.01
     19.8700	  564.00	  555.96	-1763.46	  436.68
     19.9700	  555.00	  555.64	-1772.14	  436.36
     20.0700	  548.00	  555.32	-1778.82	  436.03
     20.1700	  534.00	  555.00	-1792.50	  435.70
     20.2700	  549.00	  554.69	-1777.19	  435.38
     20.3700	  601.00	  554.37	-1724.87	  435.05
     20.4700	  568.00	  554.05	-1757.55	  434.72
     20.5700	  563.00	  553.73	-1762.23	  434.39
     20.6700	  576.00	  553.42	-1748.92	  434.06
     20.7700	  547.00	  553.10	-1777.60	  433.72
     20.8700	  536.00	  552.78	-1788.28	  433.39
     20.9700	  553.00	  552.47	-1770.97	  433.06
     21.0700	  554.00	  552.15	-1769.65	  432.73
     21.1700	  491.00	  551.84	-1832.34	  432.39
     21.2700	  549.00	  551.52	-1774.02	  432.06
     21.3700	  538.00	  551.21	-1784.71	  431.72
     21.4700	  503.00	  550.90	-1819.40	  431.39
     21.5700	  524.00	  550.59	-1798.09	  431.05
     21.6700	  537.00	  550.28	-1784.78	  430.72
     21.7700	  572.00	  549.97	-1749.47	  430.38
     21.8700	  553.00	  549.67	-1768.17	  430.04
     21.9700	  555.00	  549.37	-1765.87	  429.71
     22.0700	  560.00	  549.07	-1760.57	  429.37
     22.1700	  580.00	  548.77	-1740.27	  429.03
     22.2700	  614.00	  548.48	-1705.98	  428.69
     22.3700	  534.00	  548.19	-1785.69	  428.36
     22.4700	  559.00	  547.90	-1760.40	  428.02
     22.5700	  545.00	  547.63	-1774.13	  427.68
     22.6700	  562.00	  547.35	-1756.85	  427.34
     22.7700	  558.00	  547.09	-1760.59	  427.00
     22.8700	  520.00	  546.84	-1798.34	  426.66
     22.9700	  555.00	  546.60	-1763.10	  426.33
     23.0700	  541.00	  546.37	-1776.87	  425.99
     23.1700	  523.00	  546.16	-1794.66	  425.65
     23.2700	  553.00	  545.98	-1764.48	  425.31
     23.3700	  518.00	  545.83	-1799.33	  424.97
     23.4700	  539.00	  545.72	-1778.22	  424.63
     23.5700	  556.00	  545.66	-1761.16	  424.29
     23.6700	  548.00	  545.82	-1769.32	  423.95
     23.7700	  539.00	  545.98	-1778.48	  423.62
     23.8700	  551.00	  546.39	-1766.89	  423.28
     23.9700	  528.00	  547.30	-1790.80	  422.94
     24.0700	  568.00	  549.17	-1752.68	  422.60
     24.1700	  552.00	  552.70	-1772.20	  422.26
     24.2700	  585.00	  558.77	-1745.27	  421.92
     24.3700	  607.00	  568.35	-1732.85	  421.59
     24.4700	  595.00	  582.39	-1758.89	  421.25
     24.5700	  612.00	  600.85	-1760.35	  420.91
     24.6700	  625.00	  620.52	-1767.02	  420.58
     24.7700	  625.00	  633.43	-1779.93	  420.24
     24.8700	  661.00	  629.37	-1739.87	  419.90
     24.9700	  605.00	  607.81	-1774.31	  419.57
     25.0700	  605.00	  582.24	-1748.74	  419.23
     25.1700	  578.00	  563.00	-1756.50	  418.90
     25.2700	  592.00	  551.87	-1731.37	  418.56
     25.3700	  583.00	  546.42	-1734.92	  418.23
     25.4700	  575.00	  543.85	-1740.35	  417.89
     25.5700	  524.00	  542.47	-1789.97	  417.56
     25.6700	  584.00	  541.57	-1729.07	  417.23
     25.7700	  532.00	  540.91	-1780.41	  416.89
     25.8700	  545.00	  540.41	-1766.91	  416.56
     25.9700	  564.00	  540.03	-1747.53	  416.23
     26.0700	  548.00	  539.74	-1763.24	  415.90
     26.1700	  562.00	  539.54	-1749.04	  415.57
     26.2700	  541.00	  539.41	-1769.91	  415.24
     26.3700	  506.00	  539.37	-1804.87	  414.91
     26.4700	  517.00	  539.41	-1793.91	  414.58
     26.5700	  591.00	  539.54	-1720.04	  414.25
     26.6700	  549.00	  539.79	-1762.29	  413.93
     26.7700	  550.00	  540.18	-1761.68	  413.60
     26.8700	  545.00	  540.73	-1767.23	  413.27
     26.9700	  536.00	  541.51	-1777.01	  412.95
     27.0700	  560.00	  542.59	-1754.09	  412.62
     27.1700	  508.00	  544.09	-1807.59	  412.30
     27.2700	  503.00	  546.26	-1814.76	  411.98
     27.3700	  523.00	  549.62	-1798.12	  411.65
     27.4700	  597.00	  555.15	-1729.65	  411.33
     27.5700	  568.00	  564.63	-1768.13	  411.01
     27.6700	  569.00	  580.88	-1783.38	  410.69
     27.7700	  573.00	  607.50	-1806.00	  410.37
     27.8700	  582.00	  647.60	-1837.10	  410.05
     27.9700	  670.00	  701.22	-1802.72	  409.73
     28.0700	  727.00	  761.94	-1806.44	  409.42
     28.1700	  905.00	  813.99	-1680.49	  409.10
     28.2700	  941.00	  834.23	-1664.73	  408.79
     28.3700	  910.00	  810.55	-1672.05	  408.47
     28.4700	  845.00	  766.68	-1693.18	  408.16
     28.5700	  734.00	  738.04	-1775.54	  407.85
     28.6700	  680.00	  739.62	-1831.12	  407.53
     28.7700	  723.00	  765.46	-1813.96	  407.22
     28.8700	  804.00	  794.41	-1761.91	  406.91
     28.9700	  800.00	  797.70	-1769.20	  406.61
     29.0700	  804.00	  758.58	-1726.08	  406.30
     29.1700	  680.00	  694.69	-1786.19	  405.99
     29.2700	  640.00	  634.92	-1766.42	  405.69
     29.3700	  606.00	  592.34	-1757.84	  405.38
     29.4700	  581.00	  566.88	-1757.38	  405.08
     29.5700	  578.00	  553.21	-1746.71	  404.78
     29.6700	  628.00	  545.99	-1689.49	  404.47
     29.7700	  586.00	  541.86	-1727.36	  404.17
     29.8700	  524.00	  539.25	-1786.75	  403.88
     29.9700	  574.00	  537.56	-1735.06	  403.58
     30.0700	  597.00	  536.63	-1711.13	  403.28
     30.1700	  539.00	  536.59	-1769.09	  402.98
     30.2700	  555.00	  537.91	-1754.41	  402.69
     30.3700	  548.00	  541.51	-1765.01	  402.40
     30.4700	  546.00	  548.74	-1774.24	  402.10
     30.5700	  619.00	  561.00	-1713.50	  401.81
     30.6700	  568.00	  578.57	-1782.07	  401.52
     30.7700	  575.00	  599.12	-1795.62	  401.23
     30.8700	  593.00	  616.60	-1795.10	  400.95
     30.9700	  579.00	  622.09	-1814.59	  400.66
     31.0700	  608.00	  609.87	-1773.37	  400.38
     31.1700	  530.00	  586.47	-1827.97	  400.09
     31.2700	  578.00	  563.40	-1756.90	  399.81
     31.3700	  504.00	  546.49	-1813.99	  399.53
     31.4700	  552.00	  536.23	-1755.73	  399.25
     31.5700	  560.00	  530.72	-1742.22	  398.97
     31.6700	  524.00	  527.86	-1775.36	  398.69
     31.7700	  530.00	  526.26	-1767.76	  398.41
     31.8700	  563.00	  525.24	-1733.74	  398.14
     31.9700	  556.00	  524.54	-1740.04	  397.87
     32.0700	  537.00	  524.04	-1758.54	  397.59
     32.1700	  519.00	  523.71	-1776.21	  397.32
     32.2700	  570.00	  523.53	-1725.03	  397.05
     32.3700	  552.00	  523.49	-1742.99	  396.79
     32.4700	  560.00	  523.60	-1735.10	  396.52
     32.5700	  555.00	  523.88	-1740.38	  396.25
     32.6700	  530.00	  524.35	-1765.85	  395.99
     32.7700	  482.00	  525.07	-1814.57	  395.73
     32.8700	  539.00	  526.10	-1758.60	  395.46
     32.9700	  529.00	  527.56	-1770.06	  395.21
     33.0700	  511.00	  529.68	-1790.18	  394.95
     33.1700	  541.00	  532.93	-1763.43	  394.69
     33.2700	  564.00	  538.41	-1745.91	  394.43
     33.3700	  555.00	  548.41	-1764.91	  394.18
     33.4700	  600.00	  567.29	-1738.79	  393.93
     33.5700	  600.00	  601.81	-1773.31	  393.68
     33.6700	  652.00	  659.44	-1778.94	  393.43
     33.7700	  803.00	  743.00	-1711.50	  393.18
     33.8700	  825.00	  842.67	-1789.17	  392.93
     33.9700	 1048.00	  931.26	-1654.76	  392.69
     34.0700	 1101.00	  967.92	-1638.42	  392.44
     34.1700	 1010.00	  924.22	-1685.72	  392.20
     34.2700	  874.00	  823.19	-1720.69	  391.96
     34.3700	  763.00	  716.02	-1724.52	  391.72
     34.4700	  628.00	  633.31	-1776.81	  391.48
     34.5700	  588.00	  581.13	-1764.63	  391.25
     34.6700	  554.00	  552.65	-1770.15	  391.01
     34.7700	  526.00	  538.18	-1783.68	  390.78
     34.8700	  557.00	  530.56	-1745.06	  390.55
     34.9700	  556.00	  525.98	-1741.48	  390.32
     35.0700	  531.00	  522.83	-1763.33	  390.09
     35.1700	  514.00	  520.44	-1777.94	  389.86
     35.2700	  533.00	  518.55	-1757.05	  389.64
     35.3700	  503.00	  517.01	-1785.51	  389.41
     35.4700	  538.00	  515.74	-1749.24	  389.19
     35.5700	  500.00	  514.66	-1786.16	  388.97
     35.6700	  520.00	  513.74	-1765.24	  388.75
     35.7700	  487.00	  512.94	-1797.44	  388.53
     35.8700	  487.00	  512.23	-1796.73	  388.32
     35.9700	  494.00	  511.61	-1789.11	  388.10
     36.0700	  507.00	  511.51	-1776.01	  387.89
     36.1700	  480.00	  511.02	-1802.52	  387.68
     36.2700	  520.00	  510.57	-1762.07	  387.47
     36.3700	  533.00	  510.17	-1748.67	  387.26
     36.4700	  510.00	  509.81	-1771.31	  387.06
     36.5700	  509.00	  509.49	-1771.99	  386.85
     36.6700	  482.00	  509.22	-1798.72	  386.65
     36.7700	  524.00	  509.00	-1756.50	  386.45
     36.8700	  544.00	  508.86	-1736.36	  386.25
     36.9700	  507.00	  508.86	-1773.36	  386.05
     37.0700	  542.00	  509.17	-1738.67	  385.85
     37.1700	  544.00	  510.05	-1737.55	  385.66
     37.2700	  503.00	  511.89	-1780.39	  385.47
     37.3700	  482.00	  515.01	-1804.51	  385.28
     37.4700	  505.00	  519.35	-1785.85	  385.09
     37.5700	  523.00	  524.07	-1772.57	  384.90
     37.6700	  523.00	  527.54	-1776.04	  384.71
     37.7700	  525.00	  527.97	-1774.47	  384.53
     37.8700	  548.00	  525.06	-1748.56	  384.35
     37.9700	  530.00	  520.52	-1762.02	  384.16
     38.0700	  484.00	  516.00	-1803.50	  383.98
     38.1700	  506.00	  512.21	-1777.71	  383.81
     38.2700	  502.00	  509.36	-1778.86	  383.63
     38.3700	  506.00	  507.39	-1772.89	  383.46
     38.4700	  498.00	  506.11	-1779.61	  383.28
     38.5700	  493.00	  505.28	-1783.78	  383.11
     38.6700	  546.00	  504.64	-1730.14	  382.94
     38.7700	  476.00	  504.25	-1799.75	  382.78
     38.8700	  496.00	  503.96	-1779.46	  382.61
     38.9700	  497.00	  503.70	-1778.20	  382.45
     39.0700	  488.00	  503.48	-1786.98	  382.28
     39.1700	  503.00	  503.28	-1771.78	  382.12
     39.2700	  505.00	  503.01	-1769.51	  381.96
     39.3700	  500.00	  502.98	-1774.48	  381.81
     39.4700	  558.00	  502.82	-1716.32	  381.65
     39.5700	  465.00	  502.67	-1809.17	  381.50
     39.6700	  465.00	  502.53	-1809.03	  381.35
     39.7700	  537.00	  502.41	-1736.91	  381.20
     39.8700	  453.00	  502.29	-1820.79	  381.05
     39.9700	  481.00	  502.18	-1792.68	  380.90
     40.0700	  528.00	  502.09	-1745.59	  380.76
     40.1700	  482.00	  502.00	-1791.50	  380.61
     40.2700	  534.00	  501.93	-1739.43	  380.47
     40.3700	  508.00	  501.86	-1765.36	  380.33
     40.4700	  483.00	  501.81	-1790.31	  380.19
     40.5700	  501.00	  501.78	-1772.28	  380.06
     40.6700	  514.00	  501.77	-1759.27	  379.92
     40.7700	  501.00	  501.77	-1772.27	  379.79
