MSG Master    CELL:    5.87893   5.87893  23.09125   90.0000   90.0000  120.0000   SPGR: P 63/m m c             TEMP:    501.75
  2   1280     2.52000     0.00000    -0.08732     0.00000     0.00000    0
    95    95     0     0     2
       0.00000      10.00000
     125.00000     130.00000
 2Theta	Yobs	Ycal	Yobs-Ycal	Backg	Posr	(hkl)	K
      0.7700	    0.00	  947.58	-2115.50	  811.11
      0.8700	    0.00	  944.51	-2115.50	  808.03
      0.9700	   45.00	  941.45	-2115.50	  804.98
      1.0700	   42.00	  938.41	-2115.50	  801.94
      1.1700	   48.00	  935.39	-2115.50	  798.92
      1.2700	   41.00	  932.39	-2115.50	  795.92
      1.3700	   50.00	  929.41	-2115.50	  792.94
      1.4700	  111.00	  926.45	-2115.50	  789.98
      1.5700	  323.00	  923.50	-2115.50	  787.03
      1.6700	  457.00	  920.58	-2115.50	  784.11
      1.7700	  545.00	  917.67	-2115.50	  781.20
      1.8700	  641.00	  914.79	-2115.50	  778.31
      1.9700	  710.00	  911.92	-2115.50	  775.44
      2.0700	  809.00	  909.07	-2115.50	  772.59
      2.1700	  811.00	  906.23	-2115.50	  769.76
      2.2700	  745.00	  903.42	-2115.50	  766.94
      2.3700	  785.00	  900.62	-2115.50	  764.15
      2.4700	  713.00	  897.84	-2115.50	  761.37
      2.5700	  665.00	  895.08	-2115.50	  758.61
      2.6700	  663.00	  892.34	-2115.50	  755.87
      2.7700	  692.00	  889.61	-2115.50	  753.14
      2.8700	  632.00	  886.91	-2115.50	  750.43
      2.9700	  669.00	  884.22	-2115.50	  747.74
      3.0700	  622.00	  881.54	-2115.50	  745.07
      3.1700	  575.00	  878.89	-2115.50	  742.42
      3.2700	  714.00	  876.25	-2115.50	  739.78
      3.3700	  923.00	  873.63	-2115.50	  737.16
      3.4700	 1074.00	  871.03	-2115.50	  734.56
      3.5700	 1147.00	  868.44	-2115.50	  731.97
      3.6700	 1328.00	  865.88	-2115.50	  729.40
      3.7700	 1407.00	  863.32	-2115.50	  726.85
      3.8700	 1475.00	  860.79	-2115.50	  724.32
      3.9700	 1507.00	  858.27	-2115.50	  721.80
      4.0700	 1654.00	  855.77	-2115.50	  719.30
      4.1700	 1711.00	  853.29	-2115.50	  716.82
      4.2700	 1687.00	  850.82	-2115.50	  714.35
      4.3700	 1644.00	  848.37	-2115.50	  711.90
      4.4700	 1578.00	  845.94	-2115.50	  709.46
      4.5700	 1546.00	  843.52	-2115.50	  707.05
      4.6700	 1472.00	  841.12	-2115.50	  704.64
      4.7700	 1435.00	  838.73	-2115.50	  702.26
      4.8700	 1436.00	  836.36	-2115.50	  699.89
      4.9700	 1419.00	  834.01	-2115.50	  697.54
      5.0700	 1346.00	  831.67	-2115.50	  695.20
      5.1700	 1353.00	  829.35	-2115.50	  692.88
      5.2700	 1247.00	  827.05	-2115.50	  690.57
      5.3700	 1276.00	  824.76	-2115.50	  688.29
      5.4700	 1268.00	  822.48	-2115.50	  686.01
      5.5700	 1206.00	  820.23	-2115.50	  683.75
      5.6700	 1170.00	  817.99	-2115.50	  681.51
      5.7700	 1145.00	  815.76	-2115.50	  679.29
      5.8700	 1106.00	  813.55	-2115.50	  677.08
      5.9700	 1109.00	  811.35	-2115.50	  674.88
      6.0700	 1102.00	  809.17	-2115.50	  672.70
      6.1700	 1034.00	  807.01	-2115.50	  670.54
      6.2700	 1069.00	  804.86	-2115.50	  668.39
      6.3700	 1040.00	  802.73	-2115.50	  666.25
      6.4700	  989.00	  800.61	-2115.50	  664.13
      6.5700	 1012.00	  798.50	-2115.50	  662.03
      6.6700	 1032.00	  796.41	-2115.50	  659.94
      6.7700	  948.00	  794.34	-2115.50	  657.87
      6.8700	  924.00	  792.28	-2115.50	  655.81
      6.9700	  927.00	  790.23	-2115.50	  653.76
      7.0700	  907.00	  788.20	-2115.50	  651.73
      7.1700	  908.00	  786.19	-2115.50	  649.72
      7.2700	  889.00	  784.19	-2115.50	  647.71
      7.3700	  909.00	  782.20	-2115.50	  645.73
      7.4700	  839.00	  780.23	-2115.50	  643.76
      7.5700	  853.00	  778.27	-2115.50	  641.80
      7.6700	  838.00	  776.33	-2115.50	  639.85
      7.7700	  831.00	  774.40	-2115.50	  637.92
      7.8700	  835.00	  772.48	-2115.50	  636.01
      7.9700	  832.00	  770.58	-2115.50	  634.11
      8.0700	  836.00	  768.69	-2115.50	  632.22
      8.1700	  772.00	  766.82	-2115.50	  630.35
      8.2700	  832.00	  764.96	-2115.50	  628.49
      8.3700	  848.00	  763.11	-2115.50	  626.64
      8.4700	  792.00	  761.28	-2115.50	  624.81
      8.5700	  793.00	  759.46	-2115.50	  622.99
      8.6700	  783.00	  757.66	-2115.50	  621.19
      8.7700	  761.00	  755.87	-2115.50	  619.40
      8.8700	  778.00	  754.09	-2115.50	  617.62
      8.9700	  767.00	  752.33	-2115.50	  615.85
      9.0700	  780.00	  750.57	-2115.50	  614.10
      9.1700	  787.00	  748.84	-2115.50	  612.36
      9.2700	  781.00	  747.11	-2115.50	  610.64
      9.3700	  756.00	  745.40	-2115.50	  608.93
      9.4700	  727.00	  743.70	-2115.50	  607.23
      9.5700	  728.00	  742.02	-2115.50	  605.54
      9.6700	  720.00	  740.34	-2115.50	  603.87
      9.7700	  754.00	  738.68	-2115.50	  602.21
      9.8700	  801.00	  737.04	-2115.50	  600.57
      9.9700	  788.00	  735.40	-2115.50	  598.93
     10.0700	  716.00	  735.83	-2135.33	  597.31
     10.1700	  751.00	  734.45	-2098.95	  595.70
     10.2700	  749.00	  733.12	-2099.62	  594.11
     10.3700	  758.00	  731.86	-2089.36	  592.52
     10.4700	  723.00	  730.70	-2123.20	  590.95
     10.5700	  733.00	  729.68	-2112.18	  589.39
     10.6700	  714.00	  728.84	-2130.34	  587.85
     10.7700	  709.00	  728.28	-2134.78	  586.31
     10.8700	  739.00	  728.08	-2104.58	  584.79
     10.9700	  697.00	  728.34	-2146.84	  583.28
     11.0700	  717.00	  729.10	-2127.60	  581.78
     11.1700	  760.00	  730.40	-2085.90	  580.29
     11.2700	  757.00	  732.24	-2090.74	  578.82
     11.3700	  736.00	  734.66	-2114.17	  577.36
     11.4700	  737.00	  737.77	-2116.27	  575.91
     11.5700	  736.00	  741.70	-2121.20	  574.47
     11.6700	  766.00	  746.67	-2096.17	  573.04
     11.7700	  762.00	  752.97	-2106.47	  571.63
     11.8700	  763.00	  760.88	-2113.38	  570.22
     11.9700	  795.00	  770.48	-2090.98	  568.83
     12.0700	  793.00	  781.28	-2103.78	  567.45
     12.1700	  851.00	  791.65	-2056.15	  566.08
     12.2700	  881.00	  798.31	-2032.81	  564.73
     12.3700	  843.00	  796.55	-2069.05	  563.38
     12.4700	  816.00	  783.52	-2083.02	  562.04
     12.5700	  754.00	  763.32	-2124.82	  560.72
     12.6700	  754.00	  743.27	-2104.77	  559.41
     12.7700	  752.00	  727.30	-2090.80	  558.10
     12.8700	  685.00	  715.82	-2146.32	  556.81
     12.9700	  716.00	  707.97	-2107.47	  555.53
     13.0700	  703.00	  702.58	-2115.08	  554.26
     13.1700	  645.00	  698.70	-2169.20	  553.01
     13.2700	  672.00	  695.70	-2139.20	  551.76
     13.3700	  733.00	  693.21	-2075.71	  550.52
     13.4700	  691.00	  691.03	-2115.53	  549.29
     13.5700	  637.00	  689.08	-2167.58	  548.08
     13.6700	  716.00	  687.28	-2086.78	  546.87
     13.7700	  652.00	  685.61	-2149.11	  545.68
     13.8700	  694.00	  684.03	-2105.53	  544.49
     13.9700	  687.00	  682.53	-2111.03	  543.32
     14.0700	  691.00	  681.09	-2105.59	  542.16
     14.1700	  665.00	  679.70	-2130.20	  541.00
     14.2700	  686.00	  678.36	-2107.86	  539.86
     14.3700	  663.00	  677.05	-2129.55	  538.73
     14.4700	  690.00	  675.78	-2101.28	  537.60
     14.5700	  640.00	  674.53	-2150.03	  536.49
     14.6700	  682.00	  673.31	-2106.81	  535.39
     14.7700	  619.00	  672.12	-2168.62	  534.30
     14.8700	  628.00	  670.94	-2158.44	  533.21
     14.9700	  646.00	  669.79	-2139.29	  532.14
     15.0700	  655.00	  668.65	-2129.15	  531.08
     15.1700	  652.00	  667.54	-2131.04	  530.02
     15.2700	  615.00	  666.43	-2166.93	  528.98
     15.3700	  691.00	  665.34	-2089.84	  527.94
     15.4700	  638.00	  664.27	-2141.77	  526.92
     15.5700	  636.00	  663.21	-2142.71	  525.90
     15.6700	  657.00	  662.17	-2120.67	  524.90
     15.7700	  664.00	  661.13	-2112.63	  523.90
     15.8700	  625.00	  660.11	-2150.61	  522.91
     15.9700	  686.00	  659.10	-2088.60	  521.93
     16.0700	  643.00	  658.11	-2130.61	  520.96
     16.1700	  718.00	  657.12	-2054.62	  520.00
     16.2700	  661.00	  656.15	-2110.65	  519.05
     16.3700	  650.00	  655.18	-2120.68	  518.11
     16.4700	  704.00	  654.23	-2065.73	  517.18
     16.5700	  648.00	  653.29	-2120.79	  516.25
     16.6700	  672.00	  652.35	-2095.85	  515.34
     16.7700	  626.00	  651.43	-2140.93	  514.43
     16.8700	  639.00	  650.52	-2127.02	  513.54
     16.9700	  606.00	  649.62	-2159.12	  512.65
     17.0700	  676.00	  648.72	-2088.22	  511.77
     17.1700	  677.00	  647.84	-2086.34	  510.90
     17.2700	  646.00	  646.97	-2116.47	  510.03
     17.3700	  656.00	  646.10	-2105.60	  509.18
     17.4700	  606.00	  645.25	-2154.75	  508.34
     17.5700	  680.00	  644.40	-2079.90	  507.50
     17.6700	  650.00	  643.57	-2109.07	  506.67
     17.7700	  641.00	  642.74	-2117.24	  505.85
     17.8700	  616.00	  641.92	-2141.42	  505.04
     17.9700	  661.00	  641.11	-2095.61	  504.23
     18.0700	  637.00	  640.31	-2118.81	  503.44
     18.1700	  603.00	  639.52	-2152.02	  502.65
     18.2700	  603.00	  638.73	-2151.23	  501.87
     18.3700	  677.00	  637.96	-2076.46	  501.10
     18.4700	  638.00	  637.19	-2114.69	  500.34
     18.5700	  632.00	  636.43	-2119.93	  499.58
     18.6700	  645.00	  635.68	-2106.18	  498.83
     18.7700	  665.00	  634.94	-2085.44	  498.09
     18.8700	  663.00	  634.21	-2086.71	  497.36
     18.9700	  643.00	  633.48	-2105.98	  496.64
     19.0700	  624.00	  635.92	-2127.42	  495.92
     19.1700	  632.00	  635.28	-2118.78	  495.21
     19.2700	  663.00	  634.65	-2087.15	  494.51
     19.3700	  637.00	  634.03	-2112.53	  493.82
     19.4700	  643.00	  633.41	-2105.91	  493.13
     19.5700	  621.00	  632.81	-2127.31	  492.45
     19.6700	  610.00	  632.22	-2137.72	  491.78
     19.7700	  626.00	  631.64	-2121.14	  491.12
     19.8700	  609.00	  631.07	-2137.57	  490.46
     19.9700	  627.00	  630.51	-2119.01	  489.81
     20.0700	  619.00	  629.96	-2126.46	  489.17
     20.1700	  639.00	  629.42	-2105.92	  488.54
     20.2700	  589.00	  628.94	-2155.44	  487.91
     20.3700	  663.00	  628.43	-2080.93	  487.29
     20.4700	  609.00	  627.93	-2134.43	  486.68
     20.5700	  613.00	  627.43	-2129.93	  486.07
     20.6700	  595.00	  626.95	-2147.45	  485.47
     20.7700	  615.00	  626.49	-2126.99	  484.88
     20.8700	  613.00	  626.03	-2128.53	  484.29
     20.9700	  597.00	  625.59	-2144.09	  483.71
     21.0700	  616.00	  625.16	-2124.66	  483.14
     21.1700	  580.00	  624.74	-2160.24	  482.58
     21.2700	  614.00	  624.34	-2125.84	  482.02
     21.3700	  606.00	  623.95	-2133.45	  481.47
     21.4700	  573.00	  623.57	-2166.07	  480.92
     21.5700	  633.00	  623.21	-2105.71	  480.38
     21.6700	  676.00	  622.86	-2062.36	  479.85
     21.7700	  672.00	  622.53	-2066.03	  479.32
     21.8700	  617.00	  622.22	-2120.72	  478.80
     21.9700	  620.00	  621.92	-2117.42	  478.29
     22.0700	  640.00	  621.65	-2097.15	  477.78
     22.1700	  666.00	  621.39	-2070.89	  477.28
     22.2700	  599.00	  621.15	-2137.65	  476.79
     22.3700	  653.00	  620.93	-2083.43	  476.30
     22.4700	  665.00	  620.95	-2071.45	  475.82
     22.5700	  593.00	  620.78	-2143.28	  475.34
     22.6700	  632.00	  620.64	-2104.14	  474.88
     22.7700	  670.00	  620.52	-2066.02	  474.41
     22.8700	  637.00	  620.44	-2098.94	  473.95
     22.9700	  629.00	  620.39	-2106.89	  473.50
     23.0700	  617.00	  620.38	-2118.88	  473.06
     23.1700	  657.00	  620.41	-2078.91	  472.62
     23.2700	  629.00	  620.49	-2106.99	  472.18
     23.3700	  652.00	  620.62	-2084.12	  471.76
     23.4700	  608.00	  620.82	-2128.32	  471.33
     23.5700	  638.00	  621.09	-2098.59	  470.92
     23.6700	  648.00	  621.45	-2088.95	  470.51
     23.7700	  636.00	  621.93	-2101.43	  470.10
     23.8700	  614.00	  622.57	-2124.07	  469.70
     23.9700	  649.00	  623.43	-2089.93	  469.31
     24.0700	  633.00	  624.61	-2107.11	  468.92
     24.1700	  644.00	  626.30	-2097.80	  468.53
     24.2700	  596.00	  628.74	-2148.24	  468.16
     24.3700	  658.00	  632.27	-2089.77	  467.78
     24.4700	  692.00	  637.40	-2060.90	  467.42
     24.5700	  696.00	  644.40	-2063.90	  467.06
     24.6700	  664.00	  653.32	-2104.82	  466.70
     24.7700	  724.00	  663.66	-2055.16	  466.35
     24.8700	  736.00	  674.05	-2053.55	  466.00
     24.9700	  736.00	  681.99	-2061.49	  465.66
     25.0700	  690.00	  684.06	-2109.56	  465.33
     25.1700	  720.00	  678.57	-2074.07	  464.99
     25.2700	  742.00	  668.40	-2041.90	  464.67
     25.3700	  683.00	  658.14	-2090.64	  464.35
     25.4700	  616.00	  650.34	-2149.84	  464.03
     25.5700	  694.00	  645.34	-2066.84	  463.72
     25.6700	  663.00	  642.80	-2095.30	  463.42
     25.7700	  622.00	  642.08	-2135.58	  463.11
     25.8700	  641.00	  642.61	-2117.11	  462.82
     25.9700	  643.00	  644.03	-2116.53	  462.53
     26.0700	  624.00	  646.13	-2137.63	  462.24
     26.1700	  682.00	  648.83	-2082.33	  461.96
     26.2700	  641.00	  652.14	-2126.64	  461.68
     26.3700	  621.00	  656.10	-2150.60	  461.41
     26.4700	  700.00	  660.80	-2076.30	  461.14
     26.5700	  616.00	  666.35	-2165.85	  460.88
     26.6700	  677.00	  672.92	-2111.42	  460.62
     26.7700	  643.00	  680.71	-2153.21	  460.36
     26.8700	  707.00	  690.03	-2098.53	  460.11
     26.9700	  665.00	  701.24	-2151.74	  459.87
     27.0700	  661.00	  714.88	-2169.38	  459.63
     27.1700	  703.00	  731.69	-2144.19	  459.39
     27.2700	  698.00	  752.71	-2170.21	  459.16
     27.3700	  728.00	  779.66	-2167.16	  458.93
     27.4700	  782.00	  815.65	-2149.15	  458.70
     27.5700	  807.00	  867.26	-2175.76	  458.48
     27.6700	  820.00	  949.04	-2244.54	  458.27
     27.7700	  900.00	 1090.83	-2306.33	  458.05
     27.8700	 1052.00	 1346.61	-2410.11	  457.85
     27.9700	 1327.00	 1799.41	-2587.91	  457.64
     28.0700	 1951.00	 2549.33	-2713.83	  457.44
     28.1700	 3256.00	 3667.74	-2527.24	  457.25
     28.2700	 5245.00	 5105.91	-1976.41	  457.06
     28.3700	 7413.00	 6571.79	-1274.29	  456.87
     28.4700	 8462.00	 7482.83	-1136.33	  456.68
     28.5700	 7876.00	 7231.74	-1471.24	  456.50
     28.6700	 6155.00	 5974.02	-1934.52	  456.33
     28.7700	 4465.00	 4653.43	-2303.93	  456.16
     28.8700	 3553.00	 3918.84	-2481.34	  455.99
     28.9700	 3757.00	 3846.12	-2204.62	  455.82
     29.0700	 4519.00	 4146.51	-1743.01	  455.66
     29.1700	 4714.00	 4370.97	-1772.47	  455.50
     29.2700	 4302.00	 4117.56	-1931.06	  455.35
     29.3700	 3272.00	 3368.55	-2212.05	  455.20
     29.4700	 2333.00	 2497.30	-2279.80	  455.05
     29.5700	 1659.00	 1794.99	-2251.49	  454.91
     29.6700	 1220.00	 1335.31	-2230.81	  454.77
     29.7700	 1012.00	 1073.43	-2176.93	  454.63
     29.8700	  922.00	  933.44	-2126.94	  454.50
     29.9700	  882.00	  855.75	-2089.25	  454.37
     30.0700	  884.00	  807.43	-2038.93	  454.24
     30.1700	  782.00	  773.80	-2107.30	  454.12
     30.2700	  762.00	  748.91	-2102.41	  454.00
     30.3700	  724.00	  730.21	-2121.71	  453.88
     30.4700	  730.00	  716.68	-2102.18	  453.77
     30.5700	  682.00	  708.21	-2141.71	  453.66
     30.6700	  713.00	  705.49	-2107.99	  453.55
     30.7700	  698.00	  709.65	-2127.15	  453.45
     30.8700	  715.00	  721.34	-2121.84	  453.35
     30.9700	  739.00	  739.25	-2115.75	  453.25
     31.0700	  765.00	  758.81	-2109.31	  453.16
     31.1700	  809.00	  771.61	-2078.11	  453.06
     31.2700	  748.00	  767.63	-2135.13	  452.98
     31.3700	  737.00	  744.43	-2122.93	  452.89
     31.4700	  707.00	  712.53	-2121.03	  452.81
     31.5700	  693.00	  683.42	-2105.92	  452.73
     31.6700	  675.00	  661.77	-2102.27	  452.65
     31.7700	  701.00	  647.54	-2062.04	  452.58
     31.8700	  700.00	  638.78	-2054.28	  452.51
     31.9700	  678.00	  633.35	-2070.85	  452.44
     32.0700	  664.00	  629.76	-2081.26	  452.37
     32.1700	  682.00	  627.18	-2060.69	  452.31
     32.2700	  693.00	  625.24	-2047.74	  452.25
     32.3700	  673.00	  623.76	-2066.26	  452.19
     32.4700	  646.00	  622.68	-2092.18	  452.14
     32.5700	  653.00	  621.94	-2084.44	  452.08
     32.6700	  612.00	  621.56	-2125.06	  452.03
     32.7700	  662.00	  621.54	-2075.04	  451.99
     32.8700	  675.00	  621.94	-2062.44	  451.94
     32.9700	  641.00	  622.76	-2097.26	  451.90
     33.0700	  697.00	  624.12	-2042.62	  451.86
     33.1700	  615.00	  626.17	-2126.68	  451.82
     33.2700	  664.00	  629.19	-2080.69	  451.79
     33.3700	  662.00	  633.66	-2087.16	  451.75
     33.4700	  632.00	  640.58	-2124.08	  451.72
     33.5700	  649.00	  651.85	-2118.35	  451.70
     33.6700	  698.00	  670.90	-2088.40	  451.67
     33.7700	  736.00	  703.02	-2082.52	  451.65
     33.8700	  852.00	  754.84	-2018.34	  451.63
     33.9700	  835.00	  831.68	-2112.18	  451.61
     34.0700	  958.00	  932.36	-2089.86	  451.59
     34.1700	 1135.00	 1043.42	-2023.92	  451.58
     34.2700	 1310.00	 1136.07	-1941.57	  451.56
     34.3700	 1292.00	 1170.55	-1994.05	  451.55
     34.4700	 1238.00	 1121.96	-1999.46	  451.55
     34.5700	  983.00	 1013.75	-2146.25	  451.54
     34.6700	  869.00	  894.73	-2141.23	  451.53
     34.7700	  777.00	  795.72	-2134.22	  451.53
     34.8700	  708.00	  725.55	-2133.05	  451.53
     34.9700	  701.00	  681.03	-2095.53	  451.53
     35.0700	  671.00	  654.69	-2099.19	  451.54
     35.1700	  678.00	  639.33	-2076.83	  451.54
     35.2700	  680.00	  629.92	-2065.42	  451.55
     35.3700	  665.00	  623.65	-2074.15	  451.56
     35.4700	  667.00	  619.11	-2067.61	  451.57
     35.5700	  652.00	  615.64	-2079.14	  451.59
     35.6700	  636.00	  612.92	-2092.42	  451.60
     35.7700	  607.00	  610.73	-2119.23	  451.62
     35.8700	  645.00	  608.97	-2079.47	  451.64
     35.9700	  633.00	  607.54	-2090.04	  451.66
     36.0700	  587.00	  606.37	-2134.87	  451.68
     36.1700	  568.00	  605.43	-2152.93	  451.70
     36.2700	  641.00	  604.69	-2079.19	  451.73
     36.3700	  663.00	  604.11	-2056.61	  451.75
     36.4700	  655.00	  603.68	-2064.18	  451.78
     36.5700	  610.00	  603.45	-2108.95	  451.81
     36.6700	  634.00	  603.32	-2084.82	  451.84
     36.7700	  640.00	  603.34	-2078.84	  451.88
     36.8700	  628.00	  603.53	-2091.03	  451.91
     36.9700	  615.00	  603.91	-2104.41	  451.95
     37.0700	  623.00	  604.74	-2097.24	  451.98
     37.1700	  618.00	  606.20	-2103.70	  452.02
     37.2700	  608.00	  607.64	-2115.14	  452.06
     37.3700	  625.00	  609.79	-2100.29	  452.10
     37.4700	  595.00	  613.10	-2133.60	  452.15
     37.5700	  618.00	  618.24	-2115.74	  452.19
     37.6700	  638.00	  626.37	-2103.87	  452.24
     37.7700	  619.00	  638.93	-2135.43	  452.28
     37.8700	  647.00	  657.45	-2125.95	  452.33
     37.9700	  655.00	  682.79	-2143.29	  452.38
     38.0700	  714.00	  712.10	-2113.60	  452.43
     38.1700	  740.00	  745.28	-2120.78	  452.48
     38.2700	  734.00	  772.96	-2154.46	  452.54
     38.3700	  744.00	  784.83	-2156.33	  452.59
     38.4700	  750.00	  773.37	-2138.87	  452.65
     38.5700	  758.00	  742.78	-2100.28	  452.70
     38.6700	  692.00	  705.84	-2129.34	  452.76
     38.7700	  626.00	  672.57	-2162.07	  452.82
     38.8700	  607.00	  647.05	-2155.54	  452.88
     38.9700	  615.00	  629.50	-2130.00	  452.94
     39.0700	  605.00	  618.37	-2128.87	  453.00
     39.1700	  635.00	  611.61	-2092.11	  453.07
     39.2700	  574.00	  607.50	-2149.00	  453.13
     39.3700	  642.00	  604.86	-2078.36	  453.19
     39.4700	  556.00	  603.06	-2162.56	  453.26
     39.5700	  603.00	  600.62	-2113.12	  453.33
     39.6700	  582.00	  599.63	-2133.13	  453.39
     39.7700	  606.00	  598.86	-2108.36	  453.46
     39.8700	  602.00	  598.25	-2111.75	  453.53
     39.9700	  620.00	  597.78	-2093.28	  453.60
     40.0700	  586.00	  597.40	-2126.90	  453.67
     40.1700	  610.00	  597.12	-2102.62	  453.74
     40.2700	  618.00	  596.90	-2094.40	  453.82
     40.3700	  605.00	  596.74	-2107.24	  453.89
     40.4700	  561.00	  596.63	-2151.13	  453.96
     40.5700	  615.00	  596.58	-2097.08	  454.04
     40.6700	  586.00	  596.56	-2126.06	  454.11
     40.7700	  616.00	  597.11	-2096.61	  454.19
