MSG Master    CELL:    5.91956   5.91956  23.28032   90.0000   90.0000  120.0000   SPGR: P 63/m m c             TEMP:   1074.85
  1   1280     2.52000     0.00000    -0.13159     0.00000     0.00000    0
    99     0     2
       0.00000      10.00000
     125.00000     130.00000
 2Theta	Yobs	Ycal	Yobs-Ycal	Backg	Posr	(hkl)	K
      0.7700	    0.00	  530.22	-1720.75	  413.53
      0.8700	    0.00	  531.13	-1720.75	  414.44
      0.9700	   39.00	  532.03	-1720.75	  415.34
      1.0700	   50.00	  532.91	-1720.75	  416.22
      1.1700	   43.00	  533.78	-1720.75	  417.09
      1.2700	   40.00	  534.64	-1720.75	  417.96
      1.3700	   51.00	  535.49	-1720.75	  418.80
      1.4700	   79.00	  536.33	-1720.75	  419.64
      1.5700	  314.00	  537.15	-1720.75	  420.46
      1.6700	  466.00	  537.97	-1720.75	  421.28
      1.7700	  575.00	  538.77	-1720.75	  422.08
      1.8700	  653.00	  539.55	-1720.75	  422.87
      1.9700	  756.00	  540.33	-1720.75	  423.64
      2.0700	  744.00	  541.10	-1720.75	  424.41
      2.1700	  842.00	  541.85	-1720.75	  425.16
      2.2700	  771.00	  542.59	-1720.75	  425.91
      2.3700	  709.00	  543.33	-1720.75	  426.64
      2.4700	  722.00	  544.05	-1720.75	  427.36
      2.5700	  695.00	  544.76	-1720.75	  428.07
      2.6700	  633.00	  545.45	-1720.75	  428.76
      2.7700	  681.00	  546.14	-1720.75	  429.45
      2.8700	  642.00	  546.82	-1720.75	  430.13
      2.9700	  602.00	  547.48	-1720.75	  430.79
      3.0700	  629.00	  548.14	-1720.75	  431.45
      3.1700	  561.00	  548.78	-1720.75	  432.09
      3.2700	  595.00	  549.41	-1720.75	  432.72
      3.3700	  711.00	  550.03	-1720.75	  433.35
      3.4700	  808.00	  550.65	-1720.75	  433.96
      3.5700	  855.00	  551.25	-1720.75	  434.56
      3.6700	  879.00	  551.84	-1720.75	  435.15
      3.7700	  939.00	  552.42	-1720.75	  435.73
      3.8700	  950.00	  552.99	-1720.75	  436.30
      3.9700	 1005.00	  553.55	-1720.75	  436.86
      4.0700	 1115.00	  554.10	-1720.75	  437.41
      4.1700	 1096.00	  554.64	-1720.75	  437.95
      4.2700	 1079.00	  555.17	-1720.75	  438.48
      4.3700	 1072.00	  555.69	-1720.75	  439.01
      4.4700	 1055.00	  556.21	-1720.75	  439.52
      4.5700	 1044.00	  556.71	-1720.75	  440.02
      4.6700	  985.00	  557.20	-1720.75	  440.51
      4.7700	 1034.00	  557.68	-1720.75	  440.99
      4.8700	  951.00	  558.15	-1720.75	  441.47
      4.9700	  997.00	  558.62	-1720.75	  441.93
      5.0700	  887.00	  559.07	-1720.75	  442.38
      5.1700	  922.00	  559.52	-1720.75	  442.83
      5.2700	  869.00	  559.95	-1720.75	  443.26
      5.3700	  837.00	  560.38	-1720.75	  443.69
      5.4700	  909.00	  560.80	-1720.75	  444.11
      5.5700	  900.00	  561.21	-1720.75	  444.52
      5.6700	  845.00	  561.61	-1720.75	  444.92
      5.7700	  832.00	  562.00	-1720.75	  445.31
      5.8700	  835.00	  562.38	-1720.75	  445.69
      5.9700	  856.00	  562.75	-1720.75	  446.06
      6.0700	  779.00	  563.12	-1720.75	  446.43
      6.1700	  758.00	  563.47	-1720.75	  446.78
      6.2700	  758.00	  563.82	-1720.75	  447.13
      6.3700	  778.00	  564.16	-1720.75	  447.47
      6.4700	  739.00	  564.49	-1720.75	  447.80
      6.5700	  725.00	  564.82	-1720.75	  448.13
      6.6700	  719.00	  565.13	-1720.75	  448.44
      6.7700	  743.00	  565.44	-1720.75	  448.75
      6.8700	  699.00	  565.73	-1720.75	  449.05
      6.9700	  729.00	  566.03	-1720.75	  449.34
      7.0700	  716.00	  566.31	-1720.75	  449.62
      7.1700	  663.00	  566.58	-1720.75	  449.89
      7.2700	  738.00	  566.85	-1720.75	  450.16
      7.3700	  684.00	  567.11	-1720.75	  450.42
      7.4700	  675.00	  567.36	-1720.75	  450.67
      7.5700	  634.00	  567.60	-1720.75	  450.91
      7.6700	  654.00	  567.84	-1720.75	  451.15
      7.7700	  661.00	  568.07	-1720.75	  451.38
      7.8700	  612.00	  568.29	-1720.75	  451.60
      7.9700	  627.00	  568.50	-1720.75	  451.81
      8.0700	  604.00	  568.71	-1720.75	  452.02
      8.1700	  628.00	  568.91	-1720.75	  452.22
      8.2700	  647.00	  569.10	-1720.75	  452.41
      8.3700	  678.00	  569.28	-1720.75	  452.59
      8.4700	  640.00	  569.46	-1720.75	  452.77
      8.5700	  595.00	  569.63	-1720.75	  452.94
      8.6700	  594.00	  569.80	-1720.75	  453.11
      8.7700	  664.00	  569.95	-1720.75	  453.26
      8.8700	  598.00	  570.10	-1720.75	  453.41
      8.9700	  580.00	  570.25	-1720.75	  453.56
      9.0700	  624.00	  570.38	-1720.75	  453.69
      9.1700	  617.00	  570.51	-1720.75	  453.82
      9.2700	  565.00	  570.63	-1720.75	  453.95
      9.3700	  608.00	  570.75	-1720.75	  454.06
      9.4700	  583.00	  570.86	-1720.75	  454.17
      9.5700	  604.00	  570.97	-1720.75	  454.28
      9.6700	  609.00	  571.06	-1720.75	  454.37
      9.7700	  629.00	  571.15	-1720.75	  454.47
      9.8700	  584.00	  571.24	-1720.75	  454.55
      9.9700	  640.00	  571.32	-1720.75	  454.63
     10.0700	  605.00	  572.33	-1688.08	  454.70
     10.1700	  550.00	  572.50	-1743.25	  454.77
     10.2700	  611.00	  572.69	-1682.44	  454.83
     10.3700	  566.00	  572.92	-1727.67	  454.88
     10.4700	  556.00	  573.21	-1737.96	  454.93
     10.5700	  568.00	  573.63	-1726.38	  454.98
     10.6700	  586.00	  574.27	-1709.02	  455.01
     10.7700	  586.00	  575.24	-1709.99	  455.04
     10.8700	  546.00	  576.60	-1751.35	  455.07
     10.9700	  618.00	  578.34	-1681.09	  455.09
     11.0700	  569.00	  580.43	-1732.18	  455.10
     11.1700	  580.00	  582.88	-1723.63	  455.11
     11.2700	  561.00	  585.73	-1745.48	  455.12
     11.3700	  580.00	  589.05	-1729.80	  455.12
     11.4700	  589.00	  593.00	-1724.75	  455.11
     11.5700	  587.00	  597.79	-1731.54	  455.10
     11.6700	  619.00	  603.80	-1705.55	  455.08
     11.7700	  609.00	  611.64	-1723.39	  455.06
     11.8700	  684.00	  622.11	-1658.86	  455.03
     11.9700	  632.00	  635.43	-1724.18	  455.00
     12.0700	  680.00	  649.51	-1690.26	  454.96
     12.1700	  696.00	  658.23	-1682.98	  454.91
     12.2700	  655.00	  653.05	-1718.80	  454.87
     12.3700	  595.00	  632.84	-1758.59	  454.81
     12.4700	  635.00	  609.54	-1695.29	  454.76
     12.5700	  609.00	  592.49	-1704.24	  454.69
     12.6700	  633.00	  582.88	-1670.63	  454.63
     12.7700	  563.00	  578.25	-1736.00	  454.55
     12.8700	  578.00	  576.05	-1718.80	  454.48
     12.9700	  565.00	  574.83	-1730.58	  454.40
     13.0700	  557.00	  574.01	-1737.76	  454.31
     13.1700	  571.00	  573.40	-1723.15	  454.22
     13.2700	  564.00	  572.92	-1729.67	  454.13
     13.3700	  563.00	  572.52	-1730.27	  454.03
     13.4700	  544.00	  572.18	-1748.93	  453.93
     13.5700	  582.00	  571.89	-1710.64	  453.82
     13.6700	  601.00	  571.62	-1691.37	  453.71
     13.7700	  575.00	  571.38	-1717.13	  453.59
     13.8700	  527.00	  571.15	-1764.90	  453.47
     13.9700	  529.00	  570.94	-1762.69	  453.35
     14.0700	  558.00	  570.74	-1733.49	  453.22
     14.1700	  539.00	  570.54	-1752.29	  453.09
     14.2700	  569.00	  570.35	-1722.10	  452.95
     14.3700	  574.00	  570.16	-1716.91	  452.81
     14.4700	  632.00	  569.98	-1658.73	  452.67
     14.5700	  584.00	  569.79	-1706.54	  452.52
     14.6700	  544.00	  569.61	-1746.36	  452.37
     14.7700	  512.00	  569.42	-1778.17	  452.22
     14.8700	  588.00	  569.24	-1701.99	  452.06
     14.9700	  558.00	  569.05	-1731.80	  451.90
     15.0700	  560.00	  568.87	-1729.62	  451.73
     15.1700	  538.00	  568.68	-1751.43	  451.56
     15.2700	  575.00	  568.49	-1714.24	  451.39
     15.3700	  556.00	  568.30	-1733.05	  451.22
     15.4700	  568.00	  568.10	-1720.85	  451.04
     15.5700	  561.00	  567.91	-1727.66	  450.85
     15.6700	  547.00	  567.71	-1741.46	  450.67
     15.7700	  550.00	  567.54	-1738.29	  450.48
     15.8700	  579.00	  567.34	-1709.09	  450.29
     15.9700	  550.00	  567.13	-1737.88	  450.09
     16.0700	  557.00	  566.92	-1730.67	  449.89
     16.1700	  583.00	  566.72	-1704.47	  449.69
     16.2700	  586.00	  566.50	-1701.25	  449.49
     16.3700	  562.00	  566.29	-1725.04	  449.28
     16.4700	  554.00	  566.07	-1732.82	  449.07
     16.5700	  560.00	  565.86	-1726.61	  448.85
     16.6700	  591.00	  565.63	-1695.38	  448.64
     16.7700	  568.00	  565.41	-1718.16	  448.42
     16.8700	  611.00	  565.18	-1674.93	  448.20
     16.9700	  570.00	  564.96	-1715.71	  447.97
     17.0700	  555.00	  564.73	-1730.48	  447.75
     17.1700	  560.00	  564.49	-1725.24	  447.52
     17.2700	  569.00	  564.26	-1716.01	  447.28
     17.3700	  564.00	  564.02	-1720.77	  447.05
     17.4700	  559.00	  563.78	-1725.53	  446.81
     17.5700	  577.00	  563.54	-1707.29	  446.57
     17.6700	  559.00	  563.29	-1725.04	  446.33
     17.7700	  580.00	  563.05	-1703.80	  446.08
     17.8700	  538.00	  562.80	-1745.55	  445.83
     17.9700	  537.00	  562.65	-1746.40	  445.58
     18.0700	  506.00	  562.40	-1777.15	  445.33
     18.1700	  543.00	  562.15	-1739.90	  445.08
     18.2700	  560.00	  561.89	-1722.64	  444.82
     18.3700	  588.00	  561.64	-1694.39	  444.56
     18.4700	  520.00	  561.38	-1762.13	  444.30
     18.5700	  584.00	  561.12	-1697.87	  444.04
     18.6700	  572.00	  560.85	-1709.60	  443.77
     18.7700	  533.00	  560.68	-1748.43	  443.51
     18.8700	  553.00	  560.41	-1728.16	  443.24
     18.9700	  548.00	  560.15	-1732.90	  442.97
     19.0700	  550.00	  559.88	-1730.63	  442.69
     19.1700	  581.00	  559.61	-1699.36	  442.42
     19.2700	  566.00	  559.34	-1714.09	  442.14
     19.3700	  601.00	  559.07	-1678.82	  441.86
     19.4700	  541.00	  558.80	-1738.55	  441.58
     19.5700	  613.00	  558.52	-1666.27	  441.30
     19.6700	  612.00	  558.25	-1667.00	  441.02
     19.7700	  523.00	  557.97	-1755.72	  440.73
     19.8700	  532.00	  557.69	-1746.44	  440.44
     19.9700	  577.00	  557.41	-1701.16	  440.16
     20.0700	  553.00	  557.13	-1724.88	  439.87
     20.1700	  599.00	  556.85	-1678.60	  439.57
     20.2700	  533.00	  556.57	-1744.32	  439.28
     20.3700	  563.00	  556.29	-1714.04	  438.99
     20.4700	  601.00	  556.00	-1675.75	  438.69
     20.5700	  548.00	  555.72	-1728.47	  438.39
     20.6700	  578.00	  555.47	-1698.22	  438.09
     20.7700	  593.00	  555.18	-1682.93	  437.79
     20.8700	  547.00	  554.90	-1728.65	  437.49
     20.9700	  583.00	  554.61	-1692.36	  437.19
     21.0700	  509.00	  554.29	-1766.04	  436.88
     21.1700	  575.00	  554.01	-1699.76	  436.58
     21.2700	  533.00	  553.72	-1741.47	  436.27
     21.3700	  551.00	  553.44	-1723.19	  435.96
     21.4700	  587.00	  553.15	-1686.90	  435.66
     21.5700	  511.00	  552.87	-1762.62	  435.35
     21.6700	  556.00	  552.59	-1717.34	  435.04
     21.7700	  519.00	  552.31	-1754.06	  434.72
     21.8700	  573.00	  552.03	-1699.78	  434.41
     21.9700	  592.00	  551.75	-1680.50	  434.10
     22.0700	  519.00	  551.47	-1753.22	  433.78
     22.1700	  535.00	  551.20	-1736.95	  433.47
     22.2700	  552.00	  550.93	-1719.68	  433.15
     22.3700	  545.00	  550.66	-1726.41	  432.83
     22.4700	  546.00	  550.40	-1725.15	  432.51
     22.5700	  517.00	  550.14	-1753.89	  432.20
     22.6700	  559.00	  549.89	-1711.64	  431.88
     22.7700	  548.00	  549.64	-1722.39	  431.56
     22.8700	  496.00	  549.41	-1774.16	  431.23
     22.9700	  532.00	  549.19	-1737.94	  430.91
     23.0700	  572.00	  548.98	-1697.73	  430.59
     23.1700	  587.00	  548.79	-1682.54	  430.27
     23.2700	  511.00	  548.62	-1758.37	  429.94
     23.3700	  549.00	  548.49	-1720.24	  429.62
     23.4700	  564.00	  548.53	-1705.28	  429.30
     23.5700	  528.00	  548.49	-1741.24	  428.97
     23.6700	  507.00	  548.53	-1762.28	  428.65
     23.7700	  543.00	  548.72	-1726.47	  428.32
     23.8700	  562.00	  549.16	-1707.91	  427.99
     23.9700	  580.00	  550.10	-1690.85	  427.67
     24.0700	  560.00	  551.97	-1712.72	  427.34
     24.1700	  520.00	  555.42	-1756.17	  427.01
     24.2700	  557.00	  561.24	-1724.99	  426.69
     24.3700	  568.00	  570.31	-1723.06	  426.36
     24.4700	  578.00	  583.34	-1726.09	  426.03
     24.5700	  602.00	  600.01	-1718.76	  425.70
     24.6700	  627.00	  617.06	-1710.81	  425.37
     24.7700	  650.00	  627.19	-1697.94	  425.04
     24.8700	  692.00	  621.88	-1650.62	  424.71
     24.9700	  636.00	  602.07	-1686.82	  424.39
     25.0700	  619.00	  579.80	-1681.55	  424.06
     25.1700	  531.00	  563.30	-1753.05	  423.73
     25.2700	  527.00	  553.71	-1747.46	  423.40
     25.3700	  562.00	  548.92	-1707.67	  423.07
     25.4700	  570.00	  546.59	-1697.34	  422.74
     25.5700	  526.00	  545.31	-1740.06	  422.41
     25.6700	  574.00	  544.47	-1691.22	  422.08
     25.7700	  581.00	  543.86	-1683.61	  421.75
     25.8700	  575.00	  543.40	-1689.15	  421.42
     25.9700	  570.00	  543.06	-1693.81	  421.09
     26.0700	  529.00	  542.80	-1734.55	  420.77
     26.1700	  589.00	  542.63	-1674.38	  420.44
     26.2700	  536.00	  542.54	-1727.29	  420.11
     26.3700	  540.00	  542.53	-1723.28	  419.78
     26.4700	  551.00	  542.62	-1712.36	  419.45
     26.5700	  544.00	  542.80	-1719.55	  419.13
     26.6700	  620.00	  543.10	-1643.85	  418.80
     26.7700	  529.00	  543.55	-1735.30	  418.47
     26.8700	  536.00	  544.18	-1728.93	  418.14
     26.9700	  549.00	  545.05	-1716.80	  417.82
     27.0700	  542.00	  546.23	-1724.98	  417.49
     27.1700	  544.00	  547.87	-1724.62	  417.17
     27.2700	  611.00	  550.25	-1660.00	  416.84
     27.3700	  606.00	  553.90	-1668.65	  416.52
     27.4700	  541.00	  559.87	-1739.62	  416.19
     27.5700	  567.00	  570.03	-1723.78	  415.87
     27.6700	  583.00	  587.27	-1725.02	  415.54
     27.7700	  545.00	  615.27	-1791.02	  415.22
     27.8700	  624.00	  657.05	-1753.80	  414.90
     27.9700	  676.00	  712.38	-1757.13	  414.58
     28.0700	  808.00	  774.46	-1687.21	  414.26
     28.1700	  941.00	  827.12	-1606.87	  413.93
     28.2700	  980.00	  847.05	-1587.80	  413.61
     28.3700	  910.00	  822.75	-1633.50	  413.29
     28.4700	  808.00	  778.76	-1691.51	  412.98
     28.5700	  762.00	  750.45	-1709.20	  412.66
     28.6700	  704.00	  752.39	-1769.14	  412.34
     28.7700	  709.00	  778.17	-1789.92	  412.02
     28.8700	  835.00	  806.35	-1692.10	  411.71
     28.9700	  803.00	  808.10	-1725.85	  411.39
     29.0700	  777.00	  767.32	-1711.07	  411.08
     29.1700	  719.00	  702.31	-1704.06	  410.76
     29.2700	  645.00	  641.77	-1717.52	  410.45
     29.3700	  565.00	  598.45	-1754.20	  410.14
     29.4700	  530.00	  572.29	-1763.04	  409.83
     29.5700	  598.00	  558.06	-1680.81	  409.52
     29.6700	  571.00	  550.47	-1700.22	  409.21
     29.7700	  621.00	  546.14	-1645.89	  408.90
     29.8700	  562.00	  543.43	-1702.18	  408.59
     29.9700	  567.00	  541.71	-1695.46	  408.28
     30.0700	  545.00	  540.86	-1716.61	  407.98
     30.1700	  581.00	  541.03	-1680.78	  407.67
     30.2700	  566.00	  542.79	-1697.54	  407.37
     30.3700	  551.00	  547.18	-1716.93	  407.06
     30.4700	  543.00	  555.74	-1733.49	  406.76
     30.5700	  533.00	  569.92	-1757.67	  406.46
     30.6700	  606.00	  589.86	-1704.61	  406.16
     30.7700	  608.00	  612.79	-1725.54	  405.86
     30.8700	  631.00	  631.82	-1721.57	  405.56
     30.9700	  623.00	  637.13	-1734.88	  405.26
     31.0700	  629.00	  622.94	-1714.69	  404.97
     31.1700	  572.00	  596.85	-1745.60	  404.67
     31.2700	  541.00	  571.37	-1751.12	  404.38
     31.3700	  544.00	  552.66	-1729.41	  404.09
     31.4700	  521.00	  541.21	-1740.96	  403.79
     31.5700	  606.00	  534.99	-1649.74	  403.50
     31.6700	  522.00	  531.72	-1730.47	  403.21
     31.7700	  554.00	  529.88	-1696.63	  402.93
     31.8700	  510.00	  528.71	-1739.46	  402.64
     31.9700	  509.00	  527.91	-1739.66	  402.35
     32.0700	  566.00	  527.35	-1682.10	  402.07
     32.1700	  537.00	  526.97	-1710.72	  401.78
     32.2700	  553.00	  526.77	-1694.52	  401.50
     32.3700	  540.00	  526.72	-1707.47	  401.22
     32.4700	  546.00	  526.85	-1701.60	  400.94
     32.5700	  515.00	  527.15	-1732.90	  400.66
     32.6700	  554.00	  527.68	-1694.43	  400.39
     32.7700	  543.00	  528.48	-1706.23	  400.11
     32.8700	  599.00	  529.62	-1651.37	  399.84
     32.9700	  490.00	  531.25	-1762.00	  399.56
     33.0700	  571.00	  533.62	-1683.37	  399.29
     33.1700	  533.00	  537.27	-1725.02	  399.02
     33.2700	  538.00	  543.42	-1726.17	  398.75
     33.3700	  555.00	  554.59	-1720.34	  398.48
     33.4700	  555.00	  575.39	-1741.14	  398.22
     33.5700	  608.00	  612.72	-1725.47	  397.95
     33.6700	  675.00	  673.77	-1719.52	  397.69
     33.7700	  783.00	  760.41	-1698.16	  397.42
     33.8700	  910.00	  861.52	-1672.27	  397.16
     33.9700	  974.00	  948.74	-1695.49	  396.90
     34.0700	 1088.00	  981.09	-1613.84	  396.65
     34.1700	  995.00	  932.55	-1658.30	  396.39
     34.2700	  930.00	  829.09	-1619.84	  396.13
     34.3700	  704.00	  721.46	-1738.21	  395.88
     34.4700	  624.00	  638.72	-1735.47	  395.63
     34.5700	  573.00	  586.24	-1733.99	  395.38
     34.6700	  526.00	  557.22	-1751.97	  395.13
     34.7700	  555.00	  542.21	-1707.96	  394.88
     34.8700	  515.00	  534.18	-1739.93	  394.63
     34.9700	  555.00	  529.30	-1695.05	  394.39
     35.0700	  533.00	  525.92	-1713.67	  394.15
     35.1700	  490.00	  523.36	-1754.11	  393.91
     35.2700	  489.00	  521.33	-1753.08	  393.67
     35.3700	  523.00	  519.68	-1717.43	  393.43
     35.4700	  553.00	  518.31	-1686.06	  393.19
     35.5700	  475.00	  517.15	-1762.90	  392.95
     35.6700	  511.00	  516.15	-1725.90	  392.72
     35.7700	  532.00	  515.29	-1704.04	  392.49
     35.8700	  495.00	  514.53	-1740.28	  392.26
     35.9700	  489.00	  514.32	-1746.07	  392.03
     36.0700	  552.00	  513.72	-1682.47	  391.80
     36.1700	  466.00	  513.19	-1767.94	  391.58
     36.2700	  532.00	  512.70	-1701.45	  391.35
     36.3700	  539.00	  512.27	-1694.02	  391.13
     36.4700	  516.00	  511.87	-1716.62	  390.91
     36.5700	  486.00	  511.52	-1746.27	  390.69
     36.6700	  541.00	  511.22	-1690.97	  390.47
     36.7700	  486.00	  510.98	-1745.73	  390.26
     36.8700	  481.00	  510.82	-1750.57	  390.04
     36.9700	  488.00	  510.82	-1743.57	  389.83
     37.0700	  493.00	  511.14	-1738.89	  389.62
     37.1700	  506.00	  512.02	-1726.77	  389.41
     37.2700	  489.00	  513.81	-1745.56	  389.20
     37.3700	  548.00	  516.75	-1689.50	  389.00
     37.4700	  536.00	  520.66	-1705.41	  388.79
     37.5700	  514.00	  524.72	-1731.47	  388.59
     37.6700	  521.00	  527.40	-1727.15	  388.39
     37.7700	  507.00	  527.26	-1741.01	  388.19
     37.8700	  518.00	  524.37	-1727.12	  387.99
     37.9700	  495.00	  520.30	-1746.05	  387.80
     38.0700	  547.00	  516.37	-1690.12	  387.60
     38.1700	  541.00	  513.06	-1692.81	  387.41
     38.2700	  530.00	  510.54	-1701.29	  387.22
     38.3700	  472.00	  508.77	-1757.52	  387.03
     38.4700	  505.00	  507.59	-1723.34	  386.84
     38.5700	  489.00	  506.80	-1738.55	  386.66
     38.6700	  493.00	  506.17	-1733.92	  386.48
     38.7700	  489.00	  505.78	-1737.53	  386.29
     38.8700	  471.00	  505.48	-1755.22	  386.11
     38.9700	  485.00	  505.21	-1740.96	  385.94
     39.0700	  490.00	  504.98	-1735.73	  385.76
     39.1700	  488.00	  504.90	-1737.65	  385.59
     39.2700	  537.00	  504.70	-1688.45	  385.41
     39.3700	  557.00	  504.43	-1668.18	  385.24
     39.4700	  520.00	  504.26	-1705.01	  385.07
     39.5700	  500.00	  504.10	-1724.85	  384.91
     39.6700	  469.00	  503.95	-1755.70	  384.74
     39.7700	  480.00	  503.81	-1744.56	  384.58
     39.8700	  502.00	  503.67	-1722.42	  384.41
     39.9700	  488.00	  503.55	-1736.30	  384.25
     40.0700	  473.00	  503.44	-1751.19	  384.10
     40.1700	  521.00	  503.34	-1703.09	  383.94
     40.2700	  500.00	  503.25	-1724.00	  383.78
     40.3700	  512.00	  503.18	-1711.93	  383.63
     40.4700	  496.00	  503.11	-1727.86	  383.48
     40.5700	  523.00	  503.07	-1700.82	  383.33
     40.6700	  497.00	  503.04	-1726.79	  383.18
     40.7700	  473.00	  503.03	-1750.78	  383.04
