MSG Master    CELL:    5.89406   5.89406  23.16392   90.0000   90.0000  120.0000   SPGR: P 63/m m c             TEMP:    697.95
  2   1280     2.52000     0.00000    -0.10748     0.00000     0.00000    0
    96    96     0     0     2
       0.00000      10.00000
     125.00000     130.00000
 2Theta	Yobs	Ycal	Yobs-Ycal	Backg	Posr	(hkl)	K
      0.7700	    0.00	  643.29	-1830.66	  524.46
      0.8700	    0.00	  643.57	-1830.66	  524.74
      0.9700	   46.00	  643.85	-1830.66	  525.01
      1.0700	   42.00	  644.11	-1830.66	  525.28
      1.1700	   41.00	  644.37	-1830.66	  525.53
      1.2700	   53.00	  644.61	-1830.66	  525.78
      1.3700	   45.00	  644.86	-1830.66	  526.02
      1.4700	  122.00	  645.09	-1830.66	  526.26
      1.5700	  280.00	  645.31	-1830.66	  526.48
      1.6700	  435.00	  645.53	-1830.66	  526.70
      1.7700	  497.00	  645.74	-1830.66	  526.91
      1.8700	  631.00	  645.94	-1830.66	  527.11
      1.9700	  751.00	  646.14	-1830.66	  527.31
      2.0700	  763.00	  646.33	-1830.66	  527.50
      2.1700	  750.00	  646.51	-1830.66	  527.68
      2.2700	  762.00	  646.68	-1830.66	  527.85
      2.3700	  713.00	  646.85	-1830.66	  528.02
      2.4700	  725.00	  647.01	-1830.66	  528.17
      2.5700	  702.00	  647.16	-1830.66	  528.33
      2.6700	  665.00	  647.30	-1830.66	  528.47
      2.7700	  690.00	  647.44	-1830.66	  528.61
      2.8700	  664.00	  647.57	-1830.66	  528.74
      2.9700	  654.00	  647.70	-1830.66	  528.87
      3.0700	  598.00	  647.81	-1830.66	  528.98
      3.1700	  648.00	  647.93	-1830.66	  529.09
      3.2700	  698.00	  648.03	-1830.66	  529.20
      3.3700	  907.00	  648.13	-1830.66	  529.30
      3.4700	 1033.00	  648.22	-1830.66	  529.39
      3.5700	 1165.00	  648.30	-1830.66	  529.47
      3.6700	 1344.00	  648.38	-1830.66	  529.55
      3.7700	 1395.00	  648.45	-1830.66	  529.62
      3.8700	 1444.00	  648.52	-1830.66	  529.69
      3.9700	 1466.00	  648.58	-1830.66	  529.74
      4.0700	 1465.00	  648.63	-1830.66	  529.80
      4.1700	 1509.00	  648.67	-1830.66	  529.84
      4.2700	 1660.00	  648.72	-1830.66	  529.88
      4.3700	 1576.00	  648.75	-1830.66	  529.92
      4.4700	 1496.00	  648.78	-1830.66	  529.95
      4.5700	 1469.00	  648.80	-1830.66	  529.97
      4.6700	 1420.00	  648.82	-1830.66	  529.98
      4.7700	 1428.00	  648.83	-1830.66	  529.99
      4.8700	 1338.00	  648.83	-1830.66	  530.00
      4.9700	 1261.00	  648.83	-1830.66	  530.00
      5.0700	 1218.00	  648.82	-1830.66	  529.99
      5.1700	 1288.00	  648.81	-1830.66	  529.98
      5.2700	 1206.00	  648.79	-1830.66	  529.96
      5.3700	 1156.00	  648.77	-1830.66	  529.94
      5.4700	 1144.00	  648.74	-1830.66	  529.91
      5.5700	 1069.00	  648.70	-1830.66	  529.87
      5.6700	 1076.00	  648.66	-1830.66	  529.83
      5.7700	 1044.00	  648.62	-1830.66	  529.79
      5.8700	 1119.00	  648.57	-1830.66	  529.74
      5.9700	 1035.00	  648.51	-1830.66	  529.68
      6.0700	  994.00	  648.45	-1830.66	  529.62
      6.1700	 1013.00	  648.38	-1830.66	  529.55
      6.2700	  935.00	  648.31	-1830.66	  529.48
      6.3700	  973.00	  648.23	-1830.66	  529.40
      6.4700	  996.00	  648.15	-1830.66	  529.32
      6.5700	  943.00	  648.06	-1830.66	  529.23
      6.6700	  928.00	  647.97	-1830.66	  529.14
      6.7700	  830.00	  647.88	-1830.66	  529.04
      6.8700	  910.00	  647.77	-1830.66	  528.94
      6.9700	  846.00	  647.67	-1830.66	  528.84
      7.0700	  864.00	  647.56	-1830.66	  528.72
      7.1700	  802.00	  647.44	-1830.66	  528.61
      7.2700	  824.00	  647.32	-1830.66	  528.49
      7.3700	  795.00	  647.19	-1830.66	  528.36
      7.4700	  833.00	  647.06	-1830.66	  528.23
      7.5700	  774.00	  646.93	-1830.66	  528.10
      7.6700	  706.00	  646.79	-1830.66	  527.96
      7.7700	  783.00	  646.65	-1830.66	  527.82
      7.8700	  699.00	  646.50	-1830.66	  527.67
      7.9700	  756.00	  646.35	-1830.66	  527.52
      8.0700	  744.00	  646.19	-1830.66	  527.36
      8.1700	  728.00	  646.03	-1830.66	  527.20
      8.2700	  705.00	  645.87	-1830.66	  527.03
      8.3700	  750.00	  645.70	-1830.66	  526.87
      8.4700	  734.00	  645.52	-1830.66	  526.69
      8.5700	  702.00	  645.35	-1830.66	  526.52
      8.6700	  753.00	  645.17	-1830.66	  526.33
      8.7700	  744.00	  644.98	-1830.66	  526.15
      8.8700	  730.00	  644.79	-1830.66	  525.96
      8.9700	  737.00	  644.60	-1830.66	  525.77
      9.0700	  732.00	  644.40	-1830.66	  525.57
      9.1700	  703.00	  644.20	-1830.66	  525.37
      9.2700	  694.00	  644.00	-1830.66	  525.16
      9.3700	  729.00	  643.79	-1830.66	  524.96
      9.4700	  686.00	  643.57	-1830.66	  524.74
      9.5700	  690.00	  643.36	-1830.66	  524.53
      9.6700	  662.00	  643.14	-1830.66	  524.31
      9.7700	  677.00	  642.92	-1830.66	  524.09
      9.8700	  647.00	  642.69	-1830.66	  523.86
      9.9700	  691.00	  642.46	-1830.66	  523.63
     10.0700	  650.00	  644.30	-1824.96	  523.40
     10.1700	  693.00	  644.30	-1781.96	  523.16
     10.2700	  702.00	  644.35	-1773.00	  522.92
     10.3700	  649.00	  644.46	-1826.11	  522.67
     10.4700	  742.00	  644.67	-1733.32	  522.43
     10.5700	  697.00	  645.03	-1778.69	  522.18
     10.6700	  648.00	  645.62	-1828.28	  521.92
     10.7700	  657.00	  646.55	-1820.20	  521.67
     10.8700	  663.00	  647.90	-1815.56	  521.41
     10.9700	  659.00	  649.77	-1821.42	  521.15
     11.0700	  695.00	  652.15	-1787.81	  520.88
     11.1700	  670.00	  655.08	-1815.74	  520.61
     11.2700	  641.00	  658.57	-1848.23	  520.34
     11.3700	  687.00	  662.70	-1806.35	  520.06
     11.4700	  674.00	  667.59	-1824.24	  519.79
     11.5700	  735.00	  673.44	-1769.10	  519.51
     11.6700	  652.00	  680.56	-1859.22	  519.22
     11.7700	  746.00	  689.33	-1773.99	  518.94
     11.8700	  757.00	  700.08	-1773.74	  518.65
     11.9700	  737.00	  712.73	-1806.38	  518.36
     12.0700	  807.00	  726.17	-1749.82	  518.06
     12.1700	  773.00	  737.52	-1795.18	  517.77
     12.2700	  810.00	  741.72	-1762.38	  517.47
     12.3700	  780.00	  733.45	-1784.11	  517.16
     12.4700	  693.00	  713.86	-1851.52	  516.86
     12.5700	  710.00	  691.54	-1812.20	  516.55
     12.6700	  638.00	  673.09	-1865.75	  516.24
     12.7700	  673.00	  660.12	-1817.77	  515.93
     12.8700	  633.00	  651.78	-1849.43	  515.62
     12.9700	  628.00	  646.61	-1849.26	  515.30
     13.0700	  631.00	  643.33	-1842.99	  514.98
     13.1700	  577.00	  641.09	-1894.75	  514.66
     13.2700	  616.00	  639.46	-1854.12	  514.33
     13.3700	  612.00	  638.14	-1856.80	  514.01
     13.4700	  589.00	  637.05	-1878.71	  513.68
     13.5700	  620.00	  636.11	-1846.77	  513.35
     13.6700	  640.00	  635.29	-1825.95	  513.02
     13.7700	  582.00	  634.56	-1883.21	  512.68
     13.8700	  590.00	  633.89	-1874.54	  512.35
     13.9700	  653.00	  633.27	-1810.93	  512.01
     14.0700	  661.00	  632.70	-1802.35	  511.67
     14.1700	  589.00	  632.15	-1873.81	  511.32
     14.2700	  605.00	  631.64	-1857.29	  510.98
     14.3700	  602.00	  631.14	-1859.80	  510.63
     14.4700	  631.00	  630.66	-1830.32	  510.29
     14.5700	  569.00	  630.20	-1891.85	  509.94
     14.6700	  637.00	  629.75	-1823.40	  509.58
     14.7700	  597.00	  629.30	-1862.96	  509.23
     14.8700	  596.00	  628.87	-1863.53	  508.88
     14.9700	  623.00	  628.44	-1836.10	  508.52
     15.0700	  625.00	  628.02	-1833.68	  508.16
     15.1700	  644.00	  627.60	-1814.26	  507.80
     15.2700	  622.00	  627.19	-1835.84	  507.44
     15.3700	  641.00	  626.78	-1816.43	  507.07
     15.4700	  608.00	  626.37	-1849.03	  506.71
     15.5700	  645.00	  625.97	-1811.62	  506.34
     15.6700	  589.00	  625.56	-1867.22	  505.97
     15.7700	  586.00	  625.16	-1869.82	  505.60
     15.8700	  608.00	  624.76	-1847.42	  505.23
     15.9700	  611.00	  624.36	-1844.02	  504.86
     16.0700	  645.00	  623.96	-1809.62	  504.49
     16.1700	  626.00	  623.57	-1828.22	  504.11
     16.2700	  610.00	  623.17	-1843.82	  503.74
     16.3700	  622.00	  622.77	-1831.43	  503.36
     16.4700	  623.00	  622.37	-1830.03	  502.98
     16.5700	  624.00	  621.98	-1828.63	  502.60
     16.6700	  605.00	  621.58	-1847.24	  502.22
     16.7700	  610.00	  621.18	-1841.84	  501.84
     16.8700	  579.00	  620.79	-1872.44	  501.45
     16.9700	  581.00	  620.39	-1870.05	  501.07
     17.0700	  583.00	  619.99	-1867.65	  500.68
     17.1700	  622.00	  619.60	-1828.25	  500.30
     17.2700	  587.00	  619.20	-1862.85	  499.91
     17.3700	  605.00	  618.80	-1844.46	  499.52
     17.4700	  577.00	  618.40	-1872.06	  499.13
     17.5700	  616.00	  618.00	-1832.66	  498.74
     17.6700	  632.00	  617.61	-1816.26	  498.35
     17.7700	  659.00	  617.21	-1788.86	  497.95
     17.8700	  609.00	  616.81	-1838.46	  497.56
     17.9700	  641.00	  617.11	-1806.77	  497.17
     18.0700	  565.00	  616.73	-1882.38	  496.77
     18.1700	  593.00	  616.34	-1854.00	  496.38
     18.2700	  550.00	  616.39	-1897.05	  495.98
     18.3700	  563.00	  616.02	-1883.67	  495.58
     18.4700	  601.00	  615.64	-1845.30	  495.19
     18.5700	  604.00	  615.26	-1841.92	  494.79
     18.6700	  601.00	  614.89	-1844.54	  494.39
     18.7700	  605.00	  614.51	-1840.17	  493.99
     18.8700	  579.00	  614.14	-1865.79	  493.59
     18.9700	  630.00	  613.76	-1814.42	  493.19
     19.0700	  592.00	  613.39	-1852.05	  492.78
     19.1700	  592.00	  613.02	-1851.67	  492.38
     19.2700	  598.00	  612.65	-1845.30	  491.98
     19.3700	  607.00	  612.27	-1835.93	  491.58
     19.4700	  585.00	  611.90	-1857.56	  491.17
     19.5700	  621.00	  611.54	-1821.19	  490.77
     19.6700	  584.00	  611.17	-1857.82	  490.36
     19.7700	  595.00	  610.86	-1846.51	  489.96
     19.8700	  532.00	  610.49	-1909.15	  489.55
     19.9700	  578.00	  610.13	-1862.79	  489.15
     20.0700	  613.00	  609.77	-1827.43	  488.74
     20.1700	  582.00	  609.41	-1858.07	  488.34
     20.2700	  624.00	  609.05	-1815.71	  487.93
     20.3700	  549.00	  608.70	-1890.35	  487.52
     20.4700	  615.00	  608.34	-1824.00	  487.12
     20.5700	  610.00	  607.99	-1828.65	  486.71
     20.6700	  602.00	  607.65	-1836.30	  486.30
     20.7700	  579.00	  607.30	-1858.96	  485.89
     20.8700	  623.00	  606.96	-1814.61	  485.49
     20.9700	  575.00	  606.62	-1862.27	  485.08
     21.0700	  622.00	  606.28	-1814.94	  484.67
     21.1700	  612.00	  605.95	-1824.60	  484.26
     21.2700	  628.00	  605.62	-1808.27	  483.86
     21.3700	  617.00	  605.29	-1818.95	  483.45
     21.4700	  577.00	  604.97	-1858.63	  483.04
     21.5700	  575.00	  604.66	-1860.31	  482.63
     21.6700	  566.00	  604.34	-1869.00	  482.22
     21.7700	  602.00	  604.04	-1832.70	  481.82
     21.8700	  638.00	  603.74	-1796.40	  481.41
     21.9700	  581.00	  603.45	-1853.10	  481.00
     22.0700	  595.00	  603.16	-1838.82	  480.59
     22.1700	  566.00	  603.06	-1867.71	  480.19
     22.2700	  600.00	  602.79	-1833.45	  479.78
     22.3700	  617.00	  602.54	-1816.20	  479.37
     22.4700	  601.00	  602.30	-1831.95	  478.96
     22.5700	  579.00	  602.06	-1853.72	  478.56
     22.6700	  591.00	  601.85	-1841.50	  478.15
     22.7700	  613.00	  601.65	-1819.30	  477.75
     22.8700	  593.00	  601.47	-1839.12	  477.34
     22.9700	  644.00	  601.31	-1787.96	  476.93
     23.0700	  650.00	  601.17	-1781.83	  476.53
     23.1700	  627.00	  601.07	-1804.72	  476.12
     23.2700	  586.00	  601.00	-1845.65	  475.72
     23.3700	  599.00	  600.97	-1832.63	  475.31
     23.4700	  580.00	  601.00	-1851.66	  474.91
     23.5700	  612.00	  601.10	-1819.76	  474.51
     23.6700	  633.00	  601.29	-1798.94	  474.10
     23.7700	  630.00	  601.55	-1802.20	  473.70
     23.8700	  637.00	  602.05	-1795.71	  473.30
     23.9700	  615.00	  602.86	-1818.51	  472.90
     24.0700	  638.00	  604.13	-1796.79	  472.50
     24.1700	  647.00	  606.16	-1789.82	  472.09
     24.2700	  639.00	  609.36	-1801.02	  471.69
     24.3700	  632.00	  614.21	-1812.86	  471.29
     24.4700	  663.00	  621.12	-1788.78	  470.89
     24.5700	  648.00	  630.23	-1812.88	  470.50
     24.6700	  658.00	  641.04	-1813.70	  470.10
     24.7700	  697.00	  652.07	-1785.73	  469.70
     24.8700	  736.00	  660.39	-1755.04	  469.30
     24.9700	  670.00	  661.92	-1822.57	  468.91
     25.0700	  723.00	  654.57	-1762.22	  468.51
     25.1700	  695.00	  641.85	-1777.51	  468.12
     25.2700	  656.00	  629.27	-1803.92	  467.72
     25.3700	  633.00	  619.60	-1817.25	  467.33
     25.4700	  661.00	  613.17	-1782.82	  466.94
     25.5700	  610.00	  609.37	-1830.02	  466.54
     25.6700	  631.00	  607.37	-1807.03	  466.15
     25.7700	  663.00	  606.48	-1774.14	  465.76
     25.8700	  586.00	  606.28	-1850.94	  465.37
     25.9700	  643.00	  606.53	-1794.19	  464.98
     26.0700	  613.00	  607.15	-1824.80	  464.59
     26.1700	  634.00	  608.08	-1804.74	  464.21
     26.2700	  595.00	  609.34	-1845.00	  463.82
     26.3700	  648.00	  610.95	-1793.61	  463.43
     26.4700	  629.00	  612.95	-1814.61	  463.05
     26.5700	  667.00	  615.41	-1779.07	  462.66
     26.6700	  626.00	  618.41	-1823.06	  462.28
     26.7700	  668.00	  622.06	-1784.71	  461.90
     26.8700	  635.00	  626.53	-1822.18	  461.52
     26.9700	  656.00	  632.03	-1806.69	  461.14
     27.0700	  652.00	  638.87	-1817.53	  460.76
     27.1700	  676.00	  647.51	-1802.17	  460.38
     27.2700	  643.00	  658.68	-1846.34	  460.00
     27.3700	  753.00	  673.70	-1751.36	  459.62
     27.4700	  717.00	  695.17	-1808.82	  459.25
     27.5700	  746.00	  728.18	-1812.84	  458.87
     27.6700	  788.00	  782.15	-1824.81	  458.50
     27.7700	  845.00	  872.72	-1858.37	  458.13
     27.8700	  939.00	 1021.95	-1913.61	  457.75
     27.9700	  984.00	 1252.90	-2099.56	  457.38
     28.0700	 1321.00	 1575.86	-2085.52	  457.01
     28.1700	 1896.00	 1968.69	-1903.34	  456.64
     28.2700	 2574.00	 2356.16	-1612.82	  456.28
     28.3700	 2922.00	 2602.58	-1511.24	  455.91
     28.4700	 2927.00	 2567.68	-1471.33	  455.54
     28.5700	 2375.00	 2282.25	-1737.91	  455.18
     28.6700	 1885.00	 1965.96	-1911.61	  454.82
     28.7700	 1482.00	 1782.39	-2131.05	  454.45
     28.8700	 1645.00	 1758.97	-1944.62	  454.09
     28.9700	 1889.00	 1830.15	-1771.80	  453.73
     29.0700	 1953.00	 1878.16	-1755.82	  453.38
     29.1700	 1823.00	 1788.51	-1796.16	  453.02
     29.2700	 1541.00	 1551.79	-1841.45	  452.66
     29.3700	 1311.00	 1272.98	-1792.64	  452.31
     29.4700	 1028.00	 1039.57	-1842.23	  451.95
     29.5700	  929.00	  877.48	-1779.13	  451.60
     29.6700	  808.00	  777.80	-1800.46	  451.25
     29.7700	  798.00	  720.40	-1753.05	  450.90
     29.8700	  766.00	  687.10	-1751.76	  450.55
     29.9700	  716.00	  666.37	-1781.02	  450.20
     30.0700	  708.00	  652.33	-1774.99	  449.86
     30.1700	  731.00	  642.43	-1742.09	  449.51
     30.2700	  718.00	  635.71	-1748.37	  449.17
     30.3700	  660.00	  632.10	-1802.76	  448.82
     30.4700	  662.00	  632.20	-1800.85	  448.48
     30.5700	  638.00	  637.19	-1829.85	  448.14
     30.6700	  637.00	  648.49	-1842.14	  447.80
     30.7700	  691.00	  666.68	-1806.34	  447.47
     30.8700	  712.00	  690.18	-1808.84	  447.13
     30.9700	  711.00	  714.01	-1833.66	  446.79
     31.0700	  717.00	  729.34	-1843.00	  446.46
     31.1700	  654.00	  726.19	-1902.84	  446.13
     31.2700	  749.00	  703.01	-1784.67	  445.80
     31.3700	  657.00	  671.04	-1844.70	  445.47
     31.4700	  683.00	  641.81	-1789.47	  445.14
     31.5700	  672.00	  619.98	-1778.64	  444.81
     31.6700	  641.00	  605.59	-1795.25	  444.49
     31.7700	  606.00	  596.80	-1821.45	  444.17
     31.8700	  585.00	  591.50	-1837.15	  443.84
     31.9700	  616.00	  588.15	-1802.81	  443.52
     32.0700	  626.00	  585.87	-1790.53	  443.20
     32.1700	  589.00	  584.22	-1825.88	  442.88
     32.2700	  581.00	  583.01	-1832.66	  442.57
     32.3700	  598.00	  582.14	-1814.79	  442.25
     32.4700	  606.00	  581.57	-1806.23	  441.94
     32.5700	  622.00	  581.30	-1789.95	  441.63
     32.6700	  616.00	  581.33	-1795.98	  441.32
     32.7700	  556.00	  581.68	-1856.34	  441.01
     32.8700	  578.00	  582.42	-1835.08	  440.70
     32.9700	  624.00	  583.65	-1790.31	  440.39
     33.0700	  564.00	  585.46	-1852.12	  440.09
     33.1700	  578.00	  588.12	-1840.78	  439.78
     33.2700	  590.00	  592.12	-1832.77	  439.48
     33.3700	  602.00	  598.37	-1827.03	  439.18
     33.4700	  605.00	  608.65	-1834.30	  438.88
     33.5700	  634.00	  625.96	-1822.62	  438.58
     33.6700	  646.00	  654.77	-1839.43	  438.29
     33.7700	  674.00	  700.25	-1856.90	  437.99
     33.8700	  773.00	  765.78	-1823.43	  437.70
     33.9700	  843.00	  848.75	-1836.41	  437.41
     34.0700	 1009.00	  936.31	-1757.96	  437.12
     34.1700	 1095.00	 1003.61	-1739.26	  436.83
     34.2700	 1144.00	 1019.37	-1706.02	  436.54
     34.3700	 1062.00	  969.66	-1738.31	  436.26
     34.4700	  857.00	  879.26	-1852.91	  435.97
     34.5700	  767.00	  785.77	-1849.42	  435.69
     34.6700	  714.00	  710.08	-1826.73	  435.41
     34.7700	  634.00	  657.05	-1853.71	  435.13
     34.8700	  624.00	  623.47	-1830.13	  434.85
     34.9700	  612.00	  603.39	-1822.05	  434.58
     35.0700	  580.00	  591.42	-1842.08	  434.30
     35.1700	  579.00	  583.88	-1835.54	  434.03
     35.2700	  583.00	  578.68	-1826.34	  433.76
     35.3700	  566.00	  574.81	-1839.46	  433.49
     35.4700	  591.00	  571.77	-1811.43	  433.22
     35.5700	  571.00	  569.31	-1828.97	  432.96
     35.6700	  577.00	  567.28	-1820.94	  432.69
     35.7700	  587.00	  565.58	-1809.23	  432.43
     35.8700	  527.00	  564.13	-1867.79	  432.17
     35.9700	  541.00	  562.89	-1852.55	  431.91
     36.0700	  538.00	  562.31	-1854.97	  431.65
     36.1700	  561.00	  561.39	-1831.05	  431.39
     36.2700	  569.00	  560.59	-1822.25	  431.14
     36.3700	  524.00	  559.91	-1866.56	  430.88
     36.4700	  589.00	  559.32	-1800.98	  430.63
     36.5700	  588.00	  558.83	-1801.48	  430.38
     36.6700	  589.00	  558.43	-1800.09	  430.13
     36.7700	  556.00	  558.14	-1832.80	  429.88
     36.8700	  536.00	  557.94	-1852.60	  429.64
     36.9700	  567.00	  557.92	-1821.58	  429.40
     37.0700	  553.00	  558.11	-1835.77	  429.15
     37.1700	  554.00	  558.63	-1835.28	  428.91
     37.2700	  557.00	  559.83	-1833.49	  428.67
     37.3700	  558.00	  561.61	-1834.27	  428.44
     37.4700	  579.00	  564.55	-1816.21	  428.20
     37.5700	  609.00	  569.10	-1790.76	  427.97
     37.6700	  587.00	  575.70	-1819.36	  427.73
     37.7700	  556.00	  584.52	-1859.18	  427.50
     37.8700	  594.00	  595.16	-1831.82	  427.27
     37.9700	  554.00	  606.41	-1883.07	  427.05
     38.0700	  636.00	  616.41	-1811.06	  426.82
     38.1700	  615.00	  622.66	-1838.32	  426.60
     38.2700	  637.00	  622.12	-1815.78	  426.37
     38.3700	  591.00	  613.55	-1853.20	  426.15
     38.4700	  573.00	  599.97	-1857.62	  425.93
     38.5700	  542.00	  585.95	-1874.61	  425.72
     38.6700	  552.00	  574.24	-1852.90	  425.50
     38.7700	  540.00	  565.62	-1856.28	  425.29
     38.8700	  577.00	  559.82	-1813.47	  425.07
     38.9700	  569.00	  556.11	-1817.77	  424.86
     39.0700	  513.00	  553.16	-1870.81	  424.65
     39.1700	  561.00	  551.63	-1821.28	  424.45
     39.2700	  519.00	  550.54	-1862.20	  424.24
     39.3700	  556.00	  549.71	-1824.37	  424.03
     39.4700	  590.00	  549.04	-1789.70	  423.83
     39.5700	  596.00	  548.47	-1783.13	  423.63
     39.6700	  532.00	  547.99	-1846.65	  423.43
     39.7700	  566.00	  547.57	-1812.22	  423.23
     39.8700	  504.00	  547.20	-1873.85	  423.04
     39.9700	  502.00	  546.87	-1875.53	  422.84
     40.0700	  567.00	  546.58	-1810.23	  422.65
     40.1700	  528.00	  545.90	-1848.56	  422.46
     40.2700	  568.00	  545.68	-1808.34	  422.27
     40.3700	  577.00	  546.04	-1799.69	  422.08
     40.4700	  516.00	  545.88	-1860.53	  421.89
     40.5700	  544.00	  545.74	-1832.40	  421.71
     40.6700	  533.00	  545.63	-1843.29	  421.53
     40.7700	  523.00	  545.55	-1853.21	  421.35
