MSG Master    CELL:    5.91859   5.91859  23.27811   90.0000   90.0000  120.0000   SPGR: P 63/m m c             TEMP:   1051.85
  1   1280     2.52000     0.00000    -0.12556     0.00000     0.00000    0
    99     0     2
       0.00000      10.00000
     125.00000     130.00000
 2Theta	Yobs	Ycal	Yobs-Ycal	Backg	Posr	(hkl)	K
      0.7700	    0.00	  551.42	-1754.25	  432.59
      0.8700	    0.00	  552.11	-1754.25	  433.27
      0.9700	   36.00	  552.78	-1754.25	  433.95
      1.0700	   42.00	  553.45	-1754.25	  434.61
      1.1700	   40.00	  554.10	-1754.25	  435.27
      1.2700	   46.00	  554.74	-1754.25	  435.91
      1.3700	   46.00	  555.38	-1754.25	  436.54
      1.4700	   69.00	  556.00	-1754.25	  437.16
      1.5700	  314.00	  556.61	-1754.25	  437.77
      1.6700	  455.00	  557.21	-1754.25	  438.38
      1.7700	  596.00	  557.80	-1754.25	  438.97
      1.8700	  681.00	  558.38	-1754.25	  439.55
      1.9700	  789.00	  558.96	-1754.25	  440.12
      2.0700	  773.00	  559.52	-1754.25	  440.68
      2.1700	  792.00	  560.07	-1754.25	  441.23
      2.2700	  747.00	  560.61	-1754.25	  441.77
      2.3700	  754.00	  561.14	-1754.25	  442.30
      2.4700	  675.00	  561.66	-1754.25	  442.83
      2.5700	  713.00	  562.17	-1754.25	  443.34
      2.6700	  698.00	  562.68	-1754.25	  443.84
      2.7700	  624.00	  563.17	-1754.25	  444.33
      2.8700	  640.00	  563.65	-1754.25	  444.82
      2.9700	  620.00	  564.13	-1754.25	  445.29
      3.0700	  579.00	  564.59	-1754.25	  445.76
      3.1700	  595.00	  565.05	-1754.25	  446.21
      3.2700	  627.00	  565.49	-1754.25	  446.66
      3.3700	  710.00	  565.93	-1754.25	  447.10
      3.4700	  760.00	  566.36	-1754.25	  447.52
      3.5700	  830.00	  566.78	-1754.25	  447.94
      3.6700	  863.00	  567.19	-1754.25	  448.35
      3.7700	  913.00	  567.59	-1754.25	  448.76
      3.8700	 1012.00	  567.99	-1754.25	  449.15
      3.9700	 1039.00	  568.37	-1754.25	  449.53
      4.0700	 1058.00	  568.75	-1754.25	  449.91
      4.1700	 1106.00	  569.11	-1754.25	  450.28
      4.2700	 1167.00	  569.47	-1754.25	  450.63
      4.3700	 1170.00	  569.82	-1754.25	  450.99
      4.4700	 1048.00	  570.16	-1754.25	  451.33
      4.5700	 1043.00	  570.50	-1754.25	  451.66
      4.6700	 1092.00	  570.82	-1754.25	  451.99
      4.7700	 1033.00	  571.14	-1754.25	  452.30
      4.8700	 1000.00	  571.45	-1754.25	  452.61
      4.9700	  955.00	  571.75	-1754.25	  452.91
      5.0700	  971.00	  572.04	-1754.25	  453.21
      5.1700	  928.00	  572.33	-1754.25	  453.49
      5.2700	  938.00	  572.60	-1754.25	  453.77
      5.3700	  909.00	  572.87	-1754.25	  454.04
      5.4700	  862.00	  573.14	-1754.25	  454.30
      5.5700	  889.00	  573.39	-1754.25	  454.55
      5.6700	  877.00	  573.64	-1754.25	  454.80
      5.7700	  857.00	  573.87	-1754.25	  455.04
      5.8700	  875.00	  574.11	-1754.25	  455.27
      5.9700	  832.00	  574.33	-1754.25	  455.49
      6.0700	  733.00	  574.55	-1754.25	  455.71
      6.1700	  785.00	  574.76	-1754.25	  455.92
      6.2700	  786.00	  574.96	-1754.25	  456.12
      6.3700	  711.00	  575.15	-1754.25	  456.32
      6.4700	  795.00	  575.34	-1754.25	  456.50
      6.5700	  750.00	  575.52	-1754.25	  456.68
      6.6700	  753.00	  575.69	-1754.25	  456.86
      6.7700	  764.00	  575.86	-1754.25	  457.02
      6.8700	  697.00	  576.02	-1754.25	  457.18
      6.9700	  730.00	  576.17	-1754.25	  457.34
      7.0700	  705.00	  576.32	-1754.25	  457.48
      7.1700	  718.00	  576.46	-1754.25	  457.62
      7.2700	  723.00	  576.59	-1754.25	  457.75
      7.3700	  707.00	  576.72	-1754.25	  457.88
      7.4700	  691.00	  576.84	-1754.25	  458.00
      7.5700	  656.00	  576.95	-1754.25	  458.11
      7.6700	  598.00	  577.06	-1754.25	  458.22
      7.7700	  589.00	  577.16	-1754.25	  458.32
      7.8700	  623.00	  577.25	-1754.25	  458.41
      7.9700	  601.00	  577.34	-1754.25	  458.50
      8.0700	  650.00	  577.42	-1754.25	  458.58
      8.1700	  612.00	  577.49	-1754.25	  458.66
      8.2700	  664.00	  577.56	-1754.25	  458.73
      8.3700	  623.00	  577.63	-1754.25	  458.79
      8.4700	  647.00	  577.68	-1754.25	  458.85
      8.5700	  588.00	  577.73	-1754.25	  458.90
      8.6700	  688.00	  577.78	-1754.25	  458.94
      8.7700	  637.00	  577.82	-1754.25	  458.98
      8.8700	  589.00	  577.85	-1754.25	  459.02
      8.9700	  577.00	  577.88	-1754.25	  459.04
      9.0700	  637.00	  577.90	-1754.25	  459.07
      9.1700	  657.00	  577.92	-1754.25	  459.08
      9.2700	  577.00	  577.93	-1754.25	  459.09
      9.3700	  601.00	  577.93	-1754.25	  459.10
      9.4700	  630.00	  577.93	-1754.25	  459.10
      9.5700	  649.00	  577.93	-1754.25	  459.09
      9.6700	  581.00	  577.92	-1754.25	  459.08
      9.7700	  551.00	  577.90	-1754.25	  459.07
      9.8700	  604.00	  577.88	-1754.25	  459.04
      9.9700	  565.00	  577.85	-1754.25	  459.02
     10.0700	  597.00	  579.09	-1736.34	  458.99
     10.1700	  590.00	  579.19	-1743.44	  458.95
     10.2700	  595.00	  579.33	-1738.58	  458.91
     10.3700	  595.00	  579.52	-1738.77	  458.86
     10.4700	  578.00	  579.79	-1756.04	  458.81
     10.5700	  597.00	  580.21	-1737.46	  458.75
     10.6700	  555.00	  580.88	-1780.13	  458.69
     10.7700	  592.00	  581.91	-1744.16	  458.62
     10.8700	  602.00	  583.36	-1735.61	  458.55
     10.9700	  615.00	  585.23	-1724.48	  458.48
     11.0700	  607.00	  587.52	-1734.77	  458.40
     11.1700	  582.00	  590.22	-1762.47	  458.31
     11.2700	  590.00	  593.38	-1757.63	  458.22
     11.3700	  590.00	  597.10	-1761.35	  458.13
     11.4700	  630.00	  601.51	-1725.76	  458.03
     11.5700	  603.00	  606.88	-1758.12	  457.93
     11.6700	  588.00	  613.58	-1779.83	  457.82
     11.7700	  634.00	  622.23	-1742.48	  457.71
     11.8700	  635.00	  633.44	-1752.69	  457.59
     11.9700	  648.00	  647.13	-1753.38	  457.47
     12.0700	  653.00	  661.08	-1762.33	  457.35
     12.1700	  697.00	  669.69	-1726.94	  457.22
     12.2700	  737.00	  665.13	-1682.38	  457.09
     12.3700	  674.00	  645.69	-1725.94	  456.95
     12.4700	  644.00	  621.89	-1732.14	  456.81
     12.5700	  596.00	  603.18	-1761.43	  456.67
     12.6700	  628.00	  591.55	-1717.80	  456.52
     12.7700	  607.00	  585.28	-1732.53	  456.36
     12.8700	  612.00	  582.03	-1724.28	  456.21
     12.9700	  563.00	  580.18	-1771.43	  456.05
     13.0700	  605.00	  578.95	-1728.20	  455.89
     13.1700	  606.00	  578.04	-1726.29	  455.72
     13.2700	  541.00	  577.32	-1790.57	  455.55
     13.3700	  595.00	  576.72	-1735.97	  455.37
     13.4700	  560.00	  576.21	-1770.46	  455.19
     13.5700	  541.00	  575.76	-1789.01	  455.01
     13.6700	  593.00	  575.35	-1736.60	  454.83
     13.7700	  582.00	  574.99	-1747.24	  454.64
     13.8700	  568.00	  574.64	-1760.89	  454.45
     13.9700	  546.00	  574.32	-1782.57	  454.25
     14.0700	  564.00	  574.02	-1764.27	  454.05
     14.1700	  549.00	  573.72	-1778.97	  453.85
     14.2700	  535.00	  573.44	-1792.69	  453.65
     14.3700	  561.00	  573.16	-1766.41	  453.44
     14.4700	  578.00	  572.89	-1749.14	  453.23
     14.5700	  578.00	  572.62	-1748.87	  453.01
     14.6700	  543.00	  572.36	-1783.61	  452.80
     14.7700	  597.00	  572.09	-1729.34	  452.58
     14.8700	  559.00	  571.83	-1767.08	  452.35
     14.9700	  564.00	  571.57	-1761.82	  452.13
     15.0700	  578.00	  571.34	-1747.59	  451.90
     15.1700	  566.00	  571.09	-1759.34	  451.67
     15.2700	  593.00	  570.83	-1732.08	  451.43
     15.3700	  543.00	  570.57	-1781.82	  451.19
     15.4700	  558.00	  570.31	-1766.56	  450.95
     15.5700	  514.00	  570.05	-1810.30	  450.71
     15.6700	  577.00	  569.78	-1747.03	  450.46
     15.7700	  642.00	  569.52	-1681.77	  450.22
     15.8700	  524.00	  569.26	-1799.51	  449.97
     15.9700	  545.00	  568.99	-1778.24	  449.71
     16.0700	  587.00	  568.72	-1735.97	  449.46
     16.1700	  557.00	  568.45	-1765.70	  449.20
     16.2700	  555.00	  568.18	-1767.43	  448.94
     16.3700	  539.00	  567.91	-1783.16	  448.67
     16.4700	  557.00	  567.64	-1764.89	  448.41
     16.5700	  597.00	  567.36	-1724.61	  448.14
     16.6700	  557.00	  567.09	-1764.34	  447.87
     16.7700	  523.00	  566.81	-1798.06	  447.60
     16.8700	  522.00	  566.53	-1798.78	  447.33
     16.9700	  595.00	  566.25	-1725.50	  447.05
     17.0700	  553.00	  565.96	-1767.21	  446.77
     17.1700	  566.00	  565.68	-1753.93	  446.49
     17.2700	  555.00	  565.39	-1764.64	  446.21
     17.3700	  572.00	  565.10	-1747.35	  445.92
     17.4700	  569.00	  564.81	-1750.06	  445.64
     17.5700	  557.00	  564.52	-1761.77	  445.35
     17.6700	  557.00	  564.23	-1761.48	  445.06
     17.7700	  558.00	  563.93	-1760.18	  444.76
     17.8700	  573.00	  563.64	-1744.89	  444.47
     17.9700	  542.00	  563.34	-1775.59	  444.17
     18.0700	  513.00	  563.04	-1804.29	  443.88
     18.1700	  605.00	  562.84	-1712.09	  443.58
     18.2700	  564.00	  562.54	-1752.79	  443.28
     18.3700	  551.00	  562.24	-1765.49	  442.97
     18.4700	  536.00	  561.93	-1780.18	  442.67
     18.5700	  581.00	  561.63	-1734.88	  442.36
     18.6700	  545.00	  561.32	-1770.57	  442.05
     18.7700	  530.00	  561.10	-1785.35	  441.74
     18.8700	  544.00	  560.80	-1771.05	  441.43
     18.9700	  552.00	  560.49	-1762.74	  441.12
     19.0700	  567.00	  560.18	-1747.43	  440.81
     19.1700	  557.00	  559.87	-1757.12	  440.49
     19.2700	  549.00	  559.56	-1764.81	  440.18
     19.3700	  562.00	  559.25	-1751.50	  439.86
     19.4700	  567.00	  558.94	-1746.19	  439.54
     19.5700	  570.00	  558.62	-1742.87	  439.22
     19.6700	  539.00	  558.31	-1773.56	  438.90
     19.7700	  546.00	  558.00	-1766.25	  438.57
     19.8700	  554.00	  557.68	-1757.93	  438.25
     19.9700	  577.00	  557.37	-1734.62	  437.92
     20.0700	  506.00	  557.05	-1805.30	  437.60
     20.1700	  533.00	  556.73	-1777.98	  437.27
     20.2700	  511.00	  556.42	-1799.67	  436.94
     20.3700	  524.00	  556.10	-1786.35	  436.61
     20.4700	  568.00	  555.78	-1742.03	  436.28
     20.5700	  555.00	  555.50	-1754.75	  435.95
     20.6700	  550.00	  555.18	-1759.43	  435.62
     20.7700	  513.00	  554.86	-1796.11	  435.29
     20.8700	  514.00	  554.55	-1794.80	  434.95
     20.9700	  567.00	  554.23	-1741.48	  434.62
     21.0700	  523.00	  553.92	-1785.17	  434.28
     21.1700	  568.00	  553.60	-1739.85	  433.94
     21.2700	  543.00	  553.28	-1764.53	  433.61
     21.3700	  528.00	  552.97	-1779.22	  433.27
     21.4700	  537.00	  552.66	-1769.91	  432.93
     21.5700	  541.00	  552.35	-1765.60	  432.59
     21.6700	  585.00	  551.99	-1721.24	  432.25
     21.7700	  606.00	  551.69	-1699.94	  431.91
     21.8700	  562.00	  551.38	-1743.63	  431.57
     21.9700	  556.00	  551.08	-1749.33	  431.22
     22.0700	  547.00	  550.78	-1758.03	  430.88
     22.1700	  531.00	  550.48	-1773.73	  430.54
     22.2700	  554.00	  550.19	-1750.44	  430.19
     22.3700	  532.00	  549.90	-1772.15	  429.85
     22.4700	  540.00	  549.62	-1763.87	  429.51
     22.5700	  532.00	  549.34	-1771.59	  429.16
     22.6700	  559.00	  549.08	-1744.33	  428.81
     22.7700	  523.00	  548.82	-1780.07	  428.47
     22.8700	  548.00	  548.57	-1754.82	  428.12
     22.9700	  552.00	  548.34	-1750.59	  427.78
     23.0700	  538.00	  548.13	-1764.38	  427.43
     23.1700	  546.00	  548.08	-1756.33	  427.08
     23.2700	  552.00	  547.92	-1750.17	  426.73
     23.3700	  571.00	  547.80	-1731.05	  426.39
     23.4700	  580.00	  547.73	-1721.98	  426.04
     23.5700	  520.00	  547.72	-1781.97	  425.69
     23.6700	  532.00	  547.82	-1770.06	  425.34
     23.7700	  568.00	  548.07	-1734.32	  424.99
     23.8700	  603.00	  548.62	-1699.87	  424.65
     23.9700	  563.00	  549.69	-1740.94	  424.30
     24.0700	  547.00	  551.70	-1758.95	  423.95
     24.1700	  604.00	  555.24	-1705.49	  423.60
     24.2700	  550.00	  561.07	-1765.32	  423.25
     24.3700	  552.00	  569.91	-1772.16	  422.90
     24.4700	  525.00	  582.23	-1811.48	  422.56
     24.5700	  637.00	  597.45	-1714.70	  422.21
     24.6700	  610.00	  612.73	-1756.98	  421.86
     24.7700	  582.00	  622.09	-1794.34	  421.51
     24.8700	  650.00	  618.40	-1722.65	  421.16
     24.9700	  635.00	  601.60	-1720.85	  420.81
     25.0700	  615.00	  581.36	-1720.61	  420.47
     25.1700	  565.00	  565.25	-1754.50	  420.12
     25.2700	  576.00	  554.98	-1733.23	  419.77
     25.3700	  502.00	  549.29	-1801.54	  419.42
     25.4700	  533.00	  546.29	-1767.54	  419.08
     25.5700	  552.00	  544.61	-1746.86	  418.73
     25.6700	  566.00	  543.53	-1731.78	  418.38
     25.7700	  533.00	  542.75	-1764.00	  418.04
     25.8700	  557.00	  542.16	-1739.41	  417.69
     25.9700	  527.00	  541.70	-1768.95	  417.35
     26.0700	  588.00	  541.35	-1707.60	  417.00
     26.1700	  567.00	  541.10	-1728.35	  416.66
     26.2700	  567.00	  540.94	-1728.19	  416.31
     26.3700	  564.00	  540.85	-1731.10	  415.97
     26.4700	  582.00	  540.86	-1713.11	  415.63
     26.5700	  540.00	  540.97	-1755.22	  415.28
     26.6700	  506.00	  541.19	-1789.44	  414.94
     26.7700	  549.00	  541.55	-1746.80	  414.60
     26.8700	  563.00	  542.08	-1733.33	  414.26
     26.9700	  560.00	  542.83	-1737.08	  413.92
     27.0700	  561.00	  543.87	-1737.12	  413.58
     27.1700	  553.00	  545.33	-1746.58	  413.24
     27.2700	  569.00	  547.45	-1732.70	  412.90
     27.3700	  568.00	  550.71	-1736.96	  412.56
     27.4700	  561.00	  556.07	-1749.32	  412.22
     27.5700	  550.00	  565.29	-1769.54	  411.89
     27.6700	  598.00	  581.19	-1737.44	  411.55
     27.7700	  582.00	  607.50	-1779.75	  411.22
     27.8700	  585.00	  647.67	-1816.92	  410.88
     27.9700	  696.00	  702.25	-1760.50	  410.55
     28.0700	  762.00	  765.36	-1757.60	  410.21
     28.1700	  906.00	  821.38	-1669.63	  409.88
     28.2700	  958.00	  846.18	-1642.43	  409.55
     28.3700	  902.00	  824.38	-1676.63	  409.22
     28.4700	  798.00	  777.39	-1733.64	  408.89
     28.5700	  702.00	  742.82	-1795.07	  408.56
     28.6700	  684.00	  738.25	-1808.50	  408.23
     28.7700	  720.00	  759.34	-1793.59	  407.90
     28.8700	  753.00	  786.40	-1787.65	  407.57
     28.9700	  866.00	  791.83	-1680.08	  407.25
     29.0700	  779.00	  757.51	-1732.76	  406.92
     29.1700	  738.00	  697.32	-1713.57	  406.60
     29.2700	  648.00	  638.98	-1745.23	  406.28
     29.3700	  591.00	  596.26	-1759.51	  405.95
     29.4700	  609.00	  570.03	-1715.28	  405.63
     29.5700	  608.00	  555.63	-1701.88	  405.31
     29.6700	  578.00	  547.96	-1724.21	  404.99
     29.7700	  566.00	  543.63	-1731.88	  404.67
     29.8700	  565.00	  540.95	-1730.20	  404.36
     29.9700	  574.00	  539.27	-1719.52	  404.04
     30.0700	  563.00	  538.41	-1729.66	  403.73
     30.1700	  558.00	  538.53	-1734.78	  403.41
     30.2700	  551.00	  540.15	-1743.40	  403.10
     30.3700	  567.00	  544.13	-1731.38	  402.79
     30.4700	  594.00	  551.90	-1712.15	  402.47
     30.5700	  557.00	  564.80	-1762.05	  402.17
     30.6700	  616.00	  583.07	-1721.32	  401.86
     30.7700	  587.00	  604.39	-1771.64	  401.55
     30.8700	  603.00	  622.85	-1774.10	  401.24
     30.9700	  633.00	  629.52	-1750.77	  400.94
     31.0700	  587.00	  618.19	-1785.44	  400.63
     31.1700	  603.00	  594.54	-1745.79	  400.33
     31.2700	  586.00	  570.24	-1738.49	  400.03
     31.3700	  572.00	  551.76	-1734.01	  399.73
     31.4700	  569.00	  540.07	-1725.32	  399.43
     31.5700	  543.00	  533.53	-1744.78	  399.13
     31.6700	  527.00	  530.04	-1757.29	  398.84
     31.7700	  573.00	  528.10	-1709.35	  398.54
     31.8700	  550.00	  526.90	-1731.15	  398.25
     31.9700	  592.00	  526.10	-1688.35	  397.95
     32.0700	  538.00	  525.55	-1741.80	  397.66
     32.1700	  547.00	  525.21	-1732.46	  397.37
     32.2700	  569.00	  525.04	-1710.29	  397.08
     32.3700	  573.00	  525.04	-1706.29	  396.80
     32.4700	  531.00	  525.22	-1748.47	  396.51
     32.5700	  542.00	  525.60	-1737.85	  396.22
     32.6700	  551.00	  526.22	-1729.47	  395.94
     32.7700	  563.00	  527.13	-1718.38	  395.66
     32.8700	  509.00	  528.41	-1773.66	  395.38
     32.9700	  514.00	  530.21	-1770.46	  395.10
     33.0700	  510.00	  532.81	-1777.06	  394.82
     33.1700	  574.00	  536.75	-1717.00	  394.54
     33.2700	  538.00	  543.24	-1759.49	  394.27
     33.3700	  520.00	  554.74	-1788.99	  394.00
     33.4700	  613.00	  575.62	-1716.87	  393.72
     33.5700	  642.00	  612.35	-1724.60	  393.45
     33.6700	  637.00	  671.65	-1788.90	  393.18
     33.7700	  763.00	  755.50	-1746.75	  392.92
     33.8700	  860.00	  854.23	-1748.48	  392.65
     33.9700	 1007.00	  942.25	-1689.50	  392.39
     34.0700	 1035.00	  981.14	-1700.39	  392.12
     34.1700	 1012.00	  942.53	-1684.78	  391.86
     34.2700	  907.00	  845.48	-1692.73	  391.60
     34.3700	  784.00	  738.52	-1708.77	  391.34
     34.4700	  645.00	  652.65	-1761.90	  391.08
     34.5700	  613.00	  595.66	-1736.91	  390.83
     34.6700	  573.00	  562.62	-1743.87	  390.57
     34.7700	  566.00	  544.89	-1733.14	  390.32
     34.8700	  541.00	  535.26	-1748.51	  390.07
     34.9700	  539.00	  529.50	-1744.75	  389.82
     35.0700	  545.00	  525.57	-1734.82	  389.57
     35.1700	  541.00	  522.65	-1735.90	  389.33
     35.2700	  535.00	  520.35	-1739.60	  389.08
     35.3700	  502.00	  518.49	-1770.74	  388.84
     35.4700	  496.00	  516.96	-1775.21	  388.60
     35.5700	  543.00	  515.66	-1726.91	  388.36
     35.6700	  500.00	  514.56	-1768.81	  388.12
     35.7700	  507.00	  513.61	-1760.86	  387.88
     35.8700	  545.00	  512.77	-1722.02	  387.65
     35.9700	  473.00	  512.04	-1793.29	  387.41
     36.0700	  510.00	  511.39	-1755.64	  387.18
     36.1700	  500.00	  511.25	-1765.50	  386.95
     36.2700	  461.00	  510.74	-1803.99	  386.72
     36.3700	  517.00	  510.28	-1747.53	  386.50
     36.4700	  530.00	  509.87	-1734.12	  386.27
     36.5700	  484.00	  509.52	-1779.77	  386.05
     36.6700	  504.00	  509.22	-1759.47	  385.83
     36.7700	  543.00	  509.00	-1720.25	  385.61
     36.8700	  491.00	  508.91	-1772.16	  385.39
     36.9700	  498.00	  509.01	-1765.26	  385.17
     37.0700	  535.00	  509.48	-1728.73	  384.96
     37.1700	  511.00	  510.60	-1753.85	  384.74
     37.2700	  540.00	  512.67	-1726.92	  384.53
     37.3700	  508.00	  515.90	-1762.15	  384.32
     37.4700	  499.00	  520.09	-1775.34	  384.11
     37.5700	  531.00	  524.37	-1747.62	  383.91
     37.6700	  514.00	  527.23	-1767.48	  383.70
     37.7700	  532.00	  527.12	-1749.37	  383.50
     37.8700	  500.00	  523.95	-1778.20	  383.30
     37.9700	  478.00	  519.34	-1795.59	  383.10
     38.0700	  519.00	  514.86	-1750.11	  382.90
     38.1700	  495.00	  511.17	-1770.42	  382.71
     38.2700	  504.00	  508.45	-1758.70	  382.51
     38.3700	  503.00	  506.59	-1757.84	  382.32
     38.4700	  506.00	  505.37	-1753.62	  382.13
     38.5700	  512.00	  504.46	-1746.71	  381.94
     38.6700	  474.00	  504.05	-1784.30	  381.75
     38.7700	  497.00	  503.63	-1760.88	  381.57
     38.8700	  469.00	  503.29	-1788.54	  381.38
     38.9700	  505.00	  503.01	-1752.26	  381.20
     39.0700	  548.00	  502.75	-1709.00	  381.02
     39.1700	  518.00	  502.51	-1738.76	  380.84
     39.2700	  498.00	  502.30	-1758.55	  380.67
     39.3700	  476.00	  502.02	-1780.27	  380.49
     39.4700	  463.00	  501.83	-1793.08	  380.32
     39.5700	  507.00	  501.66	-1748.91	  380.15
     39.6700	  531.00	  501.50	-1724.75	  379.98
     39.7700	  496.00	  501.35	-1759.60	  379.81
     39.8700	  482.00	  501.21	-1773.46	  379.64
     39.9700	  468.00	  501.08	-1787.33	  379.48
     40.0700	  495.00	  500.96	-1760.21	  379.32
     40.1700	  484.00	  500.85	-1771.10	  379.16
     40.2700	  459.00	  500.76	-1796.01	  379.00
     40.3700	  485.00	  500.68	-1769.93	  378.84
     40.4700	  493.00	  500.61	-1761.86	  378.69
     40.5700	  488.00	  500.56	-1766.81	  378.53
     40.6700	  496.00	  500.53	-1758.78	  378.38
     40.7700	  467.00	  500.53	-1787.78	  378.23
