MSG Master    CELL:    5.91895   5.91895  23.27525   90.0000   90.0000  120.0000   SPGR: P 63/m m c             TEMP:   1074.85
  1   1280     2.52000     0.00000    -0.12825     0.00000     0.00000    0
    99     0     2
       0.00000      10.00000
     125.00000     130.00000
 2Theta	Yobs	Ycal	Yobs-Ycal	Backg	Posr	(hkl)	K
      0.7700	    0.00	  566.61	-1774.25	  446.97
      0.8700	    0.00	  567.05	-1774.25	  447.41
      0.9700	   44.00	  567.48	-1774.25	  447.84
      1.0700	   38.00	  567.90	-1774.25	  448.26
      1.1700	   53.00	  568.31	-1774.25	  448.67
      1.2700	   45.00	  568.72	-1774.25	  449.08
      1.3700	   44.00	  569.12	-1774.25	  449.47
      1.4700	   81.00	  569.50	-1774.25	  449.86
      1.5700	  329.00	  569.88	-1774.25	  450.24
      1.6700	  452.00	  570.26	-1774.25	  450.62
      1.7700	  536.00	  570.62	-1774.25	  450.98
      1.8700	  648.00	  570.98	-1774.25	  451.34
      1.9700	  704.00	  571.33	-1774.25	  451.68
      2.0700	  801.00	  571.67	-1774.25	  452.03
      2.1700	  832.00	  572.00	-1774.25	  452.36
      2.2700	  740.00	  572.33	-1774.25	  452.68
      2.3700	  748.00	  572.64	-1774.25	  453.00
      2.4700	  716.00	  572.95	-1774.25	  453.31
      2.5700	  655.00	  573.26	-1774.25	  453.62
      2.6700	  678.00	  573.55	-1774.25	  453.91
      2.7700	  618.00	  573.84	-1774.25	  454.20
      2.8700	  636.00	  574.12	-1774.25	  454.48
      2.9700	  605.00	  574.40	-1774.25	  454.76
      3.0700	  678.00	  574.66	-1774.25	  455.02
      3.1700	  620.00	  574.92	-1774.25	  455.28
      3.2700	  617.00	  575.18	-1774.25	  455.54
      3.3700	  691.00	  575.42	-1774.25	  455.78
      3.4700	  812.00	  575.66	-1774.25	  456.02
      3.5700	  845.00	  575.89	-1774.25	  456.25
      3.6700	  858.00	  576.12	-1774.25	  456.48
      3.7700	  932.00	  576.33	-1774.25	  456.69
      3.8700	  962.00	  576.55	-1774.25	  456.90
      3.9700	 1070.00	  576.75	-1774.25	  457.11
      4.0700	 1010.00	  576.95	-1774.25	  457.31
      4.1700	 1037.00	  577.14	-1774.25	  457.50
      4.2700	 1061.00	  577.32	-1774.25	  457.68
      4.3700	 1111.00	  577.50	-1774.25	  457.86
      4.4700	 1106.00	  577.67	-1774.25	  458.03
      4.5700	 1050.00	  577.84	-1774.25	  458.20
      4.6700	 1015.00	  578.00	-1774.25	  458.36
      4.7700	 1073.00	  578.15	-1774.25	  458.51
      4.8700	  969.00	  578.30	-1774.25	  458.66
      4.9700	  967.00	  578.44	-1774.25	  458.80
      5.0700	 1006.00	  578.57	-1774.25	  458.93
      5.1700	  910.00	  578.70	-1774.25	  459.06
      5.2700	  892.00	  578.82	-1774.25	  459.18
      5.3700	  899.00	  578.94	-1774.25	  459.30
      5.4700	  901.00	  579.05	-1774.25	  459.41
      5.5700	  830.00	  579.16	-1774.25	  459.51
      5.6700	  875.00	  579.25	-1774.25	  459.61
      5.7700	  859.00	  579.35	-1774.25	  459.71
      5.8700	  829.00	  579.43	-1774.25	  459.79
      5.9700	  781.00	  579.52	-1774.25	  459.88
      6.0700	  851.00	  579.59	-1774.25	  459.95
      6.1700	  791.00	  579.66	-1774.25	  460.02
      6.2700	  751.00	  579.73	-1774.25	  460.09
      6.3700	  721.00	  579.79	-1774.25	  460.15
      6.4700	  766.00	  579.84	-1774.25	  460.20
      6.5700	  761.00	  579.89	-1774.25	  460.25
      6.6700	  748.00	  579.93	-1774.25	  460.29
      6.7700	  762.00	  579.97	-1774.25	  460.33
      6.8700	  710.00	  580.00	-1774.25	  460.36
      6.9700	  749.00	  580.03	-1774.25	  460.39
      7.0700	  703.00	  580.05	-1774.25	  460.41
      7.1700	  727.00	  580.07	-1774.25	  460.43
      7.2700	  659.00	  580.08	-1774.25	  460.44
      7.3700	  677.00	  580.09	-1774.25	  460.45
      7.4700	  687.00	  580.09	-1774.25	  460.45
      7.5700	  611.00	  580.09	-1774.25	  460.45
      7.6700	  673.00	  580.08	-1774.25	  460.44
      7.7700	  669.00	  580.07	-1774.25	  460.43
      7.8700	  687.00	  580.05	-1774.25	  460.41
      7.9700	  627.00	  580.03	-1774.25	  460.39
      8.0700	  695.00	  580.00	-1774.25	  460.36
      8.1700	  665.00	  579.97	-1774.25	  460.33
      8.2700	  642.00	  579.93	-1774.25	  460.29
      8.3700	  564.00	  579.89	-1774.25	  460.25
      8.4700	  629.00	  579.85	-1774.25	  460.21
      8.5700	  625.00	  579.80	-1774.25	  460.16
      8.6700	  601.00	  579.74	-1774.25	  460.10
      8.7700	  639.00	  579.69	-1774.25	  460.05
      8.8700	  676.00	  579.62	-1774.25	  459.98
      8.9700	  680.00	  579.56	-1774.25	  459.92
      9.0700	  628.00	  579.49	-1774.25	  459.84
      9.1700	  595.00	  579.41	-1774.25	  459.77
      9.2700	  605.00	  579.33	-1774.25	  459.69
      9.3700	  646.00	  579.25	-1774.25	  459.61
      9.4700	  580.00	  579.16	-1774.25	  459.52
      9.5700	  627.00	  579.07	-1774.25	  459.43
      9.6700	  579.00	  578.97	-1774.25	  459.33
      9.7700	  626.00	  578.87	-1774.25	  459.23
      9.8700	  582.00	  578.77	-1774.25	  459.13
      9.9700	  636.00	  578.66	-1774.25	  459.02
     10.0700	  594.00	  579.40	-1759.65	  458.91
     10.1700	  581.00	  579.38	-1772.63	  458.79
     10.2700	  591.00	  579.38	-1762.63	  458.67
     10.3700	  634.00	  579.40	-1719.65	  458.55
     10.4700	  615.00	  579.49	-1738.74	  458.42
     10.5700	  605.00	  579.70	-1748.95	  458.29
     10.6700	  580.00	  580.13	-1774.38	  458.16
     10.7700	  567.00	  580.89	-1788.14	  458.02
     10.8700	  555.00	  582.05	-1801.30	  457.88
     10.9700	  644.00	  583.61	-1713.86	  457.74
     11.0700	  559.00	  585.53	-1800.78	  457.59
     11.1700	  579.00	  587.80	-1783.05	  457.44
     11.2700	  612.00	  590.46	-1752.71	  457.28
     11.3700	  620.00	  593.61	-1747.86	  457.13
     11.4700	  595.00	  597.37	-1776.62	  456.97
     11.5700	  575.00	  601.96	-1801.21	  456.80
     11.6700	  605.00	  607.74	-1776.99	  456.63
     11.7700	  619.00	  615.37	-1770.62	  456.46
     11.8700	  617.00	  625.75	-1783.00	  456.29
     11.9700	  659.00	  639.46	-1754.71	  456.11
     12.0700	  706.00	  654.68	-1722.93	  455.93
     12.1700	  747.00	  664.99	-1692.24	  455.75
     12.2700	  679.00	  660.67	-1755.92	  455.56
     12.3700	  643.00	  639.37	-1770.62	  455.37
     12.4700	  584.00	  614.00	-1804.25	  455.18
     12.5700	  563.00	  595.52	-1806.77	  454.99
     12.6700	  589.00	  585.39	-1770.64	  454.79
     12.7700	  635.00	  580.70	-1719.95	  454.59
     12.8700	  552.00	  578.50	-1800.75	  454.39
     12.9700	  578.00	  577.24	-1773.49	  454.18
     13.0700	  557.00	  576.37	-1793.62	  453.97
     13.1700	  600.00	  575.68	-1749.93	  453.76
     13.2700	  581.00	  575.11	-1768.36	  453.55
     13.3700	  560.00	  574.62	-1788.87	  453.33
     13.4700	  572.00	  574.19	-1776.44	  453.11
     13.5700	  570.00	  573.80	-1778.05	  452.89
     13.6700	  567.00	  573.44	-1780.69	  452.67
     13.7700	  561.00	  573.09	-1786.34	  452.44
     13.8700	  593.00	  572.77	-1754.02	  452.21
     13.9700	  579.00	  572.46	-1767.71	  451.98
     14.0700	  593.00	  572.16	-1753.41	  451.75
     14.1700	  579.00	  571.86	-1767.11	  451.51
     14.2700	  566.00	  571.58	-1779.83	  451.27
     14.3700	  523.00	  571.29	-1822.54	  451.03
     14.4700	  584.00	  571.01	-1761.26	  450.79
     14.5700	  555.00	  570.73	-1789.98	  450.55
     14.6700	  525.00	  570.45	-1819.70	  450.30
     14.7700	  526.00	  570.18	-1818.43	  450.05
     14.8700	  553.00	  569.90	-1791.15	  449.80
     14.9700	  530.00	  569.63	-1813.88	  449.55
     15.0700	  550.00	  569.36	-1793.61	  449.29
     15.1700	  562.00	  569.08	-1781.33	  449.03
     15.2700	  581.00	  568.81	-1762.06	  448.77
     15.3700	  555.00	  568.53	-1787.78	  448.51
     15.4700	  533.00	  568.26	-1809.51	  448.25
     15.5700	  582.00	  567.98	-1760.23	  447.99
     15.6700	  599.00	  567.70	-1742.95	  447.72
     15.7700	  552.00	  567.42	-1789.67	  447.45
     15.8700	  560.00	  567.14	-1781.39	  447.18
     15.9700	  557.00	  566.86	-1784.11	  446.91
     16.0700	  531.00	  566.61	-1809.86	  446.63
     16.1700	  548.00	  566.33	-1792.58	  446.36
     16.2700	  578.00	  566.05	-1762.30	  446.08
     16.3700	  532.00	  565.76	-1808.01	  445.80
     16.4700	  542.00	  565.48	-1797.73	  445.52
     16.5700	  559.00	  565.19	-1780.44	  445.24
     16.6700	  579.00	  564.90	-1760.15	  444.96
     16.7700	  550.00	  564.61	-1788.86	  444.67
     16.8700	  560.00	  564.32	-1778.57	  444.39
     16.9700	  559.00	  564.03	-1779.28	  444.10
     17.0700	  542.00	  563.74	-1795.99	  443.81
     17.1700	  568.00	  563.45	-1769.70	  443.52
     17.2700	  547.00	  563.15	-1790.40	  443.23
     17.3700	  569.00	  562.86	-1768.11	  442.94
     17.4700	  578.00	  562.56	-1758.81	  442.64
     17.5700	  571.00	  562.27	-1765.52	  442.35
     17.6700	  549.00	  561.97	-1787.22	  442.05
     17.7700	  559.00	  561.67	-1776.92	  441.75
     17.8700	  560.00	  561.37	-1775.62	  441.45
     17.9700	  540.00	  561.07	-1795.32	  441.15
     18.0700	  523.00	  560.87	-1812.12	  440.85
     18.1700	  556.00	  560.57	-1778.82	  440.55
     18.2700	  539.00	  560.27	-1795.52	  440.24
     18.3700	  565.00	  559.96	-1769.21	  439.94
     18.4700	  539.00	  559.66	-1794.91	  439.63
     18.5700	  571.00	  559.35	-1762.60	  439.33
     18.6700	  490.00	  559.05	-1843.30	  439.02
     18.7700	  559.00	  558.74	-1773.99	  438.71
     18.8700	  524.00	  558.52	-1808.77	  438.40
     18.9700	  563.00	  558.21	-1769.46	  438.09
     19.0700	  574.00	  557.91	-1758.16	  437.78
     19.1700	  563.00	  557.60	-1768.85	  437.47
     19.2700	  545.00	  557.29	-1786.54	  437.15
     19.3700	  562.00	  556.99	-1769.24	  436.84
     19.4700	  556.00	  556.68	-1774.93	  436.52
     19.5700	  511.00	  556.37	-1819.62	  436.21
     19.6700	  550.00	  556.06	-1780.31	  435.89
     19.7700	  531.00	  555.75	-1799.00	  435.58
     19.8700	  564.00	  555.44	-1765.69	  435.26
     19.9700	  546.00	  555.14	-1783.39	  434.94
     20.0700	  563.00	  554.83	-1766.08	  434.62
     20.1700	  529.00	  554.52	-1799.77	  434.30
     20.2700	  552.00	  554.21	-1776.46	  433.98
     20.3700	  582.00	  553.90	-1746.15	  433.66
     20.4700	  549.00	  553.59	-1778.84	  433.34
     20.5700	  562.00	  553.28	-1765.53	  433.02
     20.6700	  531.00	  552.97	-1796.22	  432.70
     20.7700	  567.00	  552.63	-1759.88	  432.38
     20.8700	  530.00	  552.36	-1796.61	  432.05
     20.9700	  545.00	  552.05	-1781.30	  431.73
     21.0700	  594.00	  551.75	-1732.00	  431.41
     21.1700	  557.00	  551.44	-1768.69	  431.08
     21.2700	  526.00	  551.14	-1799.39	  430.76
     21.3700	  564.00	  550.84	-1761.09	  430.43
     21.4700	  564.00	  550.54	-1760.79	  430.11
     21.5700	  539.00	  550.24	-1785.49	  429.78
     21.6700	  567.00	  549.94	-1757.19	  429.46
     21.7700	  568.00	  549.64	-1755.89	  429.13
     21.8700	  573.00	  549.35	-1750.60	  428.81
     21.9700	  547.00	  549.05	-1776.30	  428.48
     22.0700	  546.00	  548.76	-1777.01	  428.15
     22.1700	  531.00	  548.47	-1791.72	  427.83
     22.2700	  583.00	  548.19	-1739.44	  427.50
     22.3700	  527.00	  547.91	-1795.16	  427.18
     22.4700	  553.00	  547.64	-1768.89	  426.85
     22.5700	  546.00	  547.37	-1775.62	  426.52
     22.6700	  547.00	  547.10	-1774.35	  426.20
     22.7700	  562.00	  546.85	-1759.10	  425.87
     22.8700	  534.00	  546.60	-1786.85	  425.54
     22.9700	  520.00	  546.37	-1800.62	  425.22
     23.0700	  521.00	  546.15	-1799.40	  424.89
     23.1700	  540.00	  545.95	-1780.20	  424.56
     23.2700	  502.00	  545.76	-1818.01	  424.24
     23.3700	  571.00	  545.61	-1748.86	  423.91
     23.4700	  531.00	  545.50	-1788.75	  423.58
     23.5700	  575.00	  545.43	-1744.68	  423.26
     23.6700	  549.00	  545.58	-1770.83	  422.93
     23.7700	  579.00	  545.72	-1740.97	  422.60
     23.8700	  549.00	  546.09	-1771.34	  422.28
     23.9700	  519.00	  546.94	-1802.19	  421.95
     24.0700	  539.00	  548.72	-1783.97	  421.63
     24.1700	  565.00	  552.10	-1761.35	  421.30
     24.2700	  553.00	  557.96	-1779.21	  420.98
     24.3700	  562.00	  567.27	-1779.52	  420.65
     24.4700	  634.00	  581.02	-1721.27	  420.33
     24.5700	  611.00	  599.25	-1762.50	  420.01
     24.6700	  614.00	  618.84	-1779.09	  419.68
     24.7700	  641.00	  631.71	-1764.96	  419.36
     24.8700	  625.00	  627.54	-1776.79	  419.04
     24.9700	  623.00	  605.91	-1757.16	  418.71
     25.0700	  590.00	  580.53	-1764.78	  418.39
     25.1700	  563.00	  561.71	-1772.96	  418.07
     25.2700	  554.00	  551.06	-1771.31	  417.75
     25.3700	  559.00	  545.99	-1761.24	  417.43
     25.4700	  556.00	  543.65	-1761.90	  417.11
     25.5700	  515.00	  542.39	-1801.64	  416.79
     25.6700	  543.00	  541.58	-1772.83	  416.47
     25.7700	  635.00	  540.99	-1680.24	  416.15
     25.8700	  585.00	  540.54	-1729.79	  415.83
     25.9700	  588.00	  540.20	-1726.45	  415.51
     26.0700	  535.00	  539.95	-1779.20	  415.20
     26.1700	  550.00	  539.79	-1764.04	  414.88
     26.2700	  532.00	  539.70	-1781.95	  414.57
     26.3700	  541.00	  539.69	-1772.94	  414.25
     26.4700	  522.00	  539.77	-1792.02	  413.94
     26.5700	  538.00	  539.95	-1776.20	  413.62
     26.6700	  548.00	  540.24	-1766.49	  413.31
     26.7700	  581.00	  540.67	-1733.92	  413.00
     26.8700	  564.00	  541.27	-1751.52	  412.68
     26.9700	  536.00	  542.10	-1780.35	  412.37
     27.0700	  557.00	  543.24	-1760.49	  412.06
     27.1700	  553.00	  544.81	-1766.06	  411.75
     27.2700	  581.00	  547.09	-1740.34	  411.44
     27.3700	  582.00	  550.57	-1742.82	  411.13
     27.4700	  590.00	  556.26	-1740.51	  410.83
     27.5700	  552.00	  565.97	-1788.22	  410.52
     27.6700	  583.00	  582.56	-1773.81	  410.21
     27.7700	  585.00	  609.70	-1798.95	  409.91
     27.8700	  590.00	  650.60	-1834.85	  409.60
     27.9700	  642.00	  705.39	-1837.64	  409.30
     28.0700	  763.00	  767.72	-1778.97	  409.00
     28.1700	  919.00	  821.78	-1677.03	  408.70
     28.2700	  975.00	  843.91	-1643.16	  408.40
     28.3700	  882.00	  820.43	-1712.68	  408.10
     28.4700	  801.00	  773.83	-1747.08	  407.80
     28.5700	  745.00	  740.56	-1769.81	  407.50
     28.6700	  711.00	  737.02	-1800.27	  407.20
     28.7700	  722.00	  758.42	-1810.67	  406.90
     28.8700	  818.00	  784.86	-1741.11	  406.61
     28.9700	  842.00	  788.63	-1720.88	  406.32
     29.0700	  753.00	  752.47	-1773.72	  406.02
     29.1700	  694.00	  691.73	-1771.98	  405.73
     29.2700	  570.00	  634.09	-1838.34	  405.44
     29.3700	  563.00	  592.63	-1803.88	  405.15
     29.4700	  604.00	  567.62	-1737.87	  404.86
     29.5700	  582.00	  554.13	-1746.38	  404.57
     29.6700	  608.00	  547.02	-1713.27	  404.28
     29.7700	  614.00	  543.00	-1703.25	  404.00
     29.8700	  577.00	  540.51	-1737.76	  403.71
     29.9700	  541.00	  538.96	-1772.21	  403.43
     30.0700	  518.00	  538.22	-1794.47	  403.14
     30.1700	  505.00	  538.48	-1807.73	  402.86
     30.2700	  584.00	  540.29	-1730.54	  402.58
     30.3700	  575.00	  544.76	-1744.01	  402.30
     30.4700	  592.00	  553.55	-1735.80	  402.02
     30.5700	  586.00	  568.39	-1756.64	  401.75
     30.6700	  577.00	  589.70	-1786.95	  401.47
     30.7700	  615.00	  614.79	-1774.04	  401.19
     30.8700	  583.00	  636.50	-1827.75	  400.92
     30.9700	  633.00	  643.99	-1785.24	  400.65
     31.0700	  654.00	  629.93	-1750.18	  400.38
     31.1700	  595.00	  601.79	-1781.04	  400.11
     31.2700	  550.00	  573.68	-1797.93	  399.84
     31.3700	  552.00	  552.96	-1775.21	  399.57
     31.4700	  543.00	  540.36	-1771.61	  399.30
     31.5700	  576.00	  533.63	-1731.88	  399.04
     31.6700	  534.00	  530.18	-1770.43	  398.77
     31.7700	  594.00	  528.27	-1708.52	  398.51
     31.8700	  543.00	  527.08	-1758.33	  398.25
     31.9700	  512.00	  526.26	-1788.51	  397.99
     32.0700	  562.00	  525.69	-1737.94	  397.73
     32.1700	  576.00	  525.31	-1723.56	  397.47
     32.2700	  568.00	  525.09	-1731.34	  397.21
     32.3700	  542.00	  525.03	-1757.28	  396.96
     32.4700	  545.00	  525.13	-1754.38	  396.70
     32.5700	  569.00	  525.41	-1730.66	  396.45
     32.6700	  521.00	  525.89	-1779.14	  396.20
     32.7700	  527.00	  526.62	-1773.87	  395.95
     32.8700	  546.00	  527.68	-1755.93	  395.70
     32.9700	  527.00	  529.18	-1776.43	  395.46
     33.0700	  562.00	  531.35	-1743.60	  395.21
     33.1700	  556.00	  534.68	-1752.93	  394.96
     33.2700	  529.00	  540.26	-1785.51	  394.72
     33.3700	  549.00	  550.45	-1775.70	  394.48
     33.4700	  576.00	  569.79	-1768.04	  394.24
     33.5700	  650.00	  605.34	-1729.59	  394.00
     33.6700	  643.00	  665.14	-1796.39	  393.76
     33.7700	  810.00	  752.47	-1716.72	  393.53
     33.8700	  904.00	  857.60	-1727.85	  393.29
     33.9700	 1040.00	  952.07	-1686.32	  393.06
     34.0700	 1105.00	  992.73	-1661.98	  392.83
     34.1700	 1048.00	  948.52	-1674.77	  392.60
     34.2700	  860.00	  842.49	-1756.74	  392.37
     34.3700	  716.00	  729.02	-1787.27	  392.14
     34.4700	  666.00	  641.23	-1749.48	  391.91
     34.5700	  568.00	  585.92	-1792.17	  391.69
     34.6700	  551.00	  555.85	-1779.10	  391.47
     34.7700	  558.00	  540.67	-1756.92	  391.24
     34.8700	  555.00	  532.73	-1751.98	  391.02
     34.9700	  577.00	  527.99	-1725.24	  390.80
     35.0700	  543.00	  524.72	-1755.97	  390.59
     35.1700	  481.00	  522.28	-1815.53	  390.37
     35.2700	  529.00	  520.34	-1765.59	  390.16
     35.3700	  523.00	  518.77	-1770.02	  389.94
     35.4700	  506.00	  517.46	-1785.71	  389.73
     35.5700	  489.00	  516.37	-1801.62	  389.52
     35.6700	  537.00	  515.43	-1752.68	  389.31
     35.7700	  528.00	  514.62	-1760.87	  389.11
     35.8700	  525.00	  513.90	-1763.15	  388.90
     35.9700	  521.00	  513.28	-1766.53	  388.70
     36.0700	  511.00	  513.19	-1776.44	  388.50
     36.1700	  504.00	  512.70	-1782.95	  388.30
     36.2700	  487.00	  512.25	-1799.50	  388.10
     36.3700	  474.00	  511.85	-1812.10	  387.90
     36.4700	  492.00	  511.50	-1793.75	  387.70
     36.5700	  482.00	  511.18	-1803.43	  387.51
     36.6700	  536.00	  510.91	-1749.16	  387.32
     36.7700	  522.00	  510.69	-1762.94	  387.12
     36.8700	  506.00	  510.55	-1778.80	  386.93
     36.9700	  506.00	  510.56	-1778.81	  386.75
     37.0700	  530.00	  510.87	-1755.12	  386.56
     37.1700	  494.00	  511.75	-1792.00	  386.37
     37.2700	  522.00	  513.61	-1765.86	  386.19
     37.3700	  509.00	  516.80	-1782.05	  386.01
     37.4700	  477.00	  521.29	-1818.54	  385.83
     37.5700	  513.00	  526.26	-1787.51	  385.65
     37.6700	  510.00	  530.07	-1794.32	  385.47
     37.7700	  531.00	  530.95	-1774.20	  385.30
     37.8700	  512.00	  528.60	-1790.85	  385.12
     37.9700	  502.00	  524.59	-1796.84	  384.95
     38.0700	  525.00	  520.31	-1769.56	  384.78
     38.1700	  499.00	  516.28	-1791.53	  384.61
     38.2700	  484.00	  512.88	-1803.13	  384.44
     38.3700	  510.00	  510.33	-1774.58	  384.28
     38.4700	  506.00	  508.58	-1776.83	  384.11
     38.5700	  462.00	  507.45	-1819.70	  383.95
     38.6700	  551.00	  506.64	-1729.89	  383.79
     38.7700	  486.00	  506.18	-1794.43	  383.63
     38.8700	  476.00	  505.85	-1804.10	  383.47
     38.9700	  517.00	  505.58	-1762.83	  383.31
     39.0700	  512.00	  505.36	-1767.60	  383.16
     39.1700	  537.00	  505.15	-1742.40	  383.00
     39.2700	  503.00	  504.88	-1776.13	  382.85
     39.3700	  527.00	  504.71	-1751.96	  382.70
     39.4700	  522.00	  504.69	-1756.94	  382.55
     39.5700	  508.00	  504.54	-1770.79	  382.41
     39.6700	  514.00	  504.41	-1764.66	  382.26
     39.7700	  471.00	  504.28	-1807.53	  382.12
     39.8700	  477.00	  504.17	-1801.42	  381.98
     39.9700	  512.00	  504.06	-1766.31	  381.84
     40.0700	  531.00	  503.97	-1747.22	  381.70
     40.1700	  495.00	  503.88	-1783.13	  381.56
     40.2700	  529.00	  503.81	-1749.06	  381.43
     40.3700	  485.00	  503.75	-1793.00	  381.29
     40.4700	  536.00	  503.70	-1741.95	  381.16
     40.5700	  499.00	  503.66	-1778.91	  381.03
     40.6700	  499.00	  503.65	-1778.90	  380.90
     40.7700	  515.00	  503.65	-1762.90	  380.77
