MSG Master    CELL:    5.91927   5.91927  23.27706   90.0000   90.0000  120.0000   SPGR: P 63/m m c             TEMP:   1074.85
  1   1280     2.52000     0.00000    -0.13240     0.00000     0.00000    0
    99     0     2
       0.00000      10.00000
     125.00000     130.00000
 2Theta	Yobs	Ycal	Yobs-Ycal	Backg	Posr	(hkl)	K
      0.7700	    0.00	  580.91	-1727.52	  461.81
      0.8700	    0.00	  581.21	-1727.52	  462.11
      0.9700	   47.00	  581.49	-1727.52	  462.39
      1.0700	   42.00	  581.77	-1727.52	  462.67
      1.1700	   38.00	  582.04	-1727.52	  462.94
      1.2700	   34.00	  582.31	-1727.52	  463.21
      1.3700	   42.00	  582.56	-1727.52	  463.46
      1.4700	  109.00	  582.81	-1727.52	  463.71
      1.5700	  269.00	  583.05	-1727.52	  463.95
      1.6700	  473.00	  583.29	-1727.52	  464.19
      1.7700	  619.00	  583.52	-1727.52	  464.42
      1.8700	  657.00	  583.74	-1727.52	  464.64
      1.9700	  740.00	  583.95	-1727.52	  464.85
      2.0700	  785.00	  584.16	-1727.52	  465.06
      2.1700	  802.00	  584.36	-1727.52	  465.26
      2.2700	  758.00	  584.55	-1727.52	  465.45
      2.3700	  717.00	  584.74	-1727.52	  465.64
      2.4700	  699.00	  584.91	-1727.52	  465.82
      2.5700	  724.00	  585.09	-1727.52	  465.99
      2.6700	  627.00	  585.25	-1727.52	  466.15
      2.7700	  643.00	  585.41	-1727.52	  466.31
      2.8700	  639.00	  585.57	-1727.52	  466.47
      2.9700	  589.00	  585.71	-1727.52	  466.61
      3.0700	  645.00	  585.85	-1727.52	  466.75
      3.1700	  608.00	  585.99	-1727.52	  466.89
      3.2700	  620.00	  586.12	-1727.52	  467.02
      3.3700	  715.00	  586.24	-1727.52	  467.14
      3.4700	  773.00	  586.35	-1727.52	  467.25
      3.5700	  861.00	  586.46	-1727.52	  467.36
      3.6700	  880.00	  586.56	-1727.52	  467.47
      3.7700	  904.00	  586.66	-1727.52	  467.56
      3.8700	 1031.00	  586.75	-1727.52	  467.65
      3.9700	 1037.00	  586.84	-1727.52	  467.74
      4.0700	  979.00	  586.92	-1727.52	  467.82
      4.1700	 1051.00	  586.99	-1727.52	  467.89
      4.2700	 1144.00	  587.06	-1727.52	  467.96
      4.3700	 1149.00	  587.12	-1727.52	  468.02
      4.4700	 1077.00	  587.17	-1727.52	  468.08
      4.5700	 1039.00	  587.23	-1727.52	  468.13
      4.6700	  982.00	  587.27	-1727.52	  468.17
      4.7700	 1060.00	  587.31	-1727.52	  468.21
      4.8700	  940.00	  587.34	-1727.52	  468.24
      4.9700	  977.00	  587.37	-1727.52	  468.27
      5.0700	  968.00	  587.39	-1727.52	  468.29
      5.1700	  932.00	  587.41	-1727.52	  468.31
      5.2700	  944.00	  587.42	-1727.52	  468.32
      5.3700	  883.00	  587.43	-1727.52	  468.33
      5.4700	  874.00	  587.43	-1727.52	  468.33
      5.5700	  875.00	  587.43	-1727.52	  468.33
      5.6700	  817.00	  587.42	-1727.52	  468.32
      5.7700	  895.00	  587.41	-1727.52	  468.31
      5.8700	  846.00	  587.39	-1727.52	  468.29
      5.9700	  773.00	  587.36	-1727.52	  468.27
      6.0700	  808.00	  587.34	-1727.52	  468.24
      6.1700	  750.00	  587.30	-1727.52	  468.20
      6.2700	  838.00	  587.26	-1727.52	  468.17
      6.3700	  752.00	  587.22	-1727.52	  468.12
      6.4700	  741.00	  587.17	-1727.52	  468.07
      6.5700	  804.00	  587.12	-1727.52	  468.02
      6.6700	  743.00	  587.06	-1727.52	  467.96
      6.7700	  724.00	  587.00	-1727.52	  467.90
      6.8700	  672.00	  586.94	-1727.52	  467.84
      6.9700	  762.00	  586.86	-1727.52	  467.77
      7.0700	  692.00	  586.79	-1727.52	  467.69
      7.1700	  737.00	  586.71	-1727.52	  467.61
      7.2700	  703.00	  586.62	-1727.52	  467.53
      7.3700	  676.00	  586.54	-1727.52	  467.44
      7.4700	  683.00	  586.44	-1727.52	  467.34
      7.5700	  639.00	  586.35	-1727.52	  467.25
      7.6700	  690.00	  586.24	-1727.52	  467.15
      7.7700	  645.00	  586.14	-1727.52	  467.04
      7.8700	  652.00	  586.03	-1727.52	  466.93
      7.9700	  693.00	  585.92	-1727.52	  466.82
      8.0700	  582.00	  585.80	-1727.52	  466.70
      8.1700	  640.00	  585.68	-1727.52	  466.58
      8.2700	  632.00	  585.55	-1727.52	  466.45
      8.3700	  639.00	  585.42	-1727.52	  466.32
      8.4700	  674.00	  585.29	-1727.52	  466.19
      8.5700	  597.00	  585.15	-1727.52	  466.05
      8.6700	  616.00	  585.01	-1727.52	  465.91
      8.7700	  628.00	  584.86	-1727.52	  465.76
      8.8700	  632.00	  584.71	-1727.52	  465.62
      8.9700	  574.00	  584.56	-1727.52	  465.46
      9.0700	  615.00	  584.41	-1727.52	  465.31
      9.1700	  621.00	  584.25	-1727.52	  465.15
      9.2700	  613.00	  584.08	-1727.52	  464.98
      9.3700	  616.00	  583.92	-1727.52	  464.82
      9.4700	  607.00	  583.75	-1727.52	  464.65
      9.5700	  584.00	  583.57	-1727.52	  464.47
      9.6700	  625.00	  583.40	-1727.52	  464.30
      9.7700	  573.00	  583.21	-1727.52	  464.12
      9.8700	  588.00	  583.03	-1727.52	  463.93
      9.9700	  656.00	  582.84	-1727.52	  463.74
     10.0700	  591.00	  583.59	-1720.11	  463.55
     10.1700	  581.00	  583.50	-1730.02	  463.36
     10.2700	  619.00	  583.43	-1691.96	  463.16
     10.3700	  551.00	  583.40	-1759.93	  462.96
     10.4700	  594.00	  583.45	-1716.97	  462.76
     10.5700	  604.00	  583.63	-1707.15	  462.56
     10.6700	  622.00	  584.04	-1689.57	  462.35
     10.7700	  610.00	  584.82	-1702.34	  462.14
     10.8700	  563.00	  586.02	-1750.54	  461.92
     10.9700	  558.00	  587.62	-1757.15	  461.70
     11.0700	  609.00	  589.61	-1708.14	  461.48
     11.1700	  566.00	  591.98	-1753.51	  461.26
     11.2700	  623.00	  594.78	-1699.30	  461.03
     11.3700	  579.00	  598.08	-1746.61	  460.80
     11.4700	  593.00	  602.05	-1736.58	  460.57
     11.5700	  622.00	  606.92	-1712.45	  460.34
     11.6700	  603.00	  613.09	-1737.61	  460.10
     11.7700	  667.00	  621.22	-1681.75	  459.86
     11.8700	  657.00	  632.26	-1702.78	  459.62
     11.9700	  663.00	  646.58	-1711.11	  459.37
     12.0700	  688.00	  662.02	-1701.54	  459.13
     12.1700	  692.00	  671.79	-1707.32	  458.88
     12.2700	  691.00	  666.19	-1702.72	  458.62
     12.3700	  658.00	  643.71	-1713.24	  458.37
     12.4700	  618.00	  617.77	-1727.29	  458.11
     12.5700	  575.00	  598.95	-1751.48	  457.85
     12.6700	  626.00	  588.49	-1690.01	  457.59
     12.7700	  606.00	  583.49	-1705.02	  457.33
     12.8700	  558.00	  581.07	-1750.59	  457.06
     12.9700	  590.00	  579.65	-1717.18	  456.79
     13.0700	  563.00	  578.65	-1743.17	  456.52
     13.1700	  549.00	  577.85	-1756.37	  456.25
     13.2700	  581.00	  577.18	-1723.71	  455.97
     13.3700	  572.00	  576.60	-1732.13	  455.70
     13.4700	  575.00	  576.09	-1728.61	  455.42
     13.5700	  567.00	  575.61	-1736.14	  455.14
     13.6700	  552.00	  575.18	-1750.70	  454.85
     13.7700	  560.00	  574.77	-1742.29	  454.57
     13.8700	  555.00	  574.37	-1746.90	  454.28
     13.9700	  577.00	  573.99	-1724.52	  453.99
     14.0700	  584.00	  573.63	-1717.15	  453.70
     14.1700	  541.00	  573.27	-1759.80	  453.41
     14.2700	  550.00	  572.92	-1750.44	  453.12
     14.3700	  605.00	  572.58	-1695.10	  452.82
     14.4700	  596.00	  572.24	-1703.76	  452.52
     14.5700	  547.00	  571.90	-1752.42	  452.23
     14.6700	  604.00	  571.56	-1695.09	  451.92
     14.7700	  507.00	  571.23	-1791.76	  451.62
     14.8700	  613.00	  570.90	-1685.43	  451.32
     14.9700	  547.00	  570.57	-1751.10	  451.01
     15.0700	  613.00	  570.24	-1684.77	  450.70
     15.1700	  548.00	  569.91	-1749.44	  450.40
     15.2700	  567.00	  569.59	-1730.11	  450.09
     15.3700	  534.00	  569.26	-1762.78	  449.77
     15.4700	  566.00	  568.93	-1730.46	  449.46
     15.5700	  569.00	  568.60	-1727.13	  449.15
     15.6700	  574.00	  568.28	-1721.80	  448.83
     15.7700	  568.00	  567.95	-1727.47	  448.51
     15.8700	  579.00	  567.65	-1716.17	  448.20
     15.9700	  583.00	  567.32	-1711.84	  447.88
     16.0700	  589.00	  566.99	-1705.51	  447.56
     16.1700	  558.00	  566.66	-1736.18	  447.23
     16.2700	  525.00	  566.33	-1768.85	  446.91
     16.3700	  526.00	  566.00	-1767.52	  446.59
     16.4700	  549.00	  565.67	-1744.19	  446.26
     16.5700	  558.00	  565.33	-1734.86	  445.93
     16.6700	  569.00	  565.00	-1723.53	  445.60
     16.7700	  562.00	  564.67	-1730.19	  445.28
     16.8700	  550.00	  564.33	-1741.86	  444.95
     16.9700	  559.00	  564.00	-1732.52	  444.62
     17.0700	  566.00	  563.66	-1725.19	  444.28
     17.1700	  587.00	  563.33	-1703.85	  443.95
     17.2700	  606.00	  562.99	-1684.52	  443.62
     17.3700	  569.00	  562.65	-1721.18	  443.28
     17.4700	  578.00	  562.32	-1711.84	  442.95
     17.5700	  527.00	  561.98	-1762.50	  442.61
     17.6700	  573.00	  561.64	-1716.16	  442.27
     17.7700	  570.00	  561.30	-1718.82	  441.94
     17.8700	  568.00	  560.96	-1720.48	  441.60
     17.9700	  525.00	  560.62	-1763.14	  441.26
     18.0700	  589.00	  560.28	-1698.80	  440.92
     18.1700	  548.00	  560.04	-1739.56	  440.58
     18.2700	  576.00	  559.70	-1711.22	  440.23
     18.3700	  558.00	  559.36	-1728.88	  439.89
     18.4700	  571.00	  559.02	-1715.54	  439.55
     18.5700	  557.00	  558.67	-1729.20	  439.21
     18.6700	  553.00	  558.33	-1732.86	  438.86
     18.7700	  535.00	  557.99	-1750.52	  438.52
     18.8700	  554.00	  557.65	-1731.17	  438.17
     18.9700	  528.00	  557.40	-1756.92	  437.83
     19.0700	  544.00	  557.06	-1740.58	  437.48
     19.1700	  557.00	  556.71	-1727.24	  437.14
     19.2700	  536.00	  556.37	-1747.90	  436.79
     19.3700	  494.00	  556.03	-1789.56	  436.44
     19.4700	  546.00	  555.69	-1737.22	  436.09
     19.5700	  552.00	  555.35	-1730.88	  435.75
     19.6700	  539.00	  555.01	-1743.54	  435.40
     19.7700	  528.00	  554.67	-1754.19	  435.05
     19.8700	  522.00	  554.33	-1759.85	  434.70
     19.9700	  543.00	  553.99	-1738.51	  434.35
     20.0700	  579.00	  553.65	-1702.17	  434.00
     20.1700	  530.00	  553.31	-1750.83	  433.65
     20.2700	  529.00	  552.97	-1751.49	  433.30
     20.3700	  574.00	  552.63	-1706.16	  432.95
     20.4700	  545.00	  552.29	-1734.82	  432.60
     20.5700	  551.00	  551.96	-1728.48	  432.25
     20.6700	  563.00	  551.62	-1716.14	  431.90
     20.7700	  575.00	  551.28	-1703.81	  431.55
     20.8700	  512.00	  550.94	-1766.47	  431.20
     20.9700	  543.00	  550.61	-1735.14	  430.85
     21.0700	  550.00	  550.28	-1727.80	  430.50
     21.1700	  521.00	  549.95	-1756.47	  430.15
     21.2700	  516.00	  549.62	-1761.14	  429.80
     21.3700	  538.00	  549.29	-1738.81	  429.45
     21.4700	  544.00	  548.96	-1732.49	  429.10
     21.5700	  513.00	  548.64	-1763.16	  428.75
     21.6700	  548.00	  548.31	-1727.84	  428.40
     21.7700	  539.00	  547.99	-1736.51	  428.05
     21.8700	  558.00	  547.67	-1717.20	  427.70
     21.9700	  542.00	  547.35	-1732.88	  427.35
     22.0700	  567.00	  547.04	-1707.57	  427.00
     22.1700	  554.00	  546.73	-1720.26	  426.65
     22.2700	  534.00	  546.42	-1739.95	  426.30
     22.3700	  524.00	  546.12	-1749.65	  425.95
     22.4700	  564.00	  545.83	-1709.35	  425.60
     22.5700	  543.00	  545.54	-1730.06	  425.25
     22.6700	  557.00	  545.25	-1715.78	  424.91
     22.7700	  529.00	  544.98	-1743.50	  424.56
     22.8700	  570.00	  544.71	-1702.23	  424.21
     22.9700	  550.00	  544.46	-1721.98	  423.86
     23.0700	  534.00	  544.22	-1737.74	  423.52
     23.1700	  530.00	  544.00	-1741.52	  423.17
     23.2700	  531.00	  543.80	-1740.32	  422.82
     23.3700	  530.00	  543.63	-1741.15	  422.48
     23.4700	  506.00	  543.50	-1765.02	  422.13
     23.5700	  528.00	  543.42	-1742.95	  421.79
     23.6700	  515.00	  543.57	-1756.09	  421.44
     23.7700	  528.00	  543.71	-1743.23	  421.10
     23.8700	  561.00	  544.09	-1710.61	  420.76
     23.9700	  575.00	  544.95	-1697.48	  420.41
     24.0700	  554.00	  546.74	-1720.26	  420.07
     24.1700	  561.00	  550.11	-1716.63	  419.73
     24.2700	  579.00	  555.87	-1704.40	  419.39
     24.3700	  565.00	  564.94	-1727.47	  419.05
     24.4700	  588.00	  578.15	-1717.67	  418.71
     24.5700	  610.00	  595.31	-1712.83	  418.37
     24.6700	  637.00	  613.20	-1703.72	  418.03
     24.7700	  669.00	  624.18	-1682.71	  417.69
     24.8700	  657.00	  619.10	-1689.62	  417.36
     24.9700	  575.00	  598.56	-1751.08	  417.02
     25.0700	  573.00	  575.27	-1729.79	  416.68
     25.1700	  553.00	  558.11	-1732.64	  416.35
     25.2700	  559.00	  548.31	-1716.83	  416.01
     25.3700	  528.00	  543.54	-1743.06	  415.68
     25.4700	  570.00	  541.26	-1698.79	  415.35
     25.5700	  537.00	  540.01	-1730.54	  415.01
     25.6700	  545.00	  539.19	-1721.72	  414.68
     25.7700	  625.00	  538.59	-1641.11	  414.35
     25.8700	  545.00	  538.13	-1720.65	  414.02
     25.9700	  557.00	  537.78	-1708.30	  413.69
     26.0700	  567.00	  537.52	-1698.04	  413.36
     26.1700	  573.00	  537.33	-1691.86	  413.04
     26.2700	  528.00	  537.23	-1736.75	  412.71
     26.3700	  561.00	  537.20	-1703.73	  412.38
     26.4700	  561.00	  537.26	-1703.78	  412.06
     26.5700	  557.00	  537.41	-1707.94	  411.74
     26.6700	  572.00	  537.68	-1693.20	  411.41
     26.7700	  571.00	  538.08	-1694.61	  411.09
     26.8700	  557.00	  538.66	-1709.18	  410.77
     26.9700	  574.00	  539.45	-1692.98	  410.45
     27.0700	  521.00	  540.55	-1747.07	  410.13
     27.1700	  539.00	  542.07	-1730.60	  409.81
     27.2700	  576.00	  544.28	-1695.80	  409.49
     27.3700	  558.00	  547.68	-1717.20	  409.18
     27.4700	  569.00	  553.27	-1711.79	  408.86
     27.5700	  574.00	  562.85	-1716.37	  408.55
     27.6700	  566.00	  579.25	-1740.78	  408.24
     27.7700	  542.00	  606.11	-1791.63	  407.92
     27.8700	  584.00	  646.53	-1790.05	  407.61
     27.9700	  624.00	  700.50	-1804.03	  407.30
     28.0700	  825.00	  761.51	-1664.03	  407.00
     28.1700	  942.00	  813.62	-1599.14	  406.69
     28.2700	  908.00	  833.61	-1653.13	  406.38
     28.3700	  846.00	  809.75	-1691.28	  406.08
     28.4700	  851.00	  766.47	-1643.00	  405.77
     28.5700	  706.00	  739.26	-1760.79	  405.47
     28.6700	  702.00	  742.83	-1768.36	  405.17
     28.7700	  761.00	  770.69	-1737.22	  404.87
     28.8700	  760.00	  800.93	-1768.45	  404.57
     28.9700	  856.00	  803.93	-1675.45	  404.27
     29.0700	  766.00	  762.95	-1724.48	  403.97
     29.1700	  690.00	  696.86	-1734.38	  403.67
     29.2700	  656.00	  635.42	-1706.94	  403.38
     29.3700	  559.00	  591.84	-1760.37	  403.09
     29.4700	  558.00	  565.88	-1735.41	  402.79
     29.5700	  563.00	  552.00	-1716.52	  402.50
     29.6700	  613.00	  544.69	-1659.22	  402.21
     29.7700	  599.00	  540.54	-1669.07	  401.92
     29.8700	  566.00	  537.94	-1699.46	  401.64
     29.9700	  604.00	  536.28	-1659.81	  401.35
     30.0700	  537.00	  535.42	-1725.95	  401.07
     30.1700	  571.00	  535.53	-1692.06	  400.78
     30.2700	  575.00	  537.12	-1689.65	  400.50
     30.3700	  555.00	  541.21	-1713.74	  400.22
     30.4700	  537.00	  549.30	-1739.83	  399.94
     30.5700	  543.00	  562.89	-1747.41	  399.66
     30.6700	  565.00	  582.23	-1744.75	  399.39
     30.7700	  603.00	  604.68	-1729.20	  399.11
     30.8700	  590.00	  623.60	-1761.12	  398.84
     30.9700	  617.00	  629.13	-1739.65	  398.57
     31.0700	  572.00	  615.41	-1770.93	  398.29
     31.1700	  612.00	  589.85	-1705.37	  398.03
     31.2700	  620.00	  564.92	-1672.44	  397.76
     31.3700	  552.00	  546.76	-1722.28	  397.49
     31.4700	  567.00	  535.80	-1696.33	  397.22
     31.5700	  530.00	  529.96	-1727.49	  396.96
     31.6700	  544.00	  526.95	-1710.47	  396.70
     31.7700	  548.00	  525.28	-1704.81	  396.44
     31.8700	  520.00	  524.24	-1731.76	  396.18
     31.9700	  555.00	  523.53	-1696.05	  395.92
     32.0700	  554.00	  523.04	-1696.57	  395.66
     32.1700	  538.00	  522.74	-1712.26	  395.41
     32.2700	  546.00	  522.59	-1704.12	  395.15
     32.3700	  541.00	  522.61	-1709.13	  394.90
     32.4700	  525.00	  522.78	-1725.31	  394.65
     32.5700	  509.00	  523.14	-1741.67	  394.40
     32.6700	  546.00	  523.72	-1705.24	  394.15
     32.7700	  553.00	  524.56	-1699.09	  393.91
     32.8700	  550.00	  525.76	-1703.28	  393.66
     32.9700	  549.00	  527.44	-1705.96	  393.42
     33.0700	  532.00	  529.85	-1725.37	  393.18
     33.1700	  538.00	  533.54	-1723.06	  392.94
     33.2700	  525.00	  539.73	-1742.26	  392.70
     33.3700	  585.00	  551.04	-1693.57	  392.46
     33.4700	  562.00	  572.34	-1737.87	  392.22
     33.5700	  589.00	  611.13	-1749.66	  391.99
     33.6700	  621.00	  675.55	-1782.08	  391.76
     33.7700	  765.00	  768.26	-1730.79	  391.53
     33.8700	  922.00	  877.88	-1683.41	  391.30
     33.9700	 1023.00	  973.69	-1678.21	  391.07
     34.0700	 1089.00	 1010.77	-1649.30	  390.84
     34.1700	 1036.00	  959.52	-1651.05	  390.62
     34.2700	  869.00	  847.48	-1706.01	  390.40
     34.3700	  772.00	  730.60	-1686.12	  390.17
     34.4700	  635.00	  641.24	-1733.77	  389.95
     34.5700	  604.00	  585.25	-1708.77	  389.74
     34.6700	  536.00	  554.82	-1746.34	  389.52
     34.7700	  536.00	  539.39	-1730.91	  389.30
     34.8700	  486.00	  531.24	-1772.76	  389.09
     34.9700	  549.00	  526.33	-1704.86	  388.88
     35.0700	  522.00	  522.96	-1728.48	  388.67
     35.1700	  533.00	  520.40	-1714.92	  388.46
     35.2700	  485.00	  518.38	-1760.90	  388.25
     35.3700	  482.00	  516.74	-1762.27	  388.05
     35.4700	  536.00	  515.39	-1706.92	  387.84
     35.5700	  537.00	  514.25	-1704.78	  387.64
     35.6700	  545.00	  513.29	-1695.81	  387.44
     35.7700	  478.00	  512.45	-1761.97	  387.24
     35.8700	  535.00	  511.72	-1704.24	  387.05
     35.9700	  494.00	  511.07	-1744.59	  386.85
     36.0700	  547.00	  510.96	-1691.48	  386.66
     36.1700	  525.00	  510.45	-1712.97	  386.46
     36.2700	  498.00	  510.00	-1739.52	  386.27
     36.3700	  452.00	  509.59	-1785.12	  386.09
     36.4700	  516.00	  509.23	-1720.75	  385.90
     36.5700	  512.00	  508.91	-1724.44	  385.71
     36.6700	  532.00	  508.64	-1704.16	  385.53
     36.7700	  491.00	  508.42	-1744.95	  385.35
     36.8700	  504.00	  508.29	-1731.82	  385.17
     36.9700	  511.00	  508.33	-1724.85	  384.99
     37.0700	  516.00	  508.68	-1720.20	  384.81
     37.1700	  530.00	  509.63	-1707.15	  384.64
     37.2700	  480.00	  511.55	-1759.08	  384.46
     37.3700	  540.00	  514.75	-1702.28	  384.29
     37.4700	  549.00	  519.08	-1697.61	  384.12
     37.5700	  534.00	  523.61	-1717.13	  383.95
     37.6700	  526.00	  526.65	-1728.18	  383.79
     37.7700	  481.00	  526.51	-1773.03	  383.62
     37.8700	  517.00	  523.17	-1733.70	  383.46
     37.9700	  511.00	  518.50	-1735.03	  383.29
     38.0700	  517.00	  514.10	-1724.63	  383.14
     38.1700	  490.00	  510.61	-1748.13	  382.98
     38.2700	  529.00	  508.12	-1706.64	  382.82
     38.3700	  490.00	  506.47	-1744.00	  382.67
     38.4700	  528.00	  505.42	-1704.95	  382.51
     38.5700	  503.00	  504.75	-1729.27	  382.36
     38.6700	  542.00	  504.20	-1689.72	  382.21
     38.7700	  475.00	  503.86	-1756.39	  382.06
     38.8700	  507.00	  503.60	-1724.13	  381.92
     38.9700	  473.00	  503.38	-1757.90	  381.77
     39.0700	  532.00	  503.18	-1698.70	  381.63
     39.1700	  508.00	  502.91	-1722.44	  381.49
     39.2700	  510.00	  502.75	-1720.27	  381.35
     39.3700	  492.00	  502.74	-1738.26	  381.21
     39.4700	  500.00	  502.60	-1730.12	  381.07
     39.5700	  529.00	  502.47	-1700.99	  380.94
     39.6700	  499.00	  502.35	-1730.87	  380.81
     39.7700	  513.00	  502.24	-1716.76	  380.68
     39.8700	  532.00	  502.14	-1697.66	  380.55
     39.9700	  545.00	  502.05	-1684.57	  380.42
     40.0700	  584.00	  501.97	-1645.49	  380.29
     40.1700	  508.00	  501.90	-1721.42	  380.17
     40.2700	  497.00	  501.84	-1732.36	  380.05
     40.3700	  484.00	  501.79	-1745.31	  379.93
     40.4700	  504.00	  501.75	-1725.28	  379.81
     40.5700	  464.00	  501.73	-1765.26	  379.69
     40.6700	  501.00	  501.73	-1728.26	  379.57
     40.7700	  491.00	  501.75	-1738.27	  379.46
