MSG Master    CELL:    5.91921   5.91921  23.27305   90.0000   90.0000  120.0000   SPGR: P 63/m m c             TEMP:   1074.85
  1   1280     2.52000     0.00000    -0.12491     0.00000     0.00000    0
    99     0     2
       0.00000      10.00000
     125.00000     130.00000
 2Theta	Yobs	Ycal	Yobs-Ycal	Backg	Posr	(hkl)	K
      0.7700	    0.00	  550.04	-1781.50	  432.19
      0.8700	    0.00	  550.75	-1781.50	  432.90
      0.9700	   41.00	  551.44	-1781.50	  433.60
      1.0700	   45.00	  552.13	-1781.50	  434.28
      1.1700	   43.00	  552.80	-1781.50	  434.96
      1.2700	   44.00	  553.47	-1781.50	  435.62
      1.3700	   53.00	  554.12	-1781.50	  436.27
      1.4700	  111.00	  554.76	-1781.50	  436.91
      1.5700	  278.00	  555.39	-1781.50	  437.54
      1.6700	  484.00	  556.01	-1781.50	  438.16
      1.7700	  576.00	  556.62	-1781.50	  438.77
      1.8700	  685.00	  557.22	-1781.50	  439.37
      1.9700	  721.00	  557.81	-1781.50	  439.96
      2.0700	  733.00	  558.39	-1781.50	  440.54
      2.1700	  785.00	  558.96	-1781.50	  441.11
      2.2700	  770.00	  559.52	-1781.50	  441.67
      2.3700	  760.00	  560.06	-1781.50	  442.22
      2.4700	  708.00	  560.60	-1781.50	  442.76
      2.5700	  725.00	  561.13	-1781.50	  443.28
      2.6700	  665.00	  561.65	-1781.50	  443.80
      2.7700	  663.00	  562.16	-1781.50	  444.31
      2.8700	  651.00	  562.66	-1781.50	  444.81
      2.9700	  607.00	  563.15	-1781.50	  445.30
      3.0700	  644.00	  563.63	-1781.50	  445.78
      3.1700	  620.00	  564.10	-1781.50	  446.25
      3.2700	  610.00	  564.56	-1781.50	  446.71
      3.3700	  666.00	  565.01	-1781.50	  447.17
      3.4700	  762.00	  565.46	-1781.50	  447.61
      3.5700	  789.00	  565.89	-1781.50	  448.04
      3.6700	  834.00	  566.32	-1781.50	  448.47
      3.7700	  911.00	  566.73	-1781.50	  448.88
      3.8700	  968.00	  567.14	-1781.50	  449.29
      3.9700	 1067.00	  567.54	-1781.50	  449.69
      4.0700	 1003.00	  567.92	-1781.50	  450.08
      4.1700	 1024.00	  568.30	-1781.50	  450.46
      4.2700	 1100.00	  568.68	-1781.50	  450.83
      4.3700	 1091.00	  569.04	-1781.50	  451.19
      4.4700	 1050.00	  569.39	-1781.50	  451.54
      4.5700	 1060.00	  569.74	-1781.50	  451.89
      4.6700	 1034.00	  570.07	-1781.50	  452.23
      4.7700	  919.00	  570.40	-1781.50	  452.56
      4.8700	  973.00	  570.72	-1781.50	  452.88
      4.9700	  913.00	  571.04	-1781.50	  453.19
      5.0700	  906.00	  571.34	-1781.50	  453.49
      5.1700	  917.00	  571.64	-1781.50	  453.79
      5.2700	  908.00	  571.92	-1781.50	  454.08
      5.3700	  892.00	  572.20	-1781.50	  454.36
      5.4700	  892.00	  572.48	-1781.50	  454.63
      5.5700	  875.00	  572.74	-1781.50	  454.89
      5.6700	  811.00	  573.00	-1781.50	  455.15
      5.7700	  833.00	  573.24	-1781.50	  455.40
      5.8700	  827.00	  573.49	-1781.50	  455.64
      5.9700	  837.00	  573.72	-1781.50	  455.87
      6.0700	  813.00	  573.94	-1781.50	  456.10
      6.1700	  784.00	  574.16	-1781.50	  456.31
      6.2700	  779.00	  574.37	-1781.50	  456.53
      6.3700	  753.00	  574.58	-1781.50	  456.73
      6.4700	  808.00	  574.77	-1781.50	  456.93
      6.5700	  769.00	  574.96	-1781.50	  457.11
      6.6700	  720.00	  575.14	-1781.50	  457.30
      6.7700	  757.00	  575.32	-1781.50	  457.47
      6.8700	  724.00	  575.49	-1781.50	  457.64
      6.9700	  724.00	  575.65	-1781.50	  457.80
      7.0700	  718.00	  575.80	-1781.50	  457.95
      7.1700	  693.00	  575.95	-1781.50	  458.10
      7.2700	  700.00	  576.09	-1781.50	  458.24
      7.3700	  642.00	  576.22	-1781.50	  458.37
      7.4700	  637.00	  576.35	-1781.50	  458.50
      7.5700	  682.00	  576.47	-1781.50	  458.62
      7.6700	  624.00	  576.58	-1781.50	  458.73
      7.7700	  662.00	  576.68	-1781.50	  458.84
      7.8700	  633.00	  576.79	-1781.50	  458.94
      7.9700	  702.00	  576.88	-1781.50	  459.03
      8.0700	  680.00	  576.97	-1781.50	  459.12
      8.1700	  648.00	  577.05	-1781.50	  459.20
      8.2700	  636.00	  577.12	-1781.50	  459.28
      8.3700	  614.00	  577.19	-1781.50	  459.34
      8.4700	  632.00	  577.25	-1781.50	  459.41
      8.5700	  640.00	  577.31	-1781.50	  459.46
      8.6700	  634.00	  577.36	-1781.50	  459.51
      8.7700	  611.00	  577.41	-1781.50	  459.56
      8.8700	  627.00	  577.44	-1781.50	  459.60
      8.9700	  649.00	  577.48	-1781.50	  459.63
      9.0700	  624.00	  577.50	-1781.50	  459.66
      9.1700	  587.00	  577.53	-1781.50	  459.68
      9.2700	  650.00	  577.54	-1781.50	  459.69
      9.3700	  617.00	  577.55	-1781.50	  459.70
      9.4700	  635.00	  577.56	-1781.50	  459.71
      9.5700	  592.00	  577.56	-1781.50	  459.71
      9.6700	  602.00	  577.55	-1781.50	  459.70
      9.7700	  558.00	  577.54	-1781.50	  459.69
      9.8700	  633.00	  577.52	-1781.50	  459.67
      9.9700	  607.00	  577.50	-1781.50	  459.65
     10.0700	  567.00	  578.25	-1792.75	  459.62
     10.1700	  640.00	  578.30	-1719.80	  459.59
     10.2700	  616.00	  578.36	-1743.86	  459.55
     10.3700	  604.00	  578.45	-1755.95	  459.51
     10.4700	  641.00	  578.59	-1719.09	  459.46
     10.5700	  602.00	  578.84	-1758.34	  459.41
     10.6700	  586.00	  579.29	-1774.79	  459.35
     10.7700	  601.00	  580.04	-1760.54	  459.28
     10.8700	  603.00	  581.18	-1759.68	  459.22
     10.9700	  588.00	  582.69	-1776.19	  459.14
     11.0700	  575.00	  584.53	-1791.03	  459.07
     11.1700	  554.00	  586.71	-1814.21	  458.98
     11.2700	  550.00	  589.26	-1820.76	  458.90
     11.3700	  586.00	  592.24	-1787.74	  458.81
     11.4700	  548.00	  595.80	-1829.30	  458.71
     11.5700	  600.00	  600.12	-1781.62	  458.61
     11.6700	  598.00	  605.55	-1789.05	  458.51
     11.7700	  623.00	  612.68	-1771.18	  458.40
     11.8700	  653.00	  622.43	-1750.93	  458.28
     11.9700	  680.00	  635.45	-1736.95	  458.17
     12.0700	  734.00	  650.26	-1697.76	  458.04
     12.1700	  677.00	  660.84	-1765.34	  457.92
     12.2700	  655.00	  657.61	-1784.11	  457.79
     12.3700	  670.00	  637.56	-1749.06	  457.65
     12.4700	  637.00	  612.98	-1757.48	  457.51
     12.5700	  607.00	  595.01	-1769.51	  457.37
     12.6700	  573.00	  585.26	-1793.76	  457.22
     12.7700	  579.00	  580.84	-1783.34	  457.07
     12.8700	  568.00	  578.84	-1792.34	  456.92
     12.9700	  557.00	  577.72	-1802.22	  456.76
     13.0700	  550.00	  576.95	-1808.45	  456.60
     13.1700	  569.00	  576.36	-1788.86	  456.43
     13.2700	  541.00	  575.87	-1816.37	  456.27
     13.3700	  561.00	  575.45	-1795.95	  456.09
     13.4700	  552.00	  575.08	-1804.58	  455.92
     13.5700	  615.00	  574.74	-1741.24	  455.74
     13.6700	  564.00	  574.43	-1791.93	  455.55
     13.7700	  565.00	  574.14	-1790.64	  455.37
     13.8700	  595.00	  573.87	-1760.37	  455.18
     13.9700	  527.00	  573.60	-1828.10	  454.98
     14.0700	  572.00	  573.34	-1782.84	  454.78
     14.1700	  600.00	  573.09	-1754.59	  454.58
     14.2700	  531.00	  572.84	-1823.34	  454.38
     14.3700	  556.00	  572.59	-1798.09	  454.17
     14.4700	  521.00	  572.35	-1832.85	  453.96
     14.5700	  533.00	  572.11	-1820.61	  453.75
     14.6700	  631.00	  571.86	-1722.36	  453.53
     14.7700	  567.00	  571.62	-1786.12	  453.32
     14.8700	  559.00	  571.38	-1793.88	  453.09
     14.9700	  560.00	  571.13	-1792.63	  452.87
     15.0700	  592.00	  570.89	-1760.39	  452.64
     15.1700	  579.00	  570.64	-1773.14	  452.41
     15.2700	  565.00	  570.39	-1786.89	  452.18
     15.3700	  578.00	  570.14	-1773.64	  451.94
     15.4700	  549.00	  569.89	-1802.39	  451.70
     15.5700	  555.00	  569.64	-1796.14	  451.46
     15.6700	  588.00	  569.39	-1762.89	  451.21
     15.7700	  520.00	  569.13	-1830.63	  450.97
     15.8700	  520.00	  568.87	-1830.37	  450.72
     15.9700	  560.00	  568.61	-1790.11	  450.46
     16.0700	  526.00	  568.35	-1823.85	  450.21
     16.1700	  564.00	  568.11	-1785.61	  449.95
     16.2700	  559.00	  567.85	-1790.35	  449.69
     16.3700	  530.00	  567.58	-1819.08	  449.43
     16.4700	  571.00	  567.31	-1777.81	  449.17
     16.5700	  612.00	  567.04	-1736.54	  448.90
     16.6700	  559.00	  566.77	-1789.27	  448.63
     16.7700	  568.00	  566.49	-1779.99	  448.36
     16.8700	  591.00	  566.22	-1756.72	  448.09
     16.9700	  572.00	  565.94	-1775.44	  447.81
     17.0700	  543.00	  565.66	-1804.16	  447.53
     17.1700	  546.00	  565.38	-1800.88	  447.25
     17.2700	  582.00	  565.09	-1764.59	  446.97
     17.3700	  532.00	  564.81	-1814.31	  446.69
     17.4700	  553.00	  564.52	-1793.02	  446.40
     17.5700	  529.00	  564.23	-1816.73	  446.11
     17.6700	  556.00	  563.94	-1789.44	  445.82
     17.7700	  540.00	  563.65	-1805.15	  445.53
     17.8700	  570.00	  563.35	-1774.85	  445.24
     17.9700	  576.00	  563.06	-1768.56	  444.94
     18.0700	  569.00	  562.87	-1775.37	  444.65
     18.1700	  564.00	  562.57	-1780.07	  444.35
     18.2700	  578.00	  562.27	-1765.77	  444.05
     18.3700	  575.00	  561.98	-1768.48	  443.75
     18.4700	  550.00	  561.67	-1793.17	  443.44
     18.5700	  575.00	  561.37	-1767.87	  443.14
     18.6700	  568.00	  561.07	-1774.57	  442.83
     18.7700	  526.00	  560.76	-1816.26	  442.52
     18.8700	  578.00	  560.46	-1763.96	  442.21
     18.9700	  552.00	  560.23	-1789.73	  441.90
     19.0700	  571.00	  559.92	-1770.42	  441.59
     19.1700	  564.00	  559.62	-1777.12	  441.28
     19.2700	  501.00	  559.31	-1839.81	  440.96
     19.3700	  602.00	  559.00	-1738.50	  440.64
     19.4700	  550.00	  558.69	-1790.19	  440.33
     19.5700	  566.00	  558.37	-1773.87	  440.01
     19.6700	  549.00	  558.06	-1790.56	  439.69
     19.7700	  569.00	  557.75	-1770.25	  439.37
     19.8700	  553.00	  557.43	-1785.93	  439.04
     19.9700	  592.00	  557.12	-1746.62	  438.72
     20.0700	  544.00	  556.80	-1794.30	  438.39
     20.1700	  503.00	  556.49	-1834.99	  438.07
     20.2700	  591.00	  556.17	-1746.67	  437.74
     20.3700	  528.00	  555.85	-1809.35	  437.41
     20.4700	  536.00	  555.54	-1801.04	  437.09
     20.5700	  549.00	  555.22	-1787.72	  436.76
     20.6700	  531.00	  554.87	-1805.37	  436.42
     20.7700	  546.00	  554.55	-1790.05	  436.09
     20.8700	  565.00	  554.27	-1770.77	  435.76
     20.9700	  552.00	  553.96	-1783.46	  435.43
     21.0700	  526.00	  553.64	-1809.14	  435.09
     21.1700	  573.00	  553.32	-1761.82	  434.76
     21.2700	  529.00	  553.01	-1805.51	  434.42
     21.3700	  567.00	  552.69	-1767.19	  434.09
     21.4700	  560.00	  552.38	-1773.88	  433.75
     21.5700	  540.00	  552.07	-1793.57	  433.41
     21.6700	  527.00	  551.75	-1806.25	  433.07
     21.7700	  543.00	  551.44	-1789.94	  432.73
     21.8700	  523.00	  551.13	-1809.63	  432.40
     21.9700	  561.00	  550.82	-1771.32	  432.06
     22.0700	  547.00	  550.52	-1785.02	  431.71
     22.1700	  551.00	  550.22	-1780.72	  431.37
     22.2700	  573.00	  549.92	-1758.42	  431.03
     22.3700	  563.00	  549.62	-1768.12	  430.69
     22.4700	  565.00	  549.33	-1765.83	  430.35
     22.5700	  519.00	  549.04	-1811.54	  430.01
     22.6700	  552.00	  548.76	-1778.26	  429.66
     22.7700	  564.00	  548.48	-1765.98	  429.32
     22.8700	  542.00	  548.21	-1787.71	  428.98
     22.9700	  548.00	  547.96	-1781.46	  428.63
     23.0700	  573.00	  547.71	-1756.21	  428.29
     23.1700	  577.00	  547.49	-1751.99	  427.94
     23.2700	  520.00	  547.28	-1808.78	  427.60
     23.3700	  571.00	  547.10	-1757.60	  427.26
     23.4700	  563.00	  546.95	-1765.45	  426.91
     23.5700	  548.00	  546.85	-1780.35	  426.57
     23.6700	  532.00	  546.82	-1796.32	  426.22
     23.7700	  575.00	  547.02	-1753.52	  425.88
     23.8700	  520.00	  547.32	-1808.82	  425.53
     23.9700	  543.00	  548.05	-1786.55	  425.19
     24.0700	  577.00	  549.64	-1754.14	  424.84
     24.1700	  574.00	  552.77	-1760.27	  424.50
     24.2700	  613.00	  558.27	-1726.77	  424.15
     24.3700	  600.00	  567.13	-1748.63	  423.81
     24.4700	  615.00	  580.37	-1746.87	  423.46
     24.5700	  607.00	  598.28	-1772.78	  423.12
     24.6700	  591.00	  618.09	-1808.59	  422.77
     24.7700	  641.00	  631.88	-1772.38	  422.43
     24.8700	  621.00	  628.94	-1789.44	  422.08
     24.9700	  600.00	  607.83	-1789.33	  421.74
     25.0700	  555.00	  582.12	-1808.62	  421.39
     25.1700	  555.00	  562.87	-1789.37	  421.05
     25.2700	  585.00	  552.01	-1748.51	  420.71
     25.3700	  548.00	  546.91	-1780.41	  420.36
     25.4700	  569.00	  544.59	-1757.09	  420.02
     25.5700	  521.00	  543.36	-1803.86	  419.68
     25.6700	  552.00	  542.56	-1772.06	  419.34
     25.7700	  586.00	  541.97	-1737.47	  419.00
     25.8700	  554.00	  541.53	-1769.03	  418.66
     25.9700	  560.00	  541.19	-1762.69	  418.31
     26.0700	  568.00	  540.93	-1754.44	  417.97
     26.1700	  591.00	  540.76	-1731.26	  417.63
     26.2700	  512.00	  540.67	-1810.17	  417.29
     26.3700	  553.00	  540.66	-1769.16	  416.96
     26.4700	  535.00	  540.73	-1787.23	  416.62
     26.5700	  534.00	  540.90	-1788.40	  416.28
     26.6700	  549.00	  541.19	-1773.69	  415.94
     26.7700	  523.00	  541.62	-1800.12	  415.61
     26.8700	  545.00	  542.23	-1778.73	  415.27
     26.9700	  567.00	  543.08	-1757.58	  414.93
     27.0700	  571.00	  544.24	-1754.74	  414.60
     27.1700	  539.00	  545.85	-1788.35	  414.27
     27.2700	  578.00	  548.18	-1751.68	  413.93
     27.3700	  563.00	  551.77	-1770.27	  413.60
     27.4700	  556.00	  557.62	-1783.12	  413.27
     27.5700	  540.00	  567.61	-1809.11	  412.94
     27.6700	  630.00	  584.69	-1736.19	  412.61
     27.7700	  601.00	  612.67	-1793.17	  412.28
     27.8700	  585.00	  654.89	-1851.39	  411.95
     27.9700	  731.00	  711.54	-1762.04	  411.62
     28.0700	  816.00	  776.15	-1741.65	  411.29
     28.1700	  889.00	  832.48	-1724.98	  410.97
     28.2700	 1000.00	  855.94	-1637.44	  410.64
     28.3700	  950.00	  831.70	-1663.20	  410.32
     28.4700	  769.00	  782.24	-1794.74	  409.99
     28.5700	  687.00	  745.42	-1839.92	  409.67
     28.6700	  645.00	  738.80	-1875.30	  409.35
     28.7700	  746.00	  758.08	-1793.58	  409.02
     28.8700	  797.00	  783.59	-1768.09	  408.70
     28.9700	  827.00	  787.60	-1742.10	  408.39
     29.0700	  721.00	  752.26	-1812.76	  408.07
     29.1700	  708.00	  692.05	-1765.55	  407.75
     29.2700	  636.00	  634.53	-1780.03	  407.43
     29.3700	  617.00	  593.00	-1757.50	  407.12
     29.4700	  574.00	  567.88	-1775.38	  406.80
     29.5700	  593.00	  554.30	-1742.80	  406.49
     29.6700	  567.00	  547.12	-1761.62	  406.18
     29.7700	  646.00	  543.04	-1678.54	  405.87
     29.8700	  640.00	  540.50	-1682.00	  405.56
     29.9700	  556.00	  538.89	-1764.39	  405.25
     30.0700	  568.00	  538.08	-1751.58	  404.94
     30.1700	  562.00	  538.23	-1757.73	  404.64
     30.2700	  552.00	  539.89	-1769.39	  404.33
     30.3700	  552.00	  544.14	-1773.64	  404.03
     30.4700	  543.00	  552.61	-1791.11	  403.72
     30.5700	  533.00	  567.03	-1815.53	  403.42
     30.6700	  557.00	  587.94	-1812.44	  403.12
     30.7700	  567.00	  612.77	-1827.27	  402.82
     30.8700	  628.00	  634.53	-1788.03	  402.52
     30.9700	  637.00	  642.41	-1786.91	  402.23
     31.0700	  609.00	  628.97	-1801.47	  401.93
     31.1700	  613.00	  601.14	-1769.64	  401.64
     31.2700	  592.00	  573.09	-1762.59	  401.35
     31.3700	  556.00	  552.34	-1777.84	  401.05
     31.4700	  488.00	  539.72	-1833.22	  400.76
     31.5700	  510.00	  532.97	-1804.47	  400.47
     31.6700	  488.00	  529.51	-1823.01	  400.19
     31.7700	  550.00	  527.59	-1759.09	  399.90
     31.8700	  547.00	  526.37	-1760.87	  399.62
     31.9700	  518.00	  525.53	-1789.03	  399.33
     32.0700	  595.00	  524.91	-1711.42	  399.05
     32.1700	  547.00	  524.49	-1758.99	  398.77
     32.2700	  559.00	  524.22	-1746.72	  398.49
     32.3700	  554.00	  524.10	-1751.60	  398.21
     32.4700	  559.00	  524.13	-1746.63	  397.93
     32.5700	  545.00	  524.33	-1760.83	  397.66
     32.6700	  572.00	  524.73	-1734.23	  397.39
     32.7700	  504.00	  525.35	-1802.85	  397.11
     32.8700	  566.00	  526.28	-1741.78	  396.84
     32.9700	  507.00	  527.61	-1802.11	  396.57
     33.0700	  548.00	  529.56	-1763.06	  396.31
     33.1700	  522.00	  532.57	-1792.07	  396.04
     33.2700	  547.00	  537.63	-1772.13	  395.77
     33.3700	  527.00	  546.93	-1801.43	  395.51
     33.4700	  575.00	  564.70	-1771.20	  395.25
     33.5700	  599.00	  597.69	-1780.19	  394.99
     33.6700	  673.00	  653.70	-1762.20	  394.73
     33.7700	  707.00	  736.44	-1810.94	  394.47
     33.8700	  895.00	  837.14	-1723.64	  394.22
     33.9700	  997.00	  928.99	-1713.49	  393.96
     34.0700	 1012.00	  970.50	-1740.00	  393.71
     34.1700	 1010.00	  930.51	-1702.01	  393.46
     34.2700	  906.00	  829.49	-1704.99	  393.21
     34.3700	  746.00	  720.03	-1755.53	  392.96
     34.4700	  615.00	  635.02	-1801.52	  392.72
     34.5700	  569.00	  581.47	-1793.97	  392.47
     34.6700	  557.00	  552.48	-1776.98	  392.23
     34.7700	  567.00	  537.94	-1752.44	  391.99
     34.8700	  511.00	  530.38	-1800.88	  391.75
     34.9700	  485.00	  525.88	-1822.38	  391.51
     35.0700	  522.00	  522.77	-1782.27	  391.28
     35.1700	  477.00	  520.43	-1824.93	  391.04
     35.2700	  471.00	  518.60	-1829.10	  390.81
     35.3700	  523.00	  517.09	-1775.59	  390.58
     35.4700	  502.00	  515.84	-1795.34	  390.35
     35.5700	  475.00	  514.78	-1821.28	  390.12
     35.6700	  501.00	  513.87	-1794.37	  389.89
     35.7700	  523.00	  513.08	-1771.58	  389.67
     35.8700	  555.00	  512.38	-1738.88	  389.45
     35.9700	  513.00	  511.77	-1780.27	  389.23
     36.0700	  524.00	  511.69	-1769.19	  389.01
     36.1700	  491.00	  511.20	-1801.70	  388.79
     36.2700	  526.00	  510.76	-1766.26	  388.57
     36.3700	  569.00	  510.36	-1722.86	  388.36
     36.4700	  515.00	  510.00	-1776.50	  388.15
     36.5700	  510.00	  509.69	-1781.19	  387.94
     36.6700	  555.00	  509.41	-1735.91	  387.73
     36.7700	  530.00	  509.19	-1760.69	  387.52
     36.8700	  496.00	  509.04	-1794.54	  387.32
     36.9700	  504.00	  509.04	-1786.54	  387.11
     37.0700	  515.00	  509.33	-1775.83	  386.91
     37.1700	  527.00	  510.21	-1764.71	  386.71
     37.2700	  520.00	  512.10	-1773.60	  386.51
     37.3700	  507.00	  515.44	-1789.94	  386.32
     37.4700	  530.00	  520.25	-1771.75	  386.12
     37.5700	  508.00	  525.74	-1799.24	  385.93
     37.6700	  549.00	  530.20	-1762.70	  385.74
     37.7700	  525.00	  531.64	-1788.14	  385.55
     37.8700	  491.00	  529.53	-1820.03	  385.36
     37.9700	  536.00	  525.44	-1770.94	  385.18
     38.0700	  521.00	  520.86	-1781.36	  384.99
     38.1700	  508.00	  516.38	-1789.88	  384.81
     38.2700	  517.00	  512.45	-1776.95	  384.63
     38.3700	  508.00	  509.43	-1782.93	  384.45
     38.4700	  529.00	  507.35	-1759.85	  384.27
     38.5700	  480.00	  506.02	-1807.52	  384.10
     38.6700	  493.00	  505.09	-1793.59	  383.93
     38.7700	  524.00	  504.57	-1762.07	  383.76
     38.8700	  543.00	  504.20	-1742.70	  383.59
     38.9700	  480.00	  503.91	-1805.41	  383.42
     39.0700	  540.00	  503.67	-1745.17	  383.25
     39.1700	  491.00	  503.45	-1793.95	  383.09
     39.2700	  513.00	  503.17	-1771.67	  382.93
     39.3700	  543.00	  502.98	-1741.48	  382.77
     39.4700	  458.00	  502.81	-1826.31	  382.61
     39.5700	  509.00	  502.78	-1775.28	  382.45
     39.6700	  503.00	  502.63	-1781.13	  382.30
     39.7700	  531.00	  502.50	-1753.00	  382.15
     39.8700	  526.00	  502.38	-1757.88	  382.00
     39.9700	  485.00	  502.26	-1798.76	  381.85
     40.0700	  523.00	  502.16	-1760.66	  381.70
     40.1700	  525.00	  502.07	-1758.57	  381.56
     40.2700	  503.00	  501.99	-1780.49	  381.41
     40.3700	  512.00	  501.92	-1771.42	  381.27
     40.4700	  480.00	  501.86	-1803.36	  381.13
     40.5700	  485.00	  501.82	-1798.32	  380.99
     40.6700	  497.00	  501.80	-1786.30	  380.86
     40.7700	  512.00	  501.80	-1771.30	  380.73
