MSG Master    CELL:    5.91947   5.91947  23.27995   90.0000   90.0000  120.0000   SPGR: P 63/m m c             TEMP:   1074.85
  1   1280     2.52000     0.00000    -0.12077     0.00000     0.00000    0
    99     0     2
       0.00000      10.00000
     125.00000     130.00000
 2Theta	Yobs	Ycal	Yobs-Ycal	Backg	Posr	(hkl)	K
      0.7700	    0.00	  560.76	-1757.75	  442.08
      0.8700	    0.00	  561.27	-1757.75	  442.59
      0.9700	   40.00	  561.77	-1757.75	  443.09
      1.0700	   35.00	  562.26	-1757.75	  443.59
      1.1700	   35.00	  562.75	-1757.75	  444.07
      1.2700	   44.00	  563.22	-1757.75	  444.54
      1.3700	   46.00	  563.68	-1757.75	  445.01
      1.4700	   93.00	  564.14	-1757.75	  445.46
      1.5700	  320.00	  564.59	-1757.75	  445.91
      1.6700	  465.00	  565.03	-1757.75	  446.35
      1.7700	  578.00	  565.46	-1757.75	  446.78
      1.8700	  665.00	  565.88	-1757.75	  447.20
      1.9700	  679.00	  566.29	-1757.75	  447.61
      2.0700	  786.00	  566.69	-1757.75	  448.01
      2.1700	  752.00	  567.09	-1757.75	  448.41
      2.2700	  787.00	  567.48	-1757.75	  448.80
      2.3700	  743.00	  567.86	-1757.75	  449.18
      2.4700	  716.00	  568.23	-1757.75	  449.55
      2.5700	  642.00	  568.59	-1757.75	  449.91
      2.6700	  670.00	  568.94	-1757.75	  450.26
      2.7700	  603.00	  569.29	-1757.75	  450.61
      2.8700	  655.00	  569.63	-1757.75	  450.95
      2.9700	  591.00	  569.96	-1757.75	  451.28
      3.0700	  606.00	  570.28	-1757.75	  451.60
      3.1700	  597.00	  570.60	-1757.75	  451.92
      3.2700	  607.00	  570.90	-1757.75	  452.22
      3.3700	  721.00	  571.20	-1757.75	  452.52
      3.4700	  766.00	  571.50	-1757.75	  452.82
      3.5700	  791.00	  571.78	-1757.75	  453.10
      3.6700	  886.00	  572.06	-1757.75	  453.38
      3.7700	  945.00	  572.33	-1757.75	  453.65
      3.8700	  902.00	  572.59	-1757.75	  453.91
      3.9700	 1014.00	  572.84	-1757.75	  454.16
      4.0700	 1035.00	  573.09	-1757.75	  454.41
      4.1700	 1121.00	  573.33	-1757.75	  454.65
      4.2700	 1107.00	  573.56	-1757.75	  454.88
      4.3700	 1122.00	  573.79	-1757.75	  455.11
      4.4700	 1033.00	  574.01	-1757.75	  455.33
      4.5700	 1063.00	  574.22	-1757.75	  455.54
      4.6700	 1035.00	  574.42	-1757.75	  455.74
      4.7700	 1009.00	  574.62	-1757.75	  455.94
      4.8700	  985.00	  574.81	-1757.75	  456.13
      4.9700	  991.00	  575.00	-1757.75	  456.32
      5.0700	  946.00	  575.17	-1757.75	  456.50
      5.1700	  993.00	  575.35	-1757.75	  456.67
      5.2700	  920.00	  575.51	-1757.75	  456.83
      5.3700	  912.00	  575.67	-1757.75	  456.99
      5.4700	  868.00	  575.82	-1757.75	  457.14
      5.5700	  805.00	  575.96	-1757.75	  457.29
      5.6700	  854.00	  576.10	-1757.75	  457.42
      5.7700	  777.00	  576.24	-1757.75	  457.56
      5.8700	  771.00	  576.36	-1757.75	  457.68
      5.9700	  750.00	  576.48	-1757.75	  457.80
      6.0700	  823.00	  576.59	-1757.75	  457.92
      6.1700	  780.00	  576.70	-1757.75	  458.02
      6.2700	  788.00	  576.80	-1757.75	  458.12
      6.3700	  787.00	  576.90	-1757.75	  458.22
      6.4700	  752.00	  576.99	-1757.75	  458.31
      6.5700	  769.00	  577.07	-1757.75	  458.39
      6.6700	  684.00	  577.15	-1757.75	  458.47
      6.7700	  671.00	  577.22	-1757.75	  458.54
      6.8700	  695.00	  577.29	-1757.75	  458.61
      6.9700	  729.00	  577.35	-1757.75	  458.67
      7.0700	  726.00	  577.40	-1757.75	  458.72
      7.1700	  697.00	  577.45	-1757.75	  458.77
      7.2700	  706.00	  577.49	-1757.75	  458.82
      7.3700	  680.00	  577.53	-1757.75	  458.85
      7.4700	  689.00	  577.57	-1757.75	  458.89
      7.5700	  700.00	  577.59	-1757.75	  458.91
      7.6700	  617.00	  577.61	-1757.75	  458.94
      7.7700	  682.00	  577.63	-1757.75	  458.95
      7.8700	  638.00	  577.64	-1757.75	  458.96
      7.9700	  596.00	  577.65	-1757.75	  458.97
      8.0700	  617.00	  577.65	-1757.75	  458.97
      8.1700	  628.00	  577.64	-1757.75	  458.97
      8.2700	  620.00	  577.64	-1757.75	  458.96
      8.3700	  584.00	  577.62	-1757.75	  458.94
      8.4700	  633.00	  577.60	-1757.75	  458.92
      8.5700	  616.00	  577.58	-1757.75	  458.90
      8.6700	  604.00	  577.55	-1757.75	  458.87
      8.7700	  599.00	  577.51	-1757.75	  458.84
      8.8700	  667.00	  577.48	-1757.75	  458.80
      8.9700	  618.00	  577.43	-1757.75	  458.75
      9.0700	  636.00	  577.39	-1757.75	  458.71
      9.1700	  578.00	  577.33	-1757.75	  458.65
      9.2700	  597.00	  577.28	-1757.75	  458.60
      9.3700	  575.00	  577.21	-1757.75	  458.53
      9.4700	  599.00	  577.15	-1757.75	  458.47
      9.5700	  606.00	  577.08	-1757.75	  458.40
      9.6700	  643.00	  577.00	-1757.75	  458.32
      9.7700	  654.00	  576.92	-1757.75	  458.24
      9.8700	  573.00	  576.84	-1757.75	  458.16
      9.9700	  659.00	  576.75	-1757.75	  458.07
     10.0700	  601.00	  577.58	-1734.33	  457.98
     10.1700	  564.00	  577.58	-1771.33	  457.88
     10.2700	  586.00	  577.61	-1749.36	  457.78
     10.3700	  607.00	  577.66	-1728.41	  457.68
     10.4700	  592.00	  577.79	-1743.54	  457.57
     10.5700	  565.00	  578.03	-1770.78	  457.46
     10.6700	  608.00	  578.50	-1728.25	  457.34
     10.7700	  622.00	  579.30	-1715.05	  457.22
     10.8700	  600.00	  580.50	-1738.25	  457.09
     10.9700	  595.00	  582.11	-1744.86	  456.97
     11.0700	  584.00	  584.10	-1757.85	  456.83
     11.1700	  576.00	  586.45	-1768.20	  456.70
     11.2700	  562.00	  589.21	-1784.96	  456.56
     11.3700	  594.00	  592.46	-1756.21	  456.42
     11.4700	  649.00	  596.34	-1705.09	  456.27
     11.5700	  587.00	  601.07	-1771.82	  456.12
     11.6700	  573.00	  607.00	-1791.75	  455.96
     11.7700	  614.00	  614.78	-1758.53	  455.81
     11.8700	  637.00	  625.29	-1746.04	  455.65
     11.9700	  712.00	  639.01	-1684.76	  455.48
     12.0700	  670.00	  654.18	-1741.93	  455.31
     12.1700	  688.00	  664.71	-1734.46	  455.14
     12.2700	  681.00	  661.17	-1737.92	  454.97
     12.3700	  639.00	  640.61	-1759.36	  454.79
     12.4700	  652.00	  615.17	-1720.93	  454.61
     12.5700	  645.00	  596.07	-1708.82	  454.43
     12.6700	  578.00	  585.21	-1764.96	  454.24
     12.7700	  554.00	  580.00	-1783.75	  454.05
     12.8700	  584.00	  577.52	-1751.27	  453.86
     12.9700	  576.00	  576.14	-1757.89	  453.66
     13.0700	  565.00	  575.19	-1767.94	  453.46
     13.1700	  539.00	  574.45	-1793.20	  453.26
     13.2700	  581.00	  573.85	-1750.60	  453.06
     13.3700	  550.00	  573.34	-1781.09	  452.85
     13.4700	  562.00	  572.89	-1768.64	  452.64
     13.5700	  556.00	  572.49	-1774.24	  452.42
     13.6700	  554.00	  572.12	-1775.87	  452.21
     13.7700	  552.00	  571.77	-1777.52	  451.99
     13.8700	  553.00	  571.44	-1776.19	  451.77
     13.9700	  619.00	  571.13	-1709.88	  451.54
     14.0700	  559.00	  570.83	-1769.58	  451.32
     14.1700	  570.00	  570.53	-1758.28	  451.09
     14.2700	  570.00	  570.25	-1758.00	  450.86
     14.3700	  582.00	  569.96	-1745.71	  450.62
     14.4700	  518.00	  569.68	-1809.43	  450.38
     14.5700	  544.00	  569.41	-1783.16	  450.14
     14.6700	  544.00	  569.13	-1782.88	  449.90
     14.7700	  552.00	  568.86	-1774.61	  449.66
     14.8700	  590.00	  568.59	-1736.34	  449.41
     14.9700	  582.00	  568.31	-1744.06	  449.16
     15.0700	  517.00	  568.04	-1808.79	  448.91
     15.1700	  543.00	  567.77	-1782.52	  448.66
     15.2700	  584.00	  567.50	-1741.25	  448.41
     15.3700	  545.00	  567.22	-1779.97	  448.15
     15.4700	  545.00	  566.95	-1779.70	  447.89
     15.5700	  532.00	  566.68	-1792.43	  447.63
     15.6700	  529.00	  566.40	-1795.15	  447.36
     15.7700	  596.00	  566.12	-1727.87	  447.10
     15.8700	  532.00	  565.87	-1791.62	  446.83
     15.9700	  573.00	  565.59	-1750.34	  446.56
     16.0700	  578.00	  565.31	-1745.06	  446.29
     16.1700	  548.00	  565.03	-1774.78	  446.02
     16.2700	  572.00	  564.75	-1750.50	  445.74
     16.3700	  577.00	  564.47	-1745.22	  445.47
     16.4700	  544.00	  564.19	-1777.94	  445.19
     16.5700	  586.00	  563.90	-1735.65	  444.91
     16.6700	  601.00	  563.61	-1720.36	  444.63
     16.7700	  551.00	  563.33	-1770.08	  444.34
     16.8700	  549.00	  563.04	-1771.79	  444.06
     16.9700	  573.00	  562.75	-1747.50	  443.77
     17.0700	  517.00	  562.45	-1803.20	  443.48
     17.1700	  566.00	  562.16	-1753.91	  443.19
     17.2700	  525.00	  561.87	-1794.62	  442.90
     17.3700	  543.00	  561.57	-1776.32	  442.61
     17.4700	  507.00	  561.27	-1812.02	  442.31
     17.5700	  576.00	  560.98	-1742.73	  442.02
     17.6700	  514.00	  560.68	-1804.43	  441.72
     17.7700	  584.00	  560.38	-1734.13	  441.42
     17.8700	  503.00	  560.08	-1814.83	  441.12
     17.9700	  579.00	  559.88	-1738.63	  440.82
     18.0700	  569.00	  559.57	-1748.32	  440.52
     18.1700	  552.00	  559.27	-1765.02	  440.22
     18.2700	  571.00	  558.97	-1745.72	  439.91
     18.3700	  534.00	  558.66	-1782.41	  439.60
     18.4700	  515.00	  558.36	-1801.11	  439.30
     18.5700	  536.00	  558.05	-1779.80	  438.99
     18.6700	  540.00	  557.75	-1775.50	  438.68
     18.7700	  536.00	  557.44	-1779.19	  438.37
     18.8700	  585.00	  557.21	-1729.96	  438.06
     18.9700	  572.00	  556.91	-1742.66	  437.74
     19.0700	  554.00	  556.60	-1760.35	  437.43
     19.1700	  563.00	  556.29	-1751.04	  437.12
     19.2700	  545.00	  555.98	-1768.73	  436.80
     19.3700	  548.00	  555.67	-1765.42	  436.48
     19.4700	  564.00	  555.36	-1749.11	  436.17
     19.5700	  548.00	  555.05	-1764.80	  435.85
     19.6700	  561.00	  554.74	-1751.49	  435.53
     19.7700	  546.00	  554.42	-1766.17	  435.21
     19.8700	  540.00	  554.11	-1771.86	  434.89
     19.9700	  532.00	  553.80	-1779.55	  434.57
     20.0700	  573.00	  553.49	-1738.24	  434.25
     20.1700	  599.00	  553.17	-1711.92	  433.92
     20.2700	  526.00	  552.86	-1784.61	  433.60
     20.3700	  549.00	  552.55	-1761.30	  433.28
     20.4700	  544.00	  552.24	-1765.99	  432.95
     20.5700	  550.00	  551.92	-1759.67	  432.63
     20.6700	  554.00	  551.61	-1755.36	  432.30
     20.7700	  540.00	  551.30	-1769.05	  431.98
     20.8700	  600.00	  550.99	-1708.74	  431.65
     20.9700	  540.00	  550.68	-1768.43	  431.32
     21.0700	  578.00	  550.37	-1730.12	  430.99
     21.1700	  504.00	  550.06	-1803.81	  430.67
     21.2700	  557.00	  549.75	-1750.50	  430.34
     21.3700	  540.00	  549.44	-1767.19	  430.01
     21.4700	  561.00	  549.14	-1745.89	  429.68
     21.5700	  580.00	  548.83	-1726.58	  429.35
     21.6700	  533.00	  548.53	-1773.28	  429.02
     21.7700	  541.00	  548.22	-1764.97	  428.69
     21.8700	  600.00	  547.92	-1705.67	  428.36
     21.9700	  545.00	  547.63	-1760.38	  428.03
     22.0700	  564.00	  547.33	-1741.08	  427.70
     22.1700	  540.00	  547.04	-1764.79	  427.37
     22.2700	  576.00	  546.75	-1728.50	  427.04
     22.3700	  508.00	  546.46	-1796.21	  426.70
     22.4700	  562.00	  546.18	-1741.93	  426.37
     22.5700	  555.00	  545.90	-1748.65	  426.04
     22.6700	  555.00	  545.63	-1748.38	  425.71
     22.7700	  570.00	  545.37	-1733.12	  425.38
     22.8700	  535.00	  545.12	-1767.87	  425.05
     22.9700	  551.00	  544.87	-1751.62	  424.71
     23.0700	  545.00	  544.64	-1757.39	  424.38
     23.1700	  557.00	  544.43	-1745.18	  424.05
     23.2700	  530.00	  544.24	-1771.99	  423.72
     23.3700	  538.00	  544.07	-1763.82	  423.39
     23.4700	  545.00	  543.94	-1756.69	  423.05
     23.5700	  535.00	  544.01	-1766.76	  422.72
     23.6700	  549.00	  544.00	-1752.75	  422.39
     23.7700	  571.00	  544.11	-1730.86	  422.06
     23.8700	  545.00	  544.43	-1757.18	  421.73
     23.9700	  568.00	  545.19	-1734.94	  421.40
     24.0700	  585.00	  546.76	-1719.51	  421.07
     24.1700	  515.00	  549.74	-1792.49	  420.74
     24.2700	  570.00	  554.89	-1742.64	  420.41
     24.3700	  591.00	  563.05	-1729.80	  420.08
     24.4700	  591.00	  575.01	-1741.76	  419.75
     24.5700	  612.00	  590.76	-1736.51	  419.42
     24.6700	  605.00	  607.62	-1760.37	  419.09
     24.7700	  629.00	  618.83	-1747.58	  418.76
     24.8700	  629.00	  615.65	-1744.40	  418.43
     24.9700	  606.00	  597.38	-1749.13	  418.10
     25.0700	  590.00	  575.41	-1743.16	  417.77
     25.1700	  577.00	  558.74	-1739.49	  417.45
     25.2700	  544.00	  549.00	-1762.75	  417.12
     25.3700	  585.00	  544.20	-1716.95	  416.79
     25.4700	  522.00	  541.92	-1777.67	  416.47
     25.5700	  525.00	  540.69	-1773.44	  416.14
     25.6700	  584.00	  539.90	-1713.65	  415.82
     25.7700	  584.00	  539.32	-1713.07	  415.49
     25.8700	  498.00	  538.88	-1798.63	  415.17
     25.9700	  546.00	  538.55	-1750.30	  414.85
     26.0700	  576.00	  538.31	-1720.06	  414.52
     26.1700	  556.00	  538.15	-1739.90	  414.20
     26.2700	  540.00	  538.06	-1755.81	  413.88
     26.3700	  542.00	  538.05	-1753.80	  413.56
     26.4700	  586.00	  538.13	-1709.88	  413.24
     26.5700	  549.00	  538.30	-1747.05	  412.92
     26.6700	  549.00	  538.59	-1747.34	  412.60
     26.7700	  544.00	  539.02	-1752.77	  412.28
     26.8700	  537.00	  539.62	-1760.37	  411.96
     26.9700	  559.00	  540.45	-1739.20	  411.65
     27.0700	  573.00	  541.58	-1726.33	  411.33
     27.1700	  519.00	  543.14	-1781.89	  411.01
     27.2700	  562.00	  545.38	-1741.13	  410.70
     27.3700	  570.00	  548.79	-1736.54	  410.39
     27.4700	  558.00	  554.36	-1754.11	  410.07
     27.5700	  543.00	  563.80	-1778.55	  409.76
     27.6700	  563.00	  579.88	-1774.63	  409.45
     27.7700	  554.00	  606.19	-1809.94	  409.14
     27.8700	  598.00	  645.90	-1805.65	  408.83
     27.9700	  669.00	  699.29	-1788.04	  408.52
     28.0700	  739.00	  760.46	-1779.21	  408.21
     28.1700	  911.00	  814.47	-1661.22	  407.90
     28.2700	  949.00	  838.42	-1647.17	  407.60
     28.3700	  918.00	  817.89	-1657.64	  407.29
     28.4700	  798.00	  773.22	-1732.97	  406.99
     28.5700	  670.00	  740.33	-1828.08	  406.69
     28.6700	  694.00	  736.30	-1800.05	  406.38
     28.7700	  752.00	  757.17	-1762.92	  406.08
     28.8700	  821.00	  783.86	-1720.61	  405.78
     28.9700	  757.00	  789.11	-1789.86	  405.48
     29.0700	  765.00	  754.78	-1747.53	  405.18
     29.1700	  696.00	  694.64	-1756.39	  404.89
     29.2700	  695.00	  636.39	-1699.14	  404.59
     29.3700	  591.00	  593.85	-1760.60	  404.29
     29.4700	  626.00	  567.81	-1699.56	  404.00
     29.5700	  541.00	  553.59	-1770.34	  403.71
     29.6700	  627.00	  546.04	-1676.79	  403.41
     29.7700	  560.00	  541.79	-1739.54	  403.12
     29.8700	  566.00	  539.17	-1730.92	  402.83
     29.9700	  538.00	  537.53	-1757.28	  402.54
     30.0700	  543.00	  536.72	-1751.47	  402.26
     30.1700	  541.00	  536.89	-1753.64	  401.97
     30.2700	  543.00	  538.58	-1753.33	  401.68
     30.3700	  554.00	  542.83	-1746.58	  401.40
     30.4700	  552.00	  551.21	-1756.96	  401.12
     30.5700	  596.00	  565.33	-1727.08	  400.84
     30.6700	  543.00	  585.63	-1800.38	  400.56
     30.7700	  625.00	  609.63	-1742.38	  400.28
     30.8700	  601.00	  630.68	-1787.43	  400.00
     30.9700	  622.00	  638.47	-1774.22	  399.72
     31.0700	  623.00	  625.82	-1760.57	  399.45
     31.1700	  573.00	  599.17	-1783.92	  399.17
     31.2700	  538.00	  572.00	-1791.75	  398.90
     31.3700	  566.00	  551.64	-1743.39	  398.63
     31.4700	  535.00	  539.05	-1761.80	  398.36
     31.5700	  548.00	  532.22	-1741.97	  398.09
     31.6700	  578.00	  528.67	-1708.42	  397.82
     31.7700	  505.00	  526.73	-1779.48	  397.55
     31.8700	  506.00	  525.53	-1777.28	  397.29
     31.9700	  555.00	  524.71	-1727.46	  397.02
     32.0700	  564.00	  524.16	-1717.91	  396.76
     32.1700	  532.00	  523.80	-1749.55	  396.50
     32.2700	  544.00	  523.61	-1737.36	  396.24
     32.3700	  567.00	  523.59	-1714.34	  395.98
     32.4700	  532.00	  523.74	-1749.49	  395.72
     32.5700	  577.00	  524.07	-1704.82	  395.47
     32.6700	  537.00	  524.63	-1745.38	  395.21
     32.7700	  539.00	  525.46	-1744.21	  394.96
     32.8700	  552.00	  526.63	-1732.38	  394.71
     32.9700	  497.00	  528.29	-1789.04	  394.46
     33.0700	  516.00	  530.67	-1772.42	  394.21
     33.1700	  586.00	  534.28	-1706.03	  393.96
     33.2700	  587.00	  540.30	-1711.05	  393.71
     33.3700	  564.00	  551.16	-1744.91	  393.47
     33.4700	  563.00	  571.51	-1766.26	  393.23
     33.5700	  583.00	  608.57	-1783.32	  392.99
     33.6700	  649.00	  670.40	-1779.15	  392.75
     33.7700	  754.00	  760.40	-1764.15	  392.51
     33.8700	  921.00	  868.69	-1705.44	  392.27
     33.9700	 1011.00	  966.75	-1713.50	  392.03
     34.0700	 1093.00	 1010.80	-1675.55	  391.80
     34.1700	 1089.00	  968.13	-1636.88	  391.57
     34.2700	  919.00	  860.33	-1699.08	  391.34
     34.3700	  764.00	  742.84	-1736.59	  391.11
     34.4700	  649.00	  650.54	-1759.29	  390.88
     34.5700	  608.00	  591.37	-1741.12	  390.65
     34.6700	  561.00	  558.59	-1755.34	  390.43
     34.7700	  571.00	  541.77	-1728.52	  390.20
     34.8700	  489.00	  532.93	-1801.68	  389.98
     34.9700	  528.00	  527.69	-1757.44	  389.76
     35.0700	  512.00	  524.09	-1769.84	  389.54
     35.1700	  497.00	  521.40	-1782.15	  389.33
     35.2700	  536.00	  519.28	-1741.03	  389.11
     35.3700	  486.00	  517.57	-1789.32	  388.90
     35.4700	  491.00	  516.16	-1782.91	  388.68
     35.5700	  516.00	  514.97	-1756.72	  388.47
     35.6700	  543.00	  513.96	-1728.71	  388.26
     35.7700	  488.00	  513.08	-1782.83	  388.06
     35.8700	  496.00	  512.32	-1774.07	  387.85
     35.9700	  558.00	  512.12	-1711.87	  387.64
     36.0700	  524.00	  511.53	-1745.28	  387.44
     36.1700	  518.00	  511.00	-1750.75	  387.24
     36.2700	  483.00	  510.52	-1785.27	  387.04
     36.3700	  513.00	  510.10	-1754.85	  386.84
     36.4700	  514.00	  509.72	-1753.47	  386.65
     36.5700	  510.00	  509.38	-1757.13	  386.45
     36.6700	  519.00	  509.09	-1747.84	  386.26
     36.7700	  487.00	  508.86	-1779.61	  386.07
     36.8700	  487.00	  508.70	-1779.45	  385.88
     36.9700	  483.00	  508.69	-1783.44	  385.69
     37.0700	  533.00	  508.96	-1733.71	  385.50
     37.1700	  561.00	  509.76	-1706.51	  385.32
     37.2700	  500.00	  511.44	-1769.19	  385.13
     37.3700	  543.00	  514.29	-1729.04	  384.95
     37.4700	  553.00	  518.26	-1723.01	  384.77
     37.5700	  567.00	  522.65	-1713.40	  384.59
     37.6700	  567.00	  526.05	-1716.80	  384.42
     37.7700	  539.00	  526.89	-1745.65	  384.24
     37.8700	  516.00	  524.93	-1766.68	  384.07
     37.9700	  520.00	  521.48	-1759.23	  383.90
     38.0700	  480.00	  517.70	-1795.45	  383.73
     38.1700	  493.00	  514.04	-1778.79	  383.56
     38.2700	  572.00	  510.84	-1696.59	  383.39
     38.3700	  528.00	  508.37	-1738.12	  383.23
     38.4700	  517.00	  506.66	-1747.41	  383.06
     38.5700	  505.00	  505.53	-1758.28	  382.90
     38.6700	  500.00	  504.72	-1762.47	  382.74
     38.7700	  512.00	  504.26	-1750.01	  382.59
     38.8700	  477.00	  503.92	-1784.67	  382.43
     38.9700	  477.00	  503.65	-1784.40	  382.27
     39.0700	  504.00	  503.42	-1757.17	  382.12
     39.1700	  470.00	  503.13	-1790.88	  381.97
     39.2700	  499.00	  502.95	-1761.70	  381.82
     39.3700	  527.00	  502.91	-1733.66	  381.67
     39.4700	  473.00	  502.76	-1787.51	  381.53
     39.5700	  499.00	  502.61	-1761.36	  381.38
     39.6700	  462.00	  502.48	-1798.23	  381.24
     39.7700	  484.00	  502.36	-1776.11	  381.10
     39.8700	  520.00	  502.25	-1740.00	  380.96
     39.9700	  481.00	  502.14	-1778.89	  380.82
     40.0700	  509.00	  502.05	-1750.80	  380.68
     40.1700	  511.00	  501.97	-1748.72	  380.55
     40.2700	  499.00	  501.90	-1760.65	  380.42
     40.3700	  478.00	  501.84	-1781.59	  380.29
     40.4700	  511.00	  501.80	-1748.55	  380.16
     40.5700	  518.00	  501.77	-1741.52	  380.03
     40.6700	  530.00	  501.76	-1729.51	  379.90
     40.7700	  489.00	  501.77	-1770.52	  379.78
