MSG Master    CELL:    5.91955   5.91955  23.28067   90.0000   90.0000  120.0000   SPGR: P 63/m m c             TEMP:   1074.75
  1   1280     2.52000     0.00000    -0.12330     0.00000     0.00000    0
    99     0     2
       0.00000      10.00000
     125.00000     130.00000
 2Theta	Yobs	Ycal	Yobs-Ycal	Backg	Posr	(hkl)	K
      0.7700	    0.00	  530.19	-1724.75	  411.64
      0.8700	    0.00	  531.09	-1724.75	  412.54
      0.9700	   37.00	  531.97	-1724.75	  413.42
      1.0700	   44.00	  532.85	-1724.75	  414.30
      1.1700	   27.00	  533.71	-1724.75	  415.16
      1.2700	   41.00	  534.56	-1724.75	  416.02
      1.3700	   41.00	  535.40	-1724.75	  416.85
      1.4700	  100.00	  536.23	-1724.75	  417.68
      1.5700	  316.00	  537.05	-1724.75	  418.50
      1.6700	  484.00	  537.85	-1724.75	  419.30
      1.7700	  576.00	  538.64	-1724.75	  420.10
      1.8700	  639.00	  539.43	-1724.75	  420.88
      1.9700	  791.00	  540.20	-1724.75	  421.65
      2.0700	  782.00	  540.95	-1724.75	  422.41
      2.1700	  790.00	  541.70	-1724.75	  423.15
      2.2700	  784.00	  542.44	-1724.75	  423.89
      2.3700	  735.00	  543.16	-1724.75	  424.61
      2.4700	  710.00	  543.88	-1724.75	  425.33
      2.5700	  698.00	  544.58	-1724.75	  426.03
      2.6700	  654.00	  545.27	-1724.75	  426.72
      2.7700	  707.00	  545.95	-1724.75	  427.40
      2.8700	  663.00	  546.62	-1724.75	  428.07
      2.9700	  582.00	  547.28	-1724.75	  428.73
      3.0700	  600.00	  547.93	-1724.75	  429.38
      3.1700	  617.00	  548.57	-1724.75	  430.02
      3.2700	  573.00	  549.19	-1724.75	  430.65
      3.3700	  689.00	  549.81	-1724.75	  431.26
      3.4700	  775.00	  550.42	-1724.75	  431.87
      3.5700	  800.00	  551.02	-1724.75	  432.47
      3.6700	  879.00	  551.60	-1724.75	  433.05
      3.7700	  940.00	  552.18	-1724.75	  433.63
      3.8700	 1000.00	  552.75	-1724.75	  434.20
      3.9700	  997.00	  553.30	-1724.75	  434.75
      4.0700	 1058.00	  553.85	-1724.75	  435.30
      4.1700	 1059.00	  554.39	-1724.75	  435.84
      4.2700	 1106.00	  554.91	-1724.75	  436.36
      4.3700	 1072.00	  555.43	-1724.75	  436.88
      4.4700	 1086.00	  555.94	-1724.75	  437.39
      4.5700	 1052.00	  556.44	-1724.75	  437.89
      4.6700	 1063.00	  556.92	-1724.75	  438.38
      4.7700	  997.00	  557.40	-1724.75	  438.85
      4.8700	  952.00	  557.87	-1724.75	  439.32
      4.9700	  989.00	  558.33	-1724.75	  439.79
      5.0700	  938.00	  558.79	-1724.75	  440.24
      5.1700	  978.00	  559.23	-1724.75	  440.68
      5.2700	  876.00	  559.66	-1724.75	  441.11
      5.3700	  909.00	  560.09	-1724.75	  441.54
      5.4700	  898.00	  560.50	-1724.75	  441.95
      5.5700	  839.00	  560.91	-1724.75	  442.36
      5.6700	  839.00	  561.31	-1724.75	  442.76
      5.7700	  866.00	  561.69	-1724.75	  443.15
      5.8700	  838.00	  562.07	-1724.75	  443.53
      5.9700	  824.00	  562.45	-1724.75	  443.90
      6.0700	  758.00	  562.81	-1724.75	  444.26
      6.1700	  778.00	  563.16	-1724.75	  444.62
      6.2700	  769.00	  563.51	-1724.75	  444.96
      6.3700	  752.00	  563.85	-1724.75	  445.30
      6.4700	  775.00	  564.18	-1724.75	  445.63
      6.5700	  743.00	  564.50	-1724.75	  445.95
      6.6700	  757.00	  564.81	-1724.75	  446.27
      6.7700	  708.00	  565.12	-1724.75	  446.57
      6.8700	  749.00	  565.42	-1724.75	  446.87
      6.9700	  699.00	  565.71	-1724.75	  447.16
      7.0700	  654.00	  565.99	-1724.75	  447.44
      7.1700	  701.00	  566.26	-1724.75	  447.71
      7.2700	  644.00	  566.53	-1724.75	  447.98
      7.3700	  693.00	  566.79	-1724.75	  448.24
      7.4700	  679.00	  567.04	-1724.75	  448.49
      7.5700	  663.00	  567.28	-1724.75	  448.73
      7.6700	  641.00	  567.52	-1724.75	  448.97
      7.7700	  671.00	  567.75	-1724.75	  449.20
      7.8700	  631.00	  567.97	-1724.75	  449.42
      7.9700	  610.00	  568.18	-1724.75	  449.63
      8.0700	  645.00	  568.39	-1724.75	  449.84
      8.1700	  661.00	  568.59	-1724.75	  450.04
      8.2700	  602.00	  568.78	-1724.75	  450.23
      8.3700	  590.00	  568.96	-1724.75	  450.41
      8.4700	  578.00	  569.14	-1724.75	  450.59
      8.5700	  611.00	  569.31	-1724.75	  450.76
      8.6700	  612.00	  569.48	-1724.75	  450.93
      8.7700	  674.00	  569.63	-1724.75	  451.09
      8.8700	  592.00	  569.78	-1724.75	  451.24
      8.9700	  659.00	  569.93	-1724.75	  451.38
      9.0700	  617.00	  570.07	-1724.75	  451.52
      9.1700	  583.00	  570.20	-1724.75	  451.65
      9.2700	  608.00	  570.32	-1724.75	  451.77
      9.3700	  584.00	  570.44	-1724.75	  451.89
      9.4700	  607.00	  570.55	-1724.75	  452.00
      9.5700	  604.00	  570.65	-1724.75	  452.11
      9.6700	  650.00	  570.75	-1724.75	  452.20
      9.7700	  604.00	  570.84	-1724.75	  452.30
      9.8700	  609.00	  570.93	-1724.75	  452.38
      9.9700	  607.00	  571.01	-1724.75	  452.46
     10.0700	  575.00	  572.14	-1721.89	  452.54
     10.1700	  584.00	  572.33	-1713.08	  452.60
     10.2700	  610.00	  572.54	-1687.29	  452.67
     10.3700	  587.00	  572.78	-1710.53	  452.72
     10.4700	  565.00	  573.10	-1732.85	  452.77
     10.5700	  555.00	  573.55	-1743.30	  452.82
     10.6700	  537.00	  574.22	-1761.97	  452.85
     10.7700	  609.00	  575.23	-1690.98	  452.89
     10.8700	  570.00	  576.63	-1731.38	  452.92
     10.9700	  624.00	  578.44	-1679.19	  452.94
     11.0700	  546.00	  580.62	-1759.37	  452.95
     11.1700	  599.00	  583.17	-1708.92	  452.96
     11.2700	  584.00	  586.15	-1726.90	  452.97
     11.3700	  609.00	  589.63	-1705.38	  452.97
     11.4700	  616.00	  593.74	-1702.49	  452.96
     11.5700	  605.00	  598.73	-1718.48	  452.95
     11.6700	  591.00	  604.95	-1738.70	  452.94
     11.7700	  630.00	  613.01	-1707.76	  452.92
     11.8700	  632.00	  623.65	-1716.40	  452.89
     11.9700	  662.00	  637.04	-1699.79	  452.86
     12.0700	  690.00	  651.18	-1685.93	  452.82
     12.1700	  720.00	  660.39	-1665.14	  452.78
     12.2700	  673.00	  656.39	-1708.14	  452.73
     12.3700	  639.00	  637.10	-1722.85	  452.68
     12.4700	  632.00	  613.49	-1706.24	  452.63
     12.5700	  607.00	  595.41	-1713.16	  452.57
     12.6700	  619.00	  584.70	-1690.45	  452.50
     12.7700	  573.00	  579.28	-1731.03	  452.43
     12.8700	  574.00	  576.64	-1727.39	  452.36
     12.9700	  583.00	  575.18	-1716.93	  452.28
     13.0700	  575.00	  574.24	-1723.99	  452.19
     13.1700	  537.00	  573.54	-1761.29	  452.11
     13.2700	  577.00	  572.99	-1720.74	  452.01
     13.3700	  574.00	  572.55	-1723.30	  451.92
     13.4700	  555.00	  572.17	-1741.92	  451.82
     13.5700	  567.00	  571.85	-1729.60	  451.71
     13.6700	  529.00	  571.56	-1767.31	  451.60
     13.7700	  561.00	  571.30	-1735.05	  451.49
     13.8700	  589.00	  571.06	-1706.81	  451.37
     13.9700	  579.00	  570.83	-1716.58	  451.25
     14.0700	  504.00	  570.62	-1791.37	  451.12
     14.1700	  588.00	  570.41	-1707.16	  450.99
     14.2700	  560.00	  570.21	-1734.96	  450.86
     14.3700	  606.00	  570.02	-1688.77	  450.72
     14.4700	  560.00	  569.83	-1734.58	  450.58
     14.5700	  539.00	  569.64	-1755.39	  450.43
     14.6700	  557.00	  569.45	-1737.20	  450.28
     14.7700	  581.00	  569.26	-1713.01	  450.13
     14.8700	  568.00	  569.08	-1725.83	  449.97
     14.9700	  557.00	  568.89	-1736.64	  449.81
     15.0700	  557.00	  568.70	-1736.45	  449.65
     15.1700	  569.00	  568.51	-1724.26	  449.48
     15.2700	  544.00	  568.32	-1749.07	  449.31
     15.3700	  519.00	  568.13	-1773.88	  449.14
     15.4700	  598.00	  567.96	-1694.71	  448.96
     15.5700	  616.00	  567.77	-1676.52	  448.78
     15.6700	  551.00	  567.57	-1741.32	  448.59
     15.7700	  527.00	  567.37	-1765.12	  448.41
     15.8700	  564.00	  567.17	-1727.92	  448.21
     15.9700	  562.00	  566.96	-1729.71	  448.02
     16.0700	  569.00	  566.75	-1722.50	  447.82
     16.1700	  577.00	  566.55	-1714.30	  447.62
     16.2700	  562.00	  566.33	-1729.08	  447.42
     16.3700	  511.00	  566.12	-1779.87	  447.21
     16.4700	  571.00	  565.90	-1719.65	  447.00
     16.5700	  550.00	  565.69	-1740.44	  446.79
     16.6700	  587.00	  565.47	-1703.22	  446.58
     16.7700	  566.00	  565.24	-1723.99	  446.36
     16.8700	  555.00	  565.02	-1734.77	  446.14
     16.9700	  526.00	  564.79	-1763.54	  445.91
     17.0700	  565.00	  564.56	-1724.31	  445.69
     17.1700	  517.00	  564.33	-1772.08	  445.46
     17.2700	  546.00	  564.09	-1742.84	  445.23
     17.3700	  596.00	  563.85	-1692.60	  444.99
     17.4700	  575.00	  563.61	-1713.36	  444.76
     17.5700	  590.00	  563.37	-1698.12	  444.52
     17.6700	  526.00	  563.13	-1761.88	  444.27
     17.7700	  603.00	  562.88	-1684.63	  444.03
     17.8700	  562.00	  562.63	-1725.38	  443.78
     17.9700	  559.00	  562.38	-1728.13	  443.53
     18.0700	  555.00	  562.24	-1731.99	  443.28
     18.1700	  541.00	  561.99	-1745.74	  443.03
     18.2700	  600.00	  561.73	-1686.48	  442.77
     18.3700	  526.00	  561.47	-1760.22	  442.51
     18.4700	  589.00	  561.22	-1696.97	  442.25
     18.5700	  503.00	  560.95	-1782.70	  441.99
     18.6700	  593.00	  560.69	-1692.44	  441.73
     18.7700	  575.00	  560.50	-1710.25	  441.46
     18.8700	  556.00	  560.24	-1728.99	  441.19
     18.9700	  554.00	  559.97	-1730.72	  440.92
     19.0700	  579.00	  559.70	-1705.45	  440.65
     19.1700	  552.00	  559.44	-1732.19	  440.37
     19.2700	  542.00	  559.16	-1741.91	  440.09
     19.3700	  510.00	  558.89	-1773.64	  439.82
     19.4700	  553.00	  558.62	-1730.37	  439.54
     19.5700	  567.00	  558.34	-1716.09	  439.25
     19.6700	  535.00	  558.07	-1747.82	  438.97
     19.7700	  580.00	  557.79	-1702.54	  438.68
     19.8700	  580.00	  557.51	-1702.26	  438.40
     19.9700	  551.00	  557.23	-1730.98	  438.11
     20.0700	  514.00	  556.95	-1767.70	  437.82
     20.1700	  558.00	  556.67	-1723.42	  437.52
     20.2700	  544.00	  556.38	-1737.13	  437.23
     20.3700	  524.00	  556.10	-1756.85	  436.94
     20.4700	  559.00	  555.82	-1721.57	  436.64
     20.5700	  584.00	  555.53	-1696.28	  436.34
     20.6700	  533.00	  555.27	-1747.02	  436.04
     20.7700	  548.00	  554.99	-1731.74	  435.74
     20.8700	  526.00	  554.66	-1753.41	  435.44
     20.9700	  555.00	  554.38	-1724.13	  435.13
     21.0700	  518.00	  554.09	-1760.84	  434.83
     21.1700	  560.00	  553.80	-1718.55	  434.52
     21.2700	  568.00	  553.52	-1710.27	  434.21
     21.3700	  574.00	  553.23	-1703.98	  433.90
     21.4700	  557.00	  552.95	-1720.70	  433.59
     21.5700	  568.00	  552.66	-1709.41	  433.28
     21.6700	  587.00	  552.38	-1690.13	  432.97
     21.7700	  585.00	  552.09	-1691.84	  432.66
     21.8700	  563.00	  551.81	-1713.56	  432.34
     21.9700	  545.00	  551.53	-1731.28	  432.03
     22.0700	  514.00	  551.25	-1762.00	  431.71
     22.1700	  538.00	  550.98	-1737.73	  431.39
     22.2700	  529.00	  550.70	-1746.45	  431.08
     22.3700	  529.00	  550.43	-1746.18	  430.76
     22.4700	  550.00	  550.17	-1724.92	  430.44
     22.5700	  526.00	  549.91	-1748.66	  430.12
     22.6700	  527.00	  549.66	-1747.41	  429.79
     22.7700	  590.00	  549.41	-1684.16	  429.47
     22.8700	  544.00	  549.17	-1729.92	  429.15
     22.9700	  527.00	  548.95	-1746.70	  428.82
     23.0700	  537.00	  548.74	-1736.49	  428.50
     23.1700	  537.00	  548.55	-1736.30	  428.17
     23.2700	  537.00	  548.38	-1736.13	  427.85
     23.3700	  567.00	  548.38	-1706.13	  427.52
     23.4700	  541.00	  548.28	-1732.03	  427.20
     23.5700	  558.00	  548.25	-1715.00	  426.87
     23.6700	  538.00	  548.29	-1735.04	  426.54
     23.7700	  542.00	  548.47	-1731.22	  426.21
     23.8700	  547.00	  548.90	-1726.65	  425.88
     23.9700	  554.00	  549.80	-1720.55	  425.55
     24.0700	  549.00	  551.56	-1727.31	  425.22
     24.1700	  549.00	  554.77	-1730.52	  424.89
     24.2700	  547.00	  560.16	-1737.91	  424.56
     24.3700	  591.00	  568.51	-1702.26	  424.23
     24.4700	  628.00	  580.44	-1677.19	  423.90
     24.5700	  652.00	  595.60	-1668.35	  423.57
     24.6700	  646.00	  611.22	-1689.97	  423.23
     24.7700	  579.00	  621.06	-1766.81	  422.90
     24.8700	  635.00	  617.43	-1707.18	  422.57
     24.9700	  571.00	  600.19	-1753.94	  422.24
     25.0700	  643.00	  579.68	-1661.43	  421.90
     25.1700	  578.00	  563.79	-1710.54	  421.57
     25.2700	  604.00	  554.11	-1674.86	  421.24
     25.3700	  589.00	  549.03	-1684.78	  420.90
     25.4700	  531.00	  546.49	-1740.24	  420.57
     25.5700	  529.00	  545.09	-1740.84	  420.24
     25.6700	  533.00	  544.18	-1735.93	  419.90
     25.7700	  530.00	  543.52	-1738.27	  419.57
     25.8700	  505.00	  543.02	-1762.77	  419.23
     25.9700	  540.00	  542.64	-1727.39	  418.90
     26.0700	  562.00	  542.36	-1705.11	  418.57
     26.1700	  551.00	  542.16	-1715.91	  418.23
     26.2700	  520.00	  542.04	-1746.79	  417.90
     26.3700	  568.00	  542.01	-1698.76	  417.57
     26.4700	  571.00	  542.06	-1695.81	  417.24
     26.5700	  532.00	  542.21	-1734.96	  416.90
     26.6700	  545.00	  542.48	-1722.23	  416.57
     26.7700	  546.00	  542.89	-1721.64	  416.24
     26.8700	  561.00	  543.48	-1707.23	  415.91
     26.9700	  549.00	  544.29	-1720.04	  415.57
     27.0700	  569.00	  545.42	-1701.17	  415.24
     27.1700	  508.00	  546.99	-1763.74	  414.91
     27.2700	  592.00	  549.26	-1682.01	  414.58
     27.3700	  553.00	  552.76	-1724.51	  414.25
     27.4700	  557.00	  558.51	-1726.26	  413.92
     27.5700	  510.00	  568.37	-1783.12	  413.59
     27.6700	  598.00	  585.29	-1712.04	  413.26
     27.7700	  603.00	  613.10	-1734.85	  412.93
     27.8700	  600.00	  655.19	-1779.94	  412.60
     27.9700	  670.00	  711.83	-1766.58	  412.27
     28.0700	  753.00	  776.53	-1748.28	  411.95
     28.1700	  888.00	  832.91	-1669.66	  411.62
     28.2700	  949.00	  856.03	-1631.78	  411.29
     28.3700	  952.00	  830.63	-1603.38	  410.97
     28.4700	  799.00	  779.02	-1704.77	  410.64
     28.5700	  677.00	  738.94	-1786.69	  410.32
     28.6700	  683.00	  727.84	-1769.59	  409.99
     28.7700	  717.00	  741.83	-1749.58	  409.67
     28.8700	  784.00	  762.66	-1703.41	  409.34
     28.9700	  809.00	  765.10	-1680.85	  409.02
     29.0700	  779.00	  733.05	-1678.80	  408.70
     29.1700	  649.00	  679.13	-1754.88	  408.38
     29.2700	  613.00	  627.51	-1739.26	  408.06
     29.3700	  600.00	  589.93	-1714.68	  407.74
     29.4700	  624.00	  566.89	-1667.64	  407.42
     29.5700	  576.00	  554.22	-1702.97	  407.10
     29.6700	  599.00	  547.42	-1673.17	  406.78
     29.7700	  569.00	  543.51	-1699.26	  406.47
     29.8700	  537.00	  541.05	-1728.80	  406.15
     29.9700	  555.00	  539.48	-1709.23	  405.84
     30.0700	  563.00	  538.64	-1700.39	  405.52
     30.1700	  583.00	  538.68	-1680.44	  405.21
     30.2700	  621.00	  540.06	-1643.81	  404.90
     30.3700	  535.00	  543.64	-1733.39	  404.58
     30.4700	  596.00	  550.72	-1679.47	  404.27
     30.5700	  592.00	  562.62	-1695.37	  403.96
     30.6700	  597.00	  579.49	-1707.24	  403.66
     30.7700	  545.00	  599.19	-1778.94	  403.35
     30.8700	  637.00	  616.13	-1703.88	  403.04
     30.9700	  576.00	  621.93	-1770.68	  402.73
     31.0700	  621.00	  610.97	-1714.72	  402.43
     31.1700	  641.00	  588.84	-1672.59	  402.13
     31.2700	  604.00	  566.45	-1687.20	  401.82
     31.3700	  576.00	  549.63	-1698.38	  401.52
     31.4700	  554.00	  539.13	-1709.88	  401.22
     31.5700	  528.00	  533.33	-1730.08	  400.92
     31.6700	  526.00	  530.26	-1729.01	  400.62
     31.7700	  510.00	  528.54	-1743.29	  400.32
     31.8700	  558.00	  527.46	-1694.21	  400.03
     31.9700	  538.00	  526.72	-1713.47	  399.73
     32.0700	  514.00	  526.20	-1736.95	  399.44
     32.1700	  572.00	  525.87	-1678.62	  399.14
     32.2700	  523.00	  525.69	-1727.44	  398.85
     32.3700	  573.00	  525.66	-1677.41	  398.56
     32.4700	  541.00	  525.80	-1709.55	  398.27
     32.5700	  547.00	  526.12	-1703.87	  397.98
     32.6700	  531.00	  526.65	-1720.40	  397.70
     32.7700	  563.00	  527.44	-1689.19	  397.41
     32.8700	  551.00	  528.58	-1702.33	  397.12
     32.9700	  594.00	  530.18	-1660.93	  396.84
     33.0700	  576.00	  532.51	-1681.26	  396.56
     33.1700	  522.00	  536.06	-1738.81	  396.28
     33.2700	  527.00	  541.98	-1739.73	  396.00
     33.3700	  550.00	  552.62	-1727.37	  395.72
     33.4700	  551.00	  572.25	-1746.00	  395.44
     33.5700	  572.00	  607.31	-1760.06	  395.17
     33.6700	  662.00	  664.67	-1727.42	  394.89
     33.7700	  728.00	  746.47	-1743.22	  394.62
     33.8700	  860.00	  843.20	-1707.95	  394.35
     33.9700	  996.00	  929.10	-1657.85	  394.08
     34.0700	 1015.00	  965.67	-1675.42	  393.81
     34.1700	 1028.00	  925.43	-1622.18	  393.54
     34.2700	  887.00	  828.88	-1666.63	  393.27
     34.3700	  751.00	  724.44	-1698.19	  393.01
     34.4700	  653.00	  642.04	-1713.79	  392.74
     34.5700	  579.00	  588.52	-1734.27	  392.48
     34.6700	  577.00	  558.26	-1706.01	  392.22
     34.7700	  559.00	  542.36	-1708.11	  391.96
     34.8700	  519.00	  533.82	-1739.57	  391.70
     34.9700	  550.00	  528.69	-1703.44	  391.45
     35.0700	  528.00	  525.17	-1721.92	  391.19
     35.1700	  490.00	  522.52	-1757.27	  390.94
     35.2700	  515.00	  520.43	-1730.18	  390.68
     35.3700	  448.00	  518.73	-1795.48	  390.43
     35.4700	  521.00	  517.32	-1721.07	  390.18
     35.5700	  518.00	  516.13	-1722.88	  389.94
     35.6700	  551.00	  515.10	-1688.85	  389.69
     35.7700	  490.00	  514.21	-1748.96	  389.45
     35.8700	  580.00	  513.43	-1658.18	  389.20
     35.9700	  524.00	  512.74	-1713.49	  388.96
     36.0700	  524.00	  512.58	-1713.33	  388.72
     36.1700	  520.00	  512.03	-1716.78	  388.48
     36.2700	  535.00	  511.53	-1701.28	  388.25
     36.3700	  473.00	  511.08	-1762.83	  388.01
     36.4700	  503.00	  510.67	-1732.42	  387.78
     36.5700	  530.00	  510.31	-1705.06	  387.54
     36.6700	  460.00	  510.00	-1774.75	  387.31
     36.7700	  538.00	  509.74	-1696.49	  387.08
     36.8700	  518.00	  509.58	-1716.33	  386.86
     36.9700	  488.00	  509.57	-1746.32	  386.63
     37.0700	  483.00	  509.86	-1751.61	  386.41
     37.1700	  518.00	  510.69	-1717.44	  386.18
     37.2700	  514.00	  512.37	-1723.12	  385.96
     37.3700	  500.00	  515.09	-1739.84	  385.74
     37.4700	  479.00	  518.73	-1764.48	  385.53
     37.5700	  536.00	  522.56	-1711.31	  385.31
     37.6700	  474.00	  525.23	-1775.98	  385.10
     37.7700	  480.00	  525.36	-1770.11	  384.88
     37.8700	  543.00	  522.84	-1704.59	  384.67
     37.9700	  500.00	  519.07	-1743.82	  384.46
     38.0700	  526.00	  515.29	-1714.04	  384.25
     38.1700	  498.00	  512.00	-1738.75	  384.05
     38.2700	  514.00	  509.41	-1720.16	  383.84
     38.3700	  449.00	  507.54	-1783.29	  383.64
     38.4700	  488.00	  506.27	-1743.02	  383.44
     38.5700	  537.00	  505.42	-1693.17	  383.24
     38.6700	  484.00	  504.74	-1745.49	  383.04
     38.7700	  506.00	  504.32	-1723.07	  382.85
     38.8700	  524.00	  503.98	-1704.73	  382.65
     38.9700	  504.00	  503.85	-1724.60	  382.46
     39.0700	  524.00	  503.60	-1704.35	  382.27
     39.1700	  500.00	  503.29	-1728.04	  382.08
     39.2700	  500.00	  503.08	-1727.83	  381.89
     39.3700	  553.00	  502.89	-1674.64	  381.71
     39.4700	  527.00	  502.70	-1700.45	  381.52
     39.5700	  532.00	  502.53	-1695.28	  381.34
     39.6700	  488.00	  502.37	-1739.12	  381.16
     39.7700	  506.00	  502.22	-1720.97	  380.98
     39.8700	  536.00	  502.08	-1690.83	  380.80
     39.9700	  479.00	  501.95	-1747.70	  380.63
     40.0700	  536.00	  501.84	-1690.59	  380.45
     40.1700	  561.00	  501.73	-1665.48	  380.28
     40.2700	  537.00	  501.64	-1689.39	  380.11
     40.3700	  505.00	  501.56	-1721.31	  379.94
     40.4700	  505.00	  501.50	-1721.25	  379.78
     40.5700	  487.00	  501.46	-1739.21	  379.61
     40.6700	  515.00	  501.43	-1711.18	  379.45
     40.7700	  481.00	  501.43	-1745.18	  379.29
