MSG Master    CELL:    5.90292   5.90292  23.18600   90.0000   90.0000  120.0000   SPGR: P 63/m m c             TEMP:    816.45
  1   1280     2.52000     0.00000    -0.12335     0.00000     0.00000    0
    98     0     2
       0.00000      10.00000
     125.00000     130.00000
 2Theta	Yobs	Ycal	Yobs-Ycal	Backg	Posr	(hkl)	K
      0.7700	    0.00	  462.35	-1762.25	  349.95
      0.8700	    0.00	  464.28	-1762.25	  351.89
      0.9700	   34.00	  466.19	-1762.25	  353.80
      1.0700	   49.00	  468.09	-1762.25	  355.69
      1.1700	   48.00	  469.96	-1762.25	  357.57
      1.2700	   41.00	  471.81	-1762.25	  359.42
      1.3700	   28.00	  473.65	-1762.25	  361.25
      1.4700	   85.00	  475.46	-1762.25	  363.07
      1.5700	  293.00	  477.26	-1762.25	  364.86
      1.6700	  494.00	  479.03	-1762.25	  366.64
      1.7700	  594.00	  480.79	-1762.25	  368.39
      1.8700	  629.00	  482.52	-1762.25	  370.13
      1.9700	  729.00	  484.24	-1762.25	  371.85
      2.0700	  757.00	  485.94	-1762.25	  373.55
      2.1700	  767.00	  487.62	-1762.25	  375.23
      2.2700	  765.00	  489.28	-1762.25	  376.89
      2.3700	  765.00	  490.93	-1762.25	  378.53
      2.4700	  706.00	  492.55	-1762.25	  380.16
      2.5700	  662.00	  494.16	-1762.25	  381.76
      2.6700	  606.00	  495.75	-1762.25	  383.35
      2.7700	  629.00	  497.32	-1762.25	  384.92
      2.8700	  650.00	  498.87	-1762.25	  386.47
      2.9700	  638.00	  500.40	-1762.25	  388.01
      3.0700	  594.00	  501.92	-1762.25	  389.52
      3.1700	  585.00	  503.42	-1762.25	  391.02
      3.2700	  663.00	  504.90	-1762.25	  392.50
      3.3700	  798.00	  506.36	-1762.25	  393.97
      3.4700	 1029.00	  507.81	-1762.25	  395.41
      3.5700	 1027.00	  509.24	-1762.25	  396.84
      3.6700	 1131.00	  510.65	-1762.25	  398.25
      3.7700	 1183.00	  512.04	-1762.25	  399.65
      3.8700	 1295.00	  513.42	-1762.25	  401.03
      3.9700	 1323.00	  514.78	-1762.25	  402.39
      4.0700	 1395.00	  516.12	-1762.25	  403.73
      4.1700	 1408.00	  517.45	-1762.25	  405.06
      4.2700	 1426.00	  518.76	-1762.25	  406.37
      4.3700	 1480.00	  520.06	-1762.25	  407.66
      4.4700	 1283.00	  521.34	-1762.25	  408.94
      4.5700	 1275.00	  522.60	-1762.25	  410.20
      4.6700	 1251.00	  523.84	-1762.25	  411.45
      4.7700	 1241.00	  525.07	-1762.25	  412.68
      4.8700	 1152.00	  526.29	-1762.25	  413.89
      4.9700	 1116.00	  527.49	-1762.25	  415.09
      5.0700	 1106.00	  528.67	-1762.25	  416.28
      5.1700	 1054.00	  529.84	-1762.25	  417.44
      5.2700	  997.00	  530.99	-1762.25	  418.59
      5.3700	 1004.00	  532.12	-1762.25	  419.73
      5.4700	 1023.00	  533.25	-1762.25	  420.85
      5.5700	 1037.00	  534.35	-1762.25	  421.96
      5.6700	 1007.00	  535.44	-1762.25	  423.05
      5.7700	  935.00	  536.52	-1762.25	  424.12
      5.8700	  892.00	  537.58	-1762.25	  425.18
      5.9700	  935.00	  538.62	-1762.25	  426.23
      6.0700	  863.00	  539.66	-1762.25	  427.26
      6.1700	  849.00	  540.67	-1762.25	  428.28
      6.2700	  836.00	  541.68	-1762.25	  429.28
      6.3700	  866.00	  542.66	-1762.25	  430.27
      6.4700	  849.00	  543.64	-1762.25	  431.24
      6.5700	  764.00	  544.60	-1762.25	  432.20
      6.6700	  792.00	  545.54	-1762.25	  433.15
      6.7700	  808.00	  546.47	-1762.25	  434.08
      6.8700	  789.00	  547.39	-1762.25	  435.00
      6.9700	  766.00	  548.29	-1762.25	  435.90
      7.0700	  786.00	  549.18	-1762.25	  436.79
      7.1700	  723.00	  550.06	-1762.25	  437.67
      7.2700	  765.00	  550.92	-1762.25	  438.53
      7.3700	  771.00	  551.77	-1762.25	  439.38
      7.4700	  673.00	  552.61	-1762.25	  440.21
      7.5700	  713.00	  553.43	-1762.25	  441.04
      7.6700	  736.00	  554.24	-1762.25	  441.85
      7.7700	  664.00	  555.04	-1762.25	  442.64
      7.8700	  683.00	  555.82	-1762.25	  443.43
      7.9700	  667.00	  556.59	-1762.25	  444.20
      8.0700	  687.00	  557.35	-1762.25	  444.95
      8.1700	  686.00	  558.09	-1762.25	  445.70
      8.2700	  656.00	  558.82	-1762.25	  446.43
      8.3700	  654.00	  559.54	-1762.25	  447.15
      8.4700	  661.00	  560.25	-1762.25	  447.86
      8.5700	  645.00	  560.95	-1762.25	  448.55
      8.6700	  658.00	  561.63	-1762.25	  449.24
      8.7700	  620.00	  562.30	-1762.25	  449.91
      8.8700	  612.00	  562.96	-1762.25	  450.57
      8.9700	  613.00	  563.61	-1762.25	  451.21
      9.0700	  685.00	  564.24	-1762.25	  451.85
      9.1700	  627.00	  564.86	-1762.25	  452.47
      9.2700	  620.00	  565.47	-1762.25	  453.08
      9.3700	  582.00	  566.07	-1762.25	  453.68
      9.4700	  616.00	  566.66	-1762.25	  454.27
      9.5700	  601.00	  567.24	-1762.25	  454.85
      9.6700	  633.00	  567.80	-1762.25	  455.41
      9.7700	  619.00	  568.36	-1762.25	  455.96
      9.8700	  630.00	  568.90	-1762.25	  456.51
      9.9700	  621.00	  569.43	-1762.25	  457.04
     10.0700	  643.00	  572.24	-1691.49	  457.56
     10.1700	  633.00	  572.94	-1702.19	  458.07
     10.2700	  629.00	  573.68	-1706.93	  458.57
     10.3700	  591.00	  574.46	-1745.71	  459.05
     10.4700	  634.00	  575.32	-1703.57	  459.53
     10.5700	  583.00	  576.31	-1755.56	  460.00
     10.6700	  608.00	  577.50	-1731.75	  460.45
     10.7700	  653.00	  578.98	-1688.23	  460.90
     10.8700	  632.00	  580.83	-1711.08	  461.33
     10.9700	  624.00	  583.09	-1721.34	  461.76
     11.0700	  633.00	  585.77	-1715.02	  462.17
     11.1700	  625.00	  588.89	-1726.14	  462.58
     11.2700	  584.00	  592.46	-1770.71	  462.97
     11.3700	  617.00	  596.56	-1741.81	  463.36
     11.4700	  619.00	  601.31	-1744.56	  463.73
     11.5700	  623.00	  606.89	-1746.14	  464.10
     11.6700	  618.00	  613.60	-1757.85	  464.45
     11.7700	  674.00	  621.77	-1710.02	  464.80
     11.8700	  666.00	  631.70	-1727.95	  465.13
     11.9700	  666.00	  643.22	-1739.47	  465.46
     12.0700	  677.00	  655.09	-1740.34	  465.78
     12.1700	  681.00	  664.34	-1745.59	  466.08
     12.2700	  717.00	  666.08	-1711.33	  466.38
     12.3700	  639.00	  656.44	-1779.69	  466.67
     12.4700	  607.00	  638.73	-1793.98	  466.95
     12.5700	  618.00	  620.90	-1765.15	  467.22
     12.6700	  613.00	  607.31	-1756.56	  467.48
     12.7700	  564.00	  598.41	-1796.66	  467.74
     12.8700	  564.00	  593.11	-1791.36	  467.98
     12.9700	  509.00	  590.08	-1843.33	  468.22
     13.0700	  555.00	  588.32	-1795.57	  468.44
     13.1700	  619.00	  587.23	-1730.48	  468.66
     13.2700	  567.00	  586.51	-1781.76	  468.87
     13.3700	  550.00	  586.00	-1798.25	  469.07
     13.4700	  576.00	  585.65	-1771.90	  469.27
     13.5700	  561.00	  585.43	-1786.68	  469.45
     13.6700	  545.00	  585.25	-1802.50	  469.63
     13.7700	  549.00	  585.13	-1798.38	  469.79
     13.8700	  575.00	  585.05	-1772.30	  469.95
     13.9700	  568.00	  585.00	-1779.25	  470.11
     14.0700	  563.00	  584.97	-1784.22	  470.25
     14.1700	  562.00	  584.96	-1785.21	  470.39
     14.2700	  571.00	  584.97	-1776.22	  470.52
     14.3700	  534.00	  584.98	-1813.23	  470.64
     14.4700	  583.00	  585.00	-1764.25	  470.75
     14.5700	  578.00	  585.02	-1769.27	  470.86
     14.6700	  544.00	  585.05	-1803.30	  470.95
     14.7700	  584.00	  585.07	-1763.32	  471.04
     14.8700	  574.00	  585.10	-1773.35	  471.13
     14.9700	  578.00	  585.12	-1769.37	  471.20
     15.0700	  569.00	  585.15	-1778.40	  471.27
     15.1700	  560.00	  585.17	-1787.42	  471.33
     15.2700	  566.00	  585.18	-1781.43	  471.39
     15.3700	  573.00	  585.20	-1774.45	  471.44
     15.4700	  559.00	  585.21	-1788.46	  471.48
     15.5700	  572.00	  585.21	-1775.46	  471.51
     15.6700	  603.00	  585.22	-1744.47	  471.54
     15.7700	  531.00	  585.21	-1816.46	  471.56
     15.8700	  582.00	  585.20	-1765.45	  471.57
     15.9700	  557.00	  585.19	-1790.44	  471.58
     16.0700	  521.00	  585.17	-1826.42	  471.58
     16.1700	  558.00	  585.15	-1789.40	  471.57
     16.2700	  598.00	  585.12	-1749.37	  471.56
     16.3700	  561.00	  585.09	-1786.34	  471.54
     16.4700	  596.00	  585.06	-1751.31	  471.51
     16.5700	  538.00	  585.01	-1809.26	  471.48
     16.6700	  554.00	  584.96	-1793.21	  471.44
     16.7700	  572.00	  584.91	-1775.16	  471.40
     16.8700	  536.00	  584.85	-1811.10	  471.35
     16.9700	  561.00	  584.79	-1786.04	  471.29
     17.0700	  576.00	  584.72	-1770.97	  471.23
     17.1700	  631.00	  584.64	-1715.89	  471.16
     17.2700	  563.00	  584.56	-1783.81	  471.09
     17.3700	  595.00	  584.48	-1751.73	  471.01
     17.4700	  583.00	  584.39	-1763.64	  470.92
     17.5700	  577.00	  584.41	-1769.66	  470.83
     17.6700	  567.00	  584.31	-1779.56	  470.73
     17.7700	  591.00	  584.21	-1755.46	  470.63
     17.8700	  572.00	  584.10	-1774.35	  470.52
     17.9700	  553.00	  584.09	-1793.34	  470.41
     18.0700	  558.00	  583.97	-1788.22	  470.29
     18.1700	  582.00	  583.85	-1764.10	  470.17
     18.2700	  570.00	  583.73	-1775.98	  470.04
     18.3700	  538.00	  583.60	-1807.85	  469.91
     18.4700	  585.00	  583.46	-1760.71	  469.77
     18.5700	  637.00	  583.32	-1708.57	  469.62
     18.6700	  509.00	  583.18	-1836.43	  469.48
     18.7700	  574.00	  583.03	-1771.28	  469.32
     18.8700	  539.00	  582.88	-1806.13	  469.16
     18.9700	  536.00	  582.72	-1808.97	  469.00
     19.0700	  567.00	  582.56	-1777.81	  468.83
     19.1700	  559.00	  582.40	-1785.65	  468.66
     19.2700	  574.00	  582.23	-1770.48	  468.48
     19.3700	  546.00	  582.05	-1798.30	  468.30
     19.4700	  579.00	  581.88	-1765.13	  468.11
     19.5700	  569.00	  581.74	-1774.99	  467.92
     19.6700	  532.00	  581.55	-1811.80	  467.73
     19.7700	  567.00	  581.37	-1776.62	  467.53
     19.8700	  591.00	  581.17	-1752.42	  467.32
     19.9700	  609.00	  580.98	-1734.23	  467.11
     20.0700	  565.00	  580.78	-1778.03	  466.90
     20.1700	  518.00	  580.58	-1824.83	  466.68
     20.2700	  562.00	  580.38	-1780.63	  466.46
     20.3700	  555.00	  580.17	-1787.42	  466.24
     20.4700	  557.00	  579.96	-1785.21	  466.01
     20.5700	  596.00	  579.75	-1746.00	  465.78
     20.6700	  565.00	  579.53	-1776.78	  465.54
     20.7700	  555.00	  579.31	-1786.56	  465.30
     20.8700	  573.00	  579.09	-1768.34	  465.05
     20.9700	  551.00	  578.87	-1790.12	  464.81
     21.0700	  551.00	  578.64	-1789.89	  464.55
     21.1700	  571.00	  578.41	-1769.67	  464.30
     21.2700	  585.00	  578.19	-1755.44	  464.04
     21.3700	  587.00	  577.96	-1753.21	  463.78
     21.4700	  546.00	  577.72	-1793.97	  463.51
     21.5700	  582.00	  577.49	-1757.74	  463.24
     21.6700	  634.00	  577.26	-1705.51	  462.97
     21.7700	  568.00	  577.03	-1771.28	  462.69
     21.8700	  560.00	  576.79	-1779.04	  462.41
     21.9700	  568.00	  576.56	-1770.81	  462.13
     22.0700	  617.00	  576.33	-1721.58	  461.84
     22.1700	  593.00	  576.26	-1745.51	  461.55
     22.2700	  560.00	  576.04	-1778.29	  461.26
     22.3700	  542.00	  575.82	-1796.07	  460.97
     22.4700	  604.00	  575.60	-1733.85	  460.67
     22.5700	  629.00	  575.39	-1708.64	  460.37
     22.6700	  564.00	  575.19	-1773.44	  460.06
     22.7700	  532.00	  574.99	-1805.24	  459.76
     22.8700	  577.00	  574.81	-1760.06	  459.45
     22.9700	  567.00	  574.64	-1769.89	  459.14
     23.0700	  586.00	  574.49	-1750.74	  458.82
     23.1700	  554.00	  574.32	-1782.57	  458.50
     23.2700	  573.00	  574.22	-1763.47	  458.18
     23.3700	  561.00	  574.16	-1775.41	  457.86
     23.4700	  569.00	  574.15	-1767.40	  457.53
     23.5700	  575.00	  574.21	-1761.46	  457.21
     23.6700	  584.00	  574.36	-1752.61	  456.87
     23.7700	  591.00	  574.64	-1745.89	  456.54
     23.8700	  566.00	  575.15	-1771.40	  456.21
     23.9700	  550.00	  576.01	-1788.26	  455.87
     24.0700	  562.00	  577.46	-1777.71	  455.53
     24.1700	  635.00	  579.87	-1707.12	  455.19
     24.2700	  595.00	  583.75	-1751.00	  454.84
     24.3700	  607.00	  589.65	-1744.90	  454.50
     24.4700	  622.00	  598.00	-1738.25	  454.15
     24.5700	  658.00	  608.77	-1713.02	  453.80
     24.6700	  645.00	  621.09	-1738.34	  453.44
     24.7700	  638.00	  632.65	-1756.90	  453.09
     24.8700	  714.00	  639.34	-1687.59	  452.73
     24.9700	  662.00	  636.59	-1736.84	  452.37
     25.0700	  590.00	  624.39	-1796.64	  452.01
     25.1700	  680.00	  608.79	-1691.04	  451.65
     25.2700	  595.00	  595.20	-1762.45	  451.29
     25.3700	  585.00	  585.37	-1762.62	  450.92
     25.4700	  592.00	  579.01	-1749.26	  450.56
     25.5700	  595.00	  575.14	-1742.39	  450.19
     25.6700	  617.00	  572.80	-1718.05	  449.82
     25.7700	  594.00	  571.31	-1739.56	  449.44
     25.8700	  630.00	  570.28	-1702.53	  449.07
     25.9700	  574.00	  569.54	-1757.79	  448.69
     26.0700	  629.00	  568.99	-1702.24	  448.32
     26.1700	  626.00	  568.59	-1704.84	  447.94
     26.2700	  641.00	  568.31	-1689.56	  447.56
     26.3700	  594.00	  568.15	-1736.40	  447.18
     26.4700	  608.00	  568.11	-1722.36	  446.80
     26.5700	  580.00	  568.19	-1750.44	  446.41
     26.6700	  599.00	  568.40	-1731.65	  446.03
     26.7700	  615.00	  568.77	-1716.02	  445.64
     26.8700	  622.00	  569.32	-1709.57	  445.26
     26.9700	  620.00	  570.10	-1712.35	  444.87
     27.0700	  624.00	  571.18	-1709.43	  444.48
     27.1700	  598.00	  572.66	-1736.91	  444.09
     27.2700	  631.00	  574.72	-1705.97	  443.70
     27.3700	  656.00	  577.71	-1683.96	  443.30
     27.4700	  656.00	  582.27	-1688.52	  442.91
     27.5700	  654.00	  589.60	-1697.85	  442.52
     27.6700	  642.00	  601.73	-1721.98	  442.12
     27.7700	  613.00	  621.63	-1770.89	  441.72
     27.8700	  640.00	  652.74	-1774.99	  441.33
     27.9700	  731.00	  697.31	-1728.56	  440.93
     28.0700	  716.00	  754.00	-1800.25	  440.53
     28.1700	  841.00	  815.07	-1736.32	  440.13
     28.2700	  947.00	  864.51	-1679.76	  439.73
     28.3700	  930.00	  880.97	-1713.22	  439.33
     28.4700	  936.00	  857.04	-1683.29	  438.93
     28.5700	  843.00	  817.66	-1736.91	  438.53
     28.6700	  751.00	  793.65	-1804.90	  438.13
     28.7700	  804.00	  796.05	-1754.30	  437.72
     28.8700	  778.00	  817.82	-1802.07	  437.32
     28.9700	  846.00	  839.51	-1755.76	  436.92
     29.0700	  803.00	  836.24	-1795.49	  436.51
     29.1700	  834.00	  795.77	-1724.02	  436.11
     29.2700	  786.00	  734.67	-1710.92	  435.70
     29.3700	  651.00	  676.97	-1788.22	  435.30
     29.4700	  645.00	  633.72	-1750.97	  434.89
     29.5700	  588.00	  605.55	-1779.80	  434.49
     29.6700	  603.00	  588.81	-1748.06	  434.08
     29.7700	  631.00	  579.19	-1710.44	  433.67
     29.8700	  645.00	  573.51	-1690.76	  433.27
     29.9700	  649.00	  569.98	-1683.23	  432.86
     30.0700	  661.00	  567.81	-1669.06	  432.45
     30.1700	  605.00	  566.77	-1724.02	  432.05
     30.2700	  622.00	  567.02	-1707.27	  431.64
     30.3700	  580.00	  569.07	-1751.32	  431.23
     30.4700	  601.00	  573.81	-1735.06	  430.82
     30.5700	  576.00	  582.38	-1768.63	  430.42
     30.6700	  600.00	  595.62	-1757.87	  430.01
     30.7700	  635.00	  613.13	-1740.38	  429.60
     30.8700	  651.00	  632.33	-1743.58	  429.19
     30.9700	  660.00	  647.89	-1750.14	  428.79
     31.0700	  673.00	  652.35	-1741.60	  428.38
     31.1700	  618.00	  641.26	-1785.51	  427.97
     31.2700	  605.00	  619.80	-1777.05	  427.57
     31.3700	  633.00	  597.48	-1726.73	  427.16
     31.4700	  650.00	  579.65	-1691.90	  426.76
     31.5700	  559.00	  567.43	-1770.68	  426.35
     31.6700	  562.00	  559.85	-1760.10	  425.94
     31.7700	  606.00	  555.38	-1711.63	  425.54
     31.8700	  592.00	  552.71	-1722.96	  425.13
     31.9700	  555.00	  551.03	-1758.28	  424.73
     32.0700	  582.00	  549.90	-1730.15	  424.33
     32.1700	  544.00	  549.12	-1767.37	  423.92
     32.2700	  575.00	  548.61	-1735.86	  423.52
     32.3700	  592.00	  548.34	-1718.59	  423.12
     32.4700	  594.00	  548.28	-1716.53	  422.71
     32.5700	  606.00	  548.46	-1704.71	  422.31
     32.6700	  582.00	  548.89	-1729.14	  421.91
     32.7700	  569.00	  549.62	-1742.87	  421.51
     32.8700	  545.00	  550.71	-1767.96	  421.11
     32.9700	  559.00	  552.28	-1755.53	  420.71
     33.0700	  618.00	  554.52	-1698.77	  420.31
     33.1700	  571.00	  557.78	-1749.03	  419.91
     33.2700	  526.00	  562.70	-1798.95	  419.52
     33.3700	  573.00	  570.58	-1759.83	  419.12
     33.4700	  562.00	  583.75	-1784.00	  418.72
     33.5700	  640.00	  605.82	-1728.07	  418.33
     33.6700	  682.00	  641.51	-1721.76	  417.93
     33.7700	  676.00	  694.93	-1781.18	  417.54
     33.8700	  727.00	  766.24	-1801.49	  417.15
     33.9700	  833.00	  847.42	-1776.67	  416.75
     34.0700	  964.00	  919.55	-1717.80	  416.36
     34.1700	 1011.00	  954.52	-1705.77	  415.97
     34.2700	  954.00	  929.98	-1738.23	  415.58
     34.3700	  852.00	  856.04	-1766.29	  415.19
     34.4700	  748.00	  767.64	-1781.89	  414.81
     34.5700	  689.00	  690.77	-1764.02	  414.42
     34.6700	  658.00	  634.40	-1738.65	  414.03
     34.7700	  590.00	  597.54	-1769.79	  413.65
     34.8700	  575.00	  575.18	-1762.43	  413.26
     34.9700	  566.00	  561.90	-1758.15	  412.88
     35.0700	  562.00	  553.72	-1753.97	  412.50
     35.1700	  571.00	  548.23	-1739.48	  412.12
     35.2700	  541.00	  544.21	-1765.46	  411.74
     35.3700	  531.00	  541.09	-1772.34	  411.36
     35.4700	  531.00	  538.57	-1769.82	  410.98
     35.5700	  565.00	  536.95	-1734.20	  410.61
     35.6700	  547.00	  535.18	-1750.43	  410.23
     35.7700	  515.00	  533.66	-1780.91	  409.86
     35.8700	  565.00	  532.33	-1729.58	  409.48
     35.9700	  489.00	  531.17	-1804.42	  409.11
     36.0700	  576.00	  530.13	-1716.38	  408.74
     36.1700	  479.00	  529.20	-1812.45	  408.37
     36.2700	  513.00	  528.33	-1777.58	  408.00
     36.3700	  542.00	  527.57	-1747.82	  407.64
     36.4700	  520.00	  526.88	-1769.13	  407.27
     36.5700	  507.00	  526.26	-1781.51	  406.91
     36.6700	  459.00	  525.70	-1828.95	  406.54
     36.7700	  550.00	  525.21	-1737.46	  406.18
     36.8700	  529.00	  524.80	-1758.05	  405.82
     36.9700	  544.00	  524.50	-1742.75	  405.46
     37.0700	  548.00	  524.37	-1738.62	  405.10
     37.1700	  503.00	  524.51	-1783.76	  404.75
     37.2700	  541.00	  525.07	-1746.32	  404.39
     37.3700	  525.00	  526.40	-1763.65	  404.04
     37.4700	  545.00	  528.26	-1745.51	  403.69
     37.5700	  513.00	  530.78	-1780.03	  403.34
     37.6700	  514.00	  533.63	-1781.88	  402.99
     37.7700	  531.00	  536.04	-1767.29	  402.64
     37.8700	  459.00	  536.98	-1840.23	  402.29
     37.9700	  526.00	  535.79	-1772.04	  401.95
     38.0700	  494.00	  532.87	-1801.12	  401.60
     38.1700	  514.00	  529.33	-1777.58	  401.26
     38.2700	  505.00	  525.94	-1783.19	  400.92
     38.3700	  522.00	  523.07	-1763.32	  400.58
     38.4700	  455.00	  520.84	-1828.09	  400.25
     38.5700	  494.00	  519.21	-1787.46	  399.91
     38.6700	  504.00	  518.03	-1776.28	  399.58
     38.7700	  493.00	  517.16	-1786.41	  399.24
     38.8700	  489.00	  516.48	-1789.73	  398.91
     38.9700	  499.00	  515.92	-1779.17	  398.58
     39.0700	  489.00	  515.43	-1788.68	  398.26
     39.1700	  482.00	  514.99	-1795.24	  397.93
     39.2700	  489.00	  514.59	-1787.84	  397.60
     39.3700	  489.00	  514.10	-1787.35	  397.28
     39.4700	  522.00	  513.74	-1753.99	  396.96
     39.5700	  519.00	  513.39	-1756.64	  396.64
     39.6700	  471.00	  513.07	-1804.32	  396.32
     39.7700	  496.00	  512.76	-1779.01	  396.01
     39.8700	  497.00	  512.46	-1777.71	  395.69
     39.9700	  489.00	  512.17	-1785.42	  395.38
     40.0700	  504.00	  511.90	-1770.15	  395.07
     40.1700	  516.00	  512.17	-1758.42	  394.76
     40.2700	  480.00	  511.93	-1794.18	  394.45
     40.3700	  510.00	  511.61	-1763.86	  394.15
     40.4700	  544.00	  511.41	-1729.66	  393.84
     40.5700	  477.00	  511.27	-1796.52	  393.54
     40.6700	  498.00	  511.11	-1775.36	  393.24
     40.7700	  531.00	  510.96	-1742.21	  392.94
