MSG Master    CELL:    5.91962   5.91962  23.28176   90.0000   90.0000  120.0000   SPGR: P 63/m m c             TEMP:   1071.85
  1   1280     2.52000     0.00000    -0.12413     0.00000     0.00000    0
    99     0     2
       0.00000      10.00000
     125.00000     130.00000
 2Theta	Yobs	Ycal	Yobs-Ycal	Backg	Posr	(hkl)	K
      0.7700	    0.00	  529.17	-1723.00	  410.67
      0.8700	    0.00	  530.13	-1723.00	  411.63
      0.9700	   42.00	  531.08	-1723.00	  412.58
      1.0700	   40.00	  532.02	-1723.00	  413.51
      1.1700	   38.00	  532.94	-1723.00	  414.44
      1.2700	   40.00	  533.85	-1723.00	  415.35
      1.3700	   43.00	  534.75	-1723.00	  416.25
      1.4700	  100.00	  535.64	-1723.00	  417.13
      1.5700	  304.00	  536.51	-1723.00	  418.00
      1.6700	  437.00	  537.37	-1723.00	  418.86
      1.7700	  539.00	  538.22	-1723.00	  419.71
      1.8700	  698.00	  539.05	-1723.00	  420.55
      1.9700	  753.00	  539.88	-1723.00	  421.37
      2.0700	  762.00	  540.69	-1723.00	  422.18
      2.1700	  831.00	  541.49	-1723.00	  422.98
      2.2700	  767.00	  542.27	-1723.00	  423.77
      2.3700	  780.00	  543.05	-1723.00	  424.54
      2.4700	  709.00	  543.81	-1723.00	  425.31
      2.5700	  703.00	  544.56	-1723.00	  426.06
      2.6700	  692.00	  545.30	-1723.00	  426.80
      2.7700	  641.00	  546.03	-1723.00	  427.53
      2.8700	  608.00	  546.75	-1723.00	  428.24
      2.9700	  645.00	  547.45	-1723.00	  428.95
      3.0700	  628.00	  548.15	-1723.00	  429.64
      3.1700	  572.00	  548.83	-1723.00	  430.32
      3.2700	  641.00	  549.50	-1723.00	  431.00
      3.3700	  670.00	  550.16	-1723.00	  431.66
      3.4700	  754.00	  550.81	-1723.00	  432.31
      3.5700	  840.00	  551.45	-1723.00	  432.94
      3.6700	  915.00	  552.08	-1723.00	  433.57
      3.7700	  885.00	  552.70	-1723.00	  434.19
      3.8700	 1018.00	  553.30	-1723.00	  434.80
      3.9700	  982.00	  553.90	-1723.00	  435.39
      4.0700	 1039.00	  554.48	-1723.00	  435.98
      4.1700	 1129.00	  555.06	-1723.00	  436.55
      4.2700	 1141.00	  555.62	-1723.00	  437.12
      4.3700	 1157.00	  556.17	-1723.00	  437.67
      4.4700	 1097.00	  556.72	-1723.00	  438.21
      4.5700	 1109.00	  557.25	-1723.00	  438.75
      4.6700	 1027.00	  557.78	-1723.00	  439.27
      4.7700	 1027.00	  558.29	-1723.00	  439.78
      4.8700	  994.00	  558.79	-1723.00	  440.29
      4.9700	  969.00	  559.29	-1723.00	  440.78
      5.0700	  966.00	  559.77	-1723.00	  441.26
      5.1700	  894.00	  560.24	-1723.00	  441.74
      5.2700	  945.00	  560.71	-1723.00	  442.20
      5.3700	  921.00	  561.16	-1723.00	  442.66
      5.4700	  850.00	  561.61	-1723.00	  443.10
      5.5700	  853.00	  562.04	-1723.00	  443.54
      5.6700	  846.00	  562.47	-1723.00	  443.96
      5.7700	  841.00	  562.89	-1723.00	  444.38
      5.8700	  794.00	  563.29	-1723.00	  444.79
      5.9700	  829.00	  563.69	-1723.00	  445.19
      6.0700	  834.00	  564.08	-1723.00	  445.58
      6.1700	  739.00	  564.46	-1723.00	  445.96
      6.2700	  774.00	  564.84	-1723.00	  446.33
      6.3700	  761.00	  565.20	-1723.00	  446.69
      6.4700	  695.00	  565.55	-1723.00	  447.05
      6.5700	  752.00	  565.90	-1723.00	  447.39
      6.6700	  746.00	  566.23	-1723.00	  447.73
      6.7700	  715.00	  566.56	-1723.00	  448.06
      6.8700	  721.00	  566.88	-1723.00	  448.38
      6.9700	  733.00	  567.19	-1723.00	  448.69
      7.0700	  727.00	  567.50	-1723.00	  448.99
      7.1700	  670.00	  567.79	-1723.00	  449.29
      7.2700	  701.00	  568.08	-1723.00	  449.57
      7.3700	  674.00	  568.36	-1723.00	  449.85
      7.4700	  642.00	  568.63	-1723.00	  450.12
      7.5700	  669.00	  568.89	-1723.00	  450.38
      7.6700	  669.00	  569.14	-1723.00	  450.64
      7.7700	  653.00	  569.39	-1723.00	  450.88
      7.8700	  654.00	  569.63	-1723.00	  451.12
      7.9700	  636.00	  569.86	-1723.00	  451.35
      8.0700	  623.00	  570.08	-1723.00	  451.57
      8.1700	  647.00	  570.29	-1723.00	  451.79
      8.2700	  634.00	  570.50	-1723.00	  452.00
      8.3700	  619.00	  570.70	-1723.00	  452.20
      8.4700	  668.00	  570.89	-1723.00	  452.39
      8.5700	  593.00	  571.08	-1723.00	  452.57
      8.6700	  630.00	  571.26	-1723.00	  452.75
      8.7700	  619.00	  571.43	-1723.00	  452.92
      8.8700	  646.00	  571.59	-1723.00	  453.08
      8.9700	  678.00	  571.75	-1723.00	  453.24
      9.0700	  615.00	  571.90	-1723.00	  453.39
      9.1700	  613.00	  572.04	-1723.00	  453.53
      9.2700	  591.00	  572.17	-1723.00	  453.67
      9.3700	  611.00	  572.30	-1723.00	  453.80
      9.4700	  630.00	  572.42	-1723.00	  453.92
      9.5700	  568.00	  572.54	-1723.00	  454.03
      9.6700	  610.00	  572.65	-1723.00	  454.14
      9.7700	  585.00	  572.75	-1723.00	  454.24
      9.8700	  631.00	  572.84	-1723.00	  454.34
      9.9700	  608.00	  572.93	-1723.00	  454.42
     10.0700	  593.00	  574.13	-1704.13	  454.51
     10.1700	  562.00	  574.33	-1735.33	  454.58
     10.2700	  578.00	  574.55	-1719.55	  454.65
     10.3700	  586.00	  574.82	-1711.82	  454.71
     10.4700	  587.00	  575.17	-1711.17	  454.77
     10.5700	  556.00	  575.65	-1742.65	  454.82
     10.6700	  592.00	  576.39	-1707.39	  454.87
     10.7700	  534.00	  577.49	-1766.49	  454.90
     10.8700	  601.00	  579.03	-1701.03	  454.94
     10.9700	  638.00	  581.00	-1666.00	  454.96
     11.0700	  644.00	  583.38	-1662.38	  454.98
     11.1700	  557.00	  586.18	-1752.18	  455.00
     11.2700	  587.00	  589.43	-1725.43	  455.01
     11.3700	  554.00	  593.22	-1762.22	  455.01
     11.4700	  540.00	  597.72	-1780.72	  455.01
     11.5700	  584.00	  603.17	-1742.17	  455.00
     11.6700	  602.00	  609.97	-1730.97	  454.99
     11.7700	  668.00	  618.79	-1673.79	  454.97
     11.8700	  666.00	  630.48	-1687.48	  454.94
     11.9700	  667.00	  645.21	-1701.21	  454.91
     12.0700	  693.00	  660.80	-1690.80	  454.88
     12.1700	  668.00	  670.88	-1725.88	  454.84
     12.2700	  672.00	  666.24	-1717.24	  454.79
     12.3700	  678.00	  644.78	-1689.78	  454.74
     12.4700	  623.00	  618.81	-1718.81	  454.69
     12.5700	  605.00	  599.12	-1717.12	  454.63
     12.6700	  589.00	  587.57	-1721.57	  454.56
     12.7700	  567.00	  581.80	-1737.80	  454.49
     12.8700	  600.00	  579.00	-1702.00	  454.41
     12.9700	  552.00	  577.46	-1748.46	  454.33
     13.0700	  555.00	  576.46	-1744.46	  454.25
     13.1700	  583.00	  575.72	-1715.72	  454.16
     13.2700	  607.00	  575.14	-1691.14	  454.06
     13.3700	  522.00	  574.67	-1775.67	  453.97
     13.4700	  552.00	  574.28	-1745.28	  453.86
     13.5700	  577.00	  573.93	-1719.93	  453.75
     13.6700	  625.00	  573.63	-1671.63	  453.64
     13.7700	  558.00	  573.36	-1738.36	  453.52
     13.8700	  569.00	  573.11	-1727.11	  453.40
     13.9700	  561.00	  572.87	-1734.87	  453.28
     14.0700	  538.00	  572.65	-1757.65	  453.15
     14.1700	  596.00	  572.43	-1699.43	  453.01
     14.2700	  576.00	  572.22	-1719.22	  452.87
     14.3700	  561.00	  572.02	-1734.02	  452.73
     14.4700	  550.00	  571.82	-1744.82	  452.59
     14.5700	  605.00	  571.63	-1689.63	  452.44
     14.6700	  585.00	  571.43	-1709.43	  452.28
     14.7700	  584.00	  571.24	-1710.24	  452.12
     14.8700	  547.00	  571.04	-1747.04	  451.96
     14.9700	  571.00	  570.85	-1722.85	  451.79
     15.0700	  523.00	  570.65	-1770.65	  451.62
     15.1700	  536.00	  570.45	-1757.45	  451.45
     15.2700	  544.00	  570.25	-1749.25	  451.27
     15.3700	  579.00	  570.05	-1714.05	  451.09
     15.4700	  593.00	  569.85	-1699.85	  450.91
     15.5700	  602.00	  569.67	-1690.67	  450.72
     15.6700	  556.00	  569.47	-1736.47	  450.53
     15.7700	  536.00	  569.26	-1756.26	  450.33
     15.8700	  576.00	  569.05	-1716.05	  450.14
     15.9700	  563.00	  568.84	-1728.84	  449.93
     16.0700	  548.00	  568.62	-1743.62	  449.73
     16.1700	  556.00	  568.41	-1735.41	  449.52
     16.2700	  616.00	  568.19	-1675.19	  449.31
     16.3700	  556.00	  567.96	-1734.96	  449.10
     16.4700	  560.00	  567.74	-1730.74	  448.88
     16.5700	  559.00	  567.51	-1731.51	  448.66
     16.6700	  573.00	  567.28	-1717.28	  448.43
     16.7700	  563.00	  567.05	-1727.05	  448.21
     16.8700	  563.00	  566.81	-1726.81	  447.98
     16.9700	  591.00	  566.58	-1698.58	  447.74
     17.0700	  526.00	  566.34	-1763.34	  447.51
     17.1700	  579.00	  566.09	-1710.09	  447.27
     17.2700	  562.00	  565.85	-1726.85	  447.03
     17.3700	  560.00	  565.60	-1728.60	  446.79
     17.4700	  561.00	  565.35	-1727.35	  446.54
     17.5700	  585.00	  565.10	-1703.10	  446.29
     17.6700	  587.00	  564.85	-1700.85	  446.04
     17.7700	  561.00	  564.59	-1726.59	  445.78
     17.8700	  607.00	  564.33	-1680.33	  445.53
     17.9700	  548.00	  564.07	-1739.07	  445.27
     18.0700	  545.00	  563.90	-1741.90	  445.01
     18.1700	  558.00	  563.64	-1728.64	  444.74
     18.2700	  563.00	  563.38	-1723.38	  444.47
     18.3700	  544.00	  563.11	-1742.11	  444.21
     18.4700	  585.00	  562.84	-1700.84	  443.93
     18.5700	  551.00	  562.57	-1734.57	  443.66
     18.6700	  570.00	  562.29	-1715.29	  443.39
     18.7700	  535.00	  562.02	-1750.02	  443.11
     18.8700	  569.00	  561.83	-1715.83	  442.83
     18.9700	  585.00	  561.55	-1699.55	  442.55
     19.0700	  533.00	  561.27	-1751.27	  442.26
     19.1700	  539.00	  560.99	-1744.99	  441.98
     19.2700	  584.00	  560.71	-1699.71	  441.69
     19.3700	  540.00	  560.42	-1743.42	  441.40
     19.4700	  583.00	  560.14	-1700.14	  441.11
     19.5700	  529.00	  559.85	-1753.85	  440.81
     19.6700	  553.00	  559.56	-1729.56	  440.52
     19.7700	  575.00	  559.27	-1707.27	  440.22
     19.8700	  588.00	  558.98	-1693.98	  439.92
     19.9700	  539.00	  558.69	-1742.69	  439.62
     20.0700	  541.00	  558.40	-1740.40	  439.32
     20.1700	  582.00	  558.10	-1699.10	  439.01
     20.2700	  578.00	  557.81	-1702.81	  438.71
     20.3700	  528.00	  557.51	-1752.51	  438.40
     20.4700	  578.00	  557.22	-1702.22	  438.09
     20.5700	  550.00	  556.92	-1729.92	  437.78
     20.6700	  590.00	  556.65	-1689.65	  437.47
     20.7700	  564.00	  556.35	-1715.35	  437.15
     20.8700	  519.00	  556.05	-1760.05	  436.84
     20.9700	  546.00	  555.76	-1732.76	  436.52
     21.0700	  526.00	  555.46	-1752.46	  436.20
     21.1700	  584.00	  555.16	-1694.16	  435.89
     21.2700	  531.00	  554.82	-1746.82	  435.57
     21.3700	  601.00	  554.52	-1676.52	  435.24
     21.4700	  548.00	  554.22	-1729.22	  434.92
     21.5700	  578.00	  553.92	-1698.92	  434.60
     21.6700	  555.00	  553.62	-1721.62	  434.27
     21.7700	  586.00	  553.33	-1690.33	  433.95
     21.8700	  571.00	  553.03	-1705.03	  433.62
     21.9700	  574.00	  552.74	-1701.74	  433.29
     22.0700	  514.00	  552.45	-1761.45	  432.96
     22.1700	  567.00	  552.16	-1708.16	  432.63
     22.2700	  537.00	  551.87	-1737.87	  432.30
     22.3700	  551.00	  551.59	-1723.59	  431.97
     22.4700	  568.00	  551.31	-1706.31	  431.64
     22.5700	  545.00	  551.04	-1729.04	  431.31
     22.6700	  551.00	  550.77	-1722.77	  430.97
     22.7700	  540.00	  550.51	-1733.51	  430.64
     22.8700	  502.00	  550.26	-1771.26	  430.30
     22.9700	  569.00	  550.02	-1704.02	  429.96
     23.0700	  580.00	  549.80	-1692.80	  429.63
     23.1700	  542.00	  549.59	-1730.59	  429.29
     23.2700	  544.00	  549.41	-1728.41	  428.95
     23.3700	  534.00	  549.26	-1738.26	  428.61
     23.4700	  537.00	  549.29	-1735.29	  428.27
     23.5700	  552.00	  549.23	-1720.23	  427.93
     23.6700	  543.00	  549.26	-1729.26	  427.59
     23.7700	  537.00	  549.42	-1735.42	  427.25
     23.8700	  586.00	  549.83	-1686.83	  426.91
     23.9700	  582.00	  550.70	-1691.70	  426.57
     24.0700	  560.00	  552.45	-1715.45	  426.22
     24.1700	  564.00	  555.64	-1714.64	  425.88
     24.2700	  599.00	  561.03	-1685.03	  425.54
     24.3700	  536.00	  569.40	-1756.40	  425.19
     24.4700	  588.00	  581.37	-1716.37	  424.85
     24.5700	  596.00	  596.60	-1723.60	  424.51
     24.6700	  533.00	  612.26	-1802.26	  424.16
     24.7700	  616.00	  621.95	-1728.95	  423.82
     24.8700	  609.00	  617.95	-1731.95	  423.47
     24.9700	  635.00	  600.38	-1688.38	  423.13
     25.0700	  582.00	  579.80	-1720.80	  422.78
     25.1700	  569.00	  564.02	-1718.02	  422.44
     25.2700	  561.00	  554.51	-1716.51	  422.09
     25.3700	  578.00	  549.57	-1694.57	  421.75
     25.4700	  551.00	  547.10	-1719.10	  421.40
     25.5700	  511.00	  545.73	-1757.73	  421.06
     25.6700	  543.00	  544.84	-1724.84	  420.71
     25.7700	  552.00	  544.18	-1715.18	  420.37
     25.8700	  560.00	  543.68	-1706.68	  420.02
     25.9700	  595.00	  543.29	-1671.29	  419.68
     26.0700	  577.00	  543.00	-1689.00	  419.33
     26.1700	  533.00	  542.78	-1732.78	  418.99
     26.2700	  502.00	  542.65	-1763.65	  418.64
     26.3700	  569.00	  542.59	-1696.59	  418.30
     26.4700	  513.00	  542.62	-1752.62	  417.95
     26.5700	  548.00	  542.74	-1717.74	  417.61
     26.6700	  528.00	  542.97	-1737.97	  417.26
     26.7700	  558.00	  543.35	-1708.35	  416.92
     26.8700	  593.00	  543.88	-1673.88	  416.58
     26.9700	  550.00	  544.64	-1717.64	  416.24
     27.0700	  530.00	  545.68	-1738.68	  415.89
     27.1700	  543.00	  547.15	-1727.15	  415.55
     27.2700	  537.00	  549.27	-1735.27	  415.21
     27.3700	  571.00	  552.53	-1704.53	  414.87
     27.4700	  552.00	  557.89	-1728.89	  414.53
     27.5700	  579.00	  567.06	-1711.06	  414.19
     27.6700	  590.00	  582.76	-1715.76	  413.85
     27.7700	  550.00	  608.54	-1781.54	  413.51
     27.8700	  572.00	  647.54	-1798.54	  413.17
     27.9700	  689.00	  700.00	-1734.00	  412.83
     28.0700	  726.00	  759.99	-1756.99	  412.49
     28.1700	  879.00	  812.51	-1656.51	  412.15
     28.2700	  956.00	  834.92	-1601.92	  411.82
     28.3700	  920.00	  814.02	-1617.02	  411.48
     28.4700	  772.00	  771.50	-1722.50	  411.15
     28.5700	  696.00	  742.66	-1769.66	  410.81
     28.6700	  702.00	  743.32	-1764.32	  410.48
     28.7700	  684.00	  768.34	-1807.34	  410.15
     28.8700	  829.00	  797.40	-1691.40	  409.81
     28.9700	  838.00	  802.23	-1687.23	  409.48
     29.0700	  777.00	  765.18	-1711.18	  409.15
     29.1700	  702.00	  702.14	-1723.14	  408.82
     29.2700	  633.00	  641.94	-1731.94	  408.49
     29.3700	  571.00	  598.33	-1750.33	  408.16
     29.4700	  595.00	  571.80	-1699.80	  407.83
     29.5700	  578.00	  557.35	-1702.35	  407.51
     29.6700	  582.00	  549.68	-1690.68	  407.18
     29.7700	  612.00	  545.32	-1656.32	  406.86
     29.8700	  601.00	  542.60	-1664.60	  406.53
     29.9700	  546.00	  540.87	-1717.87	  406.21
     30.0700	  551.00	  539.95	-1711.95	  405.89
     30.1700	  573.00	  539.99	-1689.99	  405.56
     30.2700	  598.00	  541.49	-1666.49	  405.24
     30.3700	  564.00	  545.39	-1704.39	  404.92
     30.4700	  581.00	  553.11	-1695.11	  404.61
     30.5700	  557.00	  566.04	-1732.04	  404.29
     30.6700	  588.00	  584.45	-1719.45	  403.97
     30.7700	  570.00	  605.88	-1758.88	  403.66
     30.8700	  586.00	  624.23	-1761.23	  403.34
     30.9700	  649.00	  630.34	-1704.34	  403.03
     31.0700	  602.00	  618.17	-1739.17	  402.72
     31.1700	  584.00	  594.03	-1733.03	  402.41
     31.2700	  561.00	  569.77	-1731.77	  402.10
     31.3700	  561.00	  551.66	-1713.66	  401.79
     31.4700	  530.00	  540.42	-1733.42	  401.48
     31.5700	  539.00	  534.25	-1718.25	  401.17
     31.6700	  557.00	  531.00	-1697.00	  400.87
     31.7700	  545.00	  529.18	-1707.18	  400.56
     31.8700	  526.00	  528.04	-1725.04	  400.26
     31.9700	  567.00	  527.25	-1683.25	  399.96
     32.0700	  587.00	  526.71	-1662.71	  399.66
     32.1700	  533.00	  526.35	-1716.35	  399.36
     32.2700	  576.00	  526.16	-1673.16	  399.06
     32.3700	  557.00	  526.13	-1692.13	  398.77
     32.4700	  556.00	  526.27	-1693.27	  398.47
     32.5700	  531.00	  526.59	-1718.59	  398.18
     32.6700	  547.00	  527.14	-1703.14	  397.88
     32.7700	  538.00	  527.96	-1712.96	  397.59
     32.8700	  544.00	  529.14	-1708.14	  397.30
     32.9700	  541.00	  530.81	-1712.81	  397.01
     33.0700	  524.00	  533.22	-1732.22	  396.73
     33.1700	  524.00	  536.91	-1735.91	  396.44
     33.2700	  530.00	  543.09	-1736.09	  396.16
     33.3700	  518.00	  554.20	-1759.20	  395.87
     33.4700	  541.00	  574.79	-1756.79	  395.59
     33.5700	  620.00	  611.66	-1714.66	  395.31
     33.6700	  643.00	  672.07	-1752.07	  395.03
     33.7700	  704.00	  758.29	-1777.29	  394.76
     33.8700	  925.00	  860.02	-1658.02	  394.48
     33.9700	  983.00	  949.90	-1689.90	  394.21
     34.0700	 1071.00	  987.21	-1639.21	  393.94
     34.1700	  966.00	  943.47	-1700.47	  393.66
     34.2700	  906.00	  841.30	-1658.30	  393.39
     34.3700	  757.00	  731.77	-1697.77	  393.13
     34.4700	  662.00	  645.92	-1706.92	  392.86
     34.5700	  566.00	  590.51	-1747.51	  392.59
     34.6700	  573.00	  559.40	-1709.40	  392.33
     34.7700	  543.00	  543.16	-1723.16	  392.07
     34.8700	  546.00	  534.45	-1711.45	  391.81
     34.9700	  531.00	  529.20	-1721.20	  391.55
     35.0700	  548.00	  525.60	-1700.60	  391.29
     35.1700	  526.00	  522.88	-1719.88	  391.04
     35.2700	  529.00	  520.74	-1714.74	  390.78
     35.3700	  523.00	  519.00	-1719.00	  390.53
     35.4700	  503.00	  517.55	-1737.55	  390.28
     35.5700	  570.00	  516.32	-1669.32	  390.03
     35.6700	  502.00	  515.27	-1736.27	  389.78
     35.7700	  462.00	  514.36	-1775.36	  389.54
     35.8700	  493.00	  513.56	-1743.56	  389.29
     35.9700	  520.00	  512.84	-1715.84	  389.05
     36.0700	  493.00	  512.65	-1742.65	  388.81
     36.1700	  473.00	  512.08	-1762.08	  388.57
     36.2700	  496.00	  511.57	-1738.57	  388.33
     36.3700	  488.00	  511.10	-1746.10	  388.10
     36.4700	  480.00	  510.67	-1753.67	  387.86
     36.5700	  504.00	  510.29	-1729.29	  387.63
     36.6700	  504.00	  509.96	-1728.96	  387.40
     36.7700	  501.00	  509.68	-1731.68	  387.17
     36.8700	  527.00	  509.48	-1705.48	  386.95
     36.9700	  506.00	  509.42	-1726.42	  386.72
     37.0700	  484.00	  509.64	-1748.64	  386.50
     37.1700	  544.00	  510.34	-1689.34	  386.27
     37.2700	  487.00	  511.80	-1747.80	  386.05
     37.3700	  517.00	  514.21	-1720.21	  385.84
     37.4700	  531.00	  517.40	-1709.40	  385.62
     37.5700	  495.00	  520.68	-1748.68	  385.41
     37.6700	  538.00	  522.78	-1707.78	  385.19
     37.7700	  553.00	  522.47	-1692.47	  384.98
     37.8700	  482.00	  519.75	-1760.75	  384.77
     37.9700	  549.00	  516.01	-1690.01	  384.56
     38.0700	  470.00	  512.51	-1765.51	  384.36
     38.1700	  492.00	  509.73	-1740.73	  384.15
     38.2700	  528.00	  507.75	-1702.75	  383.95
     38.3700	  518.00	  506.44	-1711.44	  383.75
     38.4700	  503.00	  505.57	-1725.57	  383.55
     38.5700	  475.00	  504.98	-1752.98	  383.36
     38.6700	  519.00	  504.45	-1708.45	  383.16
     38.7700	  536.00	  504.11	-1691.11	  382.97
     38.8700	  491.00	  503.83	-1735.83	  382.78
     38.9700	  492.00	  503.57	-1734.57	  382.59
     39.0700	  483.00	  503.48	-1743.48	  382.40
     39.1700	  508.00	  503.26	-1718.26	  382.22
     39.2700	  504.00	  503.06	-1722.06	  382.03
     39.3700	  475.00	  502.79	-1750.79	  381.85
     39.4700	  504.00	  502.61	-1721.61	  381.67
     39.5700	  502.00	  502.43	-1723.43	  381.49
     39.6700	  549.00	  502.27	-1676.27	  381.32
     39.7700	  476.00	  502.12	-1749.12	  381.14
     39.8700	  472.00	  501.98	-1752.98	  380.97
     39.9700	  481.00	  501.84	-1743.84	  380.80
     40.0700	  466.00	  501.72	-1758.72	  380.63
     40.1700	  509.00	  501.60	-1715.60	  380.46
     40.2700	  497.00	  501.50	-1727.50	  380.30
     40.3700	  496.00	  501.40	-1728.40	  380.14
     40.4700	  513.00	  501.32	-1711.32	  379.97
     40.5700	  504.00	  501.26	-1720.26	  379.82
     40.6700	  524.00	  501.21	-1700.21	  379.66
     40.7700	  533.00	  501.18	-1691.18	  379.50
