MSG Master    CELL:    5.91892   5.91892  23.27398   90.0000   90.0000  120.0000   SPGR: P 63/m m c             TEMP:   1074.85
  1   1280     2.52000     0.00000    -0.13196     0.00000     0.00000    0
    99     0     2
       0.00000      10.00000
     125.00000     130.00000
 2Theta	Yobs	Ycal	Yobs-Ycal	Backg	Posr	(hkl)	K
      0.7700	    0.00	  524.17	-1753.75	  405.90
      0.8700	    0.00	  525.14	-1753.75	  406.87
      0.9700	   45.00	  526.09	-1753.75	  407.82
      1.0700	   57.00	  527.03	-1753.75	  408.76
      1.1700	   31.00	  527.96	-1753.75	  409.69
      1.2700	   42.00	  528.87	-1753.75	  410.61
      1.3700	   52.00	  529.78	-1753.75	  411.51
      1.4700	   93.00	  530.67	-1753.75	  412.40
      1.5700	  301.00	  531.55	-1753.75	  413.28
      1.6700	  487.00	  532.41	-1753.75	  414.14
      1.7700	  560.00	  533.26	-1753.75	  415.00
      1.8700	  640.00	  534.11	-1753.75	  415.84
      1.9700	  705.00	  534.93	-1753.75	  416.67
      2.0700	  767.00	  535.75	-1753.75	  417.48
      2.1700	  798.00	  536.56	-1753.75	  418.29
      2.2700	  775.00	  537.35	-1753.75	  419.08
      2.3700	  766.00	  538.13	-1753.75	  419.86
      2.4700	  693.00	  538.90	-1753.75	  420.63
      2.5700	  682.00	  539.66	-1753.75	  421.39
      2.6700	  678.00	  540.41	-1753.75	  422.14
      2.7700	  681.00	  541.14	-1753.75	  422.87
      2.8700	  691.00	  541.87	-1753.75	  423.60
      2.9700	  635.00	  542.58	-1753.75	  424.31
      3.0700	  609.00	  543.28	-1753.75	  425.01
      3.1700	  623.00	  543.97	-1753.75	  425.70
      3.2700	  634.00	  544.65	-1753.75	  426.38
      3.3700	  641.00	  545.32	-1753.75	  427.05
      3.4700	  743.00	  545.98	-1753.75	  427.71
      3.5700	  822.00	  546.62	-1753.75	  428.35
      3.6700	  883.00	  547.26	-1753.75	  428.99
      3.7700	  969.00	  547.88	-1753.75	  429.62
      3.8700	  951.00	  548.50	-1753.75	  430.23
      3.9700	  999.00	  549.10	-1753.75	  430.84
      4.0700	 1018.00	  549.70	-1753.75	  431.43
      4.1700	 1162.00	  550.28	-1753.75	  432.01
      4.2700	 1129.00	  550.85	-1753.75	  432.59
      4.3700	 1072.00	  551.42	-1753.75	  433.15
      4.4700	 1055.00	  551.97	-1753.75	  433.70
      4.5700	 1026.00	  552.51	-1753.75	  434.25
      4.6700	 1034.00	  553.05	-1753.75	  434.78
      4.7700	  991.00	  553.57	-1753.75	  435.30
      4.8700	 1009.00	  554.08	-1753.75	  435.81
      4.9700	  980.00	  554.59	-1753.75	  436.32
      5.0700	  962.00	  555.08	-1753.75	  436.81
      5.1700	  924.00	  555.56	-1753.75	  437.30
      5.2700	  882.00	  556.04	-1753.75	  437.77
      5.3700	  887.00	  556.50	-1753.75	  438.24
      5.4700	  917.00	  556.96	-1753.75	  438.69
      5.5700	  837.00	  557.41	-1753.75	  439.14
      5.6700	  863.00	  557.84	-1753.75	  439.58
      5.7700	  765.00	  558.27	-1753.75	  440.00
      5.8700	  876.00	  558.69	-1753.75	  440.42
      5.9700	  811.00	  559.10	-1753.75	  440.83
      6.0700	  802.00	  559.50	-1753.75	  441.23
      6.1700	  782.00	  559.89	-1753.75	  441.63
      6.2700	  792.00	  560.28	-1753.75	  442.01
      6.3700	  762.00	  560.65	-1753.75	  442.38
      6.4700	  736.00	  561.02	-1753.75	  442.75
      6.5700	  760.00	  561.38	-1753.75	  443.11
      6.6700	  742.00	  561.72	-1753.75	  443.46
      6.7700	  744.00	  562.06	-1753.75	  443.80
      6.8700	  751.00	  562.40	-1753.75	  444.13
      6.9700	  661.00	  562.72	-1753.75	  444.45
      7.0700	  671.00	  563.04	-1753.75	  444.77
      7.1700	  689.00	  563.34	-1753.75	  445.07
      7.2700	  671.00	  563.64	-1753.75	  445.37
      7.3700	  659.00	  563.93	-1753.75	  445.66
      7.4700	  663.00	  564.21	-1753.75	  445.95
      7.5700	  666.00	  564.49	-1753.75	  446.22
      7.6700	  659.00	  564.76	-1753.75	  446.49
      7.7700	  665.00	  565.02	-1753.75	  446.75
      7.8700	  640.00	  565.27	-1753.75	  447.00
      7.9700	  621.00	  565.51	-1753.75	  447.24
      8.0700	  620.00	  565.75	-1753.75	  447.48
      8.1700	  600.00	  565.98	-1753.75	  447.71
      8.2700	  651.00	  566.20	-1753.75	  447.93
      8.3700	  601.00	  566.41	-1753.75	  448.14
      8.4700	  642.00	  566.62	-1753.75	  448.35
      8.5700	  675.00	  566.82	-1753.75	  448.55
      8.6700	  638.00	  567.01	-1753.75	  448.74
      8.7700	  649.00	  567.19	-1753.75	  448.92
      8.8700	  650.00	  567.37	-1753.75	  449.10
      8.9700	  628.00	  567.54	-1753.75	  449.27
      9.0700	  639.00	  567.70	-1753.75	  449.44
      9.1700	  607.00	  567.86	-1753.75	  449.59
      9.2700	  614.00	  568.01	-1753.75	  449.74
      9.3700	  618.00	  568.15	-1753.75	  449.89
      9.4700	  645.00	  568.29	-1753.75	  450.02
      9.5700	  610.00	  568.42	-1753.75	  450.15
      9.6700	  575.00	  568.54	-1753.75	  450.27
      9.7700	  597.00	  568.66	-1753.75	  450.39
      9.8700	  589.00	  568.77	-1753.75	  450.50
      9.9700	  596.00	  568.87	-1753.75	  450.60
     10.0700	  645.00	  569.87	-1678.62	  450.70
     10.1700	  619.00	  570.06	-1704.81	  450.79
     10.2700	  633.00	  570.26	-1691.01	  450.88
     10.3700	  595.00	  570.50	-1729.25	  450.95
     10.4700	  532.00	  570.80	-1792.55	  451.03
     10.5700	  562.00	  571.23	-1762.98	  451.09
     10.6700	  604.00	  571.87	-1721.62	  451.15
     10.7700	  572.00	  572.85	-1754.60	  451.21
     10.8700	  590.00	  574.23	-1737.98	  451.25
     10.9700	  570.00	  576.00	-1759.75	  451.30
     11.0700	  574.00	  578.13	-1757.88	  451.33
     11.1700	  592.00	  580.62	-1742.37	  451.36
     11.2700	  595.00	  583.51	-1742.26	  451.39
     11.3700	  576.00	  586.87	-1764.62	  451.41
     11.4700	  573.00	  590.87	-1771.62	  451.42
     11.5700	  626.00	  595.70	-1723.45	  451.43
     11.6700	  621.00	  601.76	-1734.51	  451.43
     11.7700	  660.00	  609.67	-1703.43	  451.43
     11.8700	  581.00	  620.35	-1793.10	  451.42
     11.9700	  667.00	  634.20	-1720.95	  451.41
     12.0700	  682.00	  649.27	-1721.02	  451.39
     12.1700	  659.00	  659.14	-1753.89	  451.37
     12.2700	  680.00	  654.42	-1728.17	  451.34
     12.3700	  665.00	  633.31	-1722.06	  451.31
     12.4700	  603.00	  608.57	-1759.32	  451.27
     12.5700	  597.00	  590.60	-1747.35	  451.22
     12.6700	  555.00	  580.71	-1779.46	  451.17
     12.7700	  594.00	  576.11	-1735.86	  451.12
     12.8700	  556.00	  573.99	-1771.74	  451.06
     12.9700	  562.00	  572.84	-1764.59	  451.00
     13.0700	  570.00	  572.08	-1755.83	  450.93
     13.1700	  564.00	  571.51	-1761.26	  450.86
     13.2700	  538.00	  571.06	-1786.81	  450.78
     13.3700	  569.00	  570.70	-1755.45	  450.70
     13.4700	  538.00	  570.39	-1786.14	  450.61
     13.5700	  555.00	  570.12	-1768.87	  450.52
     13.6700	  555.00	  569.88	-1768.62	  450.43
     13.7700	  526.00	  569.66	-1797.41	  450.33
     13.8700	  570.00	  569.45	-1753.20	  450.23
     13.9700	  554.00	  569.26	-1769.01	  450.12
     14.0700	  500.00	  569.08	-1822.83	  450.00
     14.1700	  571.00	  568.90	-1751.65	  449.89
     14.2700	  568.00	  568.73	-1754.48	  449.77
     14.3700	  529.00	  568.55	-1793.30	  449.64
     14.4700	  601.00	  568.39	-1721.14	  449.51
     14.5700	  549.00	  568.22	-1772.97	  449.38
     14.6700	  576.00	  568.05	-1745.80	  449.25
     14.7700	  560.00	  567.88	-1761.63	  449.11
     14.8700	  589.00	  567.71	-1732.46	  448.96
     14.9700	  540.00	  567.54	-1781.29	  448.81
     15.0700	  578.00	  567.37	-1743.12	  448.66
     15.1700	  478.00	  567.20	-1842.95	  448.51
     15.2700	  539.00	  567.02	-1781.77	  448.35
     15.3700	  618.00	  566.84	-1702.59	  448.18
     15.4700	  536.00	  566.66	-1784.41	  448.02
     15.5700	  543.00	  566.48	-1777.23	  447.85
     15.6700	  596.00	  566.30	-1724.05	  447.68
     15.7700	  538.00	  566.11	-1781.86	  447.50
     15.8700	  561.00	  565.92	-1758.67	  447.32
     15.9700	  554.00	  565.76	-1765.51	  447.14
     16.0700	  592.00	  565.56	-1727.31	  446.95
     16.1700	  483.00	  565.37	-1836.12	  446.76
     16.2700	  573.00	  565.17	-1745.92	  446.57
     16.3700	  554.00	  564.96	-1764.71	  446.37
     16.4700	  531.00	  564.76	-1787.51	  446.17
     16.5700	  541.00	  564.55	-1777.30	  445.97
     16.6700	  566.00	  564.34	-1752.09	  445.77
     16.7700	  530.00	  564.13	-1787.88	  445.56
     16.8700	  553.00	  563.92	-1764.67	  445.35
     16.9700	  572.00	  563.70	-1745.45	  445.13
     17.0700	  515.00	  563.48	-1802.23	  444.92
     17.1700	  570.00	  563.26	-1747.01	  444.70
     17.2700	  556.00	  563.03	-1760.78	  444.47
     17.3700	  539.00	  562.80	-1777.55	  444.25
     17.4700	  527.00	  562.57	-1789.32	  444.02
     17.5700	  569.00	  562.34	-1747.09	  443.79
     17.6700	  570.00	  562.11	-1745.86	  443.56
     17.7700	  571.00	  561.87	-1744.62	  443.32
     17.8700	  562.00	  561.63	-1753.38	  443.08
     17.9700	  568.00	  561.39	-1747.14	  442.84
     18.0700	  561.00	  561.15	-1753.90	  442.60
     18.1700	  566.00	  561.01	-1748.76	  442.36
     18.2700	  593.00	  560.76	-1721.51	  442.11
     18.3700	  527.00	  560.52	-1787.27	  441.86
     18.4700	  588.00	  560.27	-1726.02	  441.61
     18.5700	  580.00	  560.01	-1733.76	  441.35
     18.6700	  564.00	  559.76	-1749.51	  441.10
     18.7700	  551.00	  559.50	-1762.25	  440.84
     18.8700	  580.00	  559.25	-1733.00	  440.58
     18.9700	  597.00	  559.07	-1715.82	  440.31
     19.0700	  587.00	  558.81	-1725.56	  440.05
     19.1700	  548.00	  558.55	-1764.30	  439.78
     19.2700	  542.00	  558.28	-1770.03	  439.51
     19.3700	  564.00	  558.02	-1747.77	  439.24
     19.4700	  577.00	  557.75	-1734.50	  438.97
     19.5700	  522.00	  557.49	-1789.24	  438.69
     19.6700	  578.00	  557.22	-1732.97	  438.42
     19.7700	  565.00	  556.95	-1745.70	  438.14
     19.8700	  559.00	  556.67	-1751.42	  437.86
     19.9700	  549.00	  556.40	-1761.15	  437.58
     20.0700	  559.00	  556.13	-1750.88	  437.29
     20.1700	  565.00	  555.85	-1744.60	  437.01
     20.2700	  571.00	  555.58	-1738.33	  436.72
     20.3700	  551.00	  555.30	-1758.05	  436.43
     20.4700	  572.00	  555.02	-1736.77	  436.14
     20.5700	  544.00	  554.74	-1764.49	  435.85
     20.6700	  532.00	  554.46	-1776.21	  435.56
     20.7700	  550.00	  554.18	-1757.93	  435.27
     20.8700	  551.00	  553.90	-1756.65	  434.97
     20.9700	  568.00	  553.62	-1739.37	  434.67
     21.0700	  540.00	  553.34	-1767.09	  434.38
     21.1700	  544.00	  553.06	-1762.81	  434.08
     21.2700	  544.00	  552.78	-1762.53	  433.78
     21.3700	  562.00	  552.50	-1744.25	  433.47
     21.4700	  594.00	  552.22	-1711.97	  433.17
     21.5700	  583.00	  551.94	-1722.69	  432.87
     21.6700	  542.00	  551.66	-1763.41	  432.56
     21.7700	  569.00	  551.38	-1736.13	  432.25
     21.8700	  542.00	  551.11	-1762.86	  431.95
     21.9700	  549.00	  550.83	-1755.58	  431.64
     22.0700	  574.00	  550.56	-1730.31	  431.33
     22.1700	  532.00	  550.28	-1772.03	  431.02
     22.2700	  538.00	  550.01	-1765.76	  430.71
     22.3700	  530.00	  549.75	-1773.50	  430.39
     22.4700	  572.00	  549.49	-1731.24	  430.08
     22.5700	  590.00	  549.23	-1712.98	  429.77
     22.6700	  559.00	  548.98	-1743.73	  429.45
     22.7700	  552.00	  548.73	-1750.48	  429.13
     22.8700	  521.00	  548.49	-1781.24	  428.82
     22.9700	  535.00	  548.27	-1767.02	  428.50
     23.0700	  590.00	  548.05	-1711.80	  428.18
     23.1700	  569.00	  547.86	-1732.61	  427.86
     23.2700	  525.00	  547.68	-1776.43	  427.54
     23.3700	  532.00	  547.53	-1769.28	  427.22
     23.4700	  536.00	  547.42	-1765.17	  426.90
     23.5700	  560.00	  547.36	-1741.11	  426.58
     23.6700	  540.00	  547.50	-1761.25	  426.26
     23.7700	  509.00	  547.63	-1792.38	  425.94
     23.8700	  565.00	  548.00	-1736.75	  425.62
     23.9700	  506.00	  548.82	-1796.57	  425.29
     24.0700	  584.00	  550.51	-1720.26	  424.97
     24.1700	  585.00	  553.72	-1722.47	  424.65
     24.2700	  551.00	  559.23	-1761.98	  424.32
     24.3700	  594.00	  567.94	-1727.69	  424.00
     24.4700	  576.00	  580.71	-1758.46	  423.67
     24.5700	  571.00	  597.47	-1780.22	  423.35
     24.6700	  637.00	  615.25	-1732.00	  423.02
     24.7700	  601.00	  626.68	-1779.43	  422.70
     24.8700	  610.00	  622.52	-1766.27	  422.37
     24.9700	  582.00	  602.69	-1774.44	  422.05
     25.0700	  556.00	  579.59	-1777.34	  421.72
     25.1700	  585.00	  562.38	-1731.13	  421.39
     25.2700	  549.00	  552.51	-1757.26	  421.07
     25.3700	  580.00	  547.72	-1721.47	  420.74
     25.4700	  529.00	  545.46	-1770.21	  420.41
     25.5700	  580.00	  544.24	-1717.99	  420.09
     25.6700	  562.00	  543.44	-1735.19	  419.76
     25.7700	  558.00	  542.85	-1738.60	  419.43
     25.8700	  567.00	  542.41	-1729.16	  419.11
     25.9700	  551.00	  542.07	-1744.82	  418.78
     26.0700	  535.00	  541.83	-1760.58	  418.46
     26.1700	  532.00	  541.66	-1763.41	  418.13
     26.2700	  564.00	  541.57	-1731.32	  417.80
     26.3700	  584.00	  541.56	-1711.31	  417.48
     26.4700	  596.00	  541.64	-1699.39	  417.15
     26.5700	  544.00	  541.81	-1751.56	  416.83
     26.6700	  543.00	  542.11	-1752.86	  416.50
     26.7700	  552.00	  542.54	-1744.29	  416.18
     26.8700	  562.00	  543.15	-1734.90	  415.85
     26.9700	  558.00	  544.00	-1739.75	  415.53
     27.0700	  567.00	  545.16	-1731.91	  415.20
     27.1700	  520.00	  546.77	-1780.52	  414.88
     27.2700	  524.00	  549.11	-1778.86	  414.56
     27.3700	  616.00	  552.71	-1690.46	  414.23
     27.4700	  559.00	  558.64	-1753.39	  413.91
     27.5700	  553.00	  568.85	-1769.60	  413.59
     27.6700	  572.00	  586.37	-1768.12	  413.27
     27.7700	  589.00	  615.16	-1779.91	  412.95
     27.8700	  623.00	  658.62	-1789.37	  412.63
     27.9700	  678.00	  716.83	-1792.58	  412.31
     28.0700	  779.00	  782.80	-1757.55	  411.99
     28.1700	  934.00	  839.21	-1658.96	  411.67
     28.2700	  979.00	  860.49	-1635.24	  411.35
     28.3700	  886.00	  832.73	-1700.48	  411.03
     28.4700	  801.00	  781.14	-1733.89	  410.71
     28.5700	  732.00	  744.12	-1765.87	  410.40
     28.6700	  655.00	  738.26	-1837.01	  410.08
     28.7700	  697.00	  758.12	-1814.87	  409.77
     28.8700	  804.00	  783.09	-1732.84	  409.45
     28.9700	  845.00	  785.25	-1694.00	  409.14
     29.0700	  792.00	  748.12	-1709.87	  408.82
     29.1700	  685.00	  687.85	-1756.60	  408.51
     29.2700	  659.00	  631.49	-1726.24	  408.20
     29.3700	  642.00	  591.34	-1703.09	  407.89
     29.4700	  560.00	  567.33	-1761.08	  407.58
     29.5700	  588.00	  554.43	-1720.18	  407.27
     29.6700	  604.00	  547.61	-1697.36	  406.96
     29.7700	  582.00	  543.71	-1715.46	  406.65
     29.8700	  619.00	  541.27	-1676.02	  406.35
     29.9700	  552.00	  539.71	-1741.46	  406.04
     30.0700	  557.00	  538.93	-1735.68	  405.74
     30.1700	  544.00	  539.09	-1748.84	  405.43
     30.2700	  540.00	  540.73	-1754.48	  405.13
     30.3700	  615.00	  544.89	-1683.64	  404.83
     30.4700	  543.00	  553.11	-1763.86	  404.52
     30.5700	  537.00	  566.97	-1783.72	  404.22
     30.6700	  581.00	  586.80	-1759.55	  403.93
     30.7700	  613.00	  609.99	-1750.74	  403.63
     30.8700	  574.00	  629.76	-1809.51	  403.33
     30.9700	  626.00	  636.03	-1763.78	  403.03
     31.0700	  619.00	  622.35	-1757.10	  402.74
     31.1700	  585.00	  596.06	-1764.81	  402.44
     31.2700	  560.00	  570.15	-1763.90	  402.15
     31.3700	  525.00	  551.19	-1779.94	  401.86
     31.4700	  563.00	  539.71	-1730.46	  401.57
     31.5700	  527.00	  533.57	-1760.32	  401.28
     31.6700	  507.00	  530.40	-1777.15	  400.99
     31.7700	  556.00	  528.63	-1726.38	  400.70
     31.8700	  506.00	  527.51	-1775.26	  400.42
     31.9700	  565.00	  526.73	-1715.48	  400.13
     32.0700	  574.00	  526.18	-1705.93	  399.85
     32.1700	  532.00	  525.80	-1747.55	  399.57
     32.2700	  539.00	  525.59	-1740.34	  399.29
     32.3700	  573.00	  525.52	-1706.27	  399.01
     32.4700	  566.00	  525.61	-1713.36	  398.73
     32.5700	  525.00	  525.88	-1754.63	  398.45
     32.6700	  541.00	  526.34	-1739.09	  398.17
     32.7700	  548.00	  527.06	-1732.81	  397.90
     32.8700	  498.00	  528.10	-1783.85	  397.62
     32.9700	  560.00	  529.58	-1723.33	  397.35
     33.0700	  554.00	  531.73	-1731.48	  397.08
     33.1700	  540.00	  535.05	-1748.80	  396.81
     33.2700	  547.00	  540.64	-1747.39	  396.54
     33.3700	  540.00	  550.88	-1764.63	  396.28
     33.4700	  530.00	  570.26	-1794.01	  396.01
     33.5700	  598.00	  605.76	-1761.51	  395.75
     33.6700	  677.00	  665.12	-1741.87	  395.48
     33.7700	  788.00	  751.22	-1716.97	  395.22
     33.8700	  883.00	  853.97	-1724.72	  394.96
     33.9700	 1043.00	  945.15	-1655.90	  394.71
     34.0700	  997.00	  982.57	-1739.32	  394.45
     34.1700	  990.00	  937.08	-1700.83	  394.19
     34.2700	  916.00	  832.73	-1670.48	  393.94
     34.3700	  745.00	  722.35	-1731.10	  393.69
     34.4700	  651.00	  637.40	-1740.15	  393.43
     34.5700	  544.00	  583.96	-1793.71	  393.18
     34.6700	  564.00	  554.89	-1744.64	  392.94
     34.7700	  556.00	  540.16	-1737.91	  392.69
     34.8700	  534.00	  532.40	-1752.15	  392.45
     34.9700	  515.00	  527.73	-1766.48	  392.20
     35.0700	  579.00	  524.52	-1699.27	  391.96
     35.1700	  512.00	  522.07	-1763.82	  391.72
     35.2700	  498.00	  520.14	-1775.89	  391.48
     35.3700	  506.00	  518.56	-1766.31	  391.24
     35.4700	  529.00	  517.25	-1742.00	  391.01
     35.5700	  548.00	  516.14	-1721.89	  390.77
     35.6700	  525.00	  515.19	-1743.94	  390.54
     35.7700	  539.00	  514.36	-1729.11	  390.31
     35.8700	  547.00	  513.63	-1720.38	  390.08
     35.9700	  464.00	  512.98	-1802.73	  389.85
     36.0700	  488.00	  512.40	-1778.15	  389.63
     36.1700	  506.00	  512.35	-1760.10	  389.40
     36.2700	  535.00	  511.88	-1730.63	  389.18
     36.3700	  536.00	  511.46	-1729.21	  388.96
     36.4700	  470.00	  511.07	-1794.82	  388.74
     36.5700	  511.00	  510.73	-1753.48	  388.52
     36.6700	  513.00	  510.43	-1751.18	  388.30
     36.7700	  509.00	  510.17	-1754.92	  388.09
     36.8700	  521.00	  510.00	-1742.75	  387.88
     36.9700	  512.00	  509.95	-1751.70	  387.66
     37.0700	  545.00	  510.15	-1718.90	  387.45
     37.1700	  519.00	  510.84	-1745.59	  387.25
     37.2700	  495.00	  512.33	-1771.08	  387.04
     37.3700	  511.00	  514.92	-1757.67	  386.84
     37.4700	  533.00	  518.55	-1739.30	  386.63
     37.5700	  517.00	  522.61	-1759.36	  386.43
     37.6700	  544.00	  525.80	-1735.55	  386.23
     37.7700	  547.00	  526.72	-1733.47	  386.04
     37.8700	  532.00	  525.10	-1746.85	  385.84
     37.9700	  508.00	  522.07	-1767.82	  385.65
     38.0700	  501.00	  518.62	-1771.37	  385.45
     38.1700	  491.00	  515.10	-1777.85	  385.26
     38.2700	  473.00	  511.94	-1792.69	  385.07
     38.3700	  531.00	  509.46	-1732.21	  384.89
     38.4700	  554.00	  507.72	-1707.47	  384.70
     38.5700	  510.00	  506.58	-1750.33	  384.52
     38.6700	  505.00	  505.76	-1754.51	  384.34
     38.7700	  507.00	  505.28	-1752.03	  384.16
     38.8700	  525.00	  504.94	-1733.69	  383.98
     38.9700	  531.00	  504.66	-1727.41	  383.80
     39.0700	  486.00	  504.41	-1772.16	  383.63
     39.1700	  501.00	  504.12	-1756.87	  383.45
     39.2700	  461.00	  503.92	-1796.67	  383.28
     39.3700	  563.00	  503.86	-1694.61	  383.11
     39.4700	  463.00	  503.69	-1794.44	  382.95
     39.5700	  495.00	  503.53	-1762.28	  382.78
     39.6700	  489.00	  503.38	-1768.13	  382.62
     39.7700	  518.00	  503.24	-1738.99	  382.46
     39.8700	  500.00	  503.11	-1756.86	  382.30
     39.9700	  516.00	  502.99	-1740.74	  382.14
     40.0700	  461.00	  502.88	-1795.63	  381.98
     40.1700	  493.00	  502.78	-1763.53	  381.83
     40.2700	  514.00	  502.69	-1742.44	  381.67
     40.3700	  493.00	  502.62	-1763.37	  381.52
     40.4700	  508.00	  502.56	-1748.31	  381.37
     40.5700	  502.00	  502.51	-1754.26	  381.23
     40.6700	  463.00	  502.49	-1793.24	  381.08
     40.7700	  488.00	  502.48	-1768.23	  380.94
