MSG Master    CELL:    5.91802   5.91802  23.26098   90.0000   90.0000  120.0000   SPGR: P 63/m m c             TEMP:   1051.65
  1   1280     2.52000     0.00000    -0.13021     0.00000     0.00000    0
    99     0     2
       0.00000      10.00000
     125.00000     130.00000
 2Theta	Yobs	Ycal	Yobs-Ycal	Backg	Posr	(hkl)	K
      0.7700	    0.00	  535.37	-1775.50	  418.46
      0.8700	    0.00	  536.25	-1775.50	  419.35
      0.9700	   45.00	  537.12	-1775.50	  420.22
      1.0700	   53.00	  537.98	-1775.50	  421.08
      1.1700	   42.00	  538.83	-1775.50	  421.93
      1.2700	   32.00	  539.66	-1775.50	  422.76
      1.3700	   46.00	  540.49	-1775.50	  423.58
      1.4700	  107.00	  541.30	-1775.50	  424.39
      1.5700	  285.00	  542.09	-1775.50	  425.19
      1.6700	  469.00	  542.88	-1775.50	  425.98
      1.7700	  572.00	  543.66	-1775.50	  426.75
      1.8700	  705.00	  544.42	-1775.50	  427.52
      1.9700	  738.00	  545.17	-1775.50	  428.27
      2.0700	  821.00	  545.91	-1775.50	  429.01
      2.1700	  799.00	  546.64	-1775.50	  429.74
      2.2700	  741.00	  547.36	-1775.50	  430.46
      2.3700	  751.00	  548.07	-1775.50	  431.17
      2.4700	  707.00	  548.76	-1775.50	  431.86
      2.5700	  700.00	  549.45	-1775.50	  432.55
      2.6700	  704.00	  550.12	-1775.50	  433.22
      2.7700	  671.00	  550.78	-1775.50	  433.88
      2.8700	  639.00	  551.44	-1775.50	  434.53
      2.9700	  643.00	  552.08	-1775.50	  435.17
      3.0700	  603.00	  552.71	-1775.50	  435.81
      3.1700	  630.00	  553.33	-1775.50	  436.42
      3.2700	  634.00	  553.94	-1775.50	  437.03
      3.3700	  671.00	  554.54	-1775.50	  437.63
      3.4700	  723.00	  555.12	-1775.50	  438.22
      3.5700	  802.00	  555.70	-1775.50	  438.80
      3.6700	  852.00	  556.27	-1775.50	  439.37
      3.7700	  916.00	  556.83	-1775.50	  439.92
      3.8700	  986.00	  557.37	-1775.50	  440.47
      3.9700	  998.00	  557.91	-1775.50	  441.01
      4.0700	 1054.00	  558.44	-1775.50	  441.54
      4.1700	 1093.00	  558.96	-1775.50	  442.06
      4.2700	 1110.00	  559.47	-1775.50	  442.56
      4.3700	 1060.00	  559.96	-1775.50	  443.06
      4.4700	 1092.00	  560.45	-1775.50	  443.55
      4.5700	 1003.00	  560.93	-1775.50	  444.03
      4.6700	 1023.00	  561.40	-1775.50	  444.50
      4.7700	  981.00	  561.86	-1775.50	  444.96
      4.8700	  952.00	  562.31	-1775.50	  445.41
      4.9700	 1000.00	  562.75	-1775.50	  445.85
      5.0700	 1011.00	  563.18	-1775.50	  446.28
      5.1700	  917.00	  563.61	-1775.50	  446.70
      5.2700	  933.00	  564.02	-1775.50	  447.12
      5.3700	  890.00	  564.43	-1775.50	  447.52
      5.4700	  889.00	  564.82	-1775.50	  447.92
      5.5700	  840.00	  565.21	-1775.50	  448.31
      5.6700	  886.00	  565.59	-1775.50	  448.68
      5.7700	  791.00	  565.96	-1775.50	  449.05
      5.8700	  852.00	  566.32	-1775.50	  449.41
      5.9700	  804.00	  566.67	-1775.50	  449.77
      6.0700	  788.00	  567.01	-1775.50	  450.11
      6.1700	  786.00	  567.35	-1775.50	  450.45
      6.2700	  778.00	  567.67	-1775.50	  450.77
      6.3700	  794.00	  567.99	-1775.50	  451.09
      6.4700	  761.00	  568.30	-1775.50	  451.40
      6.5700	  778.00	  568.60	-1775.50	  451.70
      6.6700	  697.00	  568.90	-1775.50	  452.00
      6.7700	  715.00	  569.18	-1775.50	  452.28
      6.8700	  704.00	  569.46	-1775.50	  452.56
      6.9700	  632.00	  569.73	-1775.50	  452.83
      7.0700	  686.00	  569.99	-1775.50	  453.09
      7.1700	  668.00	  570.25	-1775.50	  453.34
      7.2700	  650.00	  570.49	-1775.50	  453.59
      7.3700	  699.00	  570.73	-1775.50	  453.83
      7.4700	  672.00	  570.96	-1775.50	  454.06
      7.5700	  653.00	  571.19	-1775.50	  454.28
      7.6700	  684.00	  571.40	-1775.50	  454.50
      7.7700	  610.00	  571.61	-1775.50	  454.71
      7.8700	  653.00	  571.81	-1775.50	  454.91
      7.9700	  632.00	  572.00	-1775.50	  455.10
      8.0700	  628.00	  572.19	-1775.50	  455.29
      8.1700	  611.00	  572.37	-1775.50	  455.47
      8.2700	  601.00	  572.54	-1775.50	  455.64
      8.3700	  652.00	  572.71	-1775.50	  455.81
      8.4700	  650.00	  572.87	-1775.50	  455.96
      8.5700	  634.00	  573.02	-1775.50	  456.11
      8.6700	  643.00	  573.16	-1775.50	  456.26
      8.7700	  607.00	  573.30	-1775.50	  456.40
      8.8700	  594.00	  573.43	-1775.50	  456.53
      8.9700	  658.00	  573.55	-1775.50	  456.65
      9.0700	  656.00	  573.67	-1775.50	  456.77
      9.1700	  611.00	  573.78	-1775.50	  456.88
      9.2700	  636.00	  573.89	-1775.50	  456.98
      9.3700	  612.00	  573.98	-1775.50	  457.08
      9.4700	  602.00	  574.07	-1775.50	  457.17
      9.5700	  555.00	  574.16	-1775.50	  457.26
      9.6700	  586.00	  574.24	-1775.50	  457.34
      9.7700	  651.00	  574.31	-1775.50	  457.41
      9.8700	  572.00	  574.38	-1775.50	  457.47
      9.9700	  606.00	  574.44	-1775.50	  457.53
     10.0700	  617.00	  575.16	-1733.66	  457.59
     10.1700	  619.00	  575.27	-1731.77	  457.64
     10.2700	  577.00	  575.39	-1773.89	  457.68
     10.3700	  534.00	  575.54	-1817.04	  457.72
     10.4700	  642.00	  575.72	-1709.22	  457.75
     10.5700	  619.00	  575.99	-1732.49	  457.77
     10.6700	  593.00	  576.44	-1758.94	  457.79
     10.7700	  576.00	  577.18	-1776.68	  457.80
     10.8700	  583.00	  578.28	-1770.78	  457.81
     10.9700	  577.00	  579.73	-1778.23	  457.81
     11.0700	  591.00	  581.49	-1765.99	  457.81
     11.1700	  596.00	  583.55	-1763.05	  457.80
     11.2700	  574.00	  585.94	-1787.44	  457.79
     11.3700	  612.00	  588.74	-1752.24	  457.77
     11.4700	  551.00	  592.05	-1816.55	  457.74
     11.5700	  614.00	  596.07	-1757.57	  457.71
     11.6700	  639.00	  601.09	-1737.59	  457.68
     11.7700	  568.00	  607.69	-1815.19	  457.64
     11.8700	  625.00	  616.80	-1767.30	  457.59
     11.9700	  670.00	  629.32	-1734.82	  457.54
     12.0700	  690.00	  644.12	-1729.62	  457.48
     12.1700	  697.00	  655.23	-1733.73	  457.42
     12.2700	  675.00	  652.62	-1753.12	  457.36
     12.3700	  571.00	  632.86	-1837.36	  457.29
     12.4700	  608.00	  608.53	-1776.03	  457.21
     12.5700	  611.00	  591.21	-1755.71	  457.14
     12.6700	  597.00	  582.34	-1760.84	  457.05
     12.7700	  596.00	  578.63	-1758.13	  456.96
     12.8700	  508.00	  577.05	-1844.55	  456.87
     12.9700	  539.00	  576.20	-1812.70	  456.77
     13.0700	  571.00	  575.62	-1780.12	  456.67
     13.1700	  554.00	  575.17	-1796.67	  456.56
     13.2700	  582.00	  574.80	-1768.30	  456.45
     13.3700	  568.00	  574.49	-1781.99	  456.34
     13.4700	  550.00	  574.21	-1799.71	  456.22
     13.5700	  584.00	  573.97	-1765.47	  456.09
     13.6700	  579.00	  573.74	-1770.24	  455.96
     13.7700	  541.00	  573.53	-1808.03	  455.83
     13.8700	  520.00	  573.32	-1828.82	  455.70
     13.9700	  554.00	  573.12	-1794.62	  455.56
     14.0700	  526.00	  572.93	-1822.43	  455.41
     14.1700	  568.00	  572.74	-1780.24	  455.26
     14.2700	  561.00	  572.55	-1787.05	  455.11
     14.3700	  560.00	  572.37	-1787.87	  454.96
     14.4700	  581.00	  572.18	-1766.68	  454.80
     14.5700	  545.00	  571.99	-1802.49	  454.63
     14.6700	  541.00	  571.81	-1806.31	  454.47
     14.7700	  529.00	  571.62	-1818.12	  454.30
     14.8700	  514.00	  571.43	-1832.93	  454.12
     14.9700	  593.00	  571.23	-1753.73	  453.94
     15.0700	  577.00	  571.04	-1769.54	  453.76
     15.1700	  568.00	  570.84	-1778.34	  453.58
     15.2700	  550.00	  570.64	-1796.14	  453.39
     15.3700	  584.00	  570.44	-1761.94	  453.20
     15.4700	  557.00	  570.24	-1788.74	  453.00
     15.5700	  599.00	  570.03	-1746.53	  452.81
     15.6700	  577.00	  569.82	-1768.32	  452.60
     15.7700	  537.00	  569.61	-1808.11	  452.40
     15.8700	  603.00	  569.40	-1741.90	  452.19
     15.9700	  529.00	  569.18	-1815.68	  451.98
     16.0700	  576.00	  568.96	-1768.46	  451.77
     16.1700	  556.00	  568.74	-1788.24	  451.55
     16.2700	  558.00	  568.51	-1786.01	  451.33
     16.3700	  582.00	  568.29	-1761.79	  451.11
     16.4700	  527.00	  568.08	-1816.58	  450.88
     16.5700	  620.00	  567.85	-1723.35	  450.65
     16.6700	  572.00	  567.61	-1771.11	  450.42
     16.7700	  569.00	  567.38	-1773.88	  450.19
     16.8700	  610.00	  567.14	-1732.64	  449.95
     16.9700	  569.00	  566.90	-1773.40	  449.71
     17.0700	  563.00	  566.65	-1779.15	  449.47
     17.1700	  562.00	  566.41	-1779.91	  449.22
     17.2700	  576.00	  566.16	-1765.66	  448.98
     17.3700	  551.00	  565.90	-1790.40	  448.73
     17.4700	  547.00	  565.65	-1794.15	  448.47
     17.5700	  624.00	  565.40	-1716.90	  448.22
     17.6700	  587.00	  565.14	-1753.64	  447.96
     17.7700	  559.00	  564.88	-1781.38	  447.70
     17.8700	  571.00	  564.71	-1769.21	  447.44
     17.9700	  569.00	  564.45	-1770.95	  447.18
     18.0700	  512.00	  564.18	-1827.68	  446.91
     18.1700	  556.00	  563.91	-1783.41	  446.64
     18.2700	  564.00	  563.64	-1775.14	  446.37
     18.3700	  585.00	  563.37	-1753.87	  446.10
     18.4700	  541.00	  563.10	-1797.60	  445.82
     18.5700	  570.00	  562.83	-1768.33	  445.54
     18.6700	  579.00	  562.55	-1759.05	  445.26
     18.7700	  571.00	  562.27	-1766.77	  444.98
     18.8700	  563.00	  562.09	-1774.59	  444.70
     18.9700	  536.00	  561.81	-1801.31	  444.41
     19.0700	  605.00	  561.52	-1732.02	  444.13
     19.1700	  545.00	  561.24	-1791.74	  443.84
     19.2700	  559.00	  560.96	-1777.46	  443.55
     19.3700	  522.00	  560.67	-1814.17	  443.26
     19.4700	  531.00	  560.38	-1804.88	  442.96
     19.5700	  596.00	  560.09	-1739.59	  442.67
     19.6700	  522.00	  559.80	-1813.30	  442.37
     19.7700	  544.00	  559.51	-1791.01	  442.07
     19.8700	  617.00	  559.22	-1717.72	  441.77
     19.9700	  540.00	  558.93	-1794.43	  441.47
     20.0700	  593.00	  558.63	-1741.13	  441.16
     20.1700	  560.00	  558.33	-1773.83	  440.86
     20.2700	  576.00	  558.01	-1757.51	  440.55
     20.3700	  568.00	  557.71	-1765.21	  440.24
     20.4700	  588.00	  557.42	-1744.92	  439.93
     20.5700	  549.00	  557.12	-1783.62	  439.62
     20.6700	  553.00	  556.82	-1779.32	  439.31
     20.7700	  525.00	  556.52	-1807.02	  438.99
     20.8700	  582.00	  556.22	-1749.72	  438.68
     20.9700	  553.00	  555.95	-1778.45	  438.36
     21.0700	  571.00	  555.65	-1760.15	  438.05
     21.1700	  552.00	  555.35	-1778.85	  437.73
     21.2700	  557.00	  555.05	-1773.55	  437.41
     21.3700	  578.00	  554.75	-1752.25	  437.09
     21.4700	  531.00	  554.45	-1798.95	  436.77
     21.5700	  563.00	  554.15	-1766.65	  436.44
     21.6700	  543.00	  553.85	-1786.35	  436.12
     21.7700	  546.00	  553.55	-1783.05	  435.79
     21.8700	  537.00	  553.25	-1791.75	  435.47
     21.9700	  585.00	  552.95	-1743.45	  435.14
     22.0700	  530.00	  552.66	-1798.16	  434.81
     22.1700	  574.00	  552.36	-1753.86	  434.49
     22.2700	  557.00	  552.07	-1770.57	  434.16
     22.3700	  549.00	  551.78	-1778.28	  433.83
     22.4700	  541.00	  551.49	-1785.99	  433.50
     22.5700	  587.00	  551.21	-1739.71	  433.16
     22.6700	  549.00	  550.93	-1777.43	  432.83
     22.7700	  548.00	  550.66	-1778.16	  432.50
     22.8700	  544.00	  550.39	-1781.89	  432.17
     22.9700	  518.00	  550.13	-1807.64	  431.83
     23.0700	  527.00	  549.89	-1798.39	  431.50
     23.1700	  581.00	  549.65	-1744.15	  431.16
     23.2700	  545.00	  549.43	-1779.93	  430.83
     23.3700	  560.00	  549.24	-1764.74	  430.49
     23.4700	  591.00	  549.07	-1733.57	  430.15
     23.5700	  581.00	  548.94	-1743.44	  429.82
     23.6700	  518.00	  548.86	-1806.36	  429.48
     23.7700	  508.00	  548.88	-1816.38	  429.14
     23.8700	  552.00	  549.19	-1772.69	  428.80
     23.9700	  535.00	  549.75	-1790.25	  428.46
     24.0700	  564.00	  551.09	-1762.59	  428.12
     24.1700	  561.00	  553.87	-1768.37	  427.78
     24.2700	  562.00	  558.94	-1772.44	  427.44
     24.3700	  592.00	  567.28	-1750.78	  427.10
     24.4700	  618.00	  580.05	-1737.55	  426.76
     24.5700	  592.00	  598.00	-1781.50	  426.42
     24.6700	  611.00	  618.89	-1783.39	  426.08
     24.7700	  618.00	  634.69	-1792.19	  425.74
     24.8700	  635.00	  633.50	-1774.00	  425.40
     24.9700	  613.00	  612.23	-1774.73	  425.06
     25.0700	  608.00	  585.00	-1752.50	  424.72
     25.1700	  565.00	  564.60	-1775.10	  424.38
     25.2700	  562.00	  553.46	-1766.96	  424.04
     25.3700	  541.00	  548.51	-1783.01	  423.70
     25.4700	  572.00	  546.39	-1749.89	  423.36
     25.5700	  534.00	  545.30	-1786.80	  423.02
     25.6700	  553.00	  544.58	-1767.08	  422.68
     25.7700	  516.00	  544.05	-1803.55	  422.34
     25.8700	  587.00	  543.64	-1732.14	  422.00
     25.9700	  564.00	  543.33	-1754.83	  421.66
     26.0700	  528.00	  543.09	-1790.59	  421.32
     26.1700	  541.00	  542.93	-1777.43	  420.98
     26.2700	  542.00	  542.84	-1776.34	  420.64
     26.3700	  546.00	  542.82	-1772.32	  420.30
     26.4700	  533.00	  542.89	-1785.39	  419.96
     26.5700	  516.00	  543.04	-1802.54	  419.62
     26.6700	  517.00	  543.30	-1801.80	  419.28
     26.7700	  527.00	  543.69	-1792.19	  418.94
     26.8700	  614.00	  544.25	-1705.75	  418.60
     26.9700	  540.00	  545.03	-1780.53	  418.27
     27.0700	  551.00	  546.09	-1770.59	  417.93
     27.1700	  550.00	  547.56	-1773.06	  417.59
     27.2700	  576.00	  549.69	-1749.19	  417.26
     27.3700	  523.00	  552.94	-1805.44	  416.92
     27.4700	  584.00	  558.19	-1749.69	  416.59
     27.5700	  567.00	  567.05	-1775.55	  416.25
     27.6700	  554.00	  582.01	-1803.51	  415.92
     27.7700	  586.00	  606.27	-1795.77	  415.58
     27.8700	  597.00	  642.54	-1821.04	  415.25
     27.9700	  670.00	  690.90	-1796.40	  414.92
     28.0700	  770.00	  745.93	-1751.43	  414.59
     28.1700	  862.00	  794.39	-1707.89	  414.25
     28.2700	  921.00	  816.45	-1670.95	  413.92
     28.3700	  917.00	  800.62	-1659.12	  413.59
     28.4700	  816.00	  766.37	-1725.87	  413.26
     28.5700	  730.00	  746.05	-1791.55	  412.94
     28.6700	  666.00	  754.56	-1864.06	  412.61
     28.7700	  744.00	  786.79	-1818.29	  412.28
     28.8700	  810.00	  821.88	-1787.38	  411.95
     28.9700	  837.00	  829.61	-1768.11	  411.63
     29.0700	  807.00	  790.21	-1758.71	  411.30
     29.1700	  703.00	  720.77	-1793.27	  410.98
     29.2700	  671.00	  653.84	-1758.34	  410.66
     29.3700	  639.00	  605.29	-1741.79	  410.33
     29.4700	  605.00	  575.87	-1746.37	  410.01
     29.5700	  655.00	  559.98	-1680.48	  409.69
     29.6700	  594.00	  551.64	-1733.14	  409.37
     29.7700	  608.00	  546.95	-1714.45	  409.05
     29.8700	  635.00	  544.05	-1684.55	  408.73
     29.9700	  603.00	  542.20	-1714.70	  408.42
     30.0700	  611.00	  541.23	-1705.73	  408.10
     30.1700	  542.00	  541.29	-1774.79	  407.79
     30.2700	  544.00	  542.94	-1774.44	  407.47
     30.3700	  588.00	  547.32	-1734.82	  407.16
     30.4700	  563.00	  556.17	-1768.67	  406.85
     30.5700	  552.00	  571.41	-1794.91	  406.54
     30.6700	  580.00	  593.71	-1789.21	  406.23
     30.7700	  606.00	  620.50	-1790.00	  405.92
     30.8700	  606.00	  644.30	-1813.80	  405.61
     30.9700	  595.00	  653.46	-1833.96	  405.30
     31.0700	  601.00	  639.51	-1814.01	  405.00
     31.1700	  561.00	  609.61	-1824.11	  404.69
     31.2700	  529.00	  579.20	-1825.70	  404.39
     31.3700	  584.00	  556.63	-1748.13	  404.09
     31.4700	  554.00	  542.93	-1764.43	  403.79
     31.5700	  520.00	  535.64	-1791.14	  403.49
     31.6700	  516.00	  531.91	-1791.41	  403.19
     31.7700	  559.00	  529.85	-1746.35	  402.89
     31.8700	  516.00	  528.54	-1788.04	  402.59
     31.9700	  535.00	  527.61	-1768.11	  402.30
     32.0700	  545.00	  526.93	-1757.43	  402.01
     32.1700	  557.00	  526.44	-1744.94	  401.71
     32.2700	  540.00	  526.10	-1761.60	  401.42
     32.3700	  556.00	  525.92	-1745.42	  401.13
     32.4700	  598.00	  525.88	-1703.38	  400.84
     32.5700	  554.00	  526.00	-1747.50	  400.56
     32.6700	  526.00	  526.31	-1775.81	  400.27
     32.7700	  521.00	  526.83	-1781.33	  399.98
     32.8700	  533.00	  527.64	-1770.14	  399.70
     32.9700	  534.00	  528.82	-1770.32	  399.42
     33.0700	  504.00	  530.56	-1802.06	  399.14
     33.1700	  578.00	  533.26	-1730.76	  398.86
     33.2700	  530.00	  537.83	-1783.33	  398.58
     33.3700	  556.00	  546.27	-1765.77	  398.31
     33.4700	  540.00	  562.68	-1798.18	  398.03
     33.5700	  603.00	  593.67	-1766.17	  397.76
     33.6700	  660.00	  647.34	-1762.84	  397.48
     33.7700	  719.00	  728.17	-1784.67	  397.21
     33.8700	  883.00	  828.57	-1721.07	  396.94
     33.9700	 1011.00	  922.52	-1687.02	  396.68
     34.0700	 1059.00	  968.27	-1684.77	  396.41
     34.1700	 1022.00	  932.35	-1685.85	  396.15
     34.2700	  899.00	  832.48	-1708.98	  395.88
     34.3700	  697.00	  722.00	-1800.50	  395.62
     34.4700	  625.00	  635.76	-1786.26	  395.36
     34.5700	  572.00	  581.67	-1785.17	  395.10
     34.6700	  528.00	  552.70	-1800.20	  394.84
     34.7700	  564.00	  538.39	-1749.89	  394.59
     34.8700	  522.00	  531.06	-1784.56	  394.33
     34.9700	  545.00	  526.73	-1757.23	  394.08
     35.0700	  514.00	  523.74	-1785.24	  393.83
     35.1700	  518.00	  521.49	-1778.99	  393.58
     35.2700	  498.00	  519.70	-1797.20	  393.33
     35.3700	  495.00	  518.24	-1798.74	  393.09
     35.4700	  556.00	  517.03	-1736.53	  392.84
     35.5700	  510.00	  516.00	-1781.50	  392.60
     35.6700	  559.00	  515.11	-1731.61	  392.36
     35.7700	  509.00	  514.33	-1780.83	  392.12
     35.8700	  507.00	  514.14	-1782.64	  391.88
     35.9700	  493.00	  513.53	-1796.03	  391.64
     36.0700	  502.00	  512.99	-1786.49	  391.41
     36.1700	  530.00	  512.49	-1757.99	  391.18
     36.2700	  517.00	  512.04	-1770.54	  390.94
     36.3700	  526.00	  511.63	-1761.13	  390.72
     36.4700	  510.00	  511.25	-1776.75	  390.49
     36.5700	  558.00	  510.92	-1728.42	  390.26
     36.6700	  548.00	  510.61	-1738.11	  390.04
     36.7700	  487.00	  510.35	-1798.85	  389.81
     36.8700	  479.00	  510.14	-1806.64	  389.59
     36.9700	  493.00	  510.03	-1792.53	  389.37
     37.0700	  545.00	  510.10	-1740.60	  389.15
     37.1700	  511.00	  510.55	-1775.05	  388.94
     37.2700	  508.00	  511.73	-1779.23	  388.72
     37.3700	  504.00	  514.04	-1785.54	  388.51
     37.4700	  518.00	  517.71	-1775.21	  388.30
     37.5700	  560.00	  522.44	-1737.94	  388.09
     37.6700	  528.00	  527.17	-1774.67	  387.88
     37.7700	  531.00	  530.40	-1774.90	  387.68
     37.8700	  554.00	  531.22	-1752.72	  387.47
     37.9700	  535.00	  530.06	-1770.56	  387.27
     38.0700	  549.00	  527.28	-1753.78	  387.07
     38.1700	  509.00	  522.94	-1789.44	  386.87
     38.2700	  498.00	  517.88	-1795.38	  386.68
     38.3700	  466.00	  513.37	-1822.87	  386.48
     38.4700	  514.00	  510.03	-1771.53	  386.29
     38.5700	  529.00	  507.89	-1754.39	  386.10
     38.6700	  503.00	  506.63	-1779.13	  385.91
     38.7700	  473.00	  505.91	-1808.41	  385.72
     38.8700	  491.00	  505.35	-1789.85	  385.53
     38.9700	  509.00	  505.01	-1771.51	  385.35
     39.0700	  507.00	  504.72	-1773.22	  385.17
     39.1700	  519.00	  504.47	-1760.97	  384.98
     39.2700	  515.00	  504.15	-1764.65	  384.81
     39.3700	  543.00	  503.95	-1736.45	  384.63
     39.4700	  501.00	  503.75	-1778.25	  384.45
     39.5700	  532.00	  503.57	-1747.07	  384.28
     39.6700	  482.00	  503.41	-1796.91	  384.11
     39.7700	  487.00	  503.25	-1791.75	  383.94
     39.8700	  522.00	  503.22	-1756.72	  383.77
     39.9700	  516.00	  503.09	-1762.59	  383.61
     40.0700	  479.00	  502.96	-1799.46	  383.44
     40.1700	  474.00	  502.85	-1804.35	  383.28
     40.2700	  485.00	  502.75	-1793.25	  383.12
     40.3700	  483.00	  502.66	-1795.16	  382.96
     40.4700	  533.00	  502.59	-1745.09	  382.80
     40.5700	  495.00	  502.53	-1783.03	  382.65
     40.6700	  488.00	  502.48	-1789.98	  382.50
     40.7700	  480.00	  502.46	-1797.96	  382.35
