MSG Master    CELL:    5.91615   5.91615  23.24984   90.0000   90.0000  120.0000   SPGR: P 63/m m c             TEMP:   1017.05
  1   1280     2.52000     0.00000    -0.12633     0.00000     0.00000    0
    99     0     2
       0.00000      10.00000
     125.00000     130.00000
 2Theta	Yobs	Ycal	Yobs-Ycal	Backg	Posr	(hkl)	K
      0.7700	    0.00	  570.97	-1797.25	  457.88
      0.8700	    0.00	  571.47	-1797.25	  458.37
      0.9700	   49.00	  571.95	-1797.25	  458.86
      1.0700	   45.00	  572.43	-1797.25	  459.33
      1.1700	   42.00	  572.89	-1797.25	  459.80
      1.2700	   54.00	  573.35	-1797.25	  460.25
      1.3700	   39.00	  573.79	-1797.25	  460.70
      1.4700	   96.00	  574.23	-1797.25	  461.14
      1.5700	  292.00	  574.66	-1797.25	  461.56
      1.6700	  420.00	  575.07	-1797.25	  461.98
      1.7700	  595.00	  575.48	-1797.25	  462.39
      1.8700	  646.00	  575.88	-1797.25	  462.79
      1.9700	  742.00	  576.27	-1797.25	  463.17
      2.0700	  803.00	  576.65	-1797.25	  463.55
      2.1700	  790.00	  577.02	-1797.25	  463.93
      2.2700	  744.00	  577.38	-1797.25	  464.29
      2.3700	  699.00	  577.74	-1797.25	  464.64
      2.4700	  728.00	  578.08	-1797.25	  464.99
      2.5700	  698.00	  578.42	-1797.25	  465.32
      2.6700	  651.00	  578.74	-1797.25	  465.65
      2.7700	  654.00	  579.06	-1797.25	  465.97
      2.8700	  645.00	  579.37	-1797.25	  466.28
      2.9700	  627.00	  579.67	-1797.25	  466.58
      3.0700	  603.00	  579.96	-1797.25	  466.87
      3.1700	  569.00	  580.25	-1797.25	  467.15
      3.2700	  583.00	  580.52	-1797.25	  467.43
      3.3700	  685.00	  580.79	-1797.25	  467.70
      3.4700	  735.00	  581.05	-1797.25	  467.96
      3.5700	  825.00	  581.30	-1797.25	  468.21
      3.6700	  823.00	  581.54	-1797.25	  468.45
      3.7700	  863.00	  581.78	-1797.25	  468.69
      3.8700	  928.00	  582.01	-1797.25	  468.91
      3.9700	  925.00	  582.23	-1797.25	  469.13
      4.0700	  966.00	  582.44	-1797.25	  469.34
      4.1700	 1076.00	  582.64	-1797.25	  469.55
      4.2700	 1059.00	  582.84	-1797.25	  469.74
      4.3700	 1087.00	  583.03	-1797.25	  469.93
      4.4700	 1039.00	  583.21	-1797.25	  470.11
      4.5700	 1051.00	  583.38	-1797.25	  470.29
      4.6700	 1016.00	  583.55	-1797.25	  470.45
      4.7700	  991.00	  583.70	-1797.25	  470.61
      4.8700	  989.00	  583.86	-1797.25	  470.76
      4.9700	  916.00	  584.00	-1797.25	  470.91
      5.0700	  973.00	  584.14	-1797.25	  471.04
      5.1700	  971.00	  584.27	-1797.25	  471.17
      5.2700	  909.00	  584.39	-1797.25	  471.30
      5.3700	  869.00	  584.51	-1797.25	  471.41
      5.4700	  903.00	  584.61	-1797.25	  471.52
      5.5700	  819.00	  584.72	-1797.25	  471.62
      5.6700	  819.00	  584.81	-1797.25	  471.72
      5.7700	  861.00	  584.90	-1797.25	  471.81
      5.8700	  796.00	  584.98	-1797.25	  471.89
      5.9700	  797.00	  585.06	-1797.25	  471.96
      6.0700	  806.00	  585.12	-1797.25	  472.03
      6.1700	  757.00	  585.19	-1797.25	  472.09
      6.2700	  812.00	  585.24	-1797.25	  472.15
      6.3700	  736.00	  585.29	-1797.25	  472.20
      6.4700	  755.00	  585.33	-1797.25	  472.24
      6.5700	  721.00	  585.37	-1797.25	  472.28
      6.6700	  686.00	  585.40	-1797.25	  472.31
      6.7700	  732.00	  585.42	-1797.25	  472.33
      6.8700	  700.00	  585.44	-1797.25	  472.35
      6.9700	  661.00	  585.45	-1797.25	  472.36
      7.0700	  701.00	  585.46	-1797.25	  472.37
      7.1700	  683.00	  585.46	-1797.25	  472.37
      7.2700	  681.00	  585.45	-1797.25	  472.36
      7.3700	  683.00	  585.44	-1797.25	  472.35
      7.4700	  660.00	  585.43	-1797.25	  472.33
      7.5700	  699.00	  585.40	-1797.25	  472.31
      7.6700	  657.00	  585.37	-1797.25	  472.28
      7.7700	  685.00	  585.34	-1797.25	  472.24
      7.8700	  634.00	  585.30	-1797.25	  472.20
      7.9700	  607.00	  585.25	-1797.25	  472.16
      8.0700	  658.00	  585.20	-1797.25	  472.11
      8.1700	  640.00	  585.15	-1797.25	  472.05
      8.2700	  625.00	  585.08	-1797.25	  471.99
      8.3700	  624.00	  585.02	-1797.25	  471.92
      8.4700	  626.00	  584.94	-1797.25	  471.85
      8.5700	  640.00	  584.87	-1797.25	  471.77
      8.6700	  608.00	  584.78	-1797.25	  471.69
      8.7700	  634.00	  584.70	-1797.25	  471.60
      8.8700	  635.00	  584.60	-1797.25	  471.51
      8.9700	  640.00	  584.51	-1797.25	  471.41
      9.0700	  653.00	  584.40	-1797.25	  471.31
      9.1700	  637.00	  584.30	-1797.25	  471.20
      9.2700	  613.00	  584.18	-1797.25	  471.09
      9.3700	  629.00	  584.07	-1797.25	  470.97
      9.4700	  577.00	  583.94	-1797.25	  470.85
      9.5700	  608.00	  583.82	-1797.25	  470.72
      9.6700	  628.00	  583.69	-1797.25	  470.59
      9.7700	  607.00	  583.55	-1797.25	  470.46
      9.8700	  558.00	  583.41	-1797.25	  470.32
      9.9700	  631.00	  583.27	-1797.25	  470.17
     10.0700	  579.00	  583.84	-1802.09	  470.02
     10.1700	  590.00	  583.76	-1791.01	  469.87
     10.2700	  584.00	  583.69	-1796.94	  469.71
     10.3700	  579.00	  583.63	-1801.88	  469.55
     10.4700	  650.00	  583.62	-1730.87	  469.38
     10.5700	  600.00	  583.70	-1780.95	  469.21
     10.6700	  581.00	  583.96	-1800.21	  469.04
     10.7700	  590.00	  584.51	-1791.76	  468.86
     10.8700	  586.00	  585.42	-1796.67	  468.68
     10.9700	  589.00	  586.71	-1794.96	  468.49
     11.0700	  630.00	  588.32	-1755.57	  468.30
     11.1700	  585.00	  590.25	-1802.50	  468.11
     11.2700	  564.00	  592.52	-1825.77	  467.91
     11.3700	  590.00	  595.20	-1802.45	  467.71
     11.4700	  580.00	  598.42	-1815.67	  467.50
     11.5700	  563.00	  602.34	-1836.59	  467.29
     11.6700	  638.00	  607.28	-1766.53	  467.08
     11.7700	  671.00	  613.78	-1740.03	  466.86
     11.8700	  622.00	  622.76	-1798.01	  466.64
     11.9700	  688.00	  635.15	-1744.40	  466.42
     12.0700	  663.00	  650.08	-1784.33	  466.19
     12.1700	  688.00	  661.98	-1771.23	  465.96
     12.2700	  710.00	  660.85	-1748.10	  465.73
     12.3700	  625.00	  641.83	-1814.08	  465.49
     12.4700	  655.00	  616.54	-1758.79	  465.25
     12.5700	  628.00	  597.63	-1766.88	  465.01
     12.6700	  579.00	  587.47	-1805.72	  464.76
     12.7700	  574.00	  583.00	-1806.25	  464.51
     12.8700	  530.00	  581.02	-1848.27	  464.26
     12.9700	  555.00	  579.90	-1822.15	  464.00
     13.0700	  567.00	  579.10	-1809.35	  463.74
     13.1700	  535.00	  578.45	-1840.70	  463.48
     13.2700	  546.00	  577.90	-1829.15	  463.21
     13.3700	  587.00	  577.42	-1787.67	  462.94
     13.4700	  564.00	  576.97	-1810.22	  462.67
     13.5700	  557.00	  576.57	-1816.82	  462.40
     13.6700	  505.00	  576.18	-1868.43	  462.12
     13.7700	  574.00	  575.81	-1799.06	  461.84
     13.8700	  602.00	  575.45	-1770.70	  461.56
     13.9700	  534.00	  575.11	-1838.36	  461.28
     14.0700	  586.00	  574.77	-1786.02	  460.99
     14.1700	  572.00	  574.43	-1799.68	  460.70
     14.2700	  588.00	  574.10	-1783.35	  460.41
     14.3700	  571.00	  573.77	-1800.02	  460.11
     14.4700	  560.00	  573.44	-1810.69	  459.81
     14.5700	  543.00	  573.12	-1827.37	  459.51
     14.6700	  570.00	  572.79	-1800.04	  459.21
     14.7700	  602.00	  572.47	-1767.72	  458.91
     14.8700	  569.00	  572.14	-1800.39	  458.60
     14.9700	  562.00	  571.81	-1807.06	  458.29
     15.0700	  578.00	  571.49	-1790.74	  457.98
     15.1700	  585.00	  571.16	-1783.41	  457.67
     15.2700	  503.00	  570.83	-1865.08	  457.35
     15.3700	  566.00	  570.51	-1801.76	  457.03
     15.4700	  562.00	  570.18	-1805.43	  456.71
     15.5700	  546.00	  569.84	-1821.09	  456.39
     15.6700	  538.00	  569.51	-1828.76	  456.07
     15.7700	  579.00	  569.18	-1787.43	  455.74
     15.8700	  570.00	  568.84	-1796.09	  455.41
     15.9700	  550.00	  568.51	-1815.76	  455.08
     16.0700	  566.00	  568.17	-1799.42	  454.75
     16.1700	  535.00	  567.83	-1830.08	  454.42
     16.2700	  549.00	  567.49	-1815.74	  454.08
     16.3700	  555.00	  567.15	-1809.40	  453.75
     16.4700	  544.00	  566.83	-1820.08	  453.41
     16.5700	  572.00	  566.49	-1791.74	  453.07
     16.6700	  537.00	  566.14	-1826.39	  452.73
     16.7700	  593.00	  565.80	-1770.05	  452.38
     16.8700	  547.00	  565.45	-1815.70	  452.04
     16.9700	  555.00	  565.10	-1807.35	  451.69
     17.0700	  544.00	  564.75	-1818.00	  451.34
     17.1700	  585.00	  564.40	-1776.65	  450.99
     17.2700	  596.00	  564.05	-1765.30	  450.64
     17.3700	  586.00	  563.69	-1774.94	  450.29
     17.4700	  606.00	  563.34	-1754.59	  449.94
     17.5700	  605.00	  562.98	-1755.23	  449.58
     17.6700	  595.00	  562.62	-1764.87	  449.23
     17.7700	  582.00	  562.27	-1777.52	  448.87
     17.8700	  570.00	  562.01	-1789.26	  448.51
     17.9700	  535.00	  561.65	-1823.90	  448.15
     18.0700	  541.00	  561.29	-1817.54	  447.79
     18.1700	  530.00	  560.93	-1828.18	  447.43
     18.2700	  553.00	  560.57	-1804.82	  447.06
     18.3700	  550.00	  560.21	-1807.46	  446.70
     18.4700	  528.00	  559.84	-1829.09	  446.33
     18.5700	  579.00	  559.48	-1777.73	  445.97
     18.6700	  536.00	  559.12	-1820.37	  445.60
     18.7700	  507.00	  558.75	-1849.00	  445.23
     18.8700	  546.00	  558.48	-1809.73	  444.86
     18.9700	  542.00	  558.11	-1813.36	  444.49
     19.0700	  584.00	  557.75	-1771.00	  444.12
     19.1700	  541.00	  557.38	-1813.63	  443.75
     19.2700	  569.00	  557.02	-1785.27	  443.38
     19.3700	  605.00	  556.65	-1748.90	  443.00
     19.4700	  523.00	  556.28	-1830.53	  442.63
     19.5700	  554.00	  555.92	-1799.17	  442.25
     19.6700	  573.00	  555.55	-1779.80	  441.88
     19.7700	  515.00	  555.18	-1837.43	  441.50
     19.8700	  571.00	  554.81	-1781.06	  441.13
     19.9700	  547.00	  554.44	-1804.69	  440.75
     20.0700	  528.00	  554.08	-1823.32	  440.37
     20.1700	  569.00	  553.71	-1781.96	  439.99
     20.2700	  591.00	  553.34	-1759.59	  439.61
     20.3700	  514.00	  552.94	-1836.19	  439.23
     20.4700	  546.00	  552.57	-1803.82	  438.85
     20.5700	  534.00	  552.21	-1815.46	  438.47
     20.6700	  591.00	  551.84	-1758.09	  438.09
     20.7700	  573.00	  551.47	-1775.72	  437.71
     20.8700	  521.00	  551.11	-1827.36	  437.33
     20.9700	  559.00	  550.78	-1789.03	  436.95
     21.0700	  559.00	  550.41	-1788.66	  436.57
     21.1700	  584.00	  550.05	-1763.30	  436.19
     21.2700	  542.00	  549.68	-1804.93	  435.80
     21.3700	  560.00	  549.32	-1786.57	  435.42
     21.4700	  552.00	  548.96	-1794.21	  435.04
     21.5700	  575.00	  548.60	-1770.85	  434.66
     21.6700	  565.00	  548.24	-1780.49	  434.27
     21.7700	  520.00	  547.88	-1825.14	  433.89
     21.8700	  554.00	  547.53	-1790.78	  433.51
     21.9700	  571.00	  547.18	-1773.43	  433.12
     22.0700	  571.00	  546.83	-1773.08	  432.74
     22.1700	  589.00	  546.48	-1754.73	  432.36
     22.2700	  528.00	  546.13	-1815.38	  431.97
     22.3700	  556.00	  545.79	-1787.04	  431.59
     22.4700	  568.00	  545.45	-1774.70	  431.21
     22.5700	  565.00	  545.12	-1777.37	  430.82
     22.6700	  553.00	  544.79	-1789.04	  430.44
     22.7700	  542.00	  544.47	-1799.72	  430.06
     22.8700	  520.00	  544.15	-1821.40	  429.68
     22.9700	  536.00	  543.85	-1805.10	  429.29
     23.0700	  573.00	  543.55	-1767.80	  428.91
     23.1700	  526.00	  543.27	-1814.52	  428.53
     23.2700	  543.00	  543.01	-1797.26	  428.15
     23.3700	  553.00	  542.77	-1787.02	  427.77
     23.4700	  511.00	  542.56	-1828.81	  427.39
     23.5700	  549.00	  542.38	-1790.63	  427.01
     23.6700	  548.00	  542.26	-1791.51	  426.63
     23.7700	  564.00	  542.22	-1775.47	  426.25
     23.8700	  564.00	  542.47	-1775.72	  425.87
     23.9700	  559.00	  542.92	-1781.17	  425.49
     24.0700	  508.00	  544.07	-1833.32	  425.11
     24.1700	  522.00	  546.51	-1821.76	  424.73
     24.2700	  541.00	  551.06	-1807.31	  424.35
     24.3700	  556.00	  558.66	-1799.91	  423.97
     24.4700	  580.00	  570.40	-1787.65	  423.60
     24.5700	  649.00	  587.13	-1735.38	  423.22
     24.6700	  588.00	  607.27	-1816.52	  422.85
     24.7700	  647.00	  624.03	-1774.28	  422.47
     24.8700	  692.00	  626.09	-1731.34	  422.10
     24.9700	  595.00	  607.98	-1810.23	  421.72
     25.0700	  608.00	  581.41	-1770.66	  421.35
     25.1700	  582.00	  560.04	-1775.29	  420.98
     25.2700	  531.00	  547.71	-1813.96	  420.61
     25.3700	  585.00	  541.99	-1754.24	  420.23
     25.4700	  552.00	  539.52	-1784.77	  419.86
     25.5700	  553.00	  538.28	-1782.53	  419.49
     25.6700	  544.00	  537.49	-1790.74	  419.13
     25.7700	  552.00	  536.91	-1782.16	  418.76
     25.8700	  552.00	  536.46	-1781.71	  418.39
     25.9700	  568.00	  536.12	-1765.37	  418.02
     26.0700	  542.00	  535.86	-1791.11	  417.66
     26.1700	  540.00	  535.68	-1792.93	  417.29
     26.2700	  529.00	  535.57	-1803.82	  416.93
     26.3700	  547.00	  535.55	-1785.80	  416.57
     26.4700	  541.00	  535.60	-1791.85	  416.20
     26.5700	  545.00	  535.75	-1788.00	  415.84
     26.6700	  545.00	  536.01	-1788.26	  415.48
     26.7700	  550.00	  536.42	-1783.67	  415.12
     26.8700	  512.00	  536.99	-1822.24	  414.77
     26.9700	  539.00	  537.79	-1796.04	  414.41
     27.0700	  558.00	  538.88	-1778.13	  414.05
     27.1700	  546.00	  540.40	-1791.65	  413.70
     27.2700	  555.00	  542.57	-1784.82	  413.34
     27.3700	  563.00	  545.87	-1780.12	  412.99
     27.4700	  521.00	  551.17	-1827.42	  412.64
     27.5700	  513.00	  560.08	-1844.33	  412.29
     27.6700	  564.00	  575.15	-1808.40	  411.94
     27.7700	  580.00	  599.75	-1817.00	  411.59
     27.8700	  600.00	  636.96	-1834.21	  411.24
     27.9700	  638.00	  687.34	-1846.59	  410.89
     28.0700	  731.00	  745.96	-1812.21	  410.55
     28.1700	  901.00	  799.69	-1695.94	  410.20
     28.2700	  984.00	  827.67	-1640.92	  409.86
     28.3700	  953.00	  814.55	-1658.80	  409.52
     28.4700	  845.00	  776.46	-1728.71	  409.18
     28.5700	  731.00	  748.34	-1814.59	  408.84
     28.6700	  703.00	  749.11	-1843.36	  408.50
     28.7700	  763.00	  776.28	-1810.53	  408.16
     28.8700	  799.00	  810.78	-1809.03	  407.83
     28.9700	  801.00	  822.95	-1819.20	  407.49
     29.0700	  750.00	  789.71	-1836.96	  407.16
     29.1700	  719.00	  722.73	-1800.98	  406.83
     29.2700	  614.00	  654.54	-1837.79	  406.50
     29.3700	  649.00	  603.43	-1751.68	  406.17
     29.4700	  587.00	  571.66	-1781.91	  405.84
     29.5700	  576.00	  554.20	-1775.45	  405.51
     29.6700	  618.00	  544.98	-1724.23	  405.19
     29.7700	  578.00	  539.84	-1759.09	  404.86
     29.8700	  592.00	  536.67	-1741.92	  404.54
     29.9700	  618.00	  534.62	-1713.87	  404.22
     30.0700	  592.00	  533.44	-1738.69	  403.90
     30.1700	  550.00	  533.24	-1780.49	  403.58
     30.2700	  533.00	  534.46	-1798.71	  403.27
     30.3700	  537.00	  538.10	-1798.35	  402.95
     30.4700	  512.00	  545.72	-1830.97	  402.64
     30.5700	  589.00	  559.16	-1767.41	  402.33
     30.6700	  580.00	  579.30	-1796.55	  402.02
     30.7700	  597.00	  604.24	-1804.49	  401.71
     30.8700	  621.00	  627.67	-1803.92	  401.40
     30.9700	  639.00	  639.00	-1797.25	  401.09
     31.0700	  598.00	  629.04	-1828.29	  400.79
     31.1700	  611.00	  602.12	-1788.37	  400.49
     31.2700	  569.00	  572.76	-1801.01	  400.18
     31.3700	  560.00	  550.09	-1787.34	  399.89
     31.4700	  565.00	  535.89	-1768.14	  399.59
     31.5700	  523.00	  528.17	-1802.42	  399.29
     31.6700	  521.00	  524.20	-1800.45	  399.00
     31.7700	  550.00	  522.04	-1769.29	  398.70
     31.8700	  488.00	  520.69	-1829.94	  398.41
     31.9700	  506.00	  519.75	-1811.00	  398.12
     32.0700	  549.00	  519.07	-1767.32	  397.83
     32.1700	  531.00	  518.58	-1784.83	  397.54
     32.2700	  586.00	  518.25	-1729.50	  397.26
     32.3700	  545.00	  518.07	-1770.32	  396.98
     32.4700	  560.00	  518.03	-1755.28	  396.69
     32.5700	  556.00	  518.16	-1759.41	  396.41
     32.6700	  537.00	  518.47	-1778.72	  396.13
     32.7700	  558.00	  518.99	-1758.24	  395.86
     32.8700	  505.00	  519.79	-1812.04	  395.58
     32.9700	  521.00	  520.95	-1797.20	  395.31
     33.0700	  510.00	  522.66	-1809.91	  395.04
     33.1700	  557.00	  525.25	-1765.50	  394.77
     33.2700	  516.00	  529.54	-1810.79	  394.50
     33.3700	  560.00	  537.36	-1774.61	  394.23
     33.4700	  535.00	  552.35	-1814.60	  393.97
     33.5700	  607.00	  580.80	-1771.05	  393.70
     33.6700	  599.00	  630.69	-1828.94	  393.44
     33.7700	  712.00	  707.52	-1792.77	  393.18
     33.8700	  799.00	  806.15	-1804.40	  392.93
     33.9700	  972.00	  903.77	-1729.02	  392.67
     34.0700	 1027.00	  960.60	-1730.85	  392.42
     34.1700	 1052.00	  938.93	-1684.18	  392.16
     34.2700	  940.00	  846.34	-1703.59	  391.91
     34.3700	  747.00	  734.32	-1784.57	  391.66
     34.4700	  675.00	  642.54	-1764.79	  391.42
     34.5700	  592.00	  582.75	-1788.00	  391.17
     34.6700	  552.00	  549.78	-1795.03	  390.93
     34.7700	  487.00	  533.27	-1843.52	  390.69
     34.8700	  514.00	  524.91	-1808.16	  390.45
     34.9700	  507.00	  520.10	-1810.35	  390.21
     35.0700	  516.00	  516.87	-1798.12	  389.98
     35.1700	  538.00	  514.47	-1773.72	  389.74
     35.2700	  522.00	  512.58	-1787.83	  389.51
     35.3700	  508.00	  511.05	-1800.30	  389.28
     35.4700	  495.00	  509.79	-1812.04	  389.05
     35.5700	  545.00	  508.72	-1760.97	  388.82
     35.6700	  511.00	  507.81	-1794.06	  388.60
     35.7700	  477.00	  507.01	-1827.26	  388.38
     35.8700	  570.00	  506.80	-1734.05	  388.16
     35.9700	  453.00	  506.18	-1850.43	  387.94
     36.0700	  464.00	  505.63	-1838.88	  387.72
     36.1700	  492.00	  505.13	-1810.38	  387.50
     36.2700	  502.00	  504.68	-1799.93	  387.29
     36.3700	  502.00	  504.27	-1799.52	  387.08
     36.4700	  460.00	  503.89	-1841.14	  386.87
     36.5700	  502.00	  503.55	-1798.80	  386.66
     36.6700	  497.00	  503.25	-1803.50	  386.46
     36.7700	  507.00	  502.98	-1793.23	  386.25
     36.8700	  514.00	  502.77	-1786.02	  386.05
     36.9700	  493.00	  502.63	-1806.88	  385.85
     37.0700	  479.00	  502.65	-1820.90	  385.65
     37.1700	  569.00	  502.99	-1731.24	  385.46
     37.2700	  474.00	  503.96	-1827.21	  385.26
     37.3700	  528.00	  505.92	-1775.17	  385.07
     37.4700	  496.00	  509.12	-1810.37	  384.88
     37.5700	  534.00	  513.29	-1776.54	  384.69
     37.6700	  530.00	  517.41	-1784.66	  384.51
     37.7700	  528.00	  519.93	-1789.18	  384.32
     37.8700	  511.00	  519.79	-1806.04	  384.14
     37.9700	  516.00	  517.54	-1798.79	  383.96
     38.0700	  493.00	  514.31	-1818.56	  383.78
     38.1700	  503.00	  510.63	-1804.88	  383.60
     38.2700	  514.00	  506.96	-1790.21	  383.43
     38.3700	  478.00	  503.88	-1823.13	  383.26
     38.4700	  526.00	  501.63	-1772.88	  383.09
     38.5700	  441.00	  500.15	-1856.40	  382.92
     38.6700	  486.00	  499.25	-1810.50	  382.75
     38.7700	  468.00	  498.61	-1827.86	  382.58
     38.8700	  492.00	  498.24	-1803.49	  382.42
     38.9700	  479.00	  497.96	-1816.21	  382.26
     39.0700	  522.00	  497.72	-1772.97	  382.10
     39.1700	  499.00	  497.52	-1795.77	  381.94
     39.2700	  508.00	  497.23	-1786.48	  381.79
     39.3700	  511.00	  497.06	-1783.31	  381.64
     39.4700	  483.00	  496.90	-1811.15	  381.49
     39.5700	  489.00	  496.75	-1805.00	  381.34
     39.6700	  523.00	  496.61	-1770.86	  381.19
     39.7700	  513.00	  496.48	-1780.73	  381.04
     39.8700	  481.00	  496.48	-1812.73	  380.90
     39.9700	  493.00	  496.37	-1800.62	  380.76
     40.0700	  476.00	  496.26	-1817.51	  380.62
     40.1700	  506.00	  496.17	-1787.42	  380.48
     40.2700	  500.00	  496.09	-1793.34	  380.35
     40.3700	  467.00	  496.02	-1826.27	  380.21
     40.4700	  512.00	  495.96	-1781.21	  380.08
     40.5700	  495.00	  495.92	-1798.17	  379.95
     40.6700	  483.00	  495.88	-1810.13	  379.83
     40.7700	  460.00	  495.87	-1833.12	  379.70
