MSG Master    CELL:    5.91939   5.91939  23.27544   90.0000   90.0000  120.0000   SPGR: P 63/m m c             TEMP:   1074.85
  1   1280     2.52000     0.00000    -0.12585     0.00000     0.00000    0
    99     0     2
       0.00000      10.00000
     125.00000     130.00000
 2Theta	Yobs	Ycal	Yobs-Ycal	Backg	Posr	(hkl)	K
      0.7700	    0.00	  559.60	-1737.75	  440.39
      0.8700	    0.00	  560.15	-1737.75	  440.94
      0.9700	   39.00	  560.69	-1737.75	  441.48
      1.0700	   47.00	  561.22	-1737.75	  442.01
      1.1700	   49.00	  561.74	-1737.75	  442.53
      1.2700	   46.00	  562.25	-1737.75	  443.04
      1.3700	   38.00	  562.76	-1737.75	  443.55
      1.4700	   95.00	  563.25	-1737.75	  444.04
      1.5700	  259.00	  563.73	-1737.75	  444.52
      1.6700	  437.00	  564.21	-1737.75	  445.00
      1.7700	  579.00	  564.68	-1737.75	  445.47
      1.8700	  671.00	  565.13	-1737.75	  445.92
      1.9700	  693.00	  565.58	-1737.75	  446.37
      2.0700	  763.00	  566.02	-1737.75	  446.81
      2.1700	  773.00	  566.45	-1737.75	  447.24
      2.2700	  796.00	  566.87	-1737.75	  447.66
      2.3700	  700.00	  567.29	-1737.75	  448.08
      2.4700	  690.00	  567.69	-1737.75	  448.48
      2.5700	  674.00	  568.09	-1737.75	  448.88
      2.6700	  693.00	  568.48	-1737.75	  449.27
      2.7700	  678.00	  568.86	-1737.75	  449.65
      2.8700	  655.00	  569.23	-1737.75	  450.02
      2.9700	  622.00	  569.59	-1737.75	  450.38
      3.0700	  596.00	  569.95	-1737.75	  450.74
      3.1700	  622.00	  570.29	-1737.75	  451.08
      3.2700	  603.00	  570.63	-1737.75	  451.42
      3.3700	  705.00	  570.96	-1737.75	  451.75
      3.4700	  781.00	  571.29	-1737.75	  452.08
      3.5700	  827.00	  571.60	-1737.75	  452.39
      3.6700	  853.00	  571.91	-1737.75	  452.70
      3.7700	  897.00	  572.21	-1737.75	  453.00
      3.8700	  975.00	  572.50	-1737.75	  453.29
      3.9700	  988.00	  572.79	-1737.75	  453.58
      4.0700	 1048.00	  573.06	-1737.75	  453.85
      4.1700	 1043.00	  573.33	-1737.75	  454.12
      4.2700	 1130.00	  573.59	-1737.75	  454.38
      4.3700	 1101.00	  573.85	-1737.75	  454.64
      4.4700	 1074.00	  574.09	-1737.75	  454.88
      4.5700	 1003.00	  574.33	-1737.75	  455.12
      4.6700	 1027.00	  574.57	-1737.75	  455.36
      4.7700	  995.00	  574.79	-1737.75	  455.58
      4.8700	  993.00	  575.01	-1737.75	  455.80
      4.9700	  999.00	  575.22	-1737.75	  456.01
      5.0700	  916.00	  575.43	-1737.75	  456.22
      5.1700	  890.00	  575.62	-1737.75	  456.41
      5.2700	  891.00	  575.81	-1737.75	  456.60
      5.3700	  909.00	  576.00	-1737.75	  456.79
      5.4700	  846.00	  576.17	-1737.75	  456.96
      5.5700	  880.00	  576.35	-1737.75	  457.14
      5.6700	  823.00	  576.51	-1737.75	  457.30
      5.7700	  769.00	  576.67	-1737.75	  457.46
      5.8700	  758.00	  576.82	-1737.75	  457.61
      5.9700	  820.00	  576.96	-1737.75	  457.75
      6.0700	  885.00	  577.10	-1737.75	  457.89
      6.1700	  762.00	  577.23	-1737.75	  458.02
      6.2700	  760.00	  577.35	-1737.75	  458.14
      6.3700	  812.00	  577.47	-1737.75	  458.26
      6.4700	  750.00	  577.58	-1737.75	  458.37
      6.5700	  738.00	  577.69	-1737.75	  458.48
      6.6700	  707.00	  577.79	-1737.75	  458.58
      6.7700	  748.00	  577.88	-1737.75	  458.67
      6.8700	  730.00	  577.97	-1737.75	  458.76
      6.9700	  677.00	  578.05	-1737.75	  458.84
      7.0700	  715.00	  578.13	-1737.75	  458.92
      7.1700	  681.00	  578.20	-1737.75	  458.99
      7.2700	  706.00	  578.27	-1737.75	  459.06
      7.3700	  669.00	  578.32	-1737.75	  459.11
      7.4700	  606.00	  578.38	-1737.75	  459.17
      7.5700	  691.00	  578.42	-1737.75	  459.21
      7.6700	  642.00	  578.47	-1737.75	  459.26
      7.7700	  637.00	  578.50	-1737.75	  459.29
      7.8700	  692.00	  578.53	-1737.75	  459.32
      7.9700	  683.00	  578.56	-1737.75	  459.35
      8.0700	  619.00	  578.58	-1737.75	  459.37
      8.1700	  630.00	  578.59	-1737.75	  459.38
      8.2700	  629.00	  578.60	-1737.75	  459.39
      8.3700	  675.00	  578.61	-1737.75	  459.40
      8.4700	  629.00	  578.61	-1737.75	  459.40
      8.5700	  638.00	  578.60	-1737.75	  459.39
      8.6700	  597.00	  578.59	-1737.75	  459.38
      8.7700	  576.00	  578.57	-1737.75	  459.36
      8.8700	  574.00	  578.55	-1737.75	  459.34
      8.9700	  643.00	  578.52	-1737.75	  459.31
      9.0700	  659.00	  578.49	-1737.75	  459.28
      9.1700	  612.00	  578.46	-1737.75	  459.25
      9.2700	  616.00	  578.42	-1737.75	  459.21
      9.3700	  585.00	  578.37	-1737.75	  459.16
      9.4700	  615.00	  578.32	-1737.75	  459.11
      9.5700	  605.00	  578.26	-1737.75	  459.05
      9.6700	  626.00	  578.20	-1737.75	  458.99
      9.7700	  591.00	  578.14	-1737.75	  458.93
      9.8700	  602.00	  578.07	-1737.75	  458.86
      9.9700	  593.00	  578.00	-1737.75	  458.79
     10.0700	  598.00	  578.84	-1718.59	  458.71
     10.1700	  588.00	  578.86	-1728.61	  458.63
     10.2700	  653.00	  578.90	-1663.65	  458.54
     10.3700	  650.00	  578.97	-1666.72	  458.45
     10.4700	  641.00	  579.11	-1675.86	  458.36
     10.5700	  551.00	  579.37	-1766.12	  458.26
     10.6700	  602.00	  579.85	-1715.60	  458.15
     10.7700	  571.00	  580.65	-1747.40	  458.05
     10.8700	  566.00	  581.85	-1753.60	  457.93
     10.9700	  562.00	  583.45	-1759.20	  457.82
     11.0700	  566.00	  585.40	-1757.15	  457.70
     11.1700	  605.00	  587.72	-1720.47	  457.58
     11.2700	  568.00	  590.44	-1760.19	  457.45
     11.3700	  581.00	  593.63	-1750.38	  457.32
     11.4700	  602.00	  597.45	-1733.20	  457.18
     11.5700	  602.00	  602.09	-1737.84	  457.04
     11.6700	  603.00	  607.94	-1742.69	  456.90
     11.7700	  630.00	  615.58	-1723.33	  456.76
     11.8700	  597.00	  625.88	-1766.63	  456.61
     11.9700	  656.00	  639.21	-1720.96	  456.45
     12.0700	  645.00	  653.75	-1746.50	  456.30
     12.1700	  742.00	  663.54	-1659.29	  456.13
     12.2700	  684.00	  659.64	-1713.39	  455.97
     12.3700	  668.00	  639.61	-1709.36	  455.80
     12.4700	  635.00	  615.24	-1717.99	  455.63
     12.5700	  613.00	  596.98	-1721.73	  455.46
     12.6700	  560.00	  586.56	-1764.31	  455.28
     12.7700	  615.00	  581.50	-1704.25	  455.10
     12.8700	  558.00	  579.08	-1758.83	  454.92
     12.9700	  613.00	  577.71	-1702.46	  454.73
     13.0700	  585.00	  576.78	-1729.53	  454.54
     13.1700	  533.00	  576.05	-1780.80	  454.35
     13.2700	  541.00	  575.46	-1772.21	  454.15
     13.3700	  598.00	  574.96	-1714.71	  453.95
     13.4700	  537.00	  574.52	-1775.27	  453.75
     13.5700	  582.00	  574.13	-1729.88	  453.54
     13.6700	  601.00	  573.76	-1710.51	  453.33
     13.7700	  561.00	  573.43	-1750.18	  453.12
     13.8700	  500.00	  573.11	-1810.86	  452.91
     13.9700	  558.00	  572.80	-1752.55	  452.69
     14.0700	  544.00	  572.51	-1766.26	  452.47
     14.1700	  576.00	  572.22	-1733.97	  452.25
     14.2700	  562.00	  571.94	-1747.69	  452.02
     14.3700	  569.00	  571.66	-1740.41	  451.80
     14.4700	  589.00	  571.39	-1720.14	  451.57
     14.5700	  555.00	  571.12	-1753.87	  451.33
     14.6700	  543.00	  570.85	-1765.60	  451.10
     14.7700	  526.00	  570.58	-1782.33	  450.86
     14.8700	  583.00	  570.31	-1725.06	  450.62
     14.9700	  616.00	  570.05	-1691.80	  450.38
     15.0700	  542.00	  569.78	-1765.53	  450.13
     15.1700	  551.00	  569.52	-1756.27	  449.88
     15.2700	  568.00	  569.25	-1739.00	  449.63
     15.3700	  529.00	  568.98	-1777.73	  449.38
     15.4700	  523.00	  568.71	-1783.46	  449.13
     15.5700	  579.00	  568.44	-1727.19	  448.87
     15.6700	  559.00	  568.17	-1746.92	  448.61
     15.7700	  559.00	  567.90	-1746.65	  448.35
     15.8700	  554.00	  567.65	-1751.40	  448.09
     15.9700	  566.00	  567.38	-1739.13	  447.82
     16.0700	  607.00	  567.10	-1697.85	  447.56
     16.1700	  551.00	  566.83	-1753.58	  447.29
     16.2700	  540.00	  566.55	-1764.30	  447.02
     16.3700	  569.00	  566.27	-1735.02	  446.74
     16.4700	  577.00	  565.99	-1726.74	  446.47
     16.5700	  526.00	  565.71	-1777.46	  446.19
     16.6700	  604.00	  565.42	-1699.17	  445.91
     16.7700	  561.00	  565.14	-1741.89	  445.63
     16.8700	  531.00	  564.85	-1771.60	  445.35
     16.9700	  588.00	  564.56	-1714.31	  445.07
     17.0700	  505.00	  564.27	-1797.02	  444.78
     17.1700	  607.00	  563.98	-1694.73	  444.49
     17.2700	  515.00	  563.69	-1786.44	  444.20
     17.3700	  588.00	  563.40	-1713.15	  443.91
     17.4700	  565.00	  563.10	-1735.85	  443.62
     17.5700	  560.00	  562.81	-1740.56	  443.33
     17.6700	  559.00	  562.51	-1741.26	  443.03
     17.7700	  557.00	  562.21	-1742.96	  442.73
     17.8700	  524.00	  561.91	-1775.66	  442.44
     17.9700	  585.00	  561.61	-1714.36	  442.14
     18.0700	  572.00	  561.42	-1727.17	  441.84
     18.1700	  567.00	  561.11	-1731.86	  441.53
     18.2700	  544.00	  560.81	-1754.56	  441.23
     18.3700	  596.00	  560.51	-1702.26	  440.92
     18.4700	  521.00	  560.20	-1776.95	  440.62
     18.5700	  570.00	  559.90	-1727.65	  440.31
     18.6700	  537.00	  559.59	-1760.34	  440.00
     18.7700	  611.00	  559.29	-1686.04	  439.69
     18.8700	  584.00	  559.06	-1712.81	  439.38
     18.9700	  512.00	  558.75	-1784.50	  439.07
     19.0700	  531.00	  558.44	-1765.19	  438.75
     19.1700	  553.00	  558.14	-1742.89	  438.44
     19.2700	  554.00	  557.83	-1741.58	  438.12
     19.3700	  546.00	  557.52	-1749.27	  437.81
     19.4700	  576.00	  557.21	-1718.96	  437.49
     19.5700	  571.00	  556.89	-1723.64	  437.17
     19.6700	  590.00	  556.58	-1704.33	  436.85
     19.7700	  528.00	  556.27	-1766.02	  436.53
     19.8700	  545.00	  555.96	-1748.71	  436.21
     19.9700	  525.00	  555.64	-1768.39	  435.89
     20.0700	  550.00	  555.33	-1743.08	  435.57
     20.1700	  594.00	  555.02	-1698.77	  435.24
     20.2700	  591.00	  554.70	-1701.45	  434.92
     20.3700	  514.00	  554.39	-1778.14	  434.59
     20.4700	  557.00	  554.07	-1734.82	  434.27
     20.5700	  534.00	  553.76	-1757.51	  433.94
     20.6700	  508.00	  553.45	-1783.20	  433.61
     20.7700	  535.00	  553.16	-1755.91	  433.28
     20.8700	  592.00	  552.85	-1698.60	  432.96
     20.9700	  575.00	  552.50	-1715.25	  432.63
     21.0700	  549.00	  552.19	-1740.94	  432.30
     21.1700	  533.00	  551.88	-1756.63	  431.97
     21.2700	  493.00	  551.57	-1796.32	  431.64
     21.3700	  540.00	  551.26	-1749.01	  431.31
     21.4700	  495.00	  550.95	-1793.70	  430.97
     21.5700	  548.00	  550.65	-1740.40	  430.64
     21.6700	  554.00	  550.34	-1734.09	  430.31
     21.7700	  540.00	  550.04	-1747.79	  429.98
     21.8700	  558.00	  549.73	-1729.48	  429.64
     21.9700	  553.00	  549.43	-1734.18	  429.31
     22.0700	  531.00	  549.14	-1755.89	  428.98
     22.1700	  519.00	  548.84	-1767.59	  428.64
     22.2700	  619.00	  548.55	-1667.30	  428.31
     22.3700	  537.00	  548.26	-1749.01	  427.97
     22.4700	  557.00	  547.98	-1728.73	  427.64
     22.5700	  569.00	  547.70	-1716.45	  427.30
     22.6700	  520.00	  547.43	-1765.18	  426.97
     22.7700	  550.00	  547.16	-1734.91	  426.63
     22.8700	  563.00	  546.91	-1721.66	  426.30
     22.9700	  581.00	  546.67	-1703.42	  425.96
     23.0700	  579.00	  546.44	-1705.19	  425.63
     23.1700	  528.00	  546.22	-1755.97	  425.29
     23.2700	  544.00	  546.03	-1739.78	  424.95
     23.3700	  626.00	  545.87	-1657.62	  424.62
     23.4700	  519.00	  545.74	-1764.49	  424.28
     23.5700	  546.00	  545.82	-1737.57	  423.95
     23.6700	  538.00	  545.82	-1745.57	  423.61
     23.7700	  568.00	  545.94	-1715.69	  423.27
     23.8700	  494.00	  546.29	-1790.04	  422.94
     23.9700	  604.00	  547.09	-1680.84	  422.60
     24.0700	  540.00	  548.72	-1746.47	  422.27
     24.1700	  557.00	  551.79	-1732.54	  421.93
     24.2700	  561.00	  557.08	-1733.83	  421.60
     24.3700	  598.00	  565.42	-1705.17	  421.26
     24.4700	  630.00	  577.60	-1685.35	  420.93
     24.5700	  614.00	  593.54	-1717.29	  420.59
     24.6700	  615.00	  610.51	-1733.26	  420.26
     24.7700	  617.00	  621.73	-1742.48	  419.93
     24.8700	  601.00	  618.50	-1755.25	  419.59
     24.9700	  622.00	  600.13	-1715.88	  419.26
     25.0700	  553.00	  578.00	-1762.75	  418.93
     25.1700	  591.00	  561.09	-1707.84	  418.59
     25.2700	  569.00	  551.13	-1719.88	  418.26
     25.3700	  560.00	  546.15	-1723.90	  417.93
     25.4700	  532.00	  543.77	-1749.52	  417.60
     25.5700	  579.00	  542.47	-1701.22	  417.27
     25.6700	  531.00	  541.64	-1748.39	  416.94
     25.7700	  544.00	  541.03	-1734.78	  416.61
     25.8700	  542.00	  540.57	-1736.32	  416.28
     25.9700	  604.00	  540.22	-1673.97	  415.95
     26.0700	  533.00	  539.96	-1744.71	  415.62
     26.1700	  555.00	  539.78	-1722.53	  415.29
     26.2700	  579.00	  539.68	-1698.43	  414.96
     26.3700	  533.00	  539.66	-1744.41	  414.64
     26.4700	  567.00	  539.73	-1710.48	  414.31
     26.5700	  575.00	  539.90	-1702.65	  413.98
     26.6700	  518.00	  540.17	-1759.92	  413.66
     26.7700	  548.00	  540.59	-1730.34	  413.33
     26.8700	  565.00	  541.19	-1713.94	  413.01
     26.9700	  534.00	  542.01	-1745.76	  412.69
     27.0700	  530.00	  543.14	-1750.89	  412.36
     27.1700	  495.00	  544.70	-1787.45	  412.04
     27.2700	  547.00	  546.96	-1737.71	  411.72
     27.3700	  567.00	  550.43	-1721.18	  411.40
     27.4700	  560.00	  556.11	-1733.86	  411.08
     27.5700	  571.00	  565.80	-1732.55	  410.76
     27.6700	  529.00	  582.37	-1791.12	  410.44
     27.7700	  538.00	  609.50	-1809.25	  410.13
     27.8700	  578.00	  650.40	-1810.15	  409.81
     27.9700	  704.00	  705.25	-1739.00	  409.49
     28.0700	  785.00	  767.70	-1720.45	  409.18
     28.1700	  901.00	  821.95	-1658.70	  408.86
     28.2700	  963.00	  844.30	-1619.05	  408.55
     28.3700	  892.00	  820.95	-1666.70	  408.24
     28.4700	  828.00	  774.33	-1684.08	  407.93
     28.5700	  720.00	  740.92	-1758.67	  407.62
     28.6700	  697.00	  737.15	-1777.90	  407.31
     28.7700	  708.00	  758.23	-1787.98	  407.00
     28.8700	  789.00	  784.38	-1733.13	  406.69
     28.9700	  845.00	  788.12	-1680.87	  406.38
     29.0700	  725.00	  752.27	-1765.02	  406.08
     29.1700	  697.00	  691.89	-1732.64	  405.77
     29.2700	  617.00	  634.42	-1755.17	  405.47
     29.3700	  602.00	  592.88	-1728.63	  405.17
     29.4700	  599.00	  567.68	-1706.43	  404.86
     29.5700	  569.00	  553.98	-1722.73	  404.56
     29.6700	  571.00	  546.70	-1713.45	  404.26
     29.7700	  612.00	  542.56	-1668.31	  403.97
     29.8700	  579.00	  539.97	-1698.72	  403.67
     29.9700	  587.00	  538.31	-1689.06	  403.37
     30.0700	  597.00	  537.44	-1678.19	  403.08
     30.1700	  582.00	  537.50	-1693.25	  402.78
     30.2700	  542.00	  538.98	-1734.73	  402.49
     30.3700	  520.00	  542.82	-1760.57	  402.20
     30.4700	  567.00	  550.45	-1721.20	  401.91
     30.5700	  508.00	  563.32	-1793.07	  401.62
     30.6700	  572.00	  581.75	-1747.50	  401.33
     30.7700	  556.00	  603.38	-1785.13	  401.04
     30.8700	  626.00	  622.07	-1733.82	  400.75
     30.9700	  666.00	  628.45	-1700.20	  400.47
     31.0700	  634.00	  616.34	-1720.09	  400.19
     31.1700	  592.00	  592.03	-1737.78	  399.90
     31.2700	  538.00	  567.62	-1767.37	  399.62
     31.3700	  562.00	  549.47	-1725.22	  399.34
     31.4700	  569.00	  538.31	-1707.06	  399.06
     31.5700	  548.00	  532.26	-1722.01	  398.79
     31.6700	  529.00	  529.11	-1737.86	  398.51
     31.7700	  518.00	  527.37	-1747.12	  398.23
     31.8700	  526.00	  526.29	-1738.04	  397.96
     31.9700	  543.00	  525.55	-1720.30	  397.69
     32.0700	  547.00	  525.05	-1715.80	  397.42
     32.1700	  548.00	  524.74	-1714.49	  397.15
     32.2700	  536.00	  524.58	-1726.33	  396.88
     32.3700	  504.00	  524.59	-1758.34	  396.61
     32.4700	  554.00	  524.76	-1708.51	  396.35
     32.5700	  533.00	  525.12	-1729.87	  396.08
     32.6700	  565.00	  525.69	-1698.44	  395.82
     32.7700	  534.00	  526.54	-1730.29	  395.56
     32.8700	  565.00	  527.74	-1700.49	  395.30
     32.9700	  551.00	  529.42	-1716.17	  395.04
     33.0700	  582.00	  531.84	-1687.59	  394.78
     33.1700	  528.00	  535.52	-1745.27	  394.53
     33.2700	  576.00	  541.65	-1703.40	  394.27
     33.3700	  587.00	  552.73	-1703.48	  394.02
     33.4700	  560.00	  573.47	-1751.22	  393.77
     33.5700	  621.00	  611.10	-1727.85	  393.52
     33.6700	  630.00	  673.62	-1781.37	  393.27
     33.7700	  742.00	  764.10	-1759.85	  393.02
     33.8700	  896.00	  872.24	-1713.99	  392.78
     33.9700	 1049.00	  969.16	-1657.91	  392.53
     34.0700	 1128.00	 1011.12	-1620.87	  392.29
     34.1700	 1020.00	  966.44	-1684.19	  392.05
     34.2700	  904.00	  858.09	-1691.84	  391.81
     34.3700	  788.00	  741.25	-1691.00	  391.57
     34.4700	  670.00	  649.94	-1717.69	  391.33
     34.5700	  615.00	  591.53	-1714.28	  391.10
     34.6700	  582.00	  559.20	-1714.95	  390.86
     34.7700	  548.00	  542.59	-1732.34	  390.63
     34.8700	  519.00	  533.81	-1752.56	  390.40
     34.9700	  508.00	  528.59	-1758.34	  390.17
     35.0700	  502.00	  525.00	-1760.75	  389.94
     35.1700	  555.00	  522.31	-1705.06	  389.72
     35.2700	  551.00	  520.18	-1706.93	  389.49
     35.3700	  532.00	  518.46	-1724.21	  389.27
     35.4700	  529.00	  517.04	-1725.79	  389.05
     35.5700	  502.00	  515.85	-1751.60	  388.83
     35.6700	  474.00	  514.82	-1778.57	  388.61
     35.7700	  506.00	  513.94	-1745.69	  388.39
     35.8700	  491.00	  513.17	-1759.92	  388.18
     35.9700	  500.00	  512.49	-1750.24	  387.97
     36.0700	  535.00	  512.35	-1715.10	  387.75
     36.1700	  507.00	  511.81	-1742.56	  387.54
     36.2700	  474.00	  511.33	-1775.08	  387.34
     36.3700	  495.00	  510.90	-1753.65	  387.13
     36.4700	  526.00	  510.51	-1722.26	  386.92
     36.5700	  509.00	  510.17	-1738.92	  386.72
     36.6700	  516.00	  509.87	-1731.62	  386.52
     36.7700	  475.00	  509.63	-1772.38	  386.32
     36.8700	  493.00	  509.48	-1754.23	  386.12
     36.9700	  528.00	  509.47	-1719.22	  385.92
     37.0700	  506.00	  509.77	-1741.52	  385.73
     37.1700	  495.00	  510.62	-1753.37	  385.53
     37.2700	  534.00	  512.39	-1716.14	  385.34
     37.3700	  521.00	  515.38	-1732.13	  385.15
     37.4700	  525.00	  519.51	-1732.26	  384.96
     37.5700	  500.00	  523.99	-1761.74	  384.77
     37.6700	  531.00	  527.31	-1734.06	  384.59
     37.7700	  557.00	  527.76	-1708.51	  384.41
     37.8700	  523.00	  525.10	-1739.85	  384.22
     37.9700	  515.00	  520.90	-1743.65	  384.04
     38.0700	  532.00	  516.64	-1722.39	  383.86
     38.1700	  488.00	  512.97	-1762.72	  383.69
     38.2700	  507.00	  510.10	-1740.85	  383.51
     38.3700	  514.00	  508.07	-1731.82	  383.34
     38.4700	  530.00	  506.72	-1714.47	  383.17
     38.5700	  507.00	  505.83	-1736.58	  383.00
     38.6700	  543.00	  505.15	-1699.90	  382.83
     38.7700	  496.00	  504.75	-1746.50	  382.66
     38.8700	  489.00	  504.43	-1753.18	  382.50
     38.9700	  518.00	  504.17	-1723.92	  382.33
     39.0700	  521.00	  503.95	-1720.70	  382.17
     39.1700	  492.00	  503.74	-1749.49	  382.01
     39.2700	  483.00	  503.61	-1758.36	  381.85
     39.3700	  532.00	  503.43	-1709.18	  381.70
     39.4700	  480.00	  503.27	-1761.02	  381.54
     39.5700	  534.00	  503.12	-1706.87	  381.39
     39.6700	  522.00	  502.98	-1718.73	  381.24
     39.7700	  515.00	  502.86	-1725.61	  381.09
     39.8700	  521.00	  502.74	-1719.49	  380.94
     39.9700	  495.00	  502.63	-1745.38	  380.79
     40.0700	  498.00	  502.53	-1742.28	  380.65
     40.1700	  463.00	  502.44	-1777.19	  380.50
     40.2700	  476.00	  502.36	-1764.11	  380.36
     40.3700	  481.00	  502.30	-1759.05	  380.22
     40.4700	  460.00	  502.25	-1780.00	  380.09
     40.5700	  503.00	  502.22	-1736.97	  379.95
     40.6700	  526.00	  502.20	-1713.95	  379.82
     40.7700	  472.00	  502.21	-1767.96	  379.68
