MSG Master    CELL:    5.91930   5.91930  23.27260   90.0000   90.0000  120.0000   SPGR: P 63/m m c             TEMP:   1074.85
  1   1280     2.52000     0.00000    -0.12314     0.00000     0.00000    0
    99     0     2
       0.00000      10.00000
     125.00000     130.00000
 2Theta	Yobs	Ycal	Yobs-Ycal	Backg	Posr	(hkl)	K
      0.7700	    0.00	  558.98	-1740.43	  440.95
      0.8700	    0.00	  559.55	-1740.43	  441.51
      0.9700	   43.00	  560.10	-1740.43	  442.07
      1.0700	   46.00	  560.65	-1740.43	  442.61
      1.1700	   50.00	  561.19	-1740.43	  443.15
      1.2700	   52.00	  561.71	-1740.43	  443.68
      1.3700	   60.00	  562.23	-1740.43	  444.20
      1.4700	  111.00	  562.74	-1740.43	  444.71
      1.5700	  312.00	  563.24	-1740.43	  445.21
      1.6700	  437.00	  563.73	-1740.43	  445.70
      1.7700	  575.00	  564.21	-1740.43	  446.18
      1.8700	  633.00	  564.69	-1740.43	  446.65
      1.9700	  743.00	  565.15	-1740.43	  447.12
      2.0700	  759.00	  565.61	-1740.43	  447.57
      2.1700	  829.00	  566.05	-1740.43	  448.02
      2.2700	  752.00	  566.49	-1740.43	  448.46
      2.3700	  772.00	  566.92	-1740.43	  448.89
      2.4700	  784.00	  567.34	-1740.43	  449.31
      2.5700	  683.00	  567.75	-1740.43	  449.72
      2.6700	  658.00	  568.16	-1740.43	  450.12
      2.7700	  666.00	  568.55	-1740.43	  450.52
      2.8700	  603.00	  568.94	-1740.43	  450.90
      2.9700	  669.00	  569.32	-1740.43	  451.28
      3.0700	  632.00	  569.69	-1740.43	  451.65
      3.1700	  597.00	  570.05	-1740.43	  452.02
      3.2700	  610.00	  570.40	-1740.43	  452.37
      3.3700	  666.00	  570.75	-1740.43	  452.72
      3.4700	  737.00	  571.09	-1740.43	  453.05
      3.5700	  805.00	  571.42	-1740.43	  453.38
      3.6700	  860.00	  571.74	-1740.43	  453.71
      3.7700	  942.00	  572.06	-1740.43	  454.02
      3.8700	  997.00	  572.36	-1740.43	  454.33
      3.9700	 1015.00	  572.66	-1740.43	  454.63
      4.0700	 1048.00	  572.96	-1740.43	  454.92
      4.1700	 1055.00	  573.24	-1740.43	  455.20
      4.2700	 1071.00	  573.52	-1740.43	  455.48
      4.3700	 1101.00	  573.79	-1740.43	  455.75
      4.4700	 1042.00	  574.05	-1740.43	  456.01
      4.5700	 1044.00	  574.30	-1740.43	  456.27
      4.6700	  967.00	  574.55	-1740.43	  456.51
      4.7700	  960.00	  574.79	-1740.43	  456.76
      4.8700	 1005.00	  575.02	-1740.43	  456.99
      4.9700	  942.00	  575.25	-1740.43	  457.21
      5.0700	  919.00	  575.47	-1740.43	  457.43
      5.1700	  946.00	  575.68	-1740.43	  457.64
      5.2700	  862.00	  575.88	-1740.43	  457.85
      5.3700	  848.00	  576.08	-1740.43	  458.05
      5.4700	  870.00	  576.27	-1740.43	  458.24
      5.5700	  886.00	  576.46	-1740.43	  458.42
      5.6700	  861.00	  576.64	-1740.43	  458.60
      5.7700	  838.00	  576.81	-1740.43	  458.77
      5.8700	  828.00	  576.97	-1740.43	  458.94
      5.9700	  834.00	  577.13	-1740.43	  459.10
      6.0700	  842.00	  577.28	-1740.43	  459.25
      6.1700	  747.00	  577.43	-1740.43	  459.39
      6.2700	  822.00	  577.57	-1740.43	  459.53
      6.3700	  758.00	  577.70	-1740.43	  459.66
      6.4700	  760.00	  577.83	-1740.43	  459.79
      6.5700	  723.00	  577.95	-1740.43	  459.91
      6.6700	  723.00	  578.06	-1740.43	  460.02
      6.7700	  725.00	  578.17	-1740.43	  460.13
      6.8700	  746.00	  578.27	-1740.43	  460.23
      6.9700	  708.00	  578.36	-1740.43	  460.33
      7.0700	  729.00	  578.45	-1740.43	  460.42
      7.1700	  704.00	  578.54	-1740.43	  460.50
      7.2700	  670.00	  578.62	-1740.43	  460.58
      7.3700	  739.00	  578.69	-1740.43	  460.65
      7.4700	  637.00	  578.76	-1740.43	  460.72
      7.5700	  639.00	  578.82	-1740.43	  460.78
      7.6700	  631.00	  578.87	-1740.43	  460.84
      7.7700	  679.00	  578.92	-1740.43	  460.89
      7.8700	  672.00	  578.97	-1740.43	  460.93
      7.9700	  661.00	  579.00	-1740.43	  460.97
      8.0700	  666.00	  579.04	-1740.43	  461.00
      8.1700	  631.00	  579.07	-1740.43	  461.03
      8.2700	  634.00	  579.09	-1740.43	  461.05
      8.3700	  589.00	  579.11	-1740.43	  461.07
      8.4700	  640.00	  579.12	-1740.43	  461.08
      8.5700	  644.00	  579.12	-1740.43	  461.09
      8.6700	  642.00	  579.13	-1740.43	  461.09
      8.7700	  621.00	  579.12	-1740.43	  461.09
      8.8700	  568.00	  579.11	-1740.43	  461.08
      8.9700	  644.00	  579.10	-1740.43	  461.07
      9.0700	  637.00	  579.08	-1740.43	  461.05
      9.1700	  639.00	  579.06	-1740.43	  461.02
      9.2700	  629.00	  579.03	-1740.43	  461.00
      9.3700	  603.00	  579.00	-1740.43	  460.96
      9.4700	  597.00	  578.96	-1740.43	  460.92
      9.5700	  585.00	  578.92	-1740.43	  460.88
      9.6700	  616.00	  578.87	-1740.43	  460.83
      9.7700	  614.00	  578.82	-1740.43	  460.78
      9.8700	  608.00	  578.76	-1740.43	  460.73
      9.9700	  575.00	  578.70	-1740.43	  460.67
     10.0700	  581.00	  579.41	-1738.83	  460.60
     10.1700	  600.00	  579.42	-1719.85	  460.53
     10.2700	  587.00	  579.44	-1732.87	  460.46
     10.3700	  555.00	  579.50	-1764.92	  460.38
     10.4700	  619.00	  579.60	-1701.03	  460.29
     10.5700	  606.00	  579.81	-1714.23	  460.21
     10.6700	  577.00	  580.22	-1743.64	  460.12
     10.7700	  589.00	  580.94	-1732.37	  460.02
     10.8700	  628.00	  582.05	-1694.47	  459.92
     10.9700	  620.00	  583.54	-1703.96	  459.82
     11.0700	  550.00	  585.37	-1775.80	  459.71
     11.1700	  642.00	  587.54	-1685.96	  459.60
     11.2700	  604.00	  590.08	-1726.50	  459.48
     11.3700	  593.00	  593.06	-1740.49	  459.36
     11.4700	  582.00	  596.62	-1755.04	  459.24
     11.5700	  621.00	  600.95	-1720.37	  459.11
     11.6700	  621.00	  606.39	-1725.82	  458.98
     11.7700	  632.00	  613.54	-1721.97	  458.85
     11.8700	  642.00	  623.35	-1721.77	  458.71
     11.9700	  683.00	  636.54	-1693.97	  458.57
     12.0700	  641.00	  651.72	-1751.15	  458.42
     12.1700	  677.00	  662.81	-1726.24	  458.27
     12.2700	  729.00	  659.91	-1671.34	  458.12
     12.3700	  636.00	  639.58	-1744.01	  457.96
     12.4700	  627.00	  614.31	-1727.73	  457.80
     12.5700	  574.00	  595.77	-1762.20	  457.64
     12.6700	  571.00	  585.75	-1755.18	  457.47
     12.7700	  586.00	  581.25	-1735.67	  457.30
     12.8700	  558.00	  579.22	-1761.64	  457.13
     12.9700	  547.00	  578.09	-1771.51	  456.95
     13.0700	  579.00	  577.30	-1738.73	  456.77
     13.1700	  615.00	  576.69	-1702.11	  456.59
     13.2700	  570.00	  576.18	-1746.61	  456.41
     13.3700	  596.00	  575.75	-1720.17	  456.22
     13.4700	  526.00	  575.36	-1789.79	  456.02
     13.5700	  539.00	  575.02	-1776.44	  455.83
     13.6700	  562.00	  574.69	-1753.12	  455.63
     13.7700	  541.00	  574.39	-1773.82	  455.43
     13.8700	  604.00	  574.10	-1710.53	  455.23
     13.9700	  584.00	  573.82	-1730.25	  455.02
     14.0700	  553.00	  573.55	-1760.98	  454.81
     14.1700	  558.00	  573.29	-1755.72	  454.60
     14.2700	  587.00	  573.03	-1726.46	  454.38
     14.3700	  534.00	  572.77	-1779.20	  454.17
     14.4700	  548.00	  572.52	-1764.94	  453.95
     14.5700	  598.00	  572.27	-1714.69	  453.72
     14.6700	  540.00	  572.01	-1772.44	  453.50
     14.7700	  529.00	  571.76	-1783.19	  453.27
     14.8700	  582.00	  571.51	-1729.94	  453.04
     14.9700	  572.00	  571.26	-1739.68	  452.81
     15.0700	  520.00	  571.01	-1791.43	  452.57
     15.1700	  589.00	  570.75	-1722.18	  452.33
     15.2700	  548.00	  570.50	-1762.92	  452.09
     15.3700	  567.00	  570.24	-1743.67	  451.85
     15.4700	  534.00	  569.99	-1776.41	  451.61
     15.5700	  534.00	  569.73	-1776.16	  451.36
     15.6700	  576.00	  569.47	-1733.90	  451.11
     15.7700	  585.00	  569.21	-1724.64	  450.86
     15.8700	  553.00	  568.95	-1756.37	  450.60
     15.9700	  549.00	  568.68	-1760.11	  450.35
     16.0700	  568.00	  568.42	-1740.85	  450.09
     16.1700	  518.00	  568.15	-1790.58	  449.83
     16.2700	  576.00	  567.91	-1732.34	  449.57
     16.3700	  547.00	  567.64	-1761.07	  449.30
     16.4700	  596.00	  567.37	-1711.80	  449.04
     16.5700	  563.00	  567.10	-1744.53	  448.77
     16.6700	  577.00	  566.83	-1730.25	  448.50
     16.7700	  539.00	  566.55	-1767.98	  448.23
     16.8700	  544.00	  566.27	-1762.70	  447.96
     16.9700	  539.00	  566.00	-1767.42	  447.68
     17.0700	  544.00	  565.72	-1762.14	  447.40
     17.1700	  564.00	  565.44	-1741.86	  447.12
     17.2700	  573.00	  565.15	-1732.58	  446.84
     17.3700	  587.00	  564.87	-1718.30	  446.56
     17.4700	  575.00	  564.58	-1730.01	  446.28
     17.5700	  592.00	  564.30	-1712.72	  445.99
     17.6700	  588.00	  564.01	-1716.44	  445.71
     17.7700	  566.00	  563.72	-1738.15	  445.42
     17.8700	  525.00	  563.43	-1778.85	  445.13
     17.9700	  580.00	  563.24	-1723.66	  444.84
     18.0700	  579.00	  562.95	-1724.37	  444.54
     18.1700	  550.00	  562.65	-1753.08	  444.25
     18.2700	  551.00	  562.36	-1751.79	  443.95
     18.3700	  512.00	  562.06	-1790.49	  443.66
     18.4700	  543.00	  561.77	-1759.19	  443.36
     18.5700	  553.00	  561.47	-1748.90	  443.06
     18.6700	  563.00	  561.17	-1738.60	  442.76
     18.7700	  535.00	  560.87	-1766.30	  442.45
     18.8700	  594.00	  560.66	-1707.08	  442.15
     18.9700	  544.00	  560.36	-1756.79	  441.85
     19.0700	  551.00	  560.06	-1749.48	  441.54
     19.1700	  579.00	  559.76	-1721.18	  441.23
     19.2700	  579.00	  559.46	-1720.88	  440.93
     19.3700	  539.00	  559.15	-1760.58	  440.62
     19.4700	  586.00	  558.85	-1713.28	  440.31
     19.5700	  561.00	  558.55	-1737.97	  440.00
     19.6700	  567.00	  558.24	-1731.67	  439.68
     19.7700	  577.00	  557.94	-1721.36	  439.37
     19.8700	  553.00	  557.63	-1745.06	  439.06
     19.9700	  547.00	  557.32	-1750.75	  438.74
     20.0700	  551.00	  557.02	-1746.44	  438.43
     20.1700	  510.00	  556.71	-1787.14	  438.11
     20.2700	  556.00	  556.40	-1740.83	  437.79
     20.3700	  505.00	  556.10	-1791.52	  437.47
     20.4700	  551.00	  555.79	-1745.21	  437.15
     20.5700	  540.00	  555.45	-1755.88	  436.84
     20.6700	  565.00	  555.14	-1730.57	  436.51
     20.7700	  539.00	  554.84	-1756.26	  436.19
     20.8700	  593.00	  554.53	-1701.96	  435.87
     20.9700	  542.00	  554.26	-1752.69	  435.55
     21.0700	  587.00	  553.96	-1707.38	  435.23
     21.1700	  564.00	  553.65	-1730.08	  434.90
     21.2700	  546.00	  553.35	-1747.77	  434.58
     21.3700	  594.00	  553.04	-1699.47	  434.25
     21.4700	  515.00	  552.74	-1778.17	  433.93
     21.5700	  599.00	  552.44	-1693.87	  433.60
     21.6700	  552.00	  552.14	-1740.56	  433.28
     21.7700	  582.00	  551.84	-1710.26	  432.95
     21.8700	  540.00	  551.54	-1751.97	  432.62
     21.9700	  545.00	  551.24	-1746.67	  432.30
     22.0700	  574.00	  550.95	-1717.38	  431.97
     22.1700	  567.00	  550.66	-1724.09	  431.64
     22.2700	  525.00	  550.37	-1765.80	  431.31
     22.3700	  516.00	  550.09	-1774.51	  430.98
     22.4700	  552.00	  549.80	-1738.23	  430.66
     22.5700	  553.00	  549.53	-1736.95	  430.33
     22.6700	  580.00	  549.26	-1709.68	  430.00
     22.7700	  555.00	  548.99	-1734.42	  429.67
     22.8700	  510.00	  548.74	-1779.16	  429.34
     22.9700	  531.00	  548.49	-1757.92	  429.01
     23.0700	  557.00	  548.26	-1731.69	  428.68
     23.1700	  514.00	  548.04	-1774.47	  428.35
     23.2700	  541.00	  547.84	-1747.27	  428.02
     23.3700	  569.00	  547.67	-1719.09	  427.69
     23.4700	  538.00	  547.53	-1749.95	  427.36
     23.5700	  562.00	  547.43	-1725.86	  427.03
     23.6700	  551.00	  547.40	-1736.83	  426.70
     23.7700	  582.00	  547.61	-1706.03	  426.37
     23.8700	  553.00	  547.88	-1735.31	  426.04
     23.9700	  555.00	  548.58	-1734.01	  425.71
     24.0700	  563.00	  550.10	-1727.53	  425.38
     24.1700	  569.00	  553.11	-1724.54	  425.05
     24.2700	  580.00	  558.44	-1718.87	  424.72
     24.3700	  575.00	  567.05	-1732.47	  424.39
     24.4700	  578.00	  579.98	-1742.41	  424.06
     24.5700	  629.00	  597.61	-1709.04	  423.73
     24.6700	  595.00	  617.33	-1762.75	  423.40
     24.7700	  625.00	  631.36	-1746.79	  423.07
     24.8700	  618.00	  628.97	-1751.39	  422.74
     24.9700	  601.00	  608.28	-1747.71	  422.41
     25.0700	  616.00	  582.69	-1707.12	  422.08
     25.1700	  551.00	  563.46	-1752.89	  421.76
     25.2700	  577.00	  552.65	-1716.08	  421.43
     25.3700	  551.00	  547.62	-1737.05	  421.10
     25.4700	  539.00	  545.37	-1746.79	  420.77
     25.5700	  534.00	  544.18	-1750.61	  420.45
     25.6700	  536.00	  543.41	-1747.84	  420.12
     25.7700	  508.00	  542.85	-1775.28	  419.80
     25.8700	  529.00	  542.43	-1753.86	  419.47
     25.9700	  544.00	  542.11	-1738.53	  419.15
     26.0700	  526.00	  541.87	-1756.30	  418.82
     26.1700	  548.00	  541.71	-1734.14	  418.50
     26.2700	  563.00	  541.63	-1719.06	  418.18
     26.3700	  571.00	  541.62	-1711.05	  417.85
     26.4700	  558.00	  541.70	-1724.13	  417.53
     26.5700	  592.00	  541.87	-1690.30	  417.21
     26.6700	  524.00	  542.16	-1758.58	  416.89
     26.7700	  526.00	  542.58	-1757.00	  416.57
     26.8700	  521.00	  543.17	-1762.60	  416.25
     26.9700	  542.00	  543.99	-1742.41	  415.93
     27.0700	  559.00	  545.10	-1726.53	  415.61
     27.1700	  561.00	  546.65	-1726.07	  415.29
     27.2700	  566.00	  548.87	-1723.30	  414.97
     27.3700	  550.00	  552.27	-1742.69	  414.66
     27.4700	  581.00	  557.79	-1717.22	  414.34
     27.5700	  585.00	  567.18	-1722.61	  414.03
     27.6700	  568.00	  583.17	-1755.59	  413.71
     27.7700	  573.00	  609.30	-1776.73	  413.40
     27.8700	  612.00	  648.69	-1777.12	  413.09
     27.9700	  620.00	  701.56	-1821.99	  412.77
     28.0700	  782.00	  762.00	-1720.43	  412.46
     28.1700	  914.00	  815.13	-1641.55	  412.15
     28.2700	  969.00	  838.37	-1609.80	  411.84
     28.3700	  938.00	  817.99	-1620.41	  411.53
     28.4700	  792.00	  774.80	-1723.23	  411.22
     28.5700	  711.00	  744.41	-1773.83	  410.92
     28.6700	  687.00	  743.48	-1796.90	  410.61
     28.7700	  745.00	  767.58	-1763.01	  410.31
     28.8700	  787.00	  796.79	-1750.22	  410.00
     28.9700	  812.00	  802.61	-1731.04	  409.70
     29.0700	  768.00	  766.35	-1738.77	  409.40
     29.1700	  683.00	  703.13	-1760.56	  409.09
     29.2700	  681.00	  642.33	-1701.75	  408.79
     29.3700	  597.00	  598.28	-1741.70	  408.49
     29.4700	  607.00	  571.62	-1705.04	  408.19
     29.5700	  676.00	  557.23	-1621.66	  407.90
     29.6700	  628.00	  549.68	-1662.11	  407.60
     29.7700	  596.00	  545.45	-1689.87	  407.30
     29.8700	  564.00	  542.85	-1719.28	  407.01
     29.9700	  603.00	  541.25	-1678.68	  406.72
     30.0700	  558.00	  540.50	-1722.93	  406.42
     30.1700	  550.00	  540.80	-1731.22	  406.13
     30.2700	  532.00	  542.74	-1751.17	  405.84
     30.3700	  597.00	  547.52	-1690.95	  405.55
     30.4700	  595.00	  556.97	-1702.39	  405.27
     30.5700	  571.00	  573.02	-1742.45	  404.98
     30.6700	  517.00	  596.30	-1819.73	  404.69
     30.7700	  640.00	  624.05	-1724.47	  404.41
     30.8700	  643.00	  648.51	-1745.94	  404.12
     30.9700	  629.00	  657.69	-1769.12	  403.84
     31.0700	  610.00	  643.07	-1773.50	  403.56
     31.1700	  547.00	  612.26	-1805.69	  403.28
     31.2700	  590.00	  580.97	-1731.40	  403.00
     31.3700	  555.00	  557.78	-1743.20	  402.72
     31.4700	  551.00	  543.67	-1733.09	  402.45
     31.5700	  565.00	  536.15	-1711.57	  402.17
     31.6700	  582.00	  532.31	-1690.73	  401.90
     31.7700	  575.00	  530.20	-1695.63	  401.63
     31.8700	  558.00	  528.89	-1711.31	  401.36
     31.9700	  519.00	  527.98	-1749.40	  401.09
     32.0700	  528.00	  527.33	-1739.75	  400.82
     32.1700	  504.00	  526.88	-1763.31	  400.55
     32.2700	  542.00	  526.60	-1725.03	  400.28
     32.3700	  546.00	  526.49	-1720.91	  400.02
     32.4700	  509.00	  526.53	-1757.96	  399.76
     32.5700	  556.00	  526.75	-1711.18	  399.49
     32.6700	  530.00	  527.17	-1737.60	  399.23
     32.7700	  570.00	  527.84	-1698.26	  398.97
     32.8700	  581.00	  528.82	-1688.24	  398.71
     32.9700	  536.00	  530.22	-1734.65	  398.46
     33.0700	  557.00	  532.26	-1715.69	  398.20
     33.1700	  531.00	  535.39	-1744.82	  397.95
     33.2700	  556.00	  540.64	-1725.07	  397.70
     33.3700	  506.00	  550.28	-1784.70	  397.45
     33.4700	  569.00	  568.70	-1740.13	  397.20
     33.5700	  583.00	  602.99	-1760.42	  396.95
     33.6700	  665.00	  661.42	-1736.85	  396.70
     33.7700	  733.00	  748.10	-1755.53	  396.46
     33.8700	  849.00	  854.12	-1745.55	  396.21
     33.9700	 1061.00	  951.51	-1630.94	  395.97
     34.0700	 1075.00	  996.59	-1662.01	  395.73
     34.1700	 1008.00	  955.85	-1688.28	  395.49
     34.2700	  926.00	  849.94	-1664.36	  395.25
     34.3700	  749.00	  734.34	-1725.77	  395.01
     34.4700	  665.00	  644.33	-1719.76	  394.78
     34.5700	  579.00	  587.60	-1749.02	  394.54
     34.6700	  559.00	  556.91	-1738.34	  394.31
     34.7700	  560.00	  541.56	-1721.99	  394.08
     34.8700	  533.00	  533.62	-1741.05	  393.85
     34.9700	  546.00	  528.91	-1723.34	  393.63
     35.0700	  544.00	  525.68	-1722.10	  393.40
     35.1700	  514.00	  523.24	-1749.67	  393.17
     35.2700	  507.00	  521.33	-1754.76	  392.95
     35.3700	  543.00	  519.77	-1717.20	  392.73
     35.4700	  526.00	  518.48	-1732.91	  392.51
     35.5700	  503.00	  517.39	-1754.81	  392.29
     35.6700	  534.00	  516.45	-1722.88	  392.08
     35.7700	  497.00	  515.64	-1759.07	  391.86
     35.8700	  570.00	  514.93	-1685.36	  391.65
     35.9700	  504.00	  514.78	-1751.21	  391.43
     36.0700	  505.00	  514.22	-1749.65	  391.22
     36.1700	  491.00	  513.72	-1763.15	  391.02
     36.2700	  497.00	  513.27	-1756.69	  390.81
     36.3700	  508.00	  512.86	-1745.28	  390.60
     36.4700	  479.00	  512.49	-1773.91	  390.40
     36.5700	  530.00	  512.15	-1722.58	  390.20
     36.6700	  534.00	  511.86	-1718.29	  389.99
     36.7700	  516.00	  511.61	-1736.04	  389.80
     36.8700	  534.00	  511.42	-1717.85	  389.60
     36.9700	  516.00	  511.34	-1735.77	  389.40
     37.0700	  526.00	  511.48	-1725.90	  389.21
     37.1700	  525.00	  512.03	-1727.46	  389.01
     37.2700	  518.00	  513.34	-1735.76	  388.82
     37.3700	  524.00	  515.72	-1732.15	  388.63
     37.4700	  529.00	  519.29	-1730.72	  388.45
     37.5700	  553.00	  523.56	-1710.99	  388.26
     37.6700	  516.00	  527.38	-1751.81	  388.08
     37.7700	  502.00	  529.33	-1767.75	  387.89
     37.8700	  485.00	  528.85	-1784.27	  387.71
     37.9700	  533.00	  526.73	-1734.16	  387.53
     38.0700	  518.00	  523.68	-1746.11	  387.35
     38.1700	  517.00	  519.90	-1743.32	  387.18
     38.2700	  527.00	  516.00	-1729.42	  387.00
     38.3700	  531.00	  512.70	-1722.13	  386.83
     38.4700	  547.00	  510.32	-1703.75	  386.66
     38.5700	  519.00	  508.78	-1730.21	  386.49
     38.6700	  499.00	  507.76	-1749.18	  386.32
     38.7700	  483.00	  507.19	-1764.62	  386.16
     38.8700	  477.00	  506.81	-1770.24	  385.99
     38.9700	  538.00	  506.52	-1708.95	  385.83
     39.0700	  496.00	  506.28	-1750.70	  385.67
     39.1700	  521.00	  505.98	-1725.40	  385.51
     39.2700	  484.00	  505.78	-1762.21	  385.35
     39.3700	  511.00	  505.60	-1735.03	  385.20
     39.4700	  498.00	  505.43	-1747.86	  385.04
     39.5700	  469.00	  505.28	-1776.71	  384.89
     39.6700	  522.00	  505.26	-1723.68	  384.74
     39.7700	  538.00	  505.13	-1707.55	  384.59
     39.8700	  523.00	  505.01	-1722.43	  384.44
     39.9700	  515.00	  504.89	-1730.32	  384.30
     40.0700	  504.00	  504.79	-1741.22	  384.15
     40.1700	  512.00	  504.70	-1733.13	  384.01
     40.2700	  510.00	  504.62	-1735.04	  383.87
     40.3700	  496.00	  504.55	-1748.98	  383.73
     40.4700	  475.00	  504.49	-1769.92	  383.59
     40.5700	  521.00	  504.45	-1723.88	  383.46
     40.6700	  471.00	  504.43	-1773.86	  383.32
     40.7700	  493.00	  504.42	-1751.85	  383.19
