MSG Master    CELL:    5.91903   5.91903  23.26974   90.0000   90.0000  120.0000   SPGR: P 63/m m c             TEMP:   1066.55
  1   1280     2.52000     0.00000    -0.12942     0.00000     0.00000    0
    99     0     2
       0.00000      10.00000
     125.00000     130.00000
 2Theta	Yobs	Ycal	Yobs-Ycal	Backg	Posr	(hkl)	K
      0.7700	    0.00	  558.55	-1769.25	  441.55
      0.8700	    0.00	  559.15	-1769.25	  442.16
      0.9700	   37.00	  559.75	-1769.25	  442.75
      1.0700	   44.00	  560.33	-1769.25	  443.34
      1.1700	   39.00	  560.91	-1769.25	  443.91
      1.2700	   41.00	  561.47	-1769.25	  444.48
      1.3700	   53.00	  562.03	-1769.25	  445.03
      1.4700	   85.00	  562.57	-1769.25	  445.58
      1.5700	  322.00	  563.11	-1769.25	  446.11
      1.6700	  491.00	  563.63	-1769.25	  446.64
      1.7700	  565.00	  564.15	-1769.25	  447.15
      1.8700	  697.00	  564.65	-1769.25	  447.66
      1.9700	  734.00	  565.15	-1769.25	  448.16
      2.0700	  752.00	  565.64	-1769.25	  448.64
      2.1700	  843.00	  566.12	-1769.25	  449.12
      2.2700	  745.00	  566.59	-1769.25	  449.59
      2.3700	  718.00	  567.05	-1769.25	  450.05
      2.4700	  690.00	  567.50	-1769.25	  450.50
      2.5700	  685.00	  567.94	-1769.25	  450.95
      2.6700	  648.00	  568.37	-1769.25	  451.38
      2.7700	  655.00	  568.80	-1769.25	  451.80
      2.8700	  642.00	  569.21	-1769.25	  452.22
      2.9700	  582.00	  569.62	-1769.25	  452.63
      3.0700	  623.00	  570.02	-1769.25	  453.02
      3.1700	  592.00	  570.41	-1769.25	  453.41
      3.2700	  577.00	  570.79	-1769.25	  453.79
      3.3700	  727.00	  571.16	-1769.25	  454.17
      3.4700	  724.00	  571.52	-1769.25	  454.53
      3.5700	  818.00	  571.88	-1769.25	  454.88
      3.6700	  815.00	  572.23	-1769.25	  455.23
      3.7700	  890.00	  572.57	-1769.25	  455.57
      3.8700	  955.00	  572.90	-1769.25	  455.90
      3.9700	 1000.00	  573.22	-1769.25	  456.22
      4.0700	 1059.00	  573.53	-1769.25	  456.54
      4.1700	 1046.00	  573.84	-1769.25	  456.85
      4.2700	 1041.00	  574.14	-1769.25	  457.14
      4.3700	 1089.00	  574.43	-1769.25	  457.44
      4.4700	 1062.00	  574.71	-1769.25	  457.72
      4.5700	 1007.00	  574.99	-1769.25	  457.99
      4.6700	  989.00	  575.26	-1769.25	  458.26
      4.7700	  971.00	  575.52	-1769.25	  458.52
      4.8700	 1007.00	  575.77	-1769.25	  458.77
      4.9700	  889.00	  576.01	-1769.25	  459.02
      5.0700	  940.00	  576.25	-1769.25	  459.26
      5.1700	  912.00	  576.48	-1769.25	  459.49
      5.2700	  828.00	  576.70	-1769.25	  459.71
      5.3700	  905.00	  576.92	-1769.25	  459.92
      5.4700	  874.00	  577.13	-1769.25	  460.13
      5.5700	  824.00	  577.33	-1769.25	  460.33
      5.6700	  828.00	  577.52	-1769.25	  460.53
      5.7700	  798.00	  577.71	-1769.25	  460.71
      5.8700	  857.00	  577.89	-1769.25	  460.89
      5.9700	  768.00	  578.06	-1769.25	  461.07
      6.0700	  794.00	  578.23	-1769.25	  461.23
      6.1700	  753.00	  578.39	-1769.25	  461.39
      6.2700	  739.00	  578.54	-1769.25	  461.55
      6.3700	  795.00	  578.69	-1769.25	  461.69
      6.4700	  773.00	  578.83	-1769.25	  461.83
      6.5700	  779.00	  578.96	-1769.25	  461.96
      6.6700	  755.00	  579.09	-1769.25	  462.09
      6.7700	  716.00	  579.21	-1769.25	  462.21
      6.8700	  720.00	  579.32	-1769.25	  462.32
      6.9700	  726.00	  579.43	-1769.25	  462.43
      7.0700	  731.00	  579.53	-1769.25	  462.53
      7.1700	  669.00	  579.62	-1769.25	  462.63
      7.2700	  676.00	  579.71	-1769.25	  462.71
      7.3700	  684.00	  579.79	-1769.25	  462.80
      7.4700	  640.00	  579.87	-1769.25	  462.87
      7.5700	  668.00	  579.94	-1769.25	  462.94
      7.6700	  642.00	  580.00	-1769.25	  463.01
      7.7700	  636.00	  580.06	-1769.25	  463.07
      7.8700	  685.00	  580.11	-1769.25	  463.12
      7.9700	  632.00	  580.16	-1769.25	  463.17
      8.0700	  636.00	  580.20	-1769.25	  463.21
      8.1700	  643.00	  580.24	-1769.25	  463.24
      8.2700	  667.00	  580.27	-1769.25	  463.27
      8.3700	  648.00	  580.29	-1769.25	  463.29
      8.4700	  640.00	  580.31	-1769.25	  463.31
      8.5700	  593.00	  580.32	-1769.25	  463.33
      8.6700	  646.00	  580.33	-1769.25	  463.33
      8.7700	  631.00	  580.33	-1769.25	  463.34
      8.8700	  648.00	  580.33	-1769.25	  463.33
      8.9700	  614.00	  580.32	-1769.25	  463.32
      9.0700	  627.00	  580.31	-1769.25	  463.31
      9.1700	  619.00	  580.29	-1769.25	  463.29
      9.2700	  591.00	  580.26	-1769.25	  463.27
      9.3700	  599.00	  580.23	-1769.25	  463.24
      9.4700	  595.00	  580.20	-1769.25	  463.20
      9.5700	  657.00	  580.16	-1769.25	  463.16
      9.6700	  616.00	  580.12	-1769.25	  463.12
      9.7700	  631.00	  580.07	-1769.25	  463.07
      9.8700	  595.00	  580.01	-1769.25	  463.02
      9.9700	  643.00	  579.95	-1769.25	  462.96
     10.0700	  603.00	  580.63	-1746.88	  462.90
     10.1700	  604.00	  580.64	-1745.89	  462.83
     10.2700	  587.00	  580.66	-1762.91	  462.75
     10.3700	  576.00	  580.71	-1773.96	  462.68
     10.4700	  575.00	  580.81	-1775.06	  462.60
     10.5700	  590.00	  581.01	-1760.26	  462.51
     10.6700	  609.00	  581.42	-1741.67	  462.42
     10.7700	  585.00	  582.14	-1766.39	  462.32
     10.8700	  571.00	  583.24	-1781.49	  462.22
     10.9700	  587.00	  584.72	-1766.97	  462.12
     11.0700	  548.00	  586.53	-1807.78	  462.01
     11.1700	  600.00	  588.66	-1757.91	  461.90
     11.2700	  569.00	  591.16	-1791.41	  461.78
     11.3700	  600.00	  594.11	-1763.36	  461.66
     11.4700	  579.00	  597.62	-1787.87	  461.54
     11.5700	  650.00	  601.90	-1721.15	  461.41
     11.6700	  633.00	  607.29	-1743.54	  461.28
     11.7700	  656.00	  614.40	-1727.65	  461.14
     11.8700	  664.00	  624.19	-1729.44	  461.00
     11.9700	  691.00	  637.43	-1715.68	  460.85
     12.0700	  702.00	  652.61	-1719.86	  460.71
     12.1700	  672.00	  663.38	-1760.63	  460.55
     12.2700	  688.00	  659.68	-1740.93	  460.40
     12.3700	  703.00	  638.71	-1704.96	  460.24
     12.4700	  636.00	  613.58	-1746.83	  460.08
     12.5700	  548.00	  595.62	-1816.87	  459.91
     12.6700	  635.00	  586.17	-1720.42	  459.74
     12.7700	  558.00	  582.02	-1793.27	  459.57
     12.8700	  626.00	  580.16	-1723.41	  459.39
     12.9700	  576.00	  579.10	-1772.35	  459.21
     13.0700	  561.00	  578.36	-1786.61	  459.02
     13.1700	  551.00	  577.77	-1796.02	  458.84
     13.2700	  548.00	  577.28	-1798.53	  458.65
     13.3700	  540.00	  576.86	-1806.11	  458.45
     13.4700	  561.00	  576.48	-1784.73	  458.26
     13.5700	  541.00	  576.14	-1804.39	  458.06
     13.6700	  526.00	  575.82	-1819.07	  457.85
     13.7700	  575.00	  575.52	-1769.77	  457.65
     13.8700	  577.00	  575.23	-1767.48	  457.44
     13.9700	  579.00	  574.95	-1765.20	  457.22
     14.0700	  532.00	  574.68	-1811.93	  457.01
     14.1700	  590.00	  574.41	-1753.66	  456.79
     14.2700	  577.00	  574.15	-1766.40	  456.57
     14.3700	  547.00	  573.89	-1796.14	  456.34
     14.4700	  550.00	  573.63	-1792.88	  456.12
     14.5700	  551.00	  573.37	-1791.62	  455.89
     14.6700	  583.00	  573.11	-1759.36	  455.66
     14.7700	  622.00	  572.85	-1720.10	  455.42
     14.8700	  550.00	  572.60	-1791.85	  455.18
     14.9700	  543.00	  572.34	-1798.59	  454.94
     15.0700	  577.00	  572.08	-1764.33	  454.70
     15.1700	  571.00	  571.82	-1770.07	  454.45
     15.2700	  559.00	  571.56	-1781.81	  454.21
     15.3700	  540.00	  571.30	-1800.55	  453.95
     15.4700	  544.00	  571.03	-1796.28	  453.70
     15.5700	  545.00	  570.77	-1795.02	  453.45
     15.6700	  547.00	  570.50	-1792.75	  453.19
     15.7700	  573.00	  570.23	-1766.48	  452.93
     15.8700	  596.00	  569.96	-1743.21	  452.67
     15.9700	  563.00	  569.69	-1775.94	  452.40
     16.0700	  559.00	  569.42	-1779.67	  452.14
     16.1700	  555.00	  569.14	-1783.39	  451.87
     16.2700	  585.00	  568.87	-1753.12	  451.60
     16.3700	  598.00	  568.62	-1739.87	  451.32
     16.4700	  579.00	  568.34	-1758.59	  451.05
     16.5700	  550.00	  568.05	-1787.30	  450.77
     16.6700	  530.00	  567.77	-1807.02	  450.49
     16.7700	  564.00	  567.49	-1772.74	  450.21
     16.8700	  576.00	  567.20	-1760.45	  449.93
     16.9700	  549.00	  566.91	-1787.16	  449.64
     17.0700	  560.00	  566.62	-1775.88	  449.35
     17.1700	  588.00	  566.33	-1747.58	  449.07
     17.2700	  571.00	  566.04	-1764.29	  448.78
     17.3700	  559.00	  565.75	-1776.00	  448.48
     17.4700	  578.00	  565.45	-1756.70	  448.19
     17.5700	  594.00	  565.16	-1740.41	  447.89
     17.6700	  543.00	  564.86	-1791.11	  447.60
     17.7700	  528.00	  564.56	-1805.81	  447.30
     17.8700	  533.00	  564.26	-1800.51	  447.00
     17.9700	  578.00	  564.05	-1755.30	  446.69
     18.0700	  528.00	  563.75	-1805.00	  446.39
     18.1700	  579.00	  563.45	-1753.70	  446.09
     18.2700	  535.00	  563.14	-1797.39	  445.78
     18.3700	  533.00	  562.84	-1799.09	  445.47
     18.4700	  599.00	  562.53	-1732.78	  445.16
     18.5700	  603.00	  562.22	-1728.47	  444.85
     18.6700	  576.00	  561.91	-1755.16	  444.54
     18.7700	  586.00	  561.60	-1744.85	  444.23
     18.8700	  554.00	  561.38	-1776.63	  443.91
     18.9700	  554.00	  561.07	-1776.32	  443.60
     19.0700	  541.00	  560.76	-1789.01	  443.28
     19.1700	  579.00	  560.45	-1750.70	  442.96
     19.2700	  552.00	  560.14	-1777.39	  442.64
     19.3700	  570.00	  559.82	-1759.07	  442.32
     19.4700	  574.00	  559.51	-1754.76	  442.00
     19.5700	  590.00	  559.19	-1738.44	  441.68
     19.6700	  549.00	  558.88	-1779.13	  441.35
     19.7700	  595.00	  558.56	-1732.81	  441.03
     19.8700	  557.00	  558.24	-1770.49	  440.70
     19.9700	  536.00	  557.92	-1791.17	  440.38
     20.0700	  515.00	  557.61	-1811.86	  440.05
     20.1700	  548.00	  557.29	-1778.54	  439.72
     20.2700	  537.00	  556.97	-1789.22	  439.39
     20.3700	  560.00	  556.65	-1765.90	  439.06
     20.4700	  588.00	  556.30	-1737.55	  438.73
     20.5700	  529.00	  555.98	-1796.23	  438.40
     20.6700	  528.00	  555.66	-1796.91	  438.06
     20.7700	  536.00	  555.34	-1788.59	  437.73
     20.8700	  553.00	  555.02	-1771.27	  437.40
     20.9700	  519.00	  554.74	-1804.99	  437.06
     21.0700	  561.00	  554.42	-1762.67	  436.73
     21.1700	  556.00	  554.11	-1767.36	  436.39
     21.2700	  509.00	  553.79	-1814.04	  436.06
     21.3700	  493.00	  553.47	-1829.72	  435.72
     21.4700	  551.00	  553.16	-1771.41	  435.38
     21.5700	  546.00	  552.84	-1776.09	  435.04
     21.6700	  545.00	  552.53	-1776.78	  434.71
     21.7700	  534.00	  552.22	-1787.47	  434.37
     21.8700	  528.00	  551.91	-1793.16	  434.03
     21.9700	  507.00	  551.60	-1813.85	  433.69
     22.0700	  537.00	  551.29	-1783.54	  433.35
     22.1700	  506.00	  550.99	-1814.24	  433.01
     22.2700	  544.00	  550.69	-1775.94	  432.67
     22.3700	  566.00	  550.39	-1753.64	  432.33
     22.4700	  578.00	  550.09	-1741.34	  431.98
     22.5700	  570.00	  549.81	-1749.06	  431.64
     22.6700	  564.00	  549.52	-1754.77	  431.30
     22.7700	  555.00	  549.25	-1763.50	  430.96
     22.8700	  532.00	  548.98	-1786.23	  430.62
     22.9700	  567.00	  548.72	-1750.97	  430.27
     23.0700	  568.00	  548.47	-1749.72	  429.93
     23.1700	  533.00	  548.24	-1784.49	  429.59
     23.2700	  567.00	  548.03	-1750.28	  429.25
     23.3700	  553.00	  547.84	-1764.09	  428.90
     23.4700	  554.00	  547.68	-1762.93	  428.56
     23.5700	  540.00	  547.57	-1776.82	  428.22
     23.6700	  536.00	  547.53	-1780.78	  427.88
     23.7700	  550.00	  547.71	-1766.96	  427.53
     23.8700	  559.00	  547.98	-1758.23	  427.19
     23.9700	  566.00	  548.67	-1751.92	  426.85
     24.0700	  601.00	  550.22	-1718.47	  426.50
     24.1700	  535.00	  553.31	-1787.56	  426.16
     24.2700	  591.00	  558.81	-1737.06	  425.82
     24.3700	  580.00	  567.71	-1756.96	  425.48
     24.4700	  556.00	  581.10	-1794.35	  425.14
     24.5700	  625.00	  599.39	-1743.64	  424.79
     24.6700	  548.00	  619.78	-1841.03	  424.45
     24.7700	  594.00	  633.97	-1809.22	  424.11
     24.8700	  594.00	  630.74	-1805.99	  423.77
     24.9700	  612.00	  608.76	-1766.01	  423.43
     25.0700	  577.00	  582.34	-1774.59	  423.09
     25.1700	  583.00	  562.89	-1749.14	  422.75
     25.2700	  579.00	  552.20	-1742.45	  422.41
     25.3700	  527.00	  547.33	-1789.58	  422.07
     25.4700	  595.00	  545.16	-1719.41	  421.73
     25.5700	  584.00	  544.02	-1729.27	  421.39
     25.6700	  560.00	  543.26	-1752.51	  421.05
     25.7700	  580.00	  542.71	-1731.96	  420.72
     25.8700	  551.00	  542.28	-1760.53	  420.38
     25.9700	  568.00	  541.96	-1743.21	  420.04
     26.0700	  604.00	  541.72	-1706.97	  419.70
     26.1700	  542.00	  541.56	-1768.81	  419.37
     26.2700	  581.00	  541.47	-1729.72	  419.03
     26.3700	  585.00	  541.46	-1725.71	  418.70
     26.4700	  564.00	  541.54	-1746.79	  418.36
     26.5700	  565.00	  541.71	-1745.96	  418.03
     26.6700	  593.00	  541.99	-1718.24	  417.70
     26.7700	  549.00	  542.41	-1762.66	  417.37
     26.8700	  548.00	  543.00	-1764.25	  417.03
     26.9700	  525.00	  543.82	-1788.07	  416.70
     27.0700	  559.00	  544.94	-1755.19	  416.37
     27.1700	  550.00	  546.50	-1765.75	  416.04
     27.2700	  583.00	  548.75	-1735.00	  415.71
     27.3700	  517.00	  552.18	-1804.44	  415.39
     27.4700	  580.00	  557.79	-1747.04	  415.06
     27.5700	  528.00	  567.27	-1808.52	  414.73
     27.6700	  559.00	  583.34	-1793.59	  414.41
     27.7700	  598.00	  609.45	-1780.70	  414.08
     27.8700	  579.00	  648.47	-1838.72	  413.76
     27.9700	  700.00	  700.38	-1769.63	  413.43
     28.0700	  767.00	  759.09	-1761.34	  413.11
     28.1700	  917.00	  809.92	-1662.17	  412.79
     28.2700	  905.00	  831.23	-1695.48	  412.47
     28.3700	  917.00	  811.31	-1663.56	  412.15
     28.4700	  823.00	  772.19	-1718.44	  411.83
     28.5700	  763.00	  748.00	-1754.25	  411.51
     28.6700	  715.00	  753.74	-1807.99	  411.19
     28.7700	  746.00	  783.63	-1806.88	  410.88
     28.8700	  799.00	  816.20	-1786.45	  410.56
     28.9700	  870.00	  821.31	-1720.56	  410.25
     29.0700	  796.00	  780.56	-1753.81	  409.93
     29.1700	  733.00	  712.10	-1748.35	  409.62
     29.2700	  622.00	  647.30	-1794.55	  409.31
     29.3700	  649.00	  600.78	-1721.03	  409.00
     29.4700	  605.00	  572.79	-1737.04	  408.69
     29.5700	  558.00	  557.71	-1768.96	  408.38
     29.6700	  627.00	  549.76	-1692.01	  408.07
     29.7700	  565.00	  545.26	-1749.51	  407.77
     29.8700	  560.00	  542.44	-1751.69	  407.46
     29.9700	  568.00	  540.64	-1741.89	  407.16
     30.0700	  572.00	  539.67	-1736.92	  406.86
     30.1700	  553.00	  539.70	-1755.95	  406.55
     30.2700	  566.00	  541.26	-1744.51	  406.25
     30.3700	  574.00	  545.40	-1740.65	  405.95
     30.4700	  557.00	  553.74	-1765.99	  405.66
     30.5700	  565.00	  567.98	-1772.23	  405.36
     30.6700	  605.00	  588.58	-1752.83	  405.06
     30.7700	  591.00	  612.93	-1791.18	  404.77
     30.8700	  578.00	  634.01	-1825.26	  404.47
     30.9700	  616.00	  641.16	-1794.41	  404.18
     31.0700	  600.00	  627.32	-1796.57	  403.89
     31.1700	  515.00	  599.83	-1854.08	  403.60
     31.2700	  540.00	  572.45	-1801.70	  403.31
     31.3700	  555.00	  552.36	-1766.61	  403.03
     31.4700	  541.00	  540.22	-1768.47	  402.74
     31.5700	  525.00	  533.77	-1778.02	  402.46
     31.6700	  562.00	  530.45	-1737.70	  402.17
     31.7700	  523.00	  528.60	-1774.85	  401.89
     31.8700	  510.00	  527.42	-1786.67	  401.61
     31.9700	  555.00	  526.60	-1740.85	  401.33
     32.0700	  568.00	  526.00	-1727.25	  401.05
     32.1700	  575.00	  525.59	-1719.84	  400.78
     32.2700	  578.00	  525.33	-1716.58	  400.50
     32.3700	  553.00	  525.21	-1741.46	  400.23
     32.4700	  570.00	  525.25	-1724.50	  399.96
     32.5700	  536.00	  525.45	-1758.70	  399.69
     32.6700	  583.00	  525.84	-1712.09	  399.42
     32.7700	  509.00	  526.46	-1786.71	  399.15
     32.8700	  553.00	  527.38	-1743.63	  398.88
     32.9700	  570.00	  528.71	-1727.96	  398.62
     33.0700	  534.00	  530.65	-1765.90	  398.35
     33.1700	  540.00	  533.65	-1762.90	  398.09
     33.2700	  525.00	  538.71	-1782.96	  397.83
     33.3700	  547.00	  548.07	-1770.31	  397.57
     33.4700	  578.00	  566.03	-1757.28	  397.31
     33.5700	  587.00	  599.47	-1781.72	  397.06
     33.6700	  655.00	  656.46	-1770.71	  396.80
     33.7700	  732.00	  740.66	-1777.91	  396.55
     33.8700	  881.00	  842.92	-1731.17	  396.30
     33.9700	 1014.00	  935.61	-1690.86	  396.05
     34.0700	 1108.00	  976.24	-1637.49	  395.80
     34.1700	 1013.00	  933.77	-1690.02	  395.55
     34.2700	  894.00	  830.37	-1705.62	  395.30
     34.3700	  721.00	  719.68	-1767.93	  395.06
     34.4700	  622.00	  634.47	-1781.72	  394.82
     34.5700	  566.00	  581.31	-1784.56	  394.58
     34.6700	  538.00	  552.81	-1784.06	  394.34
     34.7700	  488.00	  538.61	-1819.86	  394.10
     34.8700	  543.00	  531.25	-1757.50	  393.86
     34.9700	  552.00	  526.86	-1744.10	  393.63
     35.0700	  515.00	  523.81	-1778.06	  393.40
     35.1700	  540.00	  521.51	-1750.76	  393.16
     35.2700	  539.00	  519.68	-1749.93	  392.94
     35.3700	  516.00	  518.22	-1771.47	  392.71
     35.4700	  530.00	  516.98	-1756.23	  392.48
     35.5700	  541.00	  515.94	-1744.19	  392.26
     35.6700	  525.00	  515.04	-1759.29	  392.03
     35.7700	  493.00	  514.26	-1790.51	  391.81
     35.8700	  548.00	  513.57	-1734.82	  391.59
     35.9700	  536.00	  513.43	-1746.68	  391.37
     36.0700	  500.00	  512.89	-1782.14	  391.16
     36.1700	  536.00	  512.40	-1745.65	  390.94
     36.2700	  501.00	  511.95	-1780.20	  390.73
     36.3700	  516.00	  511.55	-1764.80	  390.52
     36.4700	  564.00	  511.18	-1716.43	  390.31
     36.5700	  517.00	  510.85	-1763.10	  390.10
     36.6700	  495.00	  510.56	-1784.81	  389.89
     36.7700	  512.00	  510.31	-1767.56	  389.69
     36.8700	  523.00	  510.12	-1756.37	  389.48
     36.9700	  499.00	  510.04	-1780.29	  389.28
     37.0700	  515.00	  510.18	-1764.43	  389.08
     37.1700	  501.00	  510.78	-1779.03	  388.88
     37.2700	  540.00	  512.17	-1741.42	  388.69
     37.3700	  521.00	  514.72	-1762.97	  388.49
     37.4700	  520.00	  518.49	-1767.74	  388.30
     37.5700	  527.00	  522.89	-1765.14	  388.11
     37.6700	  529.00	  526.54	-1766.79	  387.92
     37.7700	  531.00	  527.84	-1766.09	  387.73
     37.8700	  568.00	  526.33	-1727.58	  387.55
     37.9700	  485.00	  523.19	-1807.44	  387.36
     38.0700	  482.00	  519.55	-1806.80	  387.18
     38.1700	  558.00	  515.87	-1727.12	  387.00
     38.2700	  514.00	  512.56	-1767.81	  386.82
     38.3700	  496.00	  509.97	-1783.22	  386.64
     38.4700	  512.00	  508.16	-1765.41	  386.47
     38.5700	  528.00	  507.00	-1748.25	  386.29
     38.6700	  522.00	  506.28	-1753.53	  386.12
     38.7700	  472.00	  505.72	-1802.97	  385.95
     38.8700	  575.00	  505.39	-1699.64	  385.78
     38.9700	  489.00	  505.13	-1785.38	  385.62
     39.0700	  502.00	  504.90	-1772.15	  385.45
     39.1700	  499.00	  504.69	-1774.94	  385.29
     39.2700	  463.00	  504.41	-1810.66	  385.13
     39.3700	  531.00	  504.24	-1742.49	  384.97
     39.4700	  512.00	  504.07	-1761.32	  384.81
     39.5700	  503.00	  503.92	-1770.17	  384.65
     39.6700	  501.00	  503.90	-1772.15	  384.50
     39.7700	  497.00	  503.77	-1776.02	  384.35
     39.8700	  518.00	  503.65	-1754.90	  384.20
     39.9700	  489.00	  503.53	-1783.78	  384.05
     40.0700	  492.00	  503.43	-1780.68	  383.90
     40.1700	  481.00	  503.33	-1791.58	  383.75
     40.2700	  460.00	  503.25	-1812.50	  383.61
     40.3700	  487.00	  503.18	-1785.43	  383.47
     40.4700	  471.00	  503.12	-1801.37	  383.33
     40.5700	  498.00	  503.08	-1774.33	  383.19
     40.6700	  455.00	  503.05	-1817.30	  383.06
     40.7700	  493.00	  503.04	-1779.29	  382.92
