MSG Master    CELL:    5.91890   5.91890  23.27000   90.0000   90.0000  120.0000   SPGR: P 63/m m c             TEMP:   1074.85
  1   1280     2.52000     0.00000    -0.13113     0.00000     0.00000    0
    99     0     2
       0.00000      10.00000
     125.00000     130.00000
 2Theta	Yobs	Ycal	Yobs-Ycal	Backg	Posr	(hkl)	K
      0.7700	    0.00	  525.26	-1742.25	  408.74
      0.8700	    0.00	  526.33	-1742.25	  409.81
      0.9700	   41.00	  527.39	-1742.25	  410.87
      1.0700	   36.00	  528.44	-1742.25	  411.92
      1.1700	   45.00	  529.47	-1742.25	  412.95
      1.2700	   39.00	  530.49	-1742.25	  413.97
      1.3700	   40.00	  531.49	-1742.25	  414.97
      1.4700	   93.00	  532.48	-1742.25	  415.96
      1.5700	  306.00	  533.46	-1742.25	  416.94
      1.6700	  438.00	  534.42	-1742.25	  417.90
      1.7700	  567.00	  535.37	-1742.25	  418.85
      1.8700	  659.00	  536.30	-1742.25	  419.78
      1.9700	  774.00	  537.22	-1742.25	  420.70
      2.0700	  784.00	  538.13	-1742.25	  421.61
      2.1700	  827.00	  539.02	-1742.25	  422.50
      2.2700	  781.00	  539.90	-1742.25	  423.39
      2.3700	  714.00	  540.77	-1742.25	  424.25
      2.4700	  680.00	  541.63	-1742.25	  425.11
      2.5700	  644.00	  542.47	-1742.25	  425.95
      2.6700	  655.00	  543.30	-1742.25	  426.78
      2.7700	  618.00	  544.11	-1742.25	  427.59
      2.8700	  647.00	  544.92	-1742.25	  428.40
      2.9700	  655.00	  545.71	-1742.25	  429.19
      3.0700	  626.00	  546.48	-1742.25	  429.97
      3.1700	  585.00	  547.25	-1742.25	  430.73
      3.2700	  616.00	  548.00	-1742.25	  431.48
      3.3700	  687.00	  548.74	-1742.25	  432.22
      3.4700	  744.00	  549.47	-1742.25	  432.95
      3.5700	  799.00	  550.19	-1742.25	  433.67
      3.6700	  848.00	  550.89	-1742.25	  434.37
      3.7700	  883.00	  551.59	-1742.25	  435.07
      3.8700	  965.00	  552.27	-1742.25	  435.75
      3.9700	  972.00	  552.94	-1742.25	  436.42
      4.0700	 1026.00	  553.59	-1742.25	  437.07
      4.1700	 1045.00	  554.24	-1742.25	  437.72
      4.2700	 1090.00	  554.87	-1742.25	  438.35
      4.3700	 1071.00	  555.50	-1742.25	  438.98
      4.4700	 1030.00	  556.11	-1742.25	  439.59
      4.5700	  985.00	  556.71	-1742.25	  440.19
      4.6700	 1020.00	  557.30	-1742.25	  440.78
      4.7700	  958.00	  557.87	-1742.25	  441.36
      4.8700	  950.00	  558.44	-1742.25	  441.92
      4.9700	  961.00	  559.00	-1742.25	  442.48
      5.0700	  946.00	  559.54	-1742.25	  443.02
      5.1700	  914.00	  560.08	-1742.25	  443.56
      5.2700	  927.00	  560.60	-1742.25	  444.08
      5.3700	  865.00	  561.11	-1742.25	  444.60
      5.4700	  907.00	  561.62	-1742.25	  445.10
      5.5700	  852.00	  562.11	-1742.25	  445.59
      5.6700	  799.00	  562.59	-1742.25	  446.07
      5.7700	  879.00	  563.06	-1742.25	  446.54
      5.8700	  820.00	  563.52	-1742.25	  447.01
      5.9700	  802.00	  563.98	-1742.25	  447.46
      6.0700	  806.00	  564.42	-1742.25	  447.90
      6.1700	  719.00	  564.85	-1742.25	  448.33
      6.2700	  783.00	  565.27	-1742.25	  448.75
      6.3700	  769.00	  565.68	-1742.25	  449.16
      6.4700	  727.00	  566.08	-1742.25	  449.57
      6.5700	  734.00	  566.48	-1742.25	  449.96
      6.6700	  715.00	  566.86	-1742.25	  450.34
      6.7700	  724.00	  567.23	-1742.25	  450.71
      6.8700	  691.00	  567.60	-1742.25	  451.08
      6.9700	  756.00	  567.95	-1742.25	  451.43
      7.0700	  687.00	  568.30	-1742.25	  451.78
      7.1700	  688.00	  568.63	-1742.25	  452.11
      7.2700	  703.00	  568.96	-1742.25	  452.44
      7.3700	  637.00	  569.28	-1742.25	  452.76
      7.4700	  701.00	  569.59	-1742.25	  453.07
      7.5700	  625.00	  569.89	-1742.25	  453.37
      7.6700	  627.00	  570.18	-1742.25	  453.66
      7.7700	  647.00	  570.46	-1742.25	  453.94
      7.8700	  649.00	  570.74	-1742.25	  454.22
      7.9700	  614.00	  571.00	-1742.25	  454.48
      8.0700	  621.00	  571.26	-1742.25	  454.74
      8.1700	  650.00	  571.51	-1742.25	  454.99
      8.2700	  602.00	  571.75	-1742.25	  455.23
      8.3700	  684.00	  571.98	-1742.25	  455.46
      8.4700	  578.00	  572.20	-1742.25	  455.69
      8.5700	  611.00	  572.42	-1742.25	  455.90
      8.6700	  650.00	  572.63	-1742.25	  456.11
      8.7700	  603.00	  572.83	-1742.25	  456.31
      8.8700	  655.00	  573.02	-1742.25	  456.50
      8.9700	  587.00	  573.20	-1742.25	  456.68
      9.0700	  652.00	  573.38	-1742.25	  456.86
      9.1700	  621.00	  573.55	-1742.25	  457.03
      9.2700	  607.00	  573.71	-1742.25	  457.19
      9.3700	  608.00	  573.86	-1742.25	  457.34
      9.4700	  604.00	  574.01	-1742.25	  457.49
      9.5700	  648.00	  574.15	-1742.25	  457.63
      9.6700	  645.00	  574.28	-1742.25	  457.76
      9.7700	  565.00	  574.40	-1742.25	  457.88
      9.8700	  632.00	  574.52	-1742.25	  458.00
      9.9700	  602.00	  574.62	-1742.25	  458.11
     10.0700	  572.00	  575.44	-1745.69	  458.21
     10.1700	  610.00	  575.61	-1707.86	  458.30
     10.2700	  594.00	  575.79	-1724.04	  458.39
     10.3700	  615.00	  575.99	-1703.24	  458.47
     10.4700	  582.00	  576.23	-1736.48	  458.55
     10.5700	  603.00	  576.57	-1715.82	  458.61
     10.6700	  581.00	  577.09	-1738.34	  458.67
     10.7700	  599.00	  577.89	-1721.14	  458.73
     10.8700	  636.00	  579.02	-1685.27	  458.78
     10.9700	  571.00	  580.48	-1751.73	  458.82
     11.0700	  573.00	  582.23	-1751.48	  458.85
     11.1700	  572.00	  584.27	-1754.52	  458.88
     11.2700	  570.00	  586.64	-1758.89	  458.90
     11.3700	  612.00	  589.40	-1719.65	  458.92
     11.4700	  597.00	  592.67	-1737.92	  458.93
     11.5700	  603.00	  596.62	-1735.87	  458.93
     11.6700	  608.00	  601.58	-1735.83	  458.93
     11.7700	  614.00	  608.06	-1736.31	  458.92
     11.8700	  609.00	  616.89	-1750.14	  458.90
     11.9700	  647.00	  628.62	-1723.87	  458.88
     12.0700	  649.00	  641.77	-1735.02	  458.86
     12.1700	  700.00	  650.84	-1693.09	  458.82
     12.2700	  696.00	  647.33	-1693.58	  458.79
     12.3700	  647.00	  629.20	-1724.45	  458.74
     12.4700	  627.00	  607.66	-1722.91	  458.69
     12.5700	  590.00	  592.18	-1744.43	  458.64
     12.6700	  596.00	  583.90	-1730.15	  458.58
     12.7700	  509.00	  580.20	-1813.45	  458.51
     12.8700	  574.00	  578.54	-1746.79	  458.44
     12.9700	  542.00	  577.64	-1777.89	  458.36
     13.0700	  529.00	  577.02	-1790.27	  458.28
     13.1700	  565.00	  576.56	-1753.81	  458.20
     13.2700	  557.00	  576.19	-1761.44	  458.10
     13.3700	  564.00	  575.87	-1754.12	  458.01
     13.4700	  576.00	  575.60	-1741.85	  457.91
     13.5700	  551.00	  575.36	-1766.61	  457.80
     13.6700	  562.00	  575.14	-1755.39	  457.69
     13.7700	  584.00	  574.93	-1733.18	  457.57
     13.8700	  549.00	  574.73	-1767.98	  457.45
     13.9700	  554.00	  574.54	-1762.79	  457.32
     14.0700	  589.00	  574.36	-1727.61	  457.19
     14.1700	  553.00	  574.18	-1763.43	  457.06
     14.2700	  559.00	  574.00	-1757.25	  456.92
     14.3700	  589.00	  573.82	-1727.07	  456.77
     14.4700	  561.00	  573.64	-1754.89	  456.63
     14.5700	  544.00	  573.46	-1771.71	  456.47
     14.6700	  566.00	  573.28	-1749.53	  456.32
     14.7700	  546.00	  573.10	-1769.35	  456.15
     14.8700	  535.00	  572.91	-1780.16	  455.99
     14.9700	  520.00	  572.72	-1794.97	  455.82
     15.0700	  582.00	  572.54	-1732.79	  455.64
     15.1700	  621.00	  572.34	-1693.59	  455.47
     15.2700	  537.00	  572.15	-1777.40	  455.28
     15.3700	  568.00	  571.95	-1746.20	  455.10
     15.4700	  596.00	  571.75	-1718.00	  454.91
     15.5700	  585.00	  571.55	-1728.80	  454.71
     15.6700	  566.00	  571.34	-1747.59	  454.51
     15.7700	  543.00	  571.13	-1770.38	  454.31
     15.8700	  575.00	  570.92	-1738.17	  454.11
     15.9700	  538.00	  570.70	-1774.95	  453.90
     16.0700	  549.00	  570.49	-1763.74	  453.69
     16.1700	  556.00	  570.29	-1756.54	  453.47
     16.2700	  546.00	  570.06	-1766.31	  453.25
     16.3700	  574.00	  569.84	-1738.09	  453.03
     16.4700	  577.00	  569.61	-1734.86	  452.80
     16.5700	  575.00	  569.37	-1736.62	  452.57
     16.6700	  556.00	  569.14	-1755.39	  452.34
     16.7700	  602.00	  568.90	-1709.15	  452.10
     16.8700	  573.00	  568.66	-1737.91	  451.86
     16.9700	  543.00	  568.41	-1767.66	  451.62
     17.0700	  542.00	  568.16	-1768.41	  451.37
     17.1700	  553.00	  567.91	-1757.16	  451.12
     17.2700	  584.00	  567.66	-1725.91	  450.87
     17.3700	  540.00	  567.40	-1769.65	  450.62
     17.4700	  520.00	  567.14	-1789.39	  450.36
     17.5700	  535.00	  566.88	-1774.13	  450.10
     17.6700	  570.00	  566.61	-1738.86	  449.84
     17.7700	  557.00	  566.35	-1751.60	  449.57
     17.8700	  558.00	  566.08	-1750.33	  449.30
     17.9700	  560.00	  565.91	-1748.16	  449.03
     18.0700	  576.00	  565.64	-1731.89	  448.75
     18.1700	  578.00	  565.36	-1729.61	  448.48
     18.2700	  570.00	  565.08	-1737.33	  448.20
     18.3700	  568.00	  564.80	-1739.05	  447.92
     18.4700	  572.00	  564.52	-1734.77	  447.63
     18.5700	  596.00	  564.24	-1710.49	  447.34
     18.6700	  579.00	  563.95	-1727.20	  447.05
     18.7700	  595.00	  563.66	-1710.91	  446.76
     18.8700	  589.00	  563.45	-1716.70	  446.47
     18.9700	  538.00	  563.16	-1767.41	  446.17
     19.0700	  601.00	  562.87	-1704.12	  445.87
     19.1700	  577.00	  562.57	-1727.82	  445.57
     19.2700	  598.00	  562.27	-1706.52	  445.27
     19.3700	  549.00	  561.98	-1755.23	  444.96
     19.4700	  527.00	  561.67	-1776.92	  444.66
     19.5700	  593.00	  561.37	-1710.62	  444.35
     19.6700	  583.00	  561.07	-1720.32	  444.04
     19.7700	  583.00	  560.76	-1720.01	  443.72
     19.8700	  593.00	  560.46	-1709.71	  443.41
     19.9700	  578.00	  560.15	-1724.40	  443.09
     20.0700	  541.00	  559.84	-1761.09	  442.77
     20.1700	  604.00	  559.53	-1697.78	  442.45
     20.2700	  545.00	  559.22	-1756.47	  442.13
     20.3700	  592.00	  558.90	-1709.15	  441.81
     20.4700	  530.00	  558.59	-1770.84	  441.48
     20.5700	  560.00	  558.28	-1740.53	  441.16
     20.6700	  548.00	  557.93	-1752.18	  440.83
     20.7700	  546.00	  557.62	-1753.87	  440.50
     20.8700	  568.00	  557.33	-1731.58	  440.17
     20.9700	  579.00	  557.02	-1720.27	  439.83
     21.0700	  540.00	  556.70	-1758.95	  439.50
     21.1700	  475.00	  556.38	-1823.63	  439.16
     21.2700	  553.00	  556.06	-1745.31	  438.82
     21.3700	  528.00	  555.75	-1770.00	  438.49
     21.4700	  546.00	  555.43	-1751.68	  438.15
     21.5700	  540.00	  555.11	-1757.36	  437.81
     21.6700	  580.00	  554.79	-1717.04	  437.46
     21.7700	  523.00	  554.48	-1773.73	  437.12
     21.8700	  521.00	  554.16	-1775.41	  436.78
     21.9700	  566.00	  553.85	-1730.10	  436.43
     22.0700	  569.00	  553.53	-1726.78	  436.08
     22.1700	  549.00	  553.22	-1746.47	  435.74
     22.2700	  554.00	  552.91	-1741.16	  435.39
     22.3700	  584.00	  552.60	-1710.85	  435.04
     22.4700	  556.00	  552.30	-1738.55	  434.69
     22.5700	  538.00	  552.00	-1756.25	  434.34
     22.6700	  550.00	  551.71	-1743.96	  433.98
     22.7700	  557.00	  551.42	-1736.67	  433.63
     22.8700	  560.00	  551.14	-1733.39	  433.28
     22.9700	  583.00	  550.87	-1710.12	  432.92
     23.0700	  520.00	  550.61	-1772.86	  432.57
     23.1700	  591.00	  550.37	-1701.62	  432.21
     23.2700	  572.00	  550.14	-1720.39	  431.85
     23.3700	  523.00	  549.94	-1769.19	  431.50
     23.4700	  533.00	  549.77	-1759.02	  431.14
     23.5700	  540.00	  549.65	-1751.90	  430.78
     23.6700	  558.00	  549.59	-1733.84	  430.42
     23.7700	  558.00	  549.77	-1734.02	  430.06
     23.8700	  558.00	  550.03	-1734.28	  429.70
     23.9700	  521.00	  550.70	-1771.95	  429.34
     24.0700	  600.00	  552.22	-1694.47	  428.98
     24.1700	  572.00	  555.20	-1725.45	  428.62
     24.2700	  590.00	  560.46	-1712.71	  428.26
     24.3700	  547.00	  568.92	-1764.17	  427.90
     24.4700	  587.00	  581.55	-1736.80	  427.54
     24.5700	  591.00	  598.54	-1749.79	  427.17
     24.6700	  648.00	  617.13	-1711.38	  426.81
     24.7700	  676.00	  629.69	-1695.94	  426.45
     24.8700	  563.00	  626.23	-1805.48	  426.09
     24.9700	  612.00	  605.90	-1736.15	  425.72
     25.0700	  583.00	  581.72	-1740.97	  425.36
     25.1700	  545.00	  563.79	-1761.04	  425.00
     25.2700	  565.00	  553.73	-1730.98	  424.63
     25.3700	  542.00	  549.00	-1749.25	  424.27
     25.4700	  567.00	  546.83	-1722.08	  423.91
     25.5700	  547.00	  545.65	-1740.90	  423.55
     25.6700	  558.00	  544.86	-1729.11	  423.18
     25.7700	  555.00	  544.28	-1731.53	  422.82
     25.8700	  589.00	  543.83	-1697.08	  422.46
     25.9700	  525.00	  543.47	-1760.72	  422.09
     26.0700	  541.00	  543.20	-1744.45	  421.73
     26.1700	  533.00	  543.01	-1752.26	  421.37
     26.2700	  520.00	  542.89	-1765.14	  421.01
     26.3700	  553.00	  542.85	-1732.10	  420.65
     26.4700	  535.00	  542.89	-1750.14	  420.28
     26.5700	  516.00	  543.02	-1769.27	  419.92
     26.6700	  562.00	  543.27	-1723.52	  419.56
     26.7700	  574.00	  543.66	-1711.91	  419.20
     26.8700	  547.00	  544.22	-1739.47	  418.84
     26.9700	  586.00	  545.01	-1701.26	  418.48
     27.0700	  544.00	  546.10	-1744.35	  418.12
     27.1700	  585.00	  547.64	-1704.89	  417.76
     27.2700	  597.00	  549.88	-1695.13	  417.41
     27.3700	  537.00	  553.34	-1758.59	  417.05
     27.4700	  560.00	  559.01	-1741.26	  416.69
     27.5700	  568.00	  568.68	-1742.93	  416.33
     27.6700	  577.00	  585.10	-1750.35	  415.98
     27.7700	  589.00	  611.78	-1765.03	  415.62
     27.8700	  595.00	  651.64	-1798.89	  415.27
     27.9700	  708.00	  704.51	-1738.76	  414.91
     28.0700	  785.00	  764.03	-1721.28	  414.56
     28.1700	  927.00	  814.94	-1630.19	  414.21
     28.2700	  928.00	  834.86	-1649.11	  413.85
     28.3700	  890.00	  811.65	-1663.90	  413.50
     28.4700	  710.00	  767.42	-1799.67	  413.15
     28.5700	  733.00	  736.30	-1745.55	  412.80
     28.6700	  686.00	  733.28	-1789.53	  412.45
     28.7700	  736.00	  753.46	-1759.71	  412.10
     28.8700	  734.00	  777.82	-1786.07	  411.75
     28.9700	  838.00	  780.13	-1684.38	  411.41
     29.0700	  769.00	  744.57	-1717.82	  411.06
     29.1700	  729.00	  686.31	-1699.56	  410.72
     29.2700	  610.00	  631.39	-1763.64	  410.37
     29.3700	  559.00	  591.89	-1775.14	  410.03
     29.4700	  620.00	  567.97	-1690.22	  409.69
     29.5700	  602.00	  554.94	-1695.19	  409.35
     29.6700	  643.00	  547.99	-1647.24	  409.01
     29.7700	  574.00	  544.00	-1712.25	  408.67
     29.8700	  586.00	  541.49	-1697.74	  408.33
     29.9700	  594.00	  539.87	-1688.12	  407.99
     30.0700	  543.00	  539.03	-1738.28	  407.66
     30.1700	  588.00	  539.13	-1693.38	  407.32
     30.2700	  567.00	  540.67	-1715.92	  406.99
     30.3700	  554.00	  544.68	-1732.93	  406.65
     30.4700	  556.00	  552.65	-1738.90	  406.32
     30.5700	  530.00	  566.16	-1778.41	  405.99
     30.6700	  580.00	  585.54	-1747.79	  405.66
     30.7700	  581.00	  608.29	-1769.54	  405.33
     30.8700	  610.00	  627.82	-1760.07	  405.01
     30.9700	  630.00	  634.23	-1746.48	  404.68
     31.0700	  598.00	  621.11	-1765.36	  404.36
     31.1700	  585.00	  595.33	-1752.58	  404.03
     31.2700	  559.00	  569.72	-1752.97	  403.71
     31.3700	  557.00	  550.88	-1736.13	  403.39
     31.4700	  586.00	  539.41	-1695.66	  403.07
     31.5700	  565.00	  533.24	-1710.49	  402.76
     31.6700	  560.00	  530.04	-1712.29	  402.44
     31.7700	  519.00	  528.24	-1751.49	  402.12
     31.8700	  533.00	  527.09	-1736.34	  401.81
     31.9700	  577.00	  526.28	-1691.53	  401.50
     32.0700	  531.00	  525.70	-1736.95	  401.19
     32.1700	  536.00	  525.30	-1731.55	  400.88
     32.2700	  524.00	  525.06	-1743.31	  400.57
     32.3700	  504.00	  524.96	-1763.21	  400.26
     32.4700	  568.00	  525.02	-1699.27	  399.96
     32.5700	  520.00	  525.25	-1747.50	  399.65
     32.6700	  518.00	  525.68	-1749.93	  399.35
     32.7700	  558.00	  526.36	-1710.61	  399.05
     32.8700	  554.00	  527.36	-1715.61	  398.75
     32.9700	  503.00	  528.79	-1768.04	  398.45
     33.0700	  562.00	  530.88	-1711.13	  398.16
     33.1700	  527.00	  534.11	-1749.36	  397.86
     33.2700	  520.00	  539.57	-1761.82	  397.57
     33.3700	  522.00	  549.59	-1769.84	  397.28
     33.4700	  592.00	  568.68	-1718.93	  396.99
     33.5700	  605.00	  603.90	-1741.15	  396.70
     33.6700	  653.00	  663.22	-1752.47	  396.41
     33.7700	  798.00	  750.05	-1694.30	  396.13
     33.8700	  849.00	  854.61	-1747.86	  395.84
     33.9700	  990.00	  948.54	-1700.79	  395.56
     34.0700	 1072.00	  988.78	-1659.03	  395.28
     34.1700	 1070.00	  944.47	-1616.72	  395.00
     34.2700	  907.00	  838.76	-1674.01	  394.73
     34.3700	  764.00	  725.87	-1704.12	  394.45
     34.4700	  675.00	  638.68	-1705.93	  394.18
     34.5700	  616.00	  583.88	-1710.13	  393.90
     34.6700	  552.00	  554.15	-1744.40	  393.64
     34.7700	  544.00	  539.16	-1737.41	  393.37
     34.8700	  515.00	  531.30	-1758.55	  393.10
     34.9700	  508.00	  526.59	-1760.84	  392.84
     35.0700	  542.00	  523.33	-1723.58	  392.57
     35.1700	  531.00	  520.86	-1732.11	  392.31
     35.2700	  517.00	  518.92	-1744.17	  392.05
     35.3700	  495.00	  517.32	-1764.57	  391.79
     35.4700	  499.00	  515.98	-1759.23	  391.54
     35.5700	  560.00	  514.85	-1697.10	  391.29
     35.6700	  549.00	  513.88	-1707.13	  391.03
     35.7700	  526.00	  513.03	-1729.28	  390.78
     35.8700	  522.00	  512.28	-1732.53	  390.53
     35.9700	  515.00	  512.10	-1739.35	  390.29
     36.0700	  518.00	  511.50	-1735.75	  390.04
     36.1700	  498.00	  510.96	-1755.21	  389.80
     36.2700	  472.00	  510.47	-1780.72	  389.56
     36.3700	  511.00	  510.02	-1741.27	  389.32
     36.4700	  516.00	  509.61	-1735.86	  389.08
     36.5700	  512.00	  509.24	-1739.49	  388.85
     36.6700	  524.00	  508.91	-1727.16	  388.61
     36.7700	  511.00	  508.62	-1739.87	  388.38
     36.8700	  519.00	  508.39	-1731.64	  388.15
     36.9700	  491.00	  508.28	-1759.53	  387.93
     37.0700	  500.00	  508.39	-1750.64	  387.70
     37.1700	  491.00	  508.94	-1760.19	  387.48
     37.2700	  510.00	  510.26	-1742.51	  387.25
     37.3700	  500.00	  512.65	-1754.90	  387.03
     37.4700	  508.00	  516.10	-1750.35	  386.82
     37.5700	  516.00	  520.00	-1746.25	  386.60
     37.6700	  525.00	  523.01	-1740.26	  386.39
     37.7700	  540.00	  523.63	-1725.88	  386.18
     37.8700	  530.00	  521.54	-1733.79	  385.97
     37.9700	  535.00	  518.06	-1725.31	  385.76
     38.0700	  471.00	  514.42	-1785.67	  385.55
     38.1700	  475.00	  511.17	-1778.42	  385.35
     38.2700	  479.00	  508.54	-1771.79	  385.15
     38.3700	  522.00	  506.62	-1726.87	  384.95
     38.4700	  525.00	  505.30	-1722.55	  384.75
     38.5700	  462.00	  504.44	-1784.69	  384.55
     38.6700	  531.00	  503.87	-1715.12	  384.36
     38.7700	  490.00	  503.37	-1755.62	  384.17
     38.8700	  493.00	  503.06	-1752.31	  383.98
     38.9700	  455.00	  502.79	-1790.04	  383.79
     39.0700	  502.00	  502.55	-1742.80	  383.60
     39.1700	  515.00	  502.34	-1729.59	  383.42
     39.2700	  482.00	  502.06	-1762.31	  383.24
     39.3700	  524.00	  501.87	-1720.12	  383.06
     39.4700	  515.00	  501.69	-1728.94	  382.88
     39.5700	  508.00	  501.65	-1735.90	  382.70
     39.6700	  529.00	  501.49	-1714.74	  382.53
     39.7700	  502.00	  501.35	-1741.60	  382.36
     39.8700	  468.00	  501.21	-1775.46	  382.19
     39.9700	  476.00	  501.08	-1767.33	  382.02
     40.0700	  514.00	  500.96	-1729.21	  381.86
     40.1700	  477.00	  500.86	-1766.11	  381.69
     40.2700	  534.00	  500.76	-1709.01	  381.53
     40.3700	  518.00	  500.67	-1724.92	  381.37
     40.4700	  461.00	  500.60	-1781.85	  381.22
     40.5700	  456.00	  500.55	-1786.80	  381.06
     40.6700	  452.00	  500.51	-1790.76	  380.91
     40.7700	  496.00	  500.49	-1746.74	  380.76
