MSG Master    CELL:    5.90902   5.90902  23.22707   90.0000   90.0000  120.0000   SPGR: P 63/m m c             TEMP:    899.95
  1   1280     2.52000     0.00000    -0.12237     0.00000     0.00000    0
    98     0     2
       0.00000      10.00000
     125.00000     130.00000
 2Theta	Yobs	Ycal	Yobs-Ycal	Backg	Posr	(hkl)	K
      0.7700	    0.00	  477.32	-1737.72	  367.34
      0.8700	    0.00	  478.80	-1737.72	  368.83
      0.9700	   40.00	  480.26	-1737.72	  370.29
      1.0700	   49.00	  481.71	-1737.72	  371.74
      1.1700	   45.00	  483.14	-1737.72	  373.17
      1.2700	   43.00	  484.56	-1737.72	  374.58
      1.3700	   54.00	  485.96	-1737.72	  375.98
      1.4700	   85.00	  487.34	-1737.72	  377.37
      1.5700	  283.00	  488.70	-1737.72	  378.73
      1.6700	  491.00	  490.05	-1737.72	  380.08
      1.7700	  575.00	  491.39	-1737.72	  381.41
      1.8700	  666.00	  492.70	-1737.72	  382.73
      1.9700	  665.00	  494.01	-1737.72	  384.03
      2.0700	  789.00	  495.29	-1737.72	  385.32
      2.1700	  812.00	  496.56	-1737.72	  386.59
      2.2700	  770.00	  497.82	-1737.72	  387.84
      2.3700	  768.00	  499.06	-1737.72	  389.08
      2.4700	  736.00	  500.28	-1737.72	  390.31
      2.5700	  714.00	  501.49	-1737.72	  391.51
      2.6700	  666.00	  502.68	-1737.72	  392.71
      2.7700	  644.00	  503.86	-1737.72	  393.89
      2.8700	  665.00	  505.02	-1737.72	  395.05
      2.9700	  647.00	  506.17	-1737.72	  396.20
      3.0700	  576.00	  507.31	-1737.72	  397.33
      3.1700	  617.00	  508.42	-1737.72	  398.45
      3.2700	  658.00	  509.53	-1737.72	  399.55
      3.3700	  782.00	  510.62	-1737.72	  400.64
      3.4700	  845.00	  511.69	-1737.72	  401.72
      3.5700	  900.00	  512.75	-1737.72	  402.78
      3.6700	  976.00	  513.80	-1737.72	  403.83
      3.7700	 1036.00	  514.83	-1737.72	  404.86
      3.8700	 1075.00	  515.85	-1737.72	  405.88
      3.9700	 1234.00	  516.86	-1737.72	  406.88
      4.0700	 1210.00	  517.85	-1737.72	  407.87
      4.1700	 1249.00	  518.82	-1737.72	  408.85
      4.2700	 1295.00	  519.79	-1737.72	  409.81
      4.3700	 1264.00	  520.74	-1737.72	  410.76
      4.4700	 1170.00	  521.67	-1737.72	  411.70
      4.5700	 1182.00	  522.60	-1737.72	  412.62
      4.6700	 1110.00	  523.51	-1737.72	  413.53
      4.7700	 1126.00	  524.40	-1737.72	  414.43
      4.8700	 1112.00	  525.29	-1737.72	  415.31
      4.9700	 1033.00	  526.16	-1737.72	  416.18
      5.0700	 1017.00	  527.01	-1737.72	  417.04
      5.1700	 1032.00	  527.86	-1737.72	  417.89
      5.2700	  928.00	  528.69	-1737.72	  418.72
      5.3700	  957.00	  529.51	-1737.72	  419.54
      5.4700	  904.00	  530.32	-1737.72	  420.34
      5.5700	  895.00	  531.11	-1737.72	  421.14
      5.6700	  899.00	  531.89	-1737.72	  421.92
      5.7700	  846.00	  532.66	-1737.72	  422.69
      5.8700	  828.00	  533.42	-1737.72	  423.44
      5.9700	  769.00	  534.16	-1737.72	  424.19
      6.0700	  838.00	  534.90	-1737.72	  424.92
      6.1700	  830.00	  535.62	-1737.72	  425.64
      6.2700	  852.00	  536.33	-1737.72	  426.35
      6.3700	  760.00	  537.02	-1737.72	  427.05
      6.4700	  732.00	  537.71	-1737.72	  427.73
      6.5700	  727.00	  538.38	-1737.72	  428.41
      6.6700	  765.00	  539.04	-1737.72	  429.07
      6.7700	  727.00	  539.70	-1737.72	  429.72
      6.8700	  714.00	  540.33	-1737.72	  430.36
      6.9700	  775.00	  540.96	-1737.72	  430.99
      7.0700	  720.00	  541.58	-1737.72	  431.61
      7.1700	  685.00	  542.19	-1737.72	  432.21
      7.2700	  696.00	  542.78	-1737.72	  432.81
      7.3700	  712.00	  543.36	-1737.72	  433.39
      7.4700	  693.00	  543.94	-1737.72	  433.96
      7.5700	  644.00	  544.50	-1737.72	  434.52
      7.6700	  692.00	  545.05	-1737.72	  435.08
      7.7700	  624.00	  545.59	-1737.72	  435.62
      7.8700	  625.00	  546.12	-1737.72	  436.15
      7.9700	  646.00	  546.64	-1737.72	  436.67
      8.0700	  606.00	  547.15	-1737.72	  437.18
      8.1700	  614.00	  547.65	-1737.72	  437.67
      8.2700	  642.00	  548.14	-1737.72	  438.16
      8.3700	  602.00	  548.62	-1737.72	  438.64
      8.4700	  613.00	  549.08	-1737.72	  439.11
      8.5700	  622.00	  549.54	-1737.72	  439.57
      8.6700	  639.00	  549.99	-1737.72	  440.02
      8.7700	  617.00	  550.43	-1737.72	  440.45
      8.8700	  609.00	  550.86	-1737.72	  440.88
      8.9700	  600.00	  551.28	-1737.72	  441.30
      9.0700	  631.00	  551.69	-1737.72	  441.71
      9.1700	  616.00	  552.09	-1737.72	  442.11
      9.2700	  612.00	  552.48	-1737.72	  442.50
      9.3700	  590.00	  552.86	-1737.72	  442.88
      9.4700	  575.00	  553.23	-1737.72	  443.26
      9.5700	  553.00	  553.59	-1737.72	  443.62
      9.6700	  580.00	  553.94	-1737.72	  443.97
      9.7700	  574.00	  554.29	-1737.72	  444.31
      9.8700	  574.00	  554.62	-1737.72	  444.65
      9.9700	  536.00	  554.95	-1737.72	  444.98
     10.0700	  627.00	  556.94	-1667.66	  445.29
     10.1700	  568.00	  557.43	-1727.15	  445.60
     10.2700	  591.00	  557.95	-1704.67	  445.90
     10.3700	  600.00	  558.52	-1696.24	  446.19
     10.4700	  551.00	  559.17	-1745.89	  446.48
     10.5700	  586.00	  559.96	-1711.68	  446.75
     10.6700	  588.00	  560.98	-1710.70	  447.01
     10.7700	  576.00	  562.32	-1724.04	  447.27
     10.8700	  592.00	  564.06	-1709.78	  447.52
     10.9700	  613.00	  566.23	-1690.95	  447.76
     11.0700	  564.00	  568.84	-1742.56	  447.99
     11.1700	  601.00	  571.88	-1708.60	  448.22
     11.2700	  593.00	  575.39	-1720.11	  448.44
     11.3700	  573.00	  579.46	-1744.17	  448.64
     11.4700	  593.00	  584.21	-1728.93	  448.84
     11.5700	  607.00	  589.86	-1720.58	  449.04
     11.6700	  563.00	  596.75	-1771.47	  449.22
     11.7700	  604.00	  605.32	-1739.04	  449.40
     11.8700	  600.00	  615.99	-1753.71	  449.57
     11.9700	  680.00	  628.59	-1686.31	  449.73
     12.0700	  698.00	  641.54	-1681.26	  449.89
     12.1700	  685.00	  650.92	-1703.64	  450.03
     12.2700	  658.00	  650.62	-1730.34	  450.17
     12.3700	  669.00	  637.03	-1705.75	  450.31
     12.4700	  613.00	  616.16	-1740.88	  450.43
     12.5700	  587.00	  597.18	-1747.90	  450.55
     12.6700	  595.00	  583.78	-1726.50	  450.66
     12.7700	  550.00	  575.62	-1763.34	  450.76
     12.8700	  565.00	  571.05	-1743.76	  450.86
     12.9700	  587.00	  568.50	-1719.22	  450.95
     13.0700	  541.00	  566.99	-1763.70	  451.04
     13.1700	  558.00	  565.99	-1745.70	  451.11
     13.2700	  525.00	  565.27	-1777.99	  451.18
     13.3700	  554.00	  564.74	-1748.46	  451.25
     13.4700	  537.00	  564.33	-1765.05	  451.30
     13.5700	  549.00	  564.01	-1752.72	  451.35
     13.6700	  527.00	  563.75	-1774.46	  451.40
     13.7700	  559.00	  563.54	-1742.25	  451.44
     13.8700	  538.00	  563.36	-1763.08	  451.47
     13.9700	  542.00	  563.21	-1758.93	  451.49
     14.0700	  580.00	  563.08	-1720.80	  451.51
     14.1700	  549.00	  563.00	-1751.72	  451.52
     14.2700	  590.00	  562.90	-1710.62	  451.53
     14.3700	  511.00	  562.80	-1789.52	  451.53
     14.4700	  578.00	  562.72	-1722.43	  451.53
     14.5700	  539.00	  562.63	-1761.35	  451.52
     14.6700	  558.00	  562.55	-1742.27	  451.50
     14.7700	  557.00	  562.47	-1743.19	  451.48
     14.8700	  566.00	  562.39	-1734.11	  451.45
     14.9700	  559.00	  562.32	-1741.03	  451.41
     15.0700	  555.00	  562.24	-1744.95	  451.37
     15.1700	  574.00	  562.15	-1725.87	  451.33
     15.2700	  506.00	  562.07	-1793.79	  451.28
     15.3700	  538.00	  561.99	-1761.70	  451.22
     15.4700	  528.00	  561.90	-1771.62	  451.16
     15.5700	  548.00	  561.81	-1751.52	  451.10
     15.6700	  575.00	  561.71	-1724.43	  451.02
     15.7700	  582.00	  561.61	-1717.33	  450.95
     15.8700	  536.00	  561.51	-1763.23	  450.86
     15.9700	  546.00	  561.41	-1753.13	  450.78
     16.0700	  547.00	  561.30	-1752.02	  450.68
     16.1700	  557.00	  561.19	-1741.91	  450.59
     16.2700	  598.00	  561.07	-1700.79	  450.49
     16.3700	  551.00	  560.96	-1747.67	  450.38
     16.4700	  583.00	  560.83	-1715.55	  450.27
     16.5700	  536.00	  560.71	-1762.42	  450.15
     16.6700	  561.00	  560.58	-1737.29	  450.03
     16.7700	  561.00	  560.44	-1737.16	  449.90
     16.8700	  496.00	  560.30	-1802.02	  449.77
     16.9700	  524.00	  560.16	-1773.88	  449.64
     17.0700	  533.00	  560.01	-1764.73	  449.50
     17.1700	  562.00	  559.86	-1735.58	  449.36
     17.2700	  520.00	  559.71	-1777.43	  449.21
     17.3700	  516.00	  559.55	-1781.27	  449.05
     17.4700	  513.00	  559.39	-1784.11	  448.90
     17.5700	  561.00	  559.23	-1735.94	  448.74
     17.6700	  576.00	  559.17	-1720.88	  448.57
     17.7700	  562.00	  559.00	-1734.71	  448.40
     17.8700	  547.00	  558.82	-1749.54	  448.23
     17.9700	  537.00	  558.64	-1759.36	  448.05
     18.0700	  545.00	  558.46	-1751.18	  447.87
     18.1700	  514.00	  558.28	-1782.00	  447.69
     18.2700	  547.00	  558.19	-1748.90	  447.50
     18.3700	  538.00	  558.00	-1757.71	  447.31
     18.4700	  544.00	  557.80	-1751.52	  447.11
     18.5700	  572.00	  557.61	-1723.32	  446.91
     18.6700	  539.00	  557.41	-1756.13	  446.71
     18.7700	  554.00	  557.20	-1740.92	  446.50
     18.8700	  522.00	  557.00	-1772.72	  446.29
     18.9700	  550.00	  556.79	-1744.51	  446.07
     19.0700	  567.00	  556.58	-1727.30	  445.86
     19.1700	  581.00	  556.36	-1713.08	  445.63
     19.2700	  554.00	  556.15	-1739.86	  445.41
     19.3700	  583.00	  555.93	-1710.64	  445.18
     19.4700	  524.00	  555.70	-1769.42	  444.95
     19.5700	  538.00	  555.48	-1755.20	  444.72
     19.6700	  553.00	  555.25	-1739.97	  444.48
     19.7700	  522.00	  555.02	-1770.74	  444.24
     19.8700	  565.00	  554.82	-1727.54	  443.99
     19.9700	  552.00	  554.58	-1740.30	  443.75
     20.0700	  544.00	  554.35	-1748.07	  443.50
     20.1700	  562.00	  554.11	-1729.83	  443.25
     20.2700	  561.00	  553.87	-1730.59	  442.99
     20.3700	  570.00	  553.62	-1721.34	  442.73
     20.4700	  516.00	  553.38	-1775.10	  442.47
     20.5700	  522.00	  553.13	-1768.85	  442.21
     20.6700	  559.00	  552.88	-1731.60	  441.94
     20.7700	  517.00	  552.63	-1773.35	  441.67
     20.8700	  535.00	  552.38	-1755.10	  441.40
     20.9700	  550.00	  552.13	-1739.85	  441.12
     21.0700	  548.00	  551.87	-1741.59	  440.85
     21.1700	  571.00	  551.62	-1718.34	  440.57
     21.2700	  555.00	  551.36	-1734.08	  440.28
     21.3700	  561.00	  551.11	-1727.82	  440.00
     21.4700	  536.00	  550.85	-1752.57	  439.71
     21.5700	  572.00	  550.59	-1716.31	  439.42
     21.6700	  541.00	  550.34	-1747.05	  439.13
     21.7700	  525.00	  550.08	-1762.80	  438.84
     21.8700	  564.00	  549.82	-1723.54	  438.54
     21.9700	  533.00	  549.57	-1754.29	  438.24
     22.0700	  554.00	  549.32	-1733.04	  437.94
     22.1700	  528.00	  549.07	-1758.79	  437.64
     22.2700	  571.00	  548.82	-1715.54	  437.34
     22.3700	  570.00	  548.58	-1716.30	  437.03
     22.4700	  558.00	  548.34	-1728.06	  436.72
     22.5700	  555.00	  548.26	-1730.98	  436.41
     22.6700	  507.00	  548.00	-1778.71	  436.10
     22.7700	  559.00	  547.78	-1726.50	  435.79
     22.8700	  547.00	  547.58	-1738.30	  435.47
     22.9700	  553.00	  547.40	-1732.11	  435.15
     23.0700	  509.00	  547.23	-1775.95	  434.83
     23.1700	  542.00	  547.08	-1742.80	  434.51
     23.2700	  554.00	  546.96	-1730.68	  434.19
     23.3700	  496.00	  546.88	-1788.60	  433.86
     23.4700	  553.00	  546.84	-1731.56	  433.54
     23.5700	  535.00	  546.87	-1749.59	  433.21
     23.6700	  540.00	  546.99	-1744.71	  432.88
     23.7700	  549.00	  547.26	-1735.98	  432.55
     23.8700	  596.00	  547.76	-1689.48	  432.22
     23.9700	  530.00	  548.65	-1756.37	  431.89
     24.0700	  538.00	  550.24	-1749.95	  431.55
     24.1700	  565.00	  552.93	-1725.65	  431.21
     24.2700	  549.00	  557.32	-1746.04	  430.88
     24.3700	  568.00	  564.00	-1733.72	  430.54
     24.4700	  587.00	  573.38	-1724.09	  430.20
     24.5700	  581.00	  585.26	-1741.98	  429.86
     24.6700	  605.00	  598.28	-1731.00	  429.52
     24.7700	  633.00	  609.11	-1713.83	  429.17
     24.8700	  641.00	  612.53	-1709.25	  428.83
     24.9700	  622.00	  604.66	-1720.38	  428.48
     25.0700	  628.00	  589.04	-1698.75	  428.14
     25.1700	  637.00	  573.17	-1673.89	  427.79
     25.2700	  568.00	  561.06	-1730.77	  427.44
     25.3700	  633.00	  553.16	-1657.88	  427.09
     25.4700	  535.00	  548.49	-1751.20	  426.74
     25.5700	  570.00	  545.80	-1713.52	  426.39
     25.6700	  539.00	  544.18	-1742.90	  426.04
     25.7700	  560.00	  543.11	-1720.83	  425.69
     25.8700	  560.00	  542.35	-1720.07	  425.33
     25.9700	  551.00	  541.78	-1728.50	  424.98
     26.0700	  547.00	  541.35	-1732.07	  424.62
     26.1700	  561.00	  541.05	-1717.76	  424.27
     26.2700	  573.00	  540.84	-1705.56	  423.91
     26.3700	  576.00	  540.75	-1702.46	  423.55
     26.4700	  560.00	  540.75	-1718.47	  423.20
     26.5700	  562.00	  540.86	-1716.58	  422.84
     26.6700	  578.00	  541.10	-1700.82	  422.48
     26.7700	  575.00	  541.49	-1704.21	  422.12
     26.8700	  578.00	  542.06	-1701.78	  421.76
     26.9700	  564.00	  542.85	-1716.57	  421.40
     27.0700	  584.00	  543.95	-1697.66	  421.04
     27.1700	  548.00	  545.45	-1735.17	  420.68
     27.2700	  584.00	  547.56	-1701.28	  420.32
     27.3700	  604.00	  550.67	-1684.39	  419.96
     27.4700	  584.00	  555.53	-1709.25	  419.60
     27.5700	  589.00	  563.49	-1712.21	  419.24
     27.6700	  572.00	  576.83	-1742.54	  418.88
     27.7700	  555.00	  598.71	-1781.43	  418.51
     27.8700	  576.00	  632.52	-1794.24	  418.15
     27.9700	  629.00	  679.91	-1788.63	  417.79
     28.0700	  715.00	  738.15	-1760.87	  417.43
     28.1700	  843.00	  797.25	-1691.96	  417.06
     28.2700	  975.00	  838.64	-1601.36	  416.70
     28.3700	  908.00	  841.73	-1671.44	  416.34
     28.4700	  837.00	  808.09	-1708.81	  415.98
     28.5700	  773.00	  769.12	-1733.84	  415.61
     28.6700	  692.00	  751.28	-1796.99	  415.25
     28.7700	  727.00	  759.78	-1770.50	  414.89
     28.8700	  795.00	  783.40	-1726.12	  414.53
     28.9700	  807.00	  800.01	-1730.73	  414.16
     29.0700	  796.00	  785.98	-1727.70	  413.80
     29.1700	  773.00	  737.68	-1702.39	  413.44
     29.2700	  705.00	  677.54	-1710.26	  413.08
     29.3700	  624.00	  626.11	-1739.83	  412.72
     29.4700	  583.00	  590.09	-1744.81	  412.36
     29.5700	  599.00	  567.97	-1706.69	  411.99
     29.6700	  574.00	  555.33	-1719.05	  411.63
     29.7700	  555.00	  548.16	-1730.88	  411.27
     29.8700	  530.00	  543.87	-1751.58	  410.91
     29.9700	  597.00	  541.15	-1681.87	  410.55
     30.0700	  579.00	  539.50	-1698.21	  410.19
     30.1700	  583.00	  538.84	-1693.55	  409.83
     30.2700	  561.00	  539.42	-1716.13	  409.48
     30.3700	  604.00	  541.83	-1675.55	  409.12
     30.4700	  586.00	  547.06	-1698.77	  408.76
     30.5700	  644.00	  556.21	-1649.92	  408.40
     30.6700	  575.00	  569.90	-1732.62	  408.05
     30.7700	  607.00	  587.26	-1717.98	  407.69
     30.8700	  607.00	  604.96	-1735.68	  407.34
     30.9700	  630.00	  616.94	-1724.66	  406.98
     31.0700	  599.00	  616.06	-1754.77	  406.63
     31.1700	  622.00	  600.92	-1716.64	  406.27
     31.2700	  541.00	  579.42	-1776.14	  405.92
     31.3700	  573.00	  559.82	-1724.54	  405.57
     31.4700	  500.00	  545.43	-1783.15	  405.22
     31.5700	  534.00	  536.25	-1739.97	  404.87
     31.6700	  568.00	  530.88	-1700.59	  404.51
     31.7700	  546.00	  527.81	-1719.53	  404.17
     31.8700	  553.00	  525.99	-1710.71	  403.82
     31.9700	  538.00	  524.81	-1724.53	  403.47
     32.0700	  514.00	  524.02	-1747.74	  403.12
     32.1700	  573.00	  523.50	-1688.22	  402.78
     32.2700	  503.00	  523.19	-1757.91	  402.43
     32.3700	  552.00	  523.08	-1708.80	  402.09
     32.4700	  549.00	  523.17	-1711.89	  401.74
     32.5700	  541.00	  523.48	-1720.20	  401.40
     32.6700	  534.00	  524.03	-1727.75	  401.06
     32.7700	  537.00	  524.87	-1725.59	  400.72
     32.8700	  559.00	  526.09	-1704.81	  400.38
     32.9700	  536.00	  527.80	-1729.52	  400.04
     33.0700	  543.00	  530.22	-1724.94	  399.70
     33.1700	  563.00	  533.77	-1708.49	  399.36
     33.2700	  538.00	  539.29	-1739.01	  399.03
     33.3700	  556.00	  548.42	-1730.14	  398.69
     33.4700	  554.00	  564.11	-1747.82	  398.36
     33.5700	  587.00	  590.89	-1741.61	  398.03
     33.6700	  646.00	  634.28	-1726.00	  397.69
     33.7700	  719.00	  698.05	-1716.76	  397.36
     33.8700	  796.00	  779.71	-1721.43	  397.03
     33.9700	  941.00	  865.96	-1662.68	  396.71
     34.0700	 1003.00	  930.91	-1665.63	  396.38
     34.1700	  956.00	  942.61	-1724.33	  396.05
     34.2700	  964.00	  888.81	-1662.53	  395.73
     34.3700	  862.00	  797.54	-1673.26	  395.40
     34.4700	  713.00	  706.70	-1731.42	  395.08
     34.5700	  638.00	  635.71	-1735.43	  394.76
     34.6700	  583.00	  587.95	-1742.67	  394.44
     34.7700	  593.00	  559.01	-1703.73	  394.12
     34.8700	  543.00	  542.39	-1737.11	  393.80
     34.9700	  522.00	  532.69	-1748.41	  393.49
     35.0700	  492.00	  526.58	-1772.30	  393.17
     35.1700	  532.00	  522.31	-1728.03	  392.86
     35.2700	  496.00	  519.08	-1760.80	  392.55
     35.3700	  529.00	  516.52	-1725.23	  392.24
     35.4700	  529.00	  514.42	-1723.14	  391.93
     35.5700	  564.00	  512.67	-1686.39	  391.62
     35.6700	  501.00	  511.19	-1747.91	  391.31
     35.7700	  519.00	  510.35	-1729.07	  391.01
     35.8700	  508.00	  509.24	-1738.96	  390.70
     35.9700	  502.00	  508.27	-1743.99	  390.40
     36.0700	  502.00	  507.42	-1743.14	  390.10
     36.1700	  499.00	  506.64	-1745.36	  389.80
     36.2700	  511.00	  505.95	-1732.66	  389.50
     36.3700	  515.00	  505.32	-1728.04	  389.21
     36.4700	  467.00	  504.75	-1775.47	  388.91
     36.5700	  502.00	  504.25	-1739.96	  388.62
     36.6700	  507.00	  503.80	-1734.52	  388.32
     36.7700	  502.00	  503.42	-1739.14	  388.03
     36.8700	  521.00	  503.12	-1719.84	  387.74
     36.9700	  491.00	  502.96	-1749.68	  387.46
     37.0700	  470.00	  503.02	-1770.74	  387.17
     37.1700	  465.00	  503.43	-1776.15	  386.89
     37.2700	  496.00	  504.40	-1746.12	  386.60
     37.3700	  516.00	  506.11	-1727.83	  386.32
     37.4700	  465.00	  508.61	-1781.33	  386.04
     37.5700	  535.00	  511.66	-1714.37	  385.76
     37.6700	  521.00	  514.53	-1731.25	  385.49
     37.7700	  512.00	  516.13	-1741.85	  385.21
     37.8700	  525.00	  515.60	-1728.32	  384.94
     37.9700	  461.00	  512.72	-1789.44	  384.67
     38.0700	  505.00	  508.90	-1741.62	  384.40
     38.1700	  506.00	  505.28	-1737.00	  384.13
     38.2700	  463.00	  502.37	-1777.09	  383.86
     38.3700	  483.00	  500.24	-1754.96	  383.60
     38.4700	  480.00	  498.79	-1756.51	  383.33
     38.5700	  510.00	  497.80	-1725.52	  383.07
     38.6700	  484.00	  497.10	-1750.82	  382.81
     38.7700	  505.00	  496.57	-1729.28	  382.55
     38.8700	  478.00	  496.12	-1755.84	  382.30
     38.9700	  483.00	  495.74	-1750.46	  382.04
     39.0700	  479.00	  495.39	-1754.11	  381.79
     39.1700	  491.00	  494.96	-1741.68	  381.54
     39.2700	  482.00	  494.67	-1750.39	  381.29
     39.3700	  469.00	  494.39	-1763.11	  381.04
     39.4700	  490.00	  494.12	-1741.84	  380.79
     39.5700	  486.00	  493.87	-1745.59	  380.55
     39.6700	  498.00	  493.63	-1733.35	  380.30
     39.7700	  500.00	  493.41	-1731.13	  380.06
     39.8700	  491.00	  493.20	-1739.91	  379.82
     39.9700	  508.00	  492.99	-1722.71	  379.59
     40.0700	  493.00	  492.72	-1737.43	  379.35
     40.1700	  484.00	  492.54	-1746.26	  379.12
     40.2700	  510.00	  492.38	-1720.10	  378.89
     40.3700	  482.00	  492.23	-1747.95	  378.66
     40.4700	  485.00	  492.10	-1744.82	  378.43
     40.5700	  479.00	  492.49	-1751.21	  378.20
     40.6700	  477.00	  492.40	-1753.12	  377.98
     40.7700	  471.00	  492.34	-1759.06	  377.75
