MSG Master    CELL:    5.91333   5.91333  23.23365   90.0000   90.0000  120.0000   SPGR: P 63/m m c             TEMP:    968.15
  1   1280     2.52000     0.00000    -0.12741     0.00000     0.00000    0
    98     0     2
       0.00000      10.00000
     125.00000     130.00000
 2Theta	Yobs	Ycal	Yobs-Ycal	Backg	Posr	(hkl)	K
      0.7700	    0.00	  509.61	-1836.75	  398.21
      0.8700	    0.00	  510.76	-1836.75	  399.36
      0.9700	   42.00	  511.90	-1836.75	  400.50
      1.0700	   39.00	  513.02	-1836.75	  401.62
      1.1700	   42.00	  514.13	-1836.75	  402.73
      1.2700	   48.00	  515.22	-1836.75	  403.82
      1.3700	   45.00	  516.30	-1836.75	  404.90
      1.4700	   91.00	  517.37	-1836.75	  405.97
      1.5700	  288.00	  518.42	-1836.75	  407.02
      1.6700	  455.00	  519.46	-1836.75	  408.06
      1.7700	  592.00	  520.48	-1836.75	  409.08
      1.8700	  663.00	  521.50	-1836.75	  410.10
      1.9700	  724.00	  522.49	-1836.75	  411.09
      2.0700	  781.00	  523.48	-1836.75	  412.08
      2.1700	  823.00	  524.45	-1836.75	  413.05
      2.2700	  753.00	  525.41	-1836.75	  414.01
      2.3700	  688.00	  526.35	-1836.75	  414.95
      2.4700	  695.00	  527.28	-1836.75	  415.88
      2.5700	  651.00	  528.20	-1836.75	  416.80
      2.6700	  627.00	  529.11	-1836.75	  417.71
      2.7700	  709.00	  530.00	-1836.75	  418.60
      2.8700	  648.00	  530.88	-1836.75	  419.48
      2.9700	  617.00	  531.75	-1836.75	  420.35
      3.0700	  577.00	  532.60	-1836.75	  421.20
      3.1700	  589.00	  533.44	-1836.75	  422.04
      3.2700	  665.00	  534.27	-1836.75	  422.87
      3.3700	  717.00	  535.09	-1836.75	  423.69
      3.4700	  742.00	  535.90	-1836.75	  424.50
      3.5700	  858.00	  536.69	-1836.75	  425.29
      3.6700	  848.00	  537.47	-1836.75	  426.07
      3.7700	  925.00	  538.24	-1836.75	  426.84
      3.8700	  944.00	  539.00	-1836.75	  427.60
      3.9700	  974.00	  539.75	-1836.75	  428.35
      4.0700	 1040.00	  540.48	-1836.75	  429.08
      4.1700	 1095.00	  541.20	-1836.75	  429.80
      4.2700	 1109.00	  541.91	-1836.75	  430.51
      4.3700	 1074.00	  542.61	-1836.75	  431.21
      4.4700	 1019.00	  543.30	-1836.75	  431.90
      4.5700	 1058.00	  543.98	-1836.75	  432.58
      4.6700	  961.00	  544.64	-1836.75	  433.24
      4.7700	  957.00	  545.30	-1836.75	  433.90
      4.8700	  927.00	  545.94	-1836.75	  434.54
      4.9700	  925.00	  546.57	-1836.75	  435.17
      5.0700	  975.00	  547.20	-1836.75	  435.80
      5.1700	  921.00	  547.81	-1836.75	  436.41
      5.2700	  816.00	  548.41	-1836.75	  437.01
      5.3700	  893.00	  549.00	-1836.75	  437.60
      5.4700	  837.00	  549.58	-1836.75	  438.18
      5.5700	  823.00	  550.14	-1836.75	  438.74
      5.6700	  855.00	  550.70	-1836.75	  439.30
      5.7700	  805.00	  551.25	-1836.75	  439.85
      5.8700	  806.00	  551.79	-1836.75	  440.39
      5.9700	  784.00	  552.31	-1836.75	  440.91
      6.0700	  824.00	  552.83	-1836.75	  441.43
      6.1700	  786.00	  553.34	-1836.75	  441.94
      6.2700	  712.00	  553.83	-1836.75	  442.43
      6.3700	  764.00	  554.32	-1836.75	  442.92
      6.4700	  724.00	  554.80	-1836.75	  443.40
      6.5700	  791.00	  555.27	-1836.75	  443.87
      6.6700	  715.00	  555.72	-1836.75	  444.32
      6.7700	  760.00	  556.17	-1836.75	  444.77
      6.8700	  726.00	  556.61	-1836.75	  445.21
      6.9700	  722.00	  557.04	-1836.75	  445.64
      7.0700	  743.00	  557.46	-1836.75	  446.06
      7.1700	  649.00	  557.87	-1836.75	  446.47
      7.2700	  712.00	  558.27	-1836.75	  446.87
      7.3700	  651.00	  558.66	-1836.75	  447.26
      7.4700	  698.00	  559.05	-1836.75	  447.65
      7.5700	  646.00	  559.42	-1836.75	  448.02
      7.6700	  663.00	  559.79	-1836.75	  448.39
      7.7700	  607.00	  560.14	-1836.75	  448.74
      7.8700	  641.00	  560.49	-1836.75	  449.09
      7.9700	  650.00	  560.83	-1836.75	  449.43
      8.0700	  643.00	  561.16	-1836.75	  449.76
      8.1700	  652.00	  561.48	-1836.75	  450.08
      8.2700	  643.00	  561.79	-1836.75	  450.39
      8.3700	  624.00	  562.10	-1836.75	  450.70
      8.4700	  626.00	  562.40	-1836.75	  451.00
      8.5700	  627.00	  562.68	-1836.75	  451.28
      8.6700	  613.00	  562.96	-1836.75	  451.56
      8.7700	  593.00	  563.23	-1836.75	  451.83
      8.8700	  610.00	  563.50	-1836.75	  452.10
      8.9700	  654.00	  563.75	-1836.75	  452.35
      9.0700	  579.00	  564.00	-1836.75	  452.60
      9.1700	  576.00	  564.24	-1836.75	  452.84
      9.2700	  584.00	  564.47	-1836.75	  453.07
      9.3700	  619.00	  564.70	-1836.75	  453.30
      9.4700	  570.00	  564.91	-1836.75	  453.51
      9.5700	  562.00	  565.12	-1836.75	  453.72
      9.6700	  566.00	  565.32	-1836.75	  453.92
      9.7700	  597.00	  565.52	-1836.75	  454.12
      9.8700	  622.00	  565.70	-1836.75	  454.30
      9.9700	  603.00	  565.88	-1836.75	  454.48
     10.0700	  612.00	  566.77	-1791.52	  454.65
     10.1700	  601.00	  567.00	-1802.75	  454.82
     10.2700	  563.00	  567.24	-1840.99	  454.97
     10.3700	  597.00	  567.50	-1807.25	  455.12
     10.4700	  573.00	  567.79	-1831.54	  455.26
     10.5700	  633.00	  568.17	-1771.92	  455.40
     10.6700	  590.00	  568.71	-1815.46	  455.53
     10.7700	  556.00	  569.54	-1850.29	  455.65
     10.8700	  588.00	  570.72	-1819.47	  455.77
     10.9700	  571.00	  572.28	-1838.03	  455.87
     11.0700	  561.00	  574.17	-1849.92	  455.98
     11.1700	  583.00	  576.38	-1830.13	  456.07
     11.2700	  613.00	  578.92	-1802.67	  456.16
     11.3700	  597.00	  581.87	-1821.62	  456.24
     11.4700	  592.00	  585.34	-1830.09	  456.32
     11.5700	  601.00	  589.50	-1825.25	  456.39
     11.6700	  565.00	  594.65	-1866.40	  456.45
     11.7700	  619.00	  601.31	-1819.06	  456.51
     11.8700	  645.00	  610.38	-1802.13	  456.56
     11.9700	  670.00	  622.81	-1789.56	  456.60
     12.0700	  729.00	  637.95	-1745.70	  456.64
     12.1700	  702.00	  650.65	-1785.40	  456.67
     12.2700	  674.00	  651.09	-1813.84	  456.70
     12.3700	  643.00	  633.45	-1827.20	  456.72
     12.4700	  635.00	  608.31	-1810.06	  456.73
     12.5700	  585.00	  588.93	-1840.68	  456.74
     12.6700	  589.00	  578.38	-1826.13	  456.75
     12.7700	  556.00	  573.81	-1854.56	  456.74
     12.8700	  572.00	  571.93	-1836.68	  456.74
     12.9700	  592.00	  571.00	-1815.75	  456.72
     13.0700	  579.00	  570.41	-1828.16	  456.70
     13.1700	  529.00	  569.99	-1877.74	  456.68
     13.2700	  544.00	  569.67	-1862.42	  456.65
     13.3700	  527.00	  569.41	-1879.16	  456.61
     13.4700	  540.00	  569.19	-1865.94	  456.57
     13.5700	  570.00	  569.00	-1835.75	  456.53
     13.6700	  577.00	  568.84	-1828.59	  456.48
     13.7700	  573.00	  568.69	-1832.44	  456.42
     13.8700	  518.00	  568.55	-1887.30	  456.36
     13.9700	  550.00	  568.42	-1855.17	  456.29
     14.0700	  570.00	  568.30	-1835.05	  456.22
     14.1700	  535.00	  568.17	-1869.93	  456.14
     14.2700	  568.00	  568.05	-1836.80	  456.06
     14.3700	  546.00	  567.93	-1858.68	  455.98
     14.4700	  541.00	  567.81	-1863.56	  455.89
     14.5700	  535.00	  567.69	-1869.44	  455.79
     14.6700	  551.00	  567.57	-1853.32	  455.69
     14.7700	  602.00	  567.44	-1802.19	  455.59
     14.8700	  548.00	  567.31	-1856.06	  455.48
     14.9700	  542.00	  567.18	-1861.93	  455.37
     15.0700	  511.00	  567.05	-1892.80	  455.25
     15.1700	  496.00	  566.92	-1907.67	  455.13
     15.2700	  565.00	  566.78	-1838.53	  455.00
     15.3700	  555.00	  566.64	-1848.39	  454.87
     15.4700	  541.00	  566.49	-1862.24	  454.74
     15.5700	  560.00	  566.34	-1843.09	  454.60
     15.6700	  553.00	  566.19	-1849.94	  454.45
     15.7700	  562.00	  566.04	-1840.79	  454.31
     15.8700	  523.00	  565.88	-1879.63	  454.16
     15.9700	  508.00	  565.72	-1894.47	  454.00
     16.0700	  568.00	  565.55	-1834.30	  453.84
     16.1700	  537.00	  565.38	-1865.13	  453.68
     16.2700	  575.00	  565.21	-1826.96	  453.51
     16.3700	  575.00	  565.04	-1826.79	  453.34
     16.4700	  554.00	  564.88	-1847.63	  453.17
     16.5700	  555.00	  564.70	-1846.45	  452.99
     16.6700	  561.00	  564.52	-1840.27	  452.81
     16.7700	  554.00	  564.33	-1847.08	  452.62
     16.8700	  582.00	  564.14	-1818.89	  452.43
     16.9700	  528.00	  563.94	-1872.69	  452.24
     17.0700	  560.00	  563.75	-1840.50	  452.05
     17.1700	  561.00	  563.55	-1839.30	  451.85
     17.2700	  550.00	  563.34	-1850.09	  451.65
     17.3700	  581.00	  563.14	-1818.89	  451.44
     17.4700	  564.00	  562.92	-1835.67	  451.23
     17.5700	  567.00	  562.71	-1832.46	  451.02
     17.6700	  542.00	  562.50	-1857.25	  450.80
     17.7700	  553.00	  562.28	-1846.03	  450.59
     17.8700	  573.00	  562.16	-1825.91	  450.36
     17.9700	  532.00	  561.94	-1866.69	  450.14
     18.0700	  558.00	  561.71	-1840.46	  449.91
     18.1700	  560.00	  561.49	-1838.24	  449.68
     18.2700	  550.00	  561.25	-1848.00	  449.45
     18.3700	  543.00	  561.02	-1854.77	  449.21
     18.4700	  516.00	  560.78	-1881.53	  448.97
     18.5700	  546.00	  560.55	-1851.30	  448.73
     18.6700	  558.00	  560.30	-1839.05	  448.49
     18.7700	  564.00	  560.06	-1832.81	  448.24
     18.8700	  567.00	  559.91	-1829.66	  447.99
     18.9700	  567.00	  559.66	-1829.41	  447.74
     19.0700	  595.00	  559.41	-1801.16	  447.48
     19.1700	  562.00	  559.16	-1833.91	  447.23
     19.2700	  588.00	  558.91	-1807.66	  446.97
     19.3700	  530.00	  558.65	-1865.40	  446.70
     19.4700	  542.00	  558.39	-1853.14	  446.44
     19.5700	  546.00	  558.13	-1848.88	  446.17
     19.6700	  570.00	  557.87	-1824.62	  445.90
     19.7700	  575.00	  557.61	-1819.36	  445.63
     19.8700	  541.00	  557.34	-1853.09	  445.36
     19.9700	  534.00	  557.08	-1859.83	  445.08
     20.0700	  580.00	  556.81	-1813.56	  444.80
     20.1700	  537.00	  556.54	-1856.29	  444.52
     20.2700	  548.00	  556.27	-1845.02	  444.24
     20.3700	  551.00	  555.97	-1841.72	  443.96
     20.4700	  556.00	  555.69	-1836.44	  443.67
     20.5700	  534.00	  555.42	-1858.17	  443.38
     20.6700	  541.00	  555.14	-1850.89	  443.09
     20.7700	  502.00	  554.86	-1889.61	  442.80
     20.8700	  524.00	  554.58	-1867.33	  442.50
     20.9700	  549.00	  554.34	-1842.09	  442.21
     21.0700	  527.00	  554.06	-1863.81	  441.91
     21.1700	  551.00	  553.78	-1839.53	  441.61
     21.2700	  535.00	  553.50	-1855.25	  441.31
     21.3700	  576.00	  553.21	-1813.96	  441.01
     21.4700	  568.00	  552.93	-1821.68	  440.70
     21.5700	  521.00	  552.65	-1868.40	  440.40
     21.6700	  519.00	  552.37	-1870.12	  440.09
     21.7700	  547.00	  552.09	-1841.84	  439.78
     21.8700	  561.00	  551.80	-1827.55	  439.47
     21.9700	  547.00	  551.52	-1841.27	  439.16
     22.0700	  531.00	  551.24	-1856.99	  438.84
     22.1700	  550.00	  550.97	-1837.72	  438.53
     22.2700	  545.00	  550.69	-1842.44	  438.21
     22.3700	  547.00	  550.41	-1840.16	  437.90
     22.4700	  582.00	  550.14	-1804.89	  437.58
     22.5700	  550.00	  549.88	-1836.63	  437.26
     22.6700	  560.00	  549.61	-1826.36	  436.94
     22.7700	  553.00	  549.35	-1833.10	  436.61
     22.8700	  494.00	  549.10	-1891.85	  436.29
     22.9700	  573.00	  548.86	-1812.61	  435.97
     23.0700	  571.00	  548.62	-1814.37	  435.64
     23.1700	  562.00	  548.40	-1823.15	  435.31
     23.2700	  532.00	  548.20	-1852.95	  434.98
     23.3700	  540.00	  548.02	-1844.77	  434.66
     23.4700	  548.00	  547.86	-1836.61	  434.33
     23.5700	  554.00	  547.75	-1830.50	  434.00
     23.6700	  545.00	  547.69	-1839.44	  433.66
     23.7700	  564.00	  547.71	-1820.46	  433.33
     23.8700	  549.00	  548.01	-1835.76	  433.00
     23.9700	  557.00	  548.51	-1828.26	  432.67
     24.0700	  576.00	  549.67	-1810.42	  432.33
     24.1700	  595.00	  552.11	-1793.86	  432.00
     24.2700	  547.00	  556.69	-1846.44	  431.66
     24.3700	  588.00	  564.38	-1813.13	  431.32
     24.4700	  605.00	  576.37	-1808.12	  430.98
     24.5700	  622.00	  593.69	-1808.44	  430.65
     24.6700	  623.00	  615.28	-1829.03	  430.31
     24.7700	  655.00	  634.85	-1816.60	  429.97
     24.8700	  629.00	  640.58	-1848.33	  429.63
     24.9700	  645.00	  624.27	-1816.02	  429.29
     25.0700	  574.00	  595.84	-1858.59	  428.95
     25.1700	  625.00	  571.26	-1783.01	  428.61
     25.2700	  587.00	  556.37	-1806.12	  428.27
     25.3700	  611.00	  549.27	-1775.02	  427.92
     25.4700	  608.00	  546.23	-1774.98	  427.58
     25.5700	  559.00	  544.78	-1822.53	  427.24
     25.6700	  529.00	  543.90	-1851.65	  426.90
     25.7700	  563.00	  543.29	-1817.04	  426.55
     25.8700	  588.00	  542.82	-1791.57	  426.21
     25.9700	  533.00	  542.47	-1846.22	  425.87
     26.0700	  566.00	  542.22	-1812.97	  425.52
     26.1700	  553.00	  542.04	-1825.79	  425.18
     26.2700	  546.00	  541.95	-1832.70	  424.84
     26.3700	  594.00	  541.93	-1784.68	  424.49
     26.4700	  542.00	  542.01	-1836.76	  424.15
     26.5700	  547.00	  542.17	-1831.92	  423.80
     26.6700	  543.00	  542.46	-1836.21	  423.46
     26.7700	  599.00	  542.88	-1780.63	  423.12
     26.8700	  523.00	  543.48	-1857.23	  422.77
     26.9700	  565.00	  544.31	-1816.06	  422.43
     27.0700	  534.00	  545.43	-1848.18	  422.08
     27.1700	  580.00	  546.98	-1803.73	  421.74
     27.2700	  605.00	  549.17	-1780.92	  421.40
     27.3700	  574.00	  552.47	-1815.22	  421.05
     27.4700	  560.00	  557.72	-1834.47	  420.71
     27.5700	  555.00	  566.50	-1848.25	  420.36
     27.6700	  592.00	  581.35	-1826.10	  420.02
     27.7700	  560.00	  605.71	-1882.46	  419.68
     27.8700	  588.00	  642.91	-1891.66	  419.34
     27.9700	  631.00	  693.97	-1899.72	  418.99
     28.0700	  762.00	  754.57	-1829.32	  418.65
     28.1700	  853.00	  812.09	-1795.84	  418.31
     28.2700	  976.00	  845.37	-1706.12	  417.97
     28.3700	  974.00	  835.97	-1698.72	  417.63
     28.4700	  867.00	  795.57	-1765.32	  417.29
     28.5700	  727.00	  760.15	-1869.90	  416.95
     28.6700	  672.00	  752.30	-1917.05	  416.61
     28.7700	  737.00	  772.43	-1872.18	  416.27
     28.8700	  792.00	  803.91	-1848.66	  415.93
     28.9700	  833.00	  818.92	-1822.67	  415.59
     29.0700	  862.00	  792.69	-1767.44	  415.25
     29.1700	  723.00	  731.06	-1844.81	  414.92
     29.2700	  660.00	  664.54	-1841.29	  414.58
     29.3700	  611.00	  612.99	-1838.74	  414.24
     29.4700	  591.00	  580.11	-1825.86	  413.91
     29.5700	  612.00	  561.70	-1786.45	  413.57
     29.6700	  619.00	  551.92	-1769.67	  413.24
     29.7700	  601.00	  546.48	-1782.23	  412.90
     29.8700	  586.00	  543.15	-1793.90	  412.57
     29.9700	  628.00	  540.98	-1749.73	  412.24
     30.0700	  576.00	  539.68	-1800.43	  411.91
     30.1700	  566.00	  539.28	-1810.03	  411.58
     30.2700	  578.00	  540.18	-1798.93	  411.25
     30.3700	  567.00	  543.24	-1812.99	  410.92
     30.4700	  594.00	  549.88	-1792.63	  410.59
     30.5700	  547.00	  561.88	-1851.63	  410.26
     30.6700	  561.00	  580.30	-1856.05	  409.94
     30.7700	  559.00	  603.83	-1881.58	  409.61
     30.8700	  574.00	  627.10	-1889.85	  409.29
     30.9700	  593.00	  640.43	-1884.18	  408.96
     31.0700	  616.00	  634.10	-1854.85	  408.64
     31.1700	  585.00	  609.84	-1861.59	  408.32
     31.2700	  584.00	  581.18	-1833.93	  408.00
     31.3700	  552.00	  558.08	-1842.83	  407.68
     31.4700	  600.00	  543.16	-1779.91	  407.36
     31.5700	  525.00	  534.86	-1846.61	  407.04
     31.6700	  580.00	  530.57	-1787.32	  406.72
     31.7700	  574.00	  528.25	-1791.00	  406.40
     31.8700	  545.00	  526.83	-1818.58	  406.09
     31.9700	  542.00	  525.85	-1820.60	  405.77
     32.0700	  533.00	  525.14	-1828.89	  405.46
     32.1700	  539.00	  524.62	-1822.37	  405.15
     32.2700	  531.00	  524.27	-1830.02	  404.84
     32.3700	  513.00	  524.07	-1847.82	  404.53
     32.4700	  554.00	  524.02	-1806.77	  404.22
     32.5700	  565.00	  524.12	-1795.87	  403.91
     32.6700	  536.00	  524.41	-1825.16	  403.61
     32.7700	  541.00	  524.92	-1820.67	  403.30
     32.8700	  507.00	  525.70	-1855.45	  403.00
     32.9700	  525.00	  526.84	-1838.59	  402.70
     33.0700	  535.00	  528.50	-1830.25	  402.39
     33.1700	  551.00	  531.01	-1816.76	  402.09
     33.2700	  528.00	  535.10	-1843.85	  401.79
     33.3700	  528.00	  542.39	-1851.14	  401.50
     33.4700	  565.00	  556.35	-1828.10	  401.20
     33.5700	  568.00	  582.93	-1851.68	  400.90
     33.6700	  633.00	  630.29	-1834.04	  400.61
     33.7700	  720.00	  705.05	-1821.80	  400.32
     33.8700	  769.00	  804.45	-1872.20	  400.03
     33.9700	 1048.00	  908.43	-1697.18	  399.74
     34.0700	 1084.00	  978.34	-1731.09	  399.45
     34.1700	 1077.00	  971.93	-1731.68	  399.16
     34.2700	 1030.00	  885.94	-1692.69	  398.88
     34.3700	  759.00	  769.54	-1847.29	  398.59
     34.4700	  718.00	  668.81	-1787.56	  398.31
     34.5700	  639.00	  600.60	-1798.35	  398.03
     34.6700	  613.00	  561.82	-1785.57	  397.75
     34.7700	  549.00	  542.11	-1829.86	  397.47
     34.8700	  548.00	  532.19	-1820.94	  397.19
     34.9700	  560.00	  526.63	-1803.38	  396.92
     35.0700	  500.00	  522.99	-1859.74	  396.64
     35.1700	  515.00	  520.31	-1842.06	  396.37
     35.2700	  514.00	  518.21	-1840.96	  396.10
     35.3700	  510.00	  516.51	-1843.26	  395.83
     35.4700	  518.00	  515.12	-1833.87	  395.56
     35.5700	  513.00	  513.93	-1837.68	  395.29
     35.6700	  509.00	  512.92	-1840.67	  395.03
     35.7700	  514.00	  512.03	-1834.78	  394.76
     35.8700	  484.00	  511.74	-1864.49	  394.50
     35.9700	  498.00	  511.05	-1849.80	  394.24
     36.0700	  536.00	  510.42	-1811.17	  393.98
     36.1700	  499.00	  509.86	-1847.61	  393.72
     36.2700	  538.00	  509.34	-1808.09	  393.47
     36.3700	  515.00	  508.87	-1830.62	  393.21
     36.4700	  517.00	  508.44	-1828.19	  392.96
     36.5700	  555.00	  508.04	-1789.79	  392.71
     36.6700	  465.00	  507.68	-1879.43	  392.46
     36.7700	  492.00	  507.36	-1852.11	  392.21
     36.8700	  481.00	  507.08	-1862.83	  391.97
     36.9700	  542.00	  506.88	-1801.63	  391.72
     37.0700	  482.00	  506.81	-1861.56	  391.48
     37.1700	  506.00	  507.04	-1837.79	  391.24
     37.2700	  486.00	  507.85	-1858.60	  391.00
     37.3700	  506.00	  509.63	-1840.38	  390.76
     37.4700	  527.00	  512.70	-1822.45	  390.52
     37.5700	  527.00	  516.91	-1826.66	  390.29
     37.6700	  501.00	  521.32	-1857.07	  390.06
     37.7700	  513.00	  524.29	-1848.04	  389.83
     37.8700	  512.00	  524.35	-1849.10	  389.60
     37.9700	  495.00	  521.75	-1863.50	  389.37
     38.0700	  438.00	  517.97	-1916.72	  389.14
     38.1700	  536.00	  513.98	-1814.73	  388.92
     38.2700	  496.00	  510.27	-1851.02	  388.70
     38.3700	  478.00	  507.25	-1866.00	  388.48
     38.4700	  508.00	  505.06	-1833.81	  388.26
     38.5700	  541.00	  503.60	-1799.35	  388.04
     38.6700	  496.00	  502.68	-1843.43	  387.82
     38.7700	  525.00	  502.08	-1813.83	  387.61
     38.8700	  478.00	  501.67	-1860.42	  387.40
     38.9700	  483.00	  501.23	-1854.98	  387.19
     39.0700	  524.00	  500.95	-1813.70	  386.98
     39.1700	  493.00	  500.69	-1844.44	  386.77
     39.2700	  491.00	  500.46	-1846.21	  386.57
     39.3700	  465.00	  500.15	-1871.90	  386.37
     39.4700	  511.00	  499.94	-1825.69	  386.17
     39.5700	  484.00	  499.74	-1852.49	  385.97
     39.6700	  491.00	  499.55	-1845.30	  385.77
     39.7700	  513.00	  499.37	-1823.12	  385.57
     39.8700	  502.00	  499.33	-1834.08	  385.38
     39.9700	  474.00	  499.17	-1861.92	  385.19
     40.0700	  471.00	  499.02	-1864.77	  385.00
     40.1700	  460.00	  498.88	-1875.63	  384.81
     40.2700	  500.00	  498.76	-1835.51	  384.62
     40.3700	  471.00	  498.64	-1864.39	  384.44
     40.4700	  490.00	  498.54	-1845.29	  384.26
     40.5700	  533.00	  498.45	-1802.20	  384.08
     40.6700	  516.00	  498.37	-1819.12	  383.90
     40.7700	  479.00	  498.32	-1856.07	  383.72
