MSG Master    CELL:    5.87727   5.87727  23.07904   90.0000   90.0000  120.0000   SPGR: P 63/m m c             TEMP:    464.75
  2   1280     2.52000     0.00000    -0.08451     0.00000     0.00000    0
    95    95     0     0     2
       0.00000      10.00000
     125.00000     130.00000
 2Theta	Yobs	Ycal	Yobs-Ycal	Backg	Posr	(hkl)	K
      0.7700	    0.00	  983.85	-2226.00	  845.53
      0.8700	    0.00	  980.49	-2226.00	  842.17
      0.9700	   42.00	  977.16	-2226.00	  838.84
      1.0700	   38.00	  973.84	-2226.00	  835.53
      1.1700	   49.00	  970.55	-2226.00	  832.23
      1.2700	   46.00	  967.28	-2226.00	  828.96
      1.3700	   45.00	  964.03	-2226.00	  825.71
      1.4700	   94.00	  960.79	-2226.00	  822.48
      1.5700	  293.00	  957.58	-2226.00	  819.27
      1.6700	  435.00	  954.39	-2226.00	  816.07
      1.7700	  575.00	  951.22	-2226.00	  812.90
      1.8700	  665.00	  948.07	-2226.00	  809.75
      1.9700	  691.00	  944.94	-2226.00	  806.62
      2.0700	  786.00	  941.83	-2226.00	  803.51
      2.1700	  781.00	  938.74	-2226.00	  800.42
      2.2700	  715.00	  935.67	-2226.00	  797.35
      2.3700	  723.00	  932.61	-2226.00	  794.30
      2.4700	  706.00	  929.58	-2226.00	  791.27
      2.5700	  704.00	  926.57	-2226.00	  788.25
      2.6700	  680.00	  923.58	-2226.00	  785.26
      2.7700	  650.00	  920.60	-2226.00	  782.29
      2.8700	  629.00	  917.65	-2226.00	  779.33
      2.9700	  614.00	  914.71	-2226.00	  776.40
      3.0700	  610.00	  911.80	-2226.00	  773.48
      3.1700	  597.00	  908.90	-2226.00	  770.58
      3.2700	  699.00	  906.02	-2226.00	  767.70
      3.3700	  946.00	  903.16	-2226.00	  764.84
      3.4700	 1073.00	  900.32	-2226.00	  762.00
      3.5700	 1261.00	  897.50	-2226.00	  759.18
      3.6700	 1288.00	  894.69	-2226.00	  756.38
      3.7700	 1394.00	  891.91	-2226.00	  753.59
      3.8700	 1503.00	  889.14	-2226.00	  750.83
      3.9700	 1560.00	  886.39	-2226.00	  748.08
      4.0700	 1584.00	  883.66	-2226.00	  745.35
      4.1700	 1697.00	  880.95	-2226.00	  742.64
      4.2700	 1691.00	  878.26	-2226.00	  739.94
      4.3700	 1608.00	  875.58	-2226.00	  737.27
      4.4700	 1594.00	  872.93	-2226.00	  734.61
      4.5700	 1575.00	  870.29	-2226.00	  731.97
      4.6700	 1447.00	  867.66	-2226.00	  729.35
      4.7700	 1502.00	  865.06	-2226.00	  726.74
      4.8700	 1384.00	  862.47	-2226.00	  724.16
      4.9700	 1300.00	  859.90	-2226.00	  721.59
      5.0700	 1402.00	  857.35	-2226.00	  719.04
      5.1700	 1330.00	  854.82	-2226.00	  716.50
      5.2700	 1270.00	  852.30	-2226.00	  713.98
      5.3700	 1249.00	  849.80	-2226.00	  711.49
      5.4700	 1231.00	  847.32	-2226.00	  709.00
      5.5700	 1228.00	  844.85	-2226.00	  706.54
      5.6700	 1126.00	  842.41	-2226.00	  704.09
      5.7700	 1127.00	  839.97	-2226.00	  701.66
      5.8700	 1071.00	  837.56	-2226.00	  699.24
      5.9700	 1162.00	  835.16	-2226.00	  696.85
      6.0700	 1086.00	  832.78	-2226.00	  694.47
      6.1700	 1082.00	  830.42	-2226.00	  692.10
      6.2700	 1011.00	  828.07	-2226.00	  689.75
      6.3700	 1033.00	  825.74	-2226.00	  687.42
      6.4700	 1000.00	  823.42	-2226.00	  685.11
      6.5700	  970.00	  821.13	-2226.00	  682.81
      6.6700	  960.00	  818.84	-2226.00	  680.53
      6.7700	  903.00	  816.58	-2226.00	  678.26
      6.8700	  949.00	  814.33	-2226.00	  676.01
      6.9700	  969.00	  812.09	-2226.00	  673.78
      7.0700	  901.00	  809.88	-2226.00	  671.56
      7.1700	  916.00	  807.67	-2226.00	  669.36
      7.2700	  888.00	  805.49	-2226.00	  667.17
      7.3700	  852.00	  803.32	-2226.00	  665.00
      7.4700	  816.00	  801.16	-2226.00	  662.85
      7.5700	  904.00	  799.02	-2226.00	  660.71
      7.6700	  838.00	  796.90	-2226.00	  658.58
      7.7700	  860.00	  794.79	-2226.00	  656.47
      7.8700	  854.00	  792.70	-2226.00	  654.38
      7.9700	  832.00	  790.62	-2226.00	  652.30
      8.0700	  818.00	  788.56	-2226.00	  650.24
      8.1700	  831.00	  786.51	-2226.00	  648.20
      8.2700	  825.00	  784.48	-2226.00	  646.16
      8.3700	  806.00	  782.46	-2226.00	  644.15
      8.4700	  841.00	  780.46	-2226.00	  642.14
      8.5700	  770.00	  778.47	-2226.00	  640.16
      8.6700	  718.00	  776.50	-2226.00	  638.19
      8.7700	  828.00	  774.54	-2226.00	  636.23
      8.8700	  790.00	  772.60	-2226.00	  634.29
      8.9700	  732.00	  770.67	-2226.00	  632.36
      9.0700	  810.00	  768.76	-2226.00	  630.44
      9.1700	  769.00	  766.86	-2226.00	  628.54
      9.2700	  818.00	  764.98	-2226.00	  626.66
      9.3700	  787.00	  763.11	-2226.00	  624.79
      9.4700	  763.00	  761.25	-2226.00	  622.93
      9.5700	  768.00	  759.41	-2226.00	  621.09
      9.6700	  734.00	  757.58	-2226.00	  619.26
      9.7700	  784.00	  755.77	-2226.00	  617.45
      9.8700	  761.00	  753.97	-2226.00	  615.65
      9.9700	  779.00	  752.18	-2226.00	  613.86
     10.0700	  709.00	  752.49	-2269.49	  612.09
     10.1700	  753.00	  750.96	-2223.96	  610.33
     10.2700	  786.00	  749.49	-2189.49	  608.59
     10.3700	  732.00	  748.09	-2242.09	  606.86
     10.4700	  731.00	  746.78	-2241.78	  605.14
     10.5700	  769.00	  745.61	-2202.61	  603.44
     10.6700	  715.00	  744.62	-2255.62	  601.75
     10.7700	  762.00	  743.91	-2207.91	  600.07
     10.8700	  733.00	  743.55	-2236.55	  598.40
     10.9700	  710.00	  743.65	-2259.66	  596.75
     11.0700	  772.00	  744.27	-2198.27	  595.12
     11.1700	  735.00	  745.42	-2236.42	  593.49
     11.2700	  784.00	  747.12	-2189.12	  591.88
     11.3700	  759.00	  749.42	-2216.42	  590.28
     11.4700	  769.00	  752.41	-2209.41	  588.70
     11.5700	  721.00	  756.21	-2261.21	  587.12
     11.6700	  754.00	  761.04	-2233.04	  585.56
     11.7700	  801.00	  767.19	-2192.19	  584.02
     11.8700	  794.00	  774.94	-2206.94	  582.48
     11.9700	  841.00	  784.40	-2169.40	  580.96
     12.0700	  829.00	  795.12	-2192.12	  579.45
     12.1700	  872.00	  805.60	-2159.60	  577.96
     12.2700	  861.00	  812.71	-2177.71	  576.47
     12.3700	  832.00	  811.78	-2205.78	  575.00
     12.4700	  798.00	  799.57	-2227.57	  573.54
     12.5700	  760.00	  779.46	-2245.46	  572.09
     12.6700	  729.00	  758.91	-2255.91	  570.66
     12.7700	  730.00	  742.18	-2238.18	  569.23
     12.8700	  706.00	  730.02	-2250.02	  567.82
     12.9700	  698.00	  721.63	-2249.63	  566.42
     13.0700	  676.00	  715.84	-2265.84	  565.03
     13.1700	  664.00	  711.66	-2273.66	  563.66
     13.2700	  662.00	  708.43	-2272.43	  562.29
     13.3700	  680.00	  705.75	-2251.75	  560.94
     13.4700	  707.00	  703.41	-2222.41	  559.60
     13.5700	  674.00	  701.31	-2253.31	  558.27
     13.6700	  707.00	  699.37	-2218.37	  556.96
     13.7700	  659.00	  697.57	-2264.57	  555.65
     13.8700	  712.00	  695.86	-2209.86	  554.35
     13.9700	  741.00	  694.23	-2179.23	  553.07
     14.0700	  716.00	  692.67	-2202.67	  551.80
     14.1700	  692.00	  691.17	-2225.17	  550.54
     14.2700	  724.00	  689.71	-2191.71	  549.29
     14.3700	  695.00	  688.29	-2219.29	  548.05
     14.4700	  717.00	  686.90	-2195.90	  546.82
     14.5700	  682.00	  685.55	-2229.55	  545.61
     14.6700	  675.00	  684.22	-2235.22	  544.40
     14.7700	  675.00	  682.92	-2233.92	  543.21
     14.8700	  673.00	  681.65	-2234.65	  542.02
     14.9700	  639.00	  680.39	-2267.39	  540.85
     15.0700	  646.00	  679.15	-2259.15	  539.69
     15.1700	  686.00	  677.93	-2217.93	  538.53
     15.2700	  689.00	  676.73	-2213.73	  537.39
     15.3700	  635.00	  675.54	-2266.54	  536.26
     15.4700	  677.00	  674.37	-2223.37	  535.14
     15.5700	  660.00	  673.22	-2239.22	  534.03
     15.6700	  675.00	  672.08	-2223.08	  532.93
     15.7700	  669.00	  670.95	-2227.95	  531.84
     15.8700	  688.00	  669.84	-2207.84	  530.76
     15.9700	  661.00	  668.73	-2233.73	  529.69
     16.0700	  626.00	  667.65	-2267.65	  528.63
     16.1700	  692.00	  666.57	-2200.57	  527.59
     16.2700	  679.00	  665.51	-2212.51	  526.55
     16.3700	  700.00	  664.46	-2190.46	  525.52
     16.4700	  672.00	  663.42	-2217.42	  524.50
     16.5700	  678.00	  662.39	-2210.39	  523.49
     16.6700	  683.00	  661.37	-2204.37	  522.49
     16.7700	  681.00	  660.36	-2205.36	  521.50
     16.8700	  651.00	  659.37	-2234.37	  520.52
     16.9700	  650.00	  658.38	-2234.38	  519.55
     17.0700	  619.00	  657.41	-2264.41	  518.59
     17.1700	  706.00	  656.44	-2176.44	  517.64
     17.2700	  679.00	  655.49	-2202.49	  516.69
     17.3700	  654.00	  654.55	-2226.55	  515.76
     17.4700	  627.00	  653.61	-2252.61	  514.84
     17.5700	  630.00	  652.69	-2248.69	  513.92
     17.6700	  650.00	  651.78	-2227.78	  513.02
     17.7700	  646.00	  650.87	-2230.87	  512.12
     17.8700	  666.00	  649.98	-2209.98	  511.24
     17.9700	  651.00	  649.10	-2224.10	  510.36
     18.0700	  660.00	  648.22	-2214.22	  509.49
     18.1700	  642.00	  647.36	-2231.36	  508.63
     18.2700	  596.00	  646.50	-2276.50	  507.78
     18.3700	  674.00	  645.65	-2197.65	  506.94
     18.4700	  627.00	  644.82	-2243.82	  506.10
     18.5700	  665.00	  643.99	-2204.99	  505.28
     18.6700	  661.00	  643.17	-2208.17	  504.46
     18.7700	  656.00	  642.36	-2212.36	  503.66
     18.8700	  661.00	  641.56	-2206.56	  502.86
     18.9700	  622.00	  644.20	-2248.20	  502.07
     19.0700	  649.00	  643.49	-2220.49	  501.28
     19.1700	  611.00	  642.79	-2257.79	  500.51
     19.2700	  657.00	  642.10	-2211.10	  499.75
     19.3700	  676.00	  641.42	-2191.42	  498.99
     19.4700	  634.00	  640.75	-2232.75	  498.24
     19.5700	  663.00	  640.10	-2203.10	  497.50
     19.6700	  637.00	  639.46	-2228.46	  496.77
     19.7700	  671.00	  638.82	-2193.82	  496.05
     19.8700	  620.00	  638.20	-2244.20	  495.33
     19.9700	  640.00	  637.59	-2223.59	  494.62
     20.0700	  640.00	  637.00	-2223.00	  493.92
     20.1700	  673.00	  636.47	-2189.47	  493.23
     20.2700	  618.00	  635.89	-2243.89	  492.55
     20.3700	  683.00	  635.33	-2178.33	  491.87
     20.4700	  628.00	  634.79	-2232.79	  491.20
     20.5700	  631.00	  634.25	-2229.25	  490.54
     20.6700	  638.00	  633.73	-2221.73	  489.89
     20.7700	  614.00	  633.22	-2245.22	  489.24
     20.8700	  642.00	  632.73	-2216.73	  488.60
     20.9700	  613.00	  632.25	-2245.25	  487.97
     21.0700	  596.00	  631.78	-2261.78	  487.35
     21.1700	  645.00	  631.33	-2212.33	  486.73
     21.2700	  653.00	  630.89	-2203.89	  486.13
     21.3700	  574.00	  630.47	-2282.47	  485.53
     21.4700	  660.00	  630.06	-2196.06	  484.93
     21.5700	  683.00	  629.67	-2172.67	  484.35
     21.6700	  651.00	  629.29	-2204.29	  483.77
     21.7700	  667.00	  628.94	-2187.94	  483.19
     21.8700	  656.00	  628.60	-2198.60	  482.63
     21.9700	  610.00	  628.28	-2244.28	  482.07
     22.0700	  640.00	  627.98	-2213.98	  481.52
     22.1700	  628.00	  627.70	-2225.70	  480.98
     22.2700	  636.00	  627.44	-2217.44	  480.44
     22.3700	  625.00	  627.41	-2228.41	  479.91
     22.4700	  626.00	  627.21	-2227.21	  479.39
     22.5700	  590.00	  627.03	-2263.03	  478.87
     22.6700	  630.00	  626.87	-2222.87	  478.36
     22.7700	  621.00	  626.75	-2231.75	  477.86
     22.8700	  588.00	  626.66	-2264.66	  477.36
     22.9700	  645.00	  626.60	-2207.60	  476.87
     23.0700	  657.00	  626.59	-2195.59	  476.38
     23.1700	  649.00	  626.62	-2203.62	  475.91
     23.2700	  646.00	  626.70	-2206.70	  475.44
     23.3700	  688.00	  626.84	-2164.84	  474.97
     23.4700	  656.00	  627.04	-2197.04	  474.51
     23.5700	  631.00	  627.32	-2222.32	  474.06
     23.6700	  649.00	  627.69	-2204.69	  473.62
     23.7700	  647.00	  628.18	-2207.18	  473.18
     23.8700	  622.00	  628.83	-2232.83	  472.75
     23.9700	  597.00	  629.70	-2258.70	  472.32
     24.0700	  627.00	  630.88	-2229.88	  471.90
     24.1700	  635.00	  632.54	-2223.54	  471.48
     24.2700	  627.00	  634.94	-2233.94	  471.07
     24.3700	  647.00	  638.43	-2217.43	  470.67
     24.4700	  653.00	  643.36	-2216.36	  470.27
     24.5700	  619.00	  650.22	-2257.22	  469.88
     24.6700	  710.00	  659.04	-2175.04	  469.50
     24.7700	  653.00	  669.40	-2242.40	  469.12
     24.8700	  728.00	  680.11	-2178.11	  468.74
     24.9700	  675.00	  688.80	-2239.80	  468.38
     25.0700	  736.00	  692.13	-2182.13	  468.01
     25.1700	  696.00	  687.87	-2217.87	  467.66
     25.2700	  710.00	  678.18	-2194.18	  467.31
     25.3700	  676.00	  667.82	-2217.82	  466.96
     25.4700	  687.00	  659.56	-2198.56	  466.62
     25.5700	  692.00	  654.21	-2188.21	  466.29
     25.6700	  604.00	  651.44	-2273.44	  465.96
     25.7700	  669.00	  650.64	-2207.64	  465.63
     25.8700	  639.00	  651.23	-2238.23	  465.31
     25.9700	  649.00	  652.80	-2229.80	  465.00
     26.0700	  606.00	  655.13	-2275.13	  464.69
     26.1700	  658.00	  658.12	-2226.12	  464.39
     26.2700	  678.00	  661.77	-2209.77	  464.09
     26.3700	  680.00	  666.13	-2212.13	  463.80
     26.4700	  717.00	  671.30	-2180.30	  463.51
     26.5700	  695.00	  677.40	-2208.40	  463.23
     26.6700	  659.00	  684.60	-2251.60	  462.95
     26.7700	  727.00	  693.14	-2192.14	  462.68
     26.8700	  671.00	  703.32	-2258.32	  462.41
     26.9700	  716.00	  715.57	-2225.57	  462.15
     27.0700	  715.00	  730.44	-2241.44	  461.89
     27.1700	  709.00	  748.73	-2265.73	  461.64
     27.2700	  727.00	  771.56	-2270.56	  461.39
     27.3700	  712.00	  800.73	-2314.73	  461.15
     27.4700	  768.00	  839.47	-2297.47	  460.91
     27.5700	  835.00	  894.47	-2285.47	  460.67
     27.6700	  867.00	  980.31	-2339.31	  460.44
     27.7700	  924.00	 1126.83	-2428.83	  460.22
     27.8700	 1157.00	 1388.28	-2457.28	  460.00
     27.9700	 1388.00	 1849.11	-2687.11	  459.78
     28.0700	 2056.00	 2613.10	-2783.10	  459.57
     28.1700	 3357.00	 3758.29	-2627.29	  459.36
     28.2700	 5265.00	 5247.48	-2208.48	  459.16
     28.3700	 7617.00	 6805.41	-1414.41	  458.96
     28.4700	 8904.00	 7856.97	-1178.97	  458.77
     28.5700	 8354.00	 7745.73	-1617.73	  458.58
     28.6700	 6596.00	 6511.32	-2141.32	  458.39
     28.7700	 4807.00	 5094.30	-2513.30	  458.21
     28.8700	 3797.00	 4235.13	-2664.13	  458.04
     28.9700	 3952.00	 4072.85	-2346.85	  457.86
     29.0700	 4640.00	 4345.03	-1931.03	  457.69
     29.1700	 5035.00	 4598.62	-1789.62	  457.53
     29.2700	 4561.00	 4395.73	-2060.73	  457.37
     29.3700	 3658.00	 3655.06	-2223.06	  457.21
     29.4700	 2720.00	 2737.33	-2243.33	  457.06
     29.5700	 1833.00	 1969.98	-2362.98	  456.91
     29.6700	 1393.00	 1452.67	-2285.67	  456.77
     29.7700	 1089.00	 1150.31	-2287.31	  456.62
     29.8700	  963.00	  986.10	-2249.10	  456.49
     29.9700	  863.00	  895.05	-2258.05	  456.35
     30.0700	  867.00	  839.14	-2198.14	  456.22
     30.1700	  764.00	  800.74	-2262.74	  456.10
     30.2700	  781.00	  772.50	-2217.50	  455.97
     30.3700	  797.00	  751.37	-2180.37	  455.86
     30.4700	  757.00	  736.07	-2205.07	  455.74
     30.5700	  720.00	  726.45	-2232.45	  455.63
     30.6700	  691.00	  723.24	-2258.24	  455.52
     30.7700	  680.00	  727.76	-2273.76	  455.42
     30.8700	  778.00	  740.87	-2188.87	  455.31
     30.9700	  751.00	  761.42	-2236.42	  455.22
     31.0700	  780.00	  784.66	-2230.66	  455.12
     31.1700	  816.00	  801.44	-2211.44	  455.03
     31.2700	  802.00	  800.10	-2224.10	  454.94
     31.3700	  775.00	  775.95	-2226.95	  454.86
     31.4700	  825.00	  739.61	-2140.61	  454.78
     31.5700	  760.00	  705.02	-2171.02	  454.70
     31.6700	  697.00	  678.62	-2207.62	  454.63
     31.7700	  685.00	  660.94	-2201.94	  454.55
     31.8700	  677.00	  649.95	-2198.95	  454.49
     31.9700	  671.00	  643.16	-2198.16	  454.42
     32.0700	  677.00	  638.73	-2187.73	  454.36
     32.1700	  688.00	  635.58	-2173.58	  454.30
     32.2700	  654.00	  633.22	-2205.22	  454.24
     32.3700	  648.00	  631.41	-2209.41	  454.19
     32.4700	  669.00	  630.05	-2187.05	  454.14
     32.5700	  576.00	  629.08	-2279.08	  454.09
     32.6700	  666.00	  628.50	-2188.50	  454.05
     32.7700	  637.00	  628.34	-2217.34	  454.01
     32.8700	  627.00	  628.56	-2227.56	  453.97
     32.9700	  670.00	  629.25	-2185.25	  453.93
     33.0700	  652.00	  630.49	-2204.49	  453.90
     33.1700	  654.00	  632.43	-2204.43	  453.87
     33.2700	  663.00	  635.31	-2198.31	  453.84
     33.3700	  674.00	  639.61	-2191.61	  453.82
     33.4700	  673.00	  646.24	-2199.24	  453.80
     33.5700	  705.00	  656.98	-2177.98	  453.78
     33.6700	  711.00	  675.02	-2190.02	  453.76
     33.7700	  729.00	  705.39	-2202.39	  453.74
     33.8700	  757.00	  754.58	-2223.58	  453.73
     33.9700	  843.00	  828.24	-2211.24	  453.72
     34.0700	  986.00	  926.40	-2166.40	  453.72
     34.1700	 1073.00	 1037.71	-2190.71	  453.71
     34.2700	 1224.00	 1135.77	-2137.77	  453.71
     34.3700	 1319.00	 1181.69	-2088.69	  453.71
     34.4700	 1298.00	 1145.78	-2073.78	  453.71
     34.5700	 1094.00	 1043.57	-2175.57	  453.72
     34.6700	  920.00	  923.17	-2229.17	  453.72
     34.7700	  865.00	  819.31	-2180.31	  453.73
     34.8700	  795.00	  743.72	-2174.72	  453.75
     34.9700	  714.00	  694.70	-2206.70	  453.76
     35.0700	  677.00	  665.24	-2214.24	  453.78
     35.1700	  690.00	  647.98	-2183.98	  453.79
     35.2700	  681.00	  637.49	-2182.49	  453.82
     35.3700	  639.00	  630.59	-2217.59	  453.84
     35.4700	  618.00	  625.66	-2233.66	  453.86
     35.5700	  641.00	  621.92	-2206.92	  453.89
     35.6700	  628.00	  619.00	-2217.00	  453.92
     35.7700	  608.00	  616.72	-2234.72	  453.95
     35.8700	  657.00	  614.84	-2183.84	  453.98
     35.9700	  606.00	  613.32	-2233.32	  454.02
     36.0700	  653.00	  612.09	-2185.09	  454.05
     36.1700	  595.00	  611.09	-2242.09	  454.09
     36.2700	  578.00	  610.30	-2258.30	  454.13
     36.3700	  625.00	  609.70	-2210.70	  454.17
     36.4700	  623.00	  609.25	-2212.25	  454.22
     36.5700	  581.00	  608.97	-2253.97	  454.26
     36.6700	  601.00	  608.83	-2233.83	  454.31
     36.7700	  663.00	  608.86	-2171.86	  454.36
     36.8700	  631.00	  609.07	-2204.07	  454.41
     36.9700	  541.00	  609.68	-2294.68	  454.46
     37.0700	  611.00	  610.88	-2225.88	  454.52
     37.1700	  619.00	  611.88	-2218.88	  454.57
     37.2700	  574.00	  613.35	-2265.35	  454.63
     37.3700	  625.00	  615.52	-2216.52	  454.69
     37.4700	  598.00	  618.83	-2246.83	  454.75
     37.5700	  657.00	  623.98	-2192.98	  454.81
     37.6700	  638.00	  632.06	-2220.06	  454.88
     37.7700	  694.00	  644.64	-2176.64	  454.94
     37.8700	  661.00	  663.43	-2228.43	  455.01
     37.9700	  732.00	  689.58	-2183.58	  455.08
     38.0700	  684.00	  720.42	-2262.42	  455.15
     38.1700	  757.00	  756.67	-2225.67	  455.22
     38.2700	  783.00	  788.74	-2231.74	  455.29
     38.3700	  817.00	  805.80	-2214.80	  455.36
     38.4700	  761.00	  798.40	-2263.40	  455.44
     38.5700	  686.00	  768.37	-2308.37	  455.52
     38.6700	  734.00	  728.75	-2220.75	  455.59
     38.7700	  662.00	  691.47	-2255.47	  455.67
     38.8700	  697.00	  662.04	-2191.04	  455.75
     38.9700	  643.00	  641.34	-2224.34	  455.83
     39.0700	  601.00	  627.97	-2252.97	  455.92
     39.1700	  621.00	  619.77	-2224.77	  456.00
     39.2700	  642.00	  614.78	-2198.78	  456.09
     39.3700	  573.00	  611.63	-2264.63	  456.17
     39.4700	  603.00	  609.49	-2232.49	  456.26
     39.5700	  622.00	  606.73	-2210.73	  456.35
     39.6700	  612.00	  605.59	-2219.59	  456.44
     39.7700	  651.00	  604.71	-2179.71	  456.53
     39.8700	  582.00	  604.02	-2248.02	  456.62
     39.9700	  634.00	  603.48	-2195.48	  456.71
     40.0700	  595.00	  603.06	-2234.06	  456.80
     40.1700	  672.00	  602.73	-2156.73	  456.90
     40.2700	  640.00	  602.49	-2188.49	  456.99
     40.3700	  621.00	  602.31	-2207.31	  457.09
     40.4700	  639.00	  602.19	-2189.19	  457.18
     40.5700	  575.00	  602.13	-2253.13	  457.28
     40.6700	  594.00	  602.11	-2234.11	  457.38
     40.7700	  645.00	  602.68	-2183.68	  457.48
