MSG Master    CELL:    5.90021   5.90021  23.17683   90.0000   90.0000  120.0000   SPGR: P 63/m m c             TEMP:    781.35
  1   1280     2.52000     0.00000    -0.12154     0.00000     0.00000    0
    97     0     2
       0.00000      10.00000
     125.00000     130.00000
 2Theta	Yobs	Ycal	Yobs-Ycal	Backg	Posr	(hkl)	K
      0.7700	    0.00	  460.03	-1763.59	  354.08
      0.8700	    0.00	  462.41	-1763.59	  356.45
      0.9700	   40.00	  464.76	-1763.59	  358.80
      1.0700	   37.00	  467.08	-1763.59	  361.12
      1.1700	   38.00	  469.38	-1763.59	  363.42
      1.2700	   38.00	  471.65	-1763.59	  365.70
      1.3700	   41.00	  473.91	-1763.59	  367.95
      1.4700	   86.00	  476.14	-1763.59	  370.18
      1.5700	  309.00	  478.34	-1763.59	  372.38
      1.6700	  459.00	  480.52	-1763.59	  374.57
      1.7700	  574.00	  482.68	-1763.59	  376.72
      1.8700	  697.00	  484.82	-1763.59	  378.86
      1.9700	  729.00	  486.93	-1763.59	  380.97
      2.0700	  763.00	  489.02	-1763.59	  383.06
      2.1700	  771.00	  491.09	-1763.59	  385.13
      2.2700	  737.00	  493.13	-1763.59	  387.17
      2.3700	  732.00	  495.15	-1763.59	  389.20
      2.4700	  706.00	  497.15	-1763.59	  391.20
      2.5700	  677.00	  499.13	-1763.59	  393.18
      2.6700	  632.00	  501.09	-1763.59	  395.13
      2.7700	  630.00	  503.02	-1763.59	  397.07
      2.8700	  689.00	  504.94	-1763.59	  398.98
      2.9700	  641.00	  506.83	-1763.59	  400.87
      3.0700	  580.00	  508.70	-1763.59	  402.74
      3.1700	  580.00	  510.54	-1763.59	  404.59
      3.2700	  688.00	  512.37	-1763.59	  406.41
      3.3700	  792.00	  514.18	-1763.59	  408.22
      3.4700	  983.00	  515.96	-1763.59	  410.00
      3.5700	 1109.00	  517.73	-1763.59	  411.77
      3.6700	 1224.00	  519.47	-1763.59	  413.51
      3.7700	 1295.00	  521.19	-1763.59	  415.23
      3.8700	 1393.00	  522.89	-1763.59	  416.94
      3.9700	 1456.00	  524.58	-1763.59	  418.62
      4.0700	 1471.00	  526.24	-1763.59	  420.28
      4.1700	 1550.00	  527.88	-1763.59	  421.92
      4.2700	 1498.00	  529.50	-1763.59	  423.55
      4.3700	 1499.00	  531.11	-1763.59	  425.15
      4.4700	 1418.00	  532.69	-1763.59	  426.73
      4.5700	 1350.00	  534.25	-1763.59	  428.29
      4.6700	 1288.00	  535.79	-1763.59	  429.84
      4.7700	 1372.00	  537.32	-1763.59	  431.36
      4.8700	 1242.00	  538.82	-1763.59	  432.87
      4.9700	 1231.00	  540.31	-1763.59	  434.35
      5.0700	 1201.00	  541.78	-1763.59	  435.82
      5.1700	 1117.00	  543.23	-1763.59	  437.27
      5.2700	 1085.00	  544.66	-1763.59	  438.70
      5.3700	 1087.00	  546.07	-1763.59	  440.11
      5.4700	 1042.00	  547.46	-1763.59	  441.50
      5.5700	  998.00	  548.83	-1763.59	  442.88
      5.6700	 1017.00	  550.19	-1763.59	  444.23
      5.7700	 1009.00	  551.53	-1763.59	  445.57
      5.8700	  967.00	  552.85	-1763.59	  446.89
      5.9700	  955.00	  554.15	-1763.59	  448.19
      6.0700	  921.00	  555.43	-1763.59	  449.48
      6.1700	  903.00	  556.70	-1763.59	  450.74
      6.2700	  861.00	  557.95	-1763.59	  451.99
      6.3700	  871.00	  559.18	-1763.59	  453.23
      6.4700	  912.00	  560.40	-1763.59	  454.44
      6.5700	  904.00	  561.60	-1763.59	  455.64
      6.6700	  905.00	  562.78	-1763.59	  456.82
      6.7700	  828.00	  563.94	-1763.59	  457.98
      6.8700	  822.00	  565.09	-1763.59	  459.13
      6.9700	  774.00	  566.22	-1763.59	  460.26
      7.0700	  774.00	  567.33	-1763.59	  461.37
      7.1700	  790.00	  568.43	-1763.59	  462.47
      7.2700	  752.00	  569.51	-1763.59	  463.55
      7.3700	  758.00	  570.57	-1763.59	  464.62
      7.4700	  742.00	  571.62	-1763.59	  465.66
      7.5700	  734.00	  572.65	-1763.59	  466.70
      7.6700	  761.00	  573.67	-1763.59	  467.71
      7.7700	  694.00	  574.67	-1763.59	  468.71
      7.8700	  696.00	  575.66	-1763.59	  469.70
      7.9700	  701.00	  576.62	-1763.59	  470.67
      8.0700	  676.00	  577.58	-1763.59	  471.62
      8.1700	  686.00	  578.52	-1763.59	  472.56
      8.2700	  711.00	  579.44	-1763.59	  473.48
      8.3700	  689.00	  580.35	-1763.59	  474.39
      8.4700	  681.00	  581.24	-1763.59	  475.28
      8.5700	  658.00	  582.12	-1763.59	  476.16
      8.6700	  710.00	  582.98	-1763.59	  477.03
      8.7700	  692.00	  583.83	-1763.59	  477.87
      8.8700	  694.00	  584.67	-1763.59	  478.71
      8.9700	  670.00	  585.49	-1763.59	  479.53
      9.0700	  654.00	  586.29	-1763.59	  480.33
      9.1700	  699.00	  587.08	-1763.59	  481.12
      9.2700	  656.00	  587.86	-1763.59	  481.90
      9.3700	  671.00	  588.62	-1763.59	  482.66
      9.4700	  631.00	  589.37	-1763.59	  483.41
      9.5700	  688.00	  590.10	-1763.59	  484.15
      9.6700	  624.00	  590.83	-1763.59	  484.87
      9.7700	  620.00	  591.53	-1763.59	  485.58
      9.8700	  657.00	  592.23	-1763.59	  486.27
      9.9700	  612.00	  592.91	-1763.59	  486.95
     10.0700	  631.00	  596.58	-1729.17	  487.62
     10.1700	  637.00	  597.44	-1724.03	  488.27
     10.2700	  624.00	  598.35	-1737.94	  488.91
     10.3700	  626.00	  599.30	-1736.89	  489.54
     10.4700	  630.00	  600.34	-1733.93	  490.15
     10.5700	  580.00	  601.51	-1785.10	  490.75
     10.6700	  621.00	  602.90	-1745.49	  491.34
     10.7700	  669.00	  604.59	-1699.18	  491.92
     10.8700	  709.00	  606.67	-1661.26	  492.48
     10.9700	  632.00	  609.19	-1740.77	  493.03
     11.0700	  615.00	  612.16	-1760.75	  493.57
     11.1700	  626.00	  615.59	-1753.18	  494.10
     11.2700	  655.00	  619.53	-1728.12	  494.61
     11.3700	  591.00	  624.02	-1796.61	  495.11
     11.4700	  632.00	  629.21	-1760.80	  495.60
     11.5700	  676.00	  635.29	-1722.88	  496.08
     11.6700	  684.00	  642.54	-1722.12	  496.55
     11.7700	  647.00	  651.31	-1767.90	  497.00
     11.8700	  695.00	  661.87	-1730.46	  497.45
     11.9700	  722.00	  674.03	-1715.62	  497.88
     12.0700	  755.00	  686.55	-1695.14	  498.30
     12.1700	  740.00	  696.46	-1720.05	  498.71
     12.2700	  758.00	  698.89	-1704.48	  499.10
     12.3700	  699.00	  689.69	-1754.28	  499.49
     12.4700	  698.00	  671.67	-1737.26	  499.87
     12.5700	  659.00	  652.89	-1757.48	  500.23
     12.6700	  636.00	  638.21	-1765.80	  500.58
     12.7700	  582.00	  628.36	-1809.95	  500.93
     12.8700	  647.00	  622.37	-1738.96	  501.26
     12.9700	  526.00	  618.90	-1856.49	  501.58
     13.0700	  615.00	  616.89	-1765.48	  501.89
     13.1700	  585.00	  615.66	-1794.25	  502.19
     13.2700	  623.00	  614.87	-1755.46	  502.48
     13.3700	  619.00	  614.38	-1758.97	  502.76
     13.4700	  596.00	  614.02	-1781.61	  503.03
     13.5700	  624.00	  613.78	-1753.37	  503.29
     13.6700	  622.00	  613.62	-1755.21	  503.54
     13.7700	  652.00	  613.53	-1725.12	  503.78
     13.8700	  609.00	  613.49	-1768.08	  504.01
     13.9700	  596.00	  613.48	-1781.07	  504.23
     14.0700	  588.00	  613.49	-1789.08	  504.44
     14.1700	  598.00	  613.53	-1779.12	  504.64
     14.2700	  570.00	  613.57	-1807.16	  504.83
     14.3700	  643.00	  613.63	-1734.22	  505.02
     14.4700	  552.00	  613.70	-1825.29	  505.19
     14.5700	  567.00	  613.77	-1810.36	  505.35
     14.6700	  585.00	  613.84	-1792.43	  505.51
     14.7700	  594.00	  613.91	-1783.50	  505.65
     14.8700	  629.00	  613.98	-1748.57	  505.79
     14.9700	  574.00	  614.05	-1803.64	  505.92
     15.0700	  599.00	  614.12	-1778.71	  506.03
     15.1700	  548.00	  614.18	-1829.77	  506.14
     15.2700	  560.00	  614.24	-1817.83	  506.25
     15.3700	  599.00	  614.29	-1778.88	  506.34
     15.4700	  557.00	  614.34	-1820.93	  506.42
     15.5700	  605.00	  614.39	-1772.98	  506.50
     15.6700	  615.00	  614.43	-1763.02	  506.57
     15.7700	  615.00	  614.46	-1763.05	  506.63
     15.8700	  629.00	  614.49	-1749.08	  506.68
     15.9700	  583.00	  614.51	-1795.10	  506.72
     16.0700	  596.00	  614.53	-1782.12	  506.75
     16.1700	  618.00	  614.54	-1760.13	  506.78
     16.2700	  602.00	  614.54	-1776.13	  506.80
     16.3700	  568.00	  614.54	-1810.13	  506.81
     16.4700	  595.00	  614.53	-1783.12	  506.82
     16.5700	  630.00	  614.51	-1748.10	  506.81
     16.6700	  576.00	  614.49	-1802.08	  506.80
     16.7700	  603.00	  614.46	-1775.05	  506.78
     16.8700	  588.00	  614.42	-1790.01	  506.76
     16.9700	  578.00	  614.38	-1799.97	  506.72
     17.0700	  596.00	  614.33	-1781.92	  506.68
     17.1700	  613.00	  614.28	-1764.87	  506.63
     17.2700	  574.00	  614.22	-1803.81	  506.58
     17.3700	  625.00	  614.26	-1752.85	  506.52
     17.4700	  593.00	  614.19	-1784.78	  506.45
     17.5700	  604.00	  614.11	-1773.70	  506.37
     17.6700	  585.00	  614.03	-1792.62	  506.29
     17.7700	  599.00	  614.07	-1778.66	  506.20
     17.8700	  592.00	  613.97	-1785.56	  506.10
     17.9700	  617.00	  613.87	-1760.46	  506.00
     18.0700	  609.00	  613.77	-1768.35	  505.89
     18.1700	  577.00	  613.65	-1800.24	  505.77
     18.2700	  655.00	  613.54	-1722.12	  505.65
     18.3700	  549.00	  613.41	-1828.00	  505.52
     18.4700	  617.00	  613.28	-1759.87	  505.39
     18.5700	  579.00	  613.15	-1797.74	  505.25
     18.6700	  593.00	  613.01	-1783.60	  505.10
     18.7700	  624.00	  612.86	-1752.45	  504.95
     18.8700	  561.00	  612.71	-1815.30	  504.79
     18.9700	  642.00	  612.55	-1734.14	  504.63
     19.0700	  655.00	  612.39	-1720.98	  504.45
     19.1700	  580.00	  612.23	-1795.81	  504.28
     19.2700	  556.00	  612.05	-1819.64	  504.10
     19.3700	  567.00	  611.92	-1808.51	  503.91
     19.4700	  597.00	  611.74	-1778.33	  503.72
     19.5700	  561.00	  611.55	-1814.14	  503.52
     19.6700	  606.00	  611.36	-1768.95	  503.31
     19.7700	  553.00	  611.17	-1821.76	  503.10
     19.8700	  596.00	  610.97	-1778.56	  502.89
     19.9700	  573.00	  610.76	-1801.35	  502.67
     20.0700	  590.00	  610.56	-1784.15	  502.44
     20.1700	  574.00	  610.34	-1799.93	  502.21
     20.2700	  598.00	  610.13	-1775.72	  501.98
     20.3700	  585.00	  609.91	-1788.50	  501.74
     20.4700	  589.00	  609.68	-1784.27	  501.49
     20.5700	  643.00	  609.46	-1730.05	  501.24
     20.6700	  621.00	  609.23	-1751.82	  500.99
     20.7700	  578.00	  608.99	-1794.58	  500.73
     20.8700	  588.00	  608.75	-1784.34	  500.46
     20.9700	  562.00	  608.51	-1810.10	  500.19
     21.0700	  578.00	  608.27	-1793.86	  499.92
     21.1700	  564.00	  608.03	-1807.62	  499.64
     21.2700	  585.00	  607.78	-1786.37	  499.36
     21.3700	  606.00	  607.53	-1765.12	  499.07
     21.4700	  593.00	  607.28	-1777.87	  498.78
     21.5700	  574.00	  607.02	-1796.61	  498.49
     21.6700	  589.00	  606.77	-1781.36	  498.19
     21.7700	  619.00	  606.52	-1751.10	  497.88
     21.8700	  626.00	  606.41	-1744.00	  497.58
     21.9700	  570.00	  606.16	-1799.75	  497.26
     22.0700	  621.00	  605.91	-1748.50	  496.95
     22.1700	  595.00	  605.66	-1774.25	  496.63
     22.2700	  654.00	  605.41	-1715.00	  496.31
     22.3700	  617.00	  605.17	-1751.76	  495.98
     22.4700	  630.00	  604.93	-1738.52	  495.65
     22.5700	  602.00	  604.70	-1766.29	  495.31
     22.6700	  622.00	  604.47	-1746.06	  494.98
     22.7700	  608.00	  604.26	-1759.85	  494.63
     22.8700	  607.00	  604.05	-1760.64	  494.29
     22.9700	  641.00	  603.86	-1726.45	  493.94
     23.0700	  578.00	  603.70	-1789.28	  493.59
     23.1700	  643.00	  603.55	-1724.14	  493.23
     23.2700	  600.00	  603.44	-1767.03	  492.88
     23.3700	  596.00	  603.36	-1770.95	  492.51
     23.4700	  598.00	  603.29	-1768.88	  492.15
     23.5700	  567.00	  603.34	-1799.93	  491.78
     23.6700	  584.00	  603.49	-1783.08	  491.41
     23.7700	  622.00	  603.78	-1745.37	  491.04
     23.8700	  606.00	  604.31	-1761.89	  490.66
     23.9700	  556.00	  605.19	-1812.78	  490.28
     24.0700	  633.00	  606.69	-1737.28	  489.90
     24.1700	  593.00	  609.15	-1779.74	  489.51
     24.2700	  647.00	  613.09	-1729.68	  489.12
     24.3700	  651.00	  619.08	-1731.67	  488.73
     24.4700	  574.00	  627.55	-1817.13	  488.34
     24.5700	  634.00	  638.50	-1768.09	  487.94
     24.6700	  716.00	  651.12	-1698.71	  487.54
     24.7700	  676.00	  663.23	-1750.82	  487.14
     24.8700	  695.00	  670.89	-1739.48	  486.74
     24.9700	  726.00	  669.37	-1706.95	  486.33
     25.0700	  678.00	  657.82	-1743.41	  485.92
     25.1700	  630.00	  641.86	-1775.45	  485.51
     25.2700	  665.00	  627.33	-1725.92	  485.10
     25.3700	  580.00	  616.47	-1800.06	  484.68
     25.4700	  677.00	  609.24	-1695.83	  484.27
     25.5700	  623.00	  604.73	-1745.32	  483.85
     25.6700	  604.00	  601.95	-1761.54	  483.43
     25.7700	  633.00	  600.18	-1730.77	  483.00
     25.8700	  662.00	  598.98	-1700.57	  482.58
     25.9700	  601.00	  598.10	-1760.69	  482.15
     26.0700	  626.00	  597.45	-1735.04	  481.72
     26.1700	  664.00	  596.97	-1696.56	  481.29
     26.2700	  650.00	  596.63	-1710.22	  480.85
     26.3700	  624.00	  596.42	-1736.01	  480.42
     26.4700	  664.00	  596.34	-1695.93	  479.98
     26.5700	  651.00	  596.38	-1708.97	  479.55
     26.6700	  647.00	  596.57	-1713.16	  479.11
     26.7700	  613.00	  596.92	-1747.51	  478.66
     26.8700	  695.00	  597.46	-1666.05	  478.22
     26.9700	  639.00	  598.24	-1722.83	  477.78
     27.0700	  674.00	  599.33	-1688.92	  477.33
     27.1700	  667.00	  600.82	-1697.40	  476.88
     27.2700	  656.00	  602.88	-1710.47	  476.44
     27.3700	  695.00	  605.85	-1674.44	  475.99
     27.4700	  646.00	  610.30	-1727.89	  475.53
     27.5700	  680.00	  617.34	-1700.93	  475.08
     27.6700	  702.00	  628.80	-1690.39	  474.63
     27.7700	  682.00	  647.40	-1728.99	  474.17
     27.8700	  708.00	  676.37	-1731.96	  473.72
     27.9700	  726.00	  718.06	-1755.65	  473.26
     28.0700	  814.00	  771.71	-1721.30	  472.80
     28.1700	  861.00	  831.12	-1733.71	  472.34
     28.2700	  957.00	  882.68	-1689.27	  471.88
     28.3700	  971.00	  907.12	-1699.71	  471.42
     28.4700	  967.00	  894.63	-1691.22	  470.96
     28.5700	  857.00	  865.14	-1771.73	  470.50
     28.6700	  793.00	  849.26	-1819.85	  470.04
     28.7700	  801.00	  860.04	-1822.63	  469.57
     28.8700	  889.00	  891.49	-1766.08	  469.11
     28.9700	  944.00	  923.36	-1742.95	  468.64
     29.0700	  973.00	  927.48	-1718.07	  468.18
     29.1700	  937.00	  886.17	-1712.75	  467.71
     29.2700	  803.00	  814.76	-1775.35	  467.24
     29.3700	  794.00	  743.11	-1712.69	  466.77
     29.4700	  725.00	  687.25	-1725.83	  466.31
     29.5700	  712.00	  649.67	-1701.26	  465.84
     29.6700	  668.00	  626.73	-1722.32	  465.37
     29.7700	  643.00	  613.37	-1733.96	  464.90
     29.8700	  697.00	  605.48	-1672.07	  464.43
     29.9700	  693.00	  600.61	-1671.20	  463.96
     30.0700	  674.00	  597.55	-1687.14	  463.49
     30.1700	  655.00	  595.89	-1704.48	  463.02
     30.2700	  627.00	  595.68	-1732.26	  462.55
     30.3700	  667.00	  597.38	-1693.97	  462.08
     30.4700	  648.00	  601.86	-1717.45	  461.60
     30.5700	  630.00	  610.26	-1743.85	  461.13
     30.6700	  630.00	  623.47	-1757.06	  460.66
     30.7700	  689.00	  641.27	-1715.86	  460.19
     30.8700	  655.00	  661.35	-1769.94	  459.72
     30.9700	  703.00	  678.58	-1739.17	  459.25
     31.0700	  702.00	  685.45	-1747.04	  458.78
     31.1700	  689.00	  676.31	-1750.90	  458.31
     31.2700	  631.00	  654.83	-1787.42	  457.83
     31.3700	  665.00	  630.88	-1729.46	  457.36
     31.4700	  618.00	  610.91	-1756.50	  456.89
     31.5700	  623.00	  596.71	-1737.30	  456.42
     31.6700	  610.00	  587.60	-1741.19	  455.95
     31.7700	  638.00	  582.08	-1707.67	  455.48
     31.8700	  593.00	  578.74	-1749.33	  455.01
     31.9700	  592.00	  576.61	-1748.20	  454.54
     32.0700	  600.00	  575.17	-1738.76	  454.07
     32.1700	  595.00	  574.15	-1742.74	  453.60
     32.2700	  586.00	  573.44	-1751.03	  453.13
     32.3700	  572.00	  572.98	-1764.57	  452.67
     32.4700	  597.00	  572.77	-1739.36	  452.20
     32.5700	  576.00	  572.79	-1760.38	  451.73
     32.6700	  583.00	  573.08	-1753.67	  451.27
     32.7700	  607.00	  573.66	-1730.25	  450.80
     32.8700	  577.00	  574.63	-1761.22	  450.33
     32.9700	  619.00	  576.04	-1720.63	  449.87
     33.0700	  640.00	  578.09	-1701.68	  449.41
     33.1700	  535.00	  581.09	-1809.68	  448.94
     33.2700	  588.00	  585.64	-1761.23	  448.48
     33.3700	  608.00	  592.90	-1748.49	  448.02
     33.4700	  630.00	  604.89	-1738.48	  447.56
     33.5700	  628.00	  624.83	-1760.42	  447.10
     33.6700	  584.00	  656.94	-1836.53	  446.64
     33.7700	  693.00	  705.12	-1775.71	  446.18
     33.8700	  756.00	  770.13	-1777.72	  445.72
     33.9700	  883.00	  845.85	-1726.44	  445.26
     34.0700	  927.00	  916.44	-1753.03	  444.81
     34.1700	 1040.00	  956.87	-1680.46	  444.35
     34.2700	  984.00	  943.92	-1723.51	  443.90
     34.3700	  931.00	  880.80	-1713.39	  443.44
     34.4700	  838.00	  797.95	-1723.54	  442.99
     34.5700	  683.00	  722.27	-1802.86	  442.54
     34.6700	  661.00	  664.68	-1767.27	  442.09
     34.7700	  605.00	  625.72	-1784.31	  441.64
     34.8700	  642.00	  601.38	-1722.97	  441.19
     34.9700	  625.00	  586.68	-1725.26	  440.74
     35.0700	  584.00	  577.59	-1757.18	  440.30
     35.1700	  554.00	  571.56	-1781.15	  439.85
     35.2700	  585.00	  567.22	-1745.81	  439.41
     35.3700	  536.00	  563.85	-1791.44	  438.97
     35.4700	  570.00	  561.63	-1755.21	  438.53
     35.5700	  555.00	  559.37	-1767.96	  438.09
     35.6700	  573.00	  557.47	-1748.06	  437.65
     35.7700	  562.00	  555.83	-1757.42	  437.21
     35.8700	  554.00	  554.39	-1763.98	  436.77
     35.9700	  486.00	  553.13	-1830.72	  436.34
     36.0700	  532.00	  552.00	-1783.59	  435.91
     36.1700	  574.00	  550.99	-1740.58	  435.47
     36.2700	  565.00	  550.07	-1748.66	  435.04
     36.3700	  524.00	  549.23	-1788.82	  434.61
     36.4700	  498.00	  548.44	-1814.03	  434.18
     36.5700	  573.00	  547.75	-1738.34	  433.76
     36.6700	  531.00	  547.13	-1779.72	  433.33
     36.7700	  507.00	  546.58	-1803.17	  432.91
     36.8700	  532.00	  546.12	-1777.71	  432.49
     36.9700	  533.00	  545.77	-1776.36	  432.07
     37.0700	  491.00	  545.61	-1818.19	  431.65
     37.1700	  573.00	  545.90	-1736.49	  431.23
     37.2700	  526.00	  546.44	-1784.03	  430.81
     37.3700	  575.00	  547.57	-1736.16	  430.40
     37.4700	  544.00	  549.45	-1769.04	  429.99
     37.5700	  505.00	  552.07	-1810.66	  429.58
     37.6700	  549.00	  555.14	-1769.73	  429.17
     37.7700	  559.00	  557.97	-1762.56	  428.76
     37.8700	  583.00	  559.54	-1740.13	  428.35
     37.9700	  501.00	  558.98	-1821.57	  427.95
     38.0700	  537.00	  556.46	-1783.05	  427.55
     38.1700	  522.00	  552.95	-1794.53	  427.14
     38.2700	  518.00	  549.24	-1794.83	  426.75
     38.3700	  524.00	  545.79	-1785.38	  426.35
     38.4700	  525.00	  542.90	-1781.49	  425.95
     38.5700	  518.00	  540.66	-1786.25	  425.56
     38.6700	  490.00	  539.00	-1812.59	  425.17
     38.7700	  485.00	  537.78	-1816.37	  424.78
     38.8700	  478.00	  536.85	-1822.44	  424.39
     38.9700	  515.00	  536.11	-1784.70	  424.00
     39.0700	  552.00	  535.49	-1747.08	  423.61
     39.1700	  503.00	  534.94	-1795.53	  423.23
     39.2700	  509.00	  534.49	-1789.08	  422.85
     39.3700	  506.00	  534.02	-1791.61	  422.47
     39.4700	  540.00	  533.47	-1757.06	  422.09
     39.5700	  509.00	  533.06	-1787.65	  421.72
     39.6700	  512.00	  532.66	-1784.25	  421.34
     39.7700	  517.00	  532.28	-1778.87	  420.97
     39.8700	  504.00	  531.92	-1791.51	  420.60
     39.9700	  481.00	  532.12	-1814.71	  420.23
     40.0700	  516.00	  531.79	-1779.38	  419.87
     40.1700	  529.00	  531.48	-1766.07	  419.51
     40.2700	  531.00	  531.18	-1763.77	  419.14
     40.3700	  539.00	  530.90	-1755.49	  418.78
     40.4700	  530.00	  530.50	-1764.09	  418.43
     40.5700	  491.00	  530.26	-1802.85	  418.07
     40.6700	  514.00	  530.03	-1779.62	  417.72
     40.7700	  475.00	  529.83	-1818.42	  417.36
