MSG Master    CELL:    5.89614   5.89614  23.17055   90.0000   90.0000  120.0000   SPGR: P 63/m m c             TEMP:    733.05
  1   1280     2.52000     0.00000    -0.12231     0.00000     0.00000    0
    96     0     2
       0.00000      10.00000
     125.00000     130.00000
 2Theta	Yobs	Ycal	Yobs-Ycal	Backg	Posr	(hkl)	K
      0.7700	    0.00	  460.48	-1799.18	  345.36
      0.8700	    0.00	  463.12	-1799.18	  348.00
      0.9700	   43.00	  465.74	-1799.18	  350.62
      1.0700	   39.00	  468.33	-1799.18	  353.21
      1.1700	   52.00	  470.89	-1799.18	  355.77
      1.2700	   44.00	  473.43	-1799.18	  358.31
      1.3700	   54.00	  475.94	-1799.18	  360.82
      1.4700	   95.00	  478.43	-1799.18	  363.31
      1.5700	  268.00	  480.89	-1799.18	  365.77
      1.6700	  429.00	  483.33	-1799.18	  368.21
      1.7700	  575.00	  485.74	-1799.18	  370.62
      1.8700	  685.00	  488.12	-1799.18	  373.00
      1.9700	  701.00	  490.48	-1799.18	  375.36
      2.0700	  754.00	  492.82	-1799.18	  377.70
      2.1700	  806.00	  495.13	-1799.18	  380.01
      2.2700	  763.00	  497.42	-1799.18	  382.30
      2.3700	  692.00	  499.68	-1799.18	  384.56
      2.4700	  679.00	  501.92	-1799.18	  386.80
      2.5700	  688.00	  504.14	-1799.18	  389.02
      2.6700	  624.00	  506.33	-1799.18	  391.21
      2.7700	  700.00	  508.50	-1799.18	  393.38
      2.8700	  631.00	  510.64	-1799.18	  395.52
      2.9700	  656.00	  512.76	-1799.18	  397.64
      3.0700	  638.00	  514.86	-1799.18	  399.74
      3.1700	  601.00	  516.94	-1799.18	  401.81
      3.2700	  697.00	  518.99	-1799.18	  403.87
      3.3700	  862.00	  521.02	-1799.18	  405.90
      3.4700	 1003.00	  523.02	-1799.18	  407.90
      3.5700	 1173.00	  525.01	-1799.18	  409.89
      3.6700	 1287.00	  526.97	-1799.18	  411.85
      3.7700	 1365.00	  528.91	-1799.18	  413.79
      3.8700	 1416.00	  530.82	-1799.18	  415.70
      3.9700	 1478.00	  532.72	-1799.18	  417.60
      4.0700	 1545.00	  534.59	-1799.18	  419.47
      4.1700	 1638.00	  536.44	-1799.18	  421.32
      4.2700	 1605.00	  538.27	-1799.18	  423.15
      4.3700	 1488.00	  540.08	-1799.18	  424.96
      4.4700	 1478.00	  541.87	-1799.18	  426.75
      4.5700	 1513.00	  543.64	-1799.18	  428.51
      4.6700	 1395.00	  545.38	-1799.18	  430.26
      4.7700	 1386.00	  547.10	-1799.18	  431.98
      4.8700	 1331.00	  548.81	-1799.18	  433.69
      4.9700	 1304.00	  550.49	-1799.18	  435.37
      5.0700	 1248.00	  552.15	-1799.18	  437.03
      5.1700	 1187.00	  553.79	-1799.18	  438.67
      5.2700	 1148.00	  555.42	-1799.18	  440.30
      5.3700	 1171.00	  557.02	-1799.18	  441.90
      5.4700	 1152.00	  558.60	-1799.18	  443.48
      5.5700	 1080.00	  560.16	-1799.18	  445.04
      5.6700	 1015.00	  561.70	-1799.18	  446.58
      5.7700	 1060.00	  563.22	-1799.18	  448.10
      5.8700	 1032.00	  564.73	-1799.18	  449.61
      5.9700	 1035.00	  566.21	-1799.18	  451.09
      6.0700	 1043.00	  567.67	-1799.18	  452.55
      6.1700	  955.00	  569.12	-1799.18	  454.00
      6.2700	  906.00	  570.55	-1799.18	  455.43
      6.3700	  950.00	  571.95	-1799.18	  456.83
      6.4700	  917.00	  573.34	-1799.18	  458.22
      6.5700	  840.00	  574.71	-1799.18	  459.59
      6.6700	  850.00	  576.06	-1799.18	  460.94
      6.7700	  853.00	  577.40	-1799.18	  462.28
      6.8700	  828.00	  578.71	-1799.18	  463.59
      6.9700	  806.00	  580.01	-1799.18	  464.89
      7.0700	  781.00	  581.29	-1799.18	  466.17
      7.1700	  792.00	  582.55	-1799.18	  467.43
      7.2700	  811.00	  583.79	-1799.18	  468.67
      7.3700	  774.00	  585.02	-1799.18	  469.89
      7.4700	  776.00	  586.22	-1799.18	  471.10
      7.5700	  794.00	  587.41	-1799.18	  472.29
      7.6700	  814.00	  588.59	-1799.18	  473.47
      7.7700	  745.00	  589.74	-1799.18	  474.62
      7.8700	  766.00	  590.88	-1799.18	  475.76
      7.9700	  739.00	  592.00	-1799.18	  476.88
      8.0700	  660.00	  593.11	-1799.18	  477.99
      8.1700	  703.00	  594.20	-1799.18	  479.08
      8.2700	  749.00	  595.27	-1799.18	  480.15
      8.3700	  757.00	  596.33	-1799.18	  481.21
      8.4700	  709.00	  597.37	-1799.18	  482.25
      8.5700	  721.00	  598.39	-1799.18	  483.27
      8.6700	  742.00	  599.40	-1799.18	  484.28
      8.7700	  723.00	  600.39	-1799.18	  485.27
      8.8700	  718.00	  601.36	-1799.18	  486.24
      8.9700	  691.00	  602.32	-1799.18	  487.20
      9.0700	  739.00	  603.27	-1799.18	  488.15
      9.1700	  699.00	  604.19	-1799.18	  489.07
      9.2700	  718.00	  605.11	-1799.18	  489.99
      9.3700	  699.00	  606.00	-1799.18	  490.88
      9.4700	  666.00	  606.89	-1799.18	  491.77
      9.5700	  694.00	  607.75	-1799.18	  492.63
      9.6700	  649.00	  608.61	-1799.18	  493.49
      9.7700	  635.00	  609.44	-1799.18	  494.32
      9.8700	  698.00	  610.27	-1799.18	  495.15
      9.9700	  606.00	  611.07	-1799.18	  495.95
     10.0700	  706.00	  614.30	-1707.48	  496.75
     10.1700	  667.00	  615.36	-1747.54	  497.53
     10.2700	  685.00	  616.47	-1730.65	  498.29
     10.3700	  657.00	  617.65	-1759.83	  499.04
     10.4700	  696.00	  618.95	-1722.12	  499.78
     10.5700	  667.00	  620.41	-1752.59	  500.50
     10.6700	  703.00	  622.14	-1718.32	  501.21
     10.7700	  665.00	  624.24	-1758.41	  501.90
     10.8700	  638.00	  626.81	-1787.98	  502.58
     10.9700	  656.00	  629.91	-1773.09	  503.25
     11.0700	  649.00	  633.57	-1783.75	  503.90
     11.1700	  647.00	  637.81	-1789.98	  504.54
     11.2700	  665.00	  642.66	-1776.83	  505.17
     11.3700	  703.00	  648.21	-1744.38	  505.79
     11.4700	  673.00	  654.61	-1780.78	  506.39
     11.5700	  696.00	  662.09	-1765.27	  506.97
     11.6700	  687.00	  670.99	-1783.16	  507.55
     11.7700	  700.00	  681.65	-1780.82	  508.11
     11.8700	  764.00	  694.30	-1729.48	  508.66
     11.9700	  728.00	  708.62	-1779.79	  509.20
     12.0700	  788.00	  723.10	-1734.28	  509.72
     12.1700	  708.00	  734.41	-1825.59	  510.24
     12.2700	  766.00	  737.17	-1770.35	  510.74
     12.3700	  759.00	  726.87	-1767.05	  511.22
     12.4700	  714.00	  706.43	-1791.60	  511.70
     12.5700	  692.00	  684.60	-1791.77	  512.16
     12.6700	  652.00	  667.06	-1814.23	  512.61
     12.7700	  638.00	  654.92	-1816.09	  513.05
     12.8700	  645.00	  647.29	-1801.47	  513.48
     12.9700	  628.00	  642.70	-1813.88	  513.90
     13.0700	  633.00	  639.97	-1806.15	  514.31
     13.1700	  601.00	  638.30	-1836.48	  514.70
     13.2700	  683.00	  637.23	-1753.40	  515.08
     13.3700	  602.00	  636.51	-1833.68	  515.45
     13.4700	  619.00	  636.02	-1816.20	  515.81
     13.5700	  624.00	  635.70	-1810.88	  516.16
     13.6700	  592.00	  635.50	-1842.67	  516.50
     13.7700	  588.00	  635.38	-1846.55	  516.83
     13.8700	  610.00	  635.32	-1824.50	  517.15
     13.9700	  622.00	  635.32	-1812.50	  517.45
     14.0700	  621.00	  635.35	-1813.53	  517.75
     14.1700	  614.00	  635.41	-1820.59	  518.03
     14.2700	  624.00	  635.49	-1810.67	  518.31
     14.3700	  600.00	  635.59	-1834.76	  518.57
     14.4700	  616.00	  635.70	-1818.87	  518.83
     14.5700	  621.00	  635.81	-1813.99	  519.07
     14.6700	  608.00	  635.93	-1827.11	  519.30
     14.7700	  598.00	  636.06	-1837.23	  519.53
     14.8700	  681.00	  636.18	-1754.36	  519.74
     14.9700	  630.00	  636.30	-1805.48	  519.95
     15.0700	  581.00	  636.43	-1854.60	  520.14
     15.1700	  606.00	  636.55	-1829.72	  520.33
     15.2700	  587.00	  636.67	-1848.84	  520.50
     15.3700	  626.00	  636.78	-1809.95	  520.67
     15.4700	  584.00	  636.89	-1852.06	  520.83
     15.5700	  602.00	  636.99	-1834.17	  520.98
     15.6700	  638.00	  637.09	-1798.27	  521.12
     15.7700	  594.00	  637.18	-1842.36	  521.25
     15.8700	  601.00	  637.27	-1835.45	  521.37
     15.9700	  634.00	  637.35	-1802.53	  521.48
     16.0700	  638.00	  637.43	-1798.60	  521.58
     16.1700	  662.00	  637.50	-1774.67	  521.68
     16.2700	  677.00	  637.56	-1759.73	  521.76
     16.3700	  656.00	  637.61	-1780.79	  521.84
     16.4700	  626.00	  637.66	-1810.84	  521.91
     16.5700	  588.00	  637.70	-1848.88	  521.97
     16.6700	  614.00	  637.74	-1822.91	  522.02
     16.7700	  683.00	  637.77	-1753.94	  522.06
     16.8700	  581.00	  637.79	-1855.96	  522.10
     16.9700	  646.00	  637.80	-1790.98	  522.13
     17.0700	  591.00	  637.81	-1845.98	  522.15
     17.1700	  636.00	  637.81	-1800.98	  522.16
     17.2700	  603.00	  637.80	-1833.98	  522.16
     17.3700	  606.00	  637.79	-1830.96	  522.16
     17.4700	  608.00	  637.77	-1828.94	  522.15
     17.5700	  582.00	  637.97	-1855.15	  522.13
     17.6700	  608.00	  637.94	-1829.12	  522.10
     17.7700	  572.00	  637.90	-1865.08	  522.07
     17.8700	  630.00	  638.02	-1807.19	  522.03
     17.9700	  586.00	  637.97	-1851.15	  521.98
     18.0700	  657.00	  637.92	-1780.09	  521.92
     18.1700	  594.00	  637.86	-1843.03	  521.86
     18.2700	  576.00	  637.79	-1860.97	  521.79
     18.3700	  638.00	  637.72	-1798.90	  521.71
     18.4700	  593.00	  637.64	-1843.82	  521.63
     18.5700	  631.00	  637.56	-1805.73	  521.54
     18.6700	  604.00	  637.47	-1832.64	  521.44
     18.7700	  615.00	  637.37	-1821.55	  521.34
     18.8700	  685.00	  637.27	-1751.45	  521.23
     18.9700	  608.00	  637.16	-1828.34	  521.11
     19.0700	  624.00	  637.05	-1812.23	  520.99
     19.1700	  614.00	  636.93	-1822.11	  520.86
     19.2700	  659.00	  636.81	-1776.98	  520.72
     19.3700	  599.00	  636.73	-1836.91	  520.58
     19.4700	  608.00	  636.60	-1827.78	  520.43
     19.5700	  588.00	  636.46	-1847.64	  520.27
     19.6700	  607.00	  636.32	-1828.49	  520.11
     19.7700	  618.00	  636.17	-1817.34	  519.95
     19.8700	  590.00	  636.01	-1845.19	  519.77
     19.9700	  562.00	  635.86	-1873.03	  519.60
     20.0700	  604.00	  635.69	-1830.87	  519.41
     20.1700	  613.00	  635.53	-1821.70	  519.22
     20.2700	  624.00	  635.35	-1810.53	  519.03
     20.3700	  603.00	  635.18	-1831.35	  518.82
     20.4700	  567.00	  635.00	-1867.17	  518.62
     20.5700	  545.00	  634.82	-1888.99	  518.41
     20.6700	  558.00	  634.63	-1875.80	  518.19
     20.7700	  590.00	  634.44	-1843.61	  517.97
     20.8700	  652.00	  634.24	-1781.42	  517.74
     20.9700	  618.00	  634.05	-1815.22	  517.50
     21.0700	  608.00	  633.85	-1825.02	  517.27
     21.1700	  647.00	  633.64	-1785.82	  517.02
     21.2700	  626.00	  633.44	-1806.62	  516.78
     21.3700	  607.00	  633.23	-1825.41	  516.52
     21.4700	  585.00	  633.02	-1847.20	  516.26
     21.5700	  571.00	  632.82	-1860.99	  516.00
     21.6700	  634.00	  632.61	-1797.78	  515.73
     21.7700	  596.00	  632.53	-1835.71	  515.46
     21.8700	  582.00	  632.32	-1849.50	  515.19
     21.9700	  612.00	  632.12	-1819.29	  514.91
     22.0700	  646.00	  631.91	-1785.08	  514.62
     22.1700	  643.00	  631.71	-1787.88	  514.33
     22.2700	  574.00	  631.50	-1856.68	  514.04
     22.3700	  619.00	  631.31	-1811.48	  513.74
     22.4700	  656.00	  631.12	-1774.29	  513.44
     22.5700	  604.00	  630.93	-1826.11	  513.13
     22.6700	  616.00	  630.76	-1813.93	  512.82
     22.7700	  625.00	  630.60	-1804.77	  512.50
     22.8700	  588.00	  630.45	-1841.62	  512.18
     22.9700	  615.00	  630.31	-1814.49	  511.86
     23.0700	  633.00	  630.20	-1796.38	  511.54
     23.1700	  626.00	  630.12	-1803.30	  511.20
     23.2700	  675.00	  630.07	-1754.25	  510.87
     23.3700	  601.00	  630.07	-1828.25	  510.53
     23.4700	  616.00	  630.13	-1813.30	  510.19
     23.5700	  609.00	  630.26	-1820.44	  509.85
     23.6700	  642.00	  630.51	-1787.68	  509.50
     23.7700	  632.00	  630.91	-1798.09	  509.15
     23.8700	  625.00	  631.56	-1805.73	  508.79
     23.9700	  601.00	  632.60	-1830.77	  508.43
     24.0700	  594.00	  634.21	-1839.38	  508.07
     24.1700	  648.00	  636.86	-1788.03	  507.71
     24.2700	  661.00	  640.98	-1779.15	  507.34
     24.3700	  616.00	  647.09	-1830.27	  506.97
     24.4700	  632.00	  655.58	-1822.76	  506.59
     24.5700	  684.00	  666.40	-1781.58	  506.22
     24.6700	  732.00	  678.73	-1745.91	  505.84
     24.7700	  698.00	  690.54	-1791.71	  505.45
     24.8700	  697.00	  698.20	-1800.38	  505.07
     24.9700	  731.00	  697.34	-1765.52	  504.68
     25.0700	  695.00	  686.91	-1791.09	  504.29
     25.1700	  686.00	  671.78	-1784.95	  503.89
     25.2700	  633.00	  657.53	-1823.70	  503.49
     25.3700	  620.00	  646.57	-1825.74	  503.10
     25.4700	  645.00	  639.05	-1793.23	  502.69
     25.5700	  689.00	  634.26	-1744.43	  502.29
     25.6700	  668.00	  631.30	-1762.48	  501.88
     25.7700	  666.00	  629.47	-1762.64	  501.47
     25.8700	  672.00	  628.29	-1755.47	  501.06
     25.9700	  657.00	  627.53	-1769.70	  500.65
     26.0700	  708.00	  627.04	-1718.21	  500.23
     26.1700	  638.00	  626.77	-1787.94	  499.81
     26.2700	  701.00	  626.69	-1724.86	  499.39
     26.3700	  691.00	  626.79	-1734.97	  498.97
     26.4700	  672.00	  627.08	-1754.26	  498.55
     26.5700	  707.00	  627.57	-1719.74	  498.12
     26.6700	  639.00	  628.28	-1788.46	  497.69
     26.7700	  668.00	  629.26	-1760.44	  497.26
     26.8700	  647.00	  630.57	-1782.74	  496.83
     26.9700	  666.00	  632.27	-1765.45	  496.39
     27.0700	  709.00	  634.50	-1724.67	  495.96
     27.1700	  702.00	  637.42	-1734.60	  495.52
     27.2700	  758.00	  641.34	-1682.52	  495.08
     27.3700	  797.00	  646.80	-1648.98	  494.64
     27.4700	  774.00	  654.86	-1680.04	  494.20
     27.5700	  770.00	  667.50	-1696.67	  493.75
     27.6700	  805.00	  688.16	-1682.34	  493.31
     27.7700	  790.00	  722.24	-1731.41	  492.86
     27.8700	  769.00	  776.60	-1806.77	  492.41
     27.9700	  927.00	  857.14	-1729.32	  491.96
     28.0700	  985.00	  964.16	-1778.34	  491.51
     28.1700	 1136.00	 1086.80	-1749.97	  491.06
     28.2700	 1285.00	 1197.99	-1712.17	  490.61
     28.3700	 1352.00	 1255.08	-1702.26	  490.15
     28.4700	 1372.00	 1225.25	-1652.43	  489.70
     28.5700	 1264.00	 1136.03	-1671.21	  489.24
     28.6700	 1072.00	 1053.60	-1780.77	  488.78
     28.7700	 1102.00	 1015.53	-1712.70	  488.32
     28.8700	 1165.00	 1021.48	-1655.66	  487.86
     28.9700	 1162.00	 1046.36	-1683.54	  487.40
     29.0700	 1187.00	 1051.75	-1663.93	  486.94
     29.1700	 1104.00	 1007.05	-1702.22	  486.48
     29.2700	 1094.00	  921.04	-1626.22	  486.02
     29.3700	  897.00	  829.59	-1731.77	  485.55
     29.4700	  902.00	  755.94	-1653.12	  485.09
     29.5700	  796.00	  705.27	-1708.45	  484.62
     29.6700	  787.00	  673.85	-1686.02	  484.15
     29.7700	  754.00	  655.38	-1700.55	  483.69
     29.8700	  736.00	  644.47	-1707.65	  483.22
     29.9700	  760.00	  637.73	-1676.91	  482.75
     30.0700	  759.00	  633.46	-1673.64	  482.28
     30.1700	  719.00	  631.01	-1711.19	  481.81
     30.2700	  739.00	  630.39	-1690.56	  481.34
     30.3700	  654.00	  632.08	-1777.26	  480.87
     30.4700	  738.00	  637.10	-1698.28	  480.40
     30.5700	  637.00	  646.85	-1809.03	  479.93
     30.6700	  688.00	  662.59	-1773.76	  479.46
     30.7700	  652.00	  684.36	-1831.54	  478.99
     30.8700	  705.00	  709.79	-1803.97	  478.52
     30.9700	  725.00	  733.09	-1807.26	  478.05
     31.0700	  734.00	  745.09	-1810.27	  477.58
     31.1700	  734.00	  737.44	-1802.62	  477.10
     31.2700	  693.00	  712.23	-1818.41	  476.63
     31.3700	  712.00	  681.48	-1768.66	  476.16
     31.4700	  687.00	  654.69	-1766.87	  475.69
     31.5700	  639.00	  635.07	-1795.25	  475.22
     31.6700	  616.00	  622.20	-1805.38	  474.74
     31.7700	  638.00	  614.30	-1775.47	  474.27
     31.8700	  607.00	  609.50	-1801.67	  473.80
     31.9700	  577.00	  606.45	-1828.63	  473.33
     32.0700	  615.00	  604.37	-1788.55	  472.86
     32.1700	  615.00	  602.87	-1787.05	  472.39
     32.2700	  671.00	  601.76	-1729.94	  471.91
     32.3700	  641.00	  600.96	-1759.14	  471.44
     32.4700	  615.00	  600.43	-1784.61	  470.97
     32.5700	  648.00	  600.21	-1751.38	  470.50
     32.6700	  626.00	  600.19	-1773.37	  470.03
     32.7700	  609.00	  600.47	-1790.64	  469.56
     32.8700	  657.00	  601.08	-1743.26	  469.09
     32.9700	  614.00	  602.11	-1787.29	  468.63
     33.0700	  590.00	  603.69	-1812.87	  468.16
     33.1700	  620.00	  606.09	-1785.27	  467.69
     33.2700	  597.00	  609.78	-1811.95	  467.22
     33.3700	  654.00	  615.67	-1760.85	  466.76
     33.4700	  616.00	  625.39	-1808.57	  466.29
     33.5700	  643.00	  641.51	-1797.69	  465.82
     33.6700	  648.00	  667.50	-1818.68	  465.36
     33.7700	  677.00	  706.78	-1828.96	  464.90
     33.8700	  765.00	  760.58	-1794.76	  464.43
     33.9700	  887.00	  824.86	-1737.04	  463.97
     34.0700	  969.00	  887.68	-1717.86	  463.51
     34.1700	 1040.00	  928.91	-1688.09	  463.05
     34.2700	 1039.00	  927.15	-1687.32	  462.59
     34.3700	  943.00	  879.61	-1735.78	  462.13
     34.4700	  841.00	  809.42	-1767.59	  461.67
     34.5700	  745.00	  741.67	-1795.85	  461.21
     34.6700	  694.00	  688.20	-1793.37	  460.75
     34.7700	  622.00	  650.92	-1828.09	  460.30
     34.8700	  629.00	  627.00	-1797.17	  459.84
     34.9700	  648.00	  612.31	-1763.49	  459.39
     35.0700	  631.00	  603.21	-1771.39	  458.93
     35.1700	  612.00	  597.24	-1784.41	  458.48
     35.2700	  605.00	  592.98	-1787.15	  458.03
     35.3700	  602.00	  589.71	-1786.89	  457.58
     35.4700	  582.00	  587.09	-1804.27	  457.13
     35.5700	  551.00	  584.92	-1833.09	  456.68
     35.6700	  571.00	  583.57	-1811.75	  456.24
     35.7700	  548.00	  581.99	-1833.17	  455.79
     35.8700	  570.00	  580.62	-1809.79	  455.35
     35.9700	  506.00	  579.40	-1872.58	  454.91
     36.0700	  567.00	  578.33	-1810.50	  454.46
     36.1700	  540.00	  577.36	-1836.54	  454.02
     36.2700	  569.00	  576.49	-1806.67	  453.58
     36.3700	  530.00	  575.72	-1844.89	  453.15
     36.4700	  577.00	  575.02	-1797.19	  452.71
     36.5700	  561.00	  574.40	-1812.57	  452.27
     36.6700	  567.00	  573.86	-1806.04	  451.84
     36.7700	  542.00	  573.60	-1830.78	  451.41
     36.8700	  546.00	  573.28	-1826.46	  450.98
     36.9700	  550.00	  573.13	-1822.31	  450.55
     37.0700	  582.00	  573.25	-1790.42	  450.12
     37.1700	  539.00	  573.74	-1833.92	  449.69
     37.2700	  565.00	  574.90	-1809.08	  449.26
     37.3700	  570.00	  576.93	-1806.11	  448.84
     37.4700	  571.00	  580.03	-1808.21	  448.42
     37.5700	  562.00	  584.22	-1821.39	  448.00
     37.6700	  584.00	  589.10	-1804.28	  447.58
     37.7700	  564.00	  593.75	-1828.92	  447.16
     37.8700	  540.00	  596.69	-1855.87	  446.74
     37.9700	  572.00	  596.65	-1823.82	  446.33
     38.0700	  541.00	  593.64	-1851.81	  445.92
     38.1700	  588.00	  588.93	-1800.10	  445.50
     38.2700	  571.00	  583.64	-1811.81	  445.09
     38.3700	  574.00	  578.49	-1803.67	  444.69
     38.4700	  553.00	  573.93	-1820.11	  444.28
     38.5700	  540.00	  570.29	-1829.47	  443.87
     38.6700	  560.00	  567.57	-1806.75	  443.47
     38.7700	  545.00	  565.60	-1819.77	  443.07
     38.8700	  507.00	  564.15	-1856.33	  442.67
     38.9700	  557.00	  563.07	-1805.24	  442.27
     39.0700	  538.00	  562.21	-1823.38	  441.88
     39.1700	  559.00	  561.49	-1801.66	  441.48
     39.2700	  540.00	  560.85	-1820.03	  441.09
     39.3700	  506.00	  560.06	-1853.23	  440.70
     39.4700	  566.00	  559.53	-1792.70	  440.31
     39.5700	  541.00	  559.03	-1817.21	  439.92
     39.6700	  587.00	  558.57	-1770.74	  439.54
     39.7700	  546.00	  558.12	-1811.30	  439.15
     39.8700	  509.00	  557.70	-1847.88	  438.77
     39.9700	  569.00	  557.87	-1788.04	  438.39
     40.0700	  546.00	  557.49	-1810.66	  438.02
     40.1700	  554.00	  557.12	-1802.30	  437.64
     40.2700	  545.00	  556.77	-1810.95	  437.27
     40.3700	  541.00	  556.44	-1814.62	  436.90
     40.4700	  552.00	  556.12	-1803.30	  436.53
     40.5700	  509.00	  555.68	-1845.85	  436.16
     40.6700	  512.00	  555.39	-1842.57	  435.79
     40.7700	  503.00	  555.13	-1851.31	  435.43
