MSG Master    CELL:    5.88237   5.88237  23.11558   90.0000   90.0000  120.0000   SPGR: P 63/m m c             TEMP:    556.25
  2   1280     2.52000     0.00000    -0.08828     0.00000     0.00000    0
    96    96     0     0     2
       0.00000      10.00000
     125.00000     130.00000
 2Theta	Yobs	Ycal	Yobs-Ycal	Backg	Posr	(hkl)	K
      0.7700	    0.00	  899.20	-1945.85	  766.52
      0.8700	    0.00	  896.61	-1945.85	  763.92
      0.9700	   50.00	  894.02	-1945.85	  761.34
      1.0700	   62.00	  891.46	-1945.85	  758.77
      1.1700	   46.00	  888.90	-1945.85	  756.22
      1.2700	   39.00	  886.37	-1945.85	  753.68
      1.3700	   49.00	  883.84	-1945.85	  751.16
      1.4700	   93.00	  881.34	-1945.85	  748.65
      1.5700	  269.00	  878.84	-1945.85	  746.16
      1.6700	  446.00	  876.36	-1945.85	  743.68
      1.7700	  603.00	  873.90	-1945.85	  741.22
      1.8700	  662.00	  871.45	-1945.85	  738.77
      1.9700	  714.00	  869.02	-1945.85	  736.33
      2.0700	  766.00	  866.60	-1945.85	  733.91
      2.1700	  833.00	  864.19	-1945.85	  731.51
      2.2700	  755.00	  861.80	-1945.85	  729.12
      2.3700	  709.00	  859.42	-1945.85	  726.74
      2.4700	  735.00	  857.06	-1945.85	  724.38
      2.5700	  694.00	  854.71	-1945.85	  722.03
      2.6700	  660.00	  852.38	-1945.85	  719.69
      2.7700	  694.00	  850.05	-1945.85	  717.37
      2.8700	  672.00	  847.75	-1945.85	  715.07
      2.9700	  647.00	  845.45	-1945.85	  712.77
      3.0700	  641.00	  843.18	-1945.85	  710.49
      3.1700	  578.00	  840.91	-1945.85	  708.23
      3.2700	  747.00	  838.66	-1945.85	  705.98
      3.3700	  960.00	  836.42	-1945.85	  703.74
      3.4700	 1013.00	  834.20	-1945.85	  701.52
      3.5700	 1176.00	  831.99	-1945.85	  699.31
      3.6700	 1363.00	  829.79	-1945.85	  697.11
      3.7700	 1444.00	  827.61	-1945.85	  694.93
      3.8700	 1504.00	  825.44	-1945.85	  692.76
      3.9700	 1550.00	  823.28	-1945.85	  690.60
      4.0700	 1626.00	  821.14	-1945.85	  688.46
      4.1700	 1692.00	  819.01	-1945.85	  686.33
      4.2700	 1660.00	  816.89	-1945.85	  684.21
      4.3700	 1668.00	  814.79	-1945.85	  682.11
      4.4700	 1631.00	  812.70	-1945.85	  680.02
      4.5700	 1543.00	  810.62	-1945.85	  677.94
      4.6700	 1533.00	  808.56	-1945.85	  675.88
      4.7700	 1453.00	  806.51	-1945.85	  673.82
      4.8700	 1431.00	  804.47	-1945.85	  671.79
      4.9700	 1436.00	  802.44	-1945.85	  669.76
      5.0700	 1379.00	  800.43	-1945.85	  667.75
      5.1700	 1315.00	  798.43	-1945.85	  665.75
      5.2700	 1268.00	  796.44	-1945.85	  663.76
      5.3700	 1192.00	  794.47	-1945.85	  661.79
      5.4700	 1227.00	  792.51	-1945.85	  659.82
      5.5700	 1237.00	  790.56	-1945.85	  657.87
      5.6700	 1148.00	  788.62	-1945.85	  655.94
      5.7700	 1084.00	  786.69	-1945.85	  654.01
      5.8700	 1165.00	  784.78	-1945.85	  652.10
      5.9700	 1094.00	  782.88	-1945.85	  650.20
      6.0700	 1073.00	  780.99	-1945.85	  648.31
      6.1700	 1031.00	  779.12	-1945.85	  646.44
      6.2700	 1103.00	  777.26	-1945.85	  644.57
      6.3700	  993.00	  775.40	-1945.85	  642.72
      6.4700	 1006.00	  773.57	-1945.85	  640.88
      6.5700	 1006.00	  771.74	-1945.85	  639.06
      6.6700	  950.00	  769.92	-1945.85	  637.24
      6.7700	  952.00	  768.12	-1945.85	  635.44
      6.8700	 1002.00	  766.33	-1945.85	  633.65
      6.9700	  904.00	  764.55	-1945.85	  631.87
      7.0700	  913.00	  762.78	-1945.85	  630.10
      7.1700	  924.00	  761.02	-1945.85	  628.34
      7.2700	  891.00	  759.28	-1945.85	  626.60
      7.3700	  876.00	  757.55	-1945.85	  624.86
      7.4700	  850.00	  755.83	-1945.85	  623.14
      7.5700	  888.00	  754.12	-1945.85	  621.43
      7.6700	  891.00	  752.42	-1945.85	  619.73
      7.7700	  808.00	  750.73	-1945.85	  618.05
      7.8700	  820.00	  749.05	-1945.85	  616.37
      7.9700	  825.00	  747.39	-1945.85	  614.71
      8.0700	  742.00	  745.74	-1945.85	  613.05
      8.1700	  768.00	  744.09	-1945.85	  611.41
      8.2700	  862.00	  742.46	-1945.85	  609.78
      8.3700	  775.00	  740.84	-1945.85	  608.16
      8.4700	  771.00	  739.24	-1945.85	  606.55
      8.5700	  783.00	  737.64	-1945.85	  604.96
      8.6700	  756.00	  736.05	-1945.85	  603.37
      8.7700	  757.00	  734.48	-1945.85	  601.79
      8.8700	  739.00	  732.91	-1945.85	  600.23
      8.9700	  705.00	  731.36	-1945.85	  598.67
      9.0700	  769.00	  729.81	-1945.85	  597.13
      9.1700	  716.00	  728.28	-1945.85	  595.60
      9.2700	  744.00	  726.76	-1945.85	  594.08
      9.3700	  721.00	  725.25	-1945.85	  592.56
      9.4700	  790.00	  723.75	-1945.85	  591.06
      9.5700	  783.00	  722.26	-1945.85	  589.57
      9.6700	  718.00	  720.78	-1945.85	  588.09
      9.7700	  694.00	  719.31	-1945.85	  586.62
      9.8700	  728.00	  717.85	-1945.85	  585.17
      9.9700	  688.00	  716.40	-1945.85	  583.72
     10.0700	  752.00	  717.13	-1910.98	  582.28
     10.1700	  758.00	  715.94	-1903.79	  580.85
     10.2700	  694.00	  714.81	-1966.65	  579.43
     10.3700	  708.00	  713.74	-1951.59	  578.02
     10.4700	  737.00	  712.78	-1921.63	  576.63
     10.5700	  690.00	  711.96	-1967.81	  575.24
     10.6700	  671.00	  711.35	-1986.19	  573.86
     10.7700	  695.00	  711.02	-1961.86	  572.49
     10.8700	  705.00	  711.07	-1951.92	  571.14
     10.9700	  697.00	  711.59	-1960.43	  569.79
     11.0700	  713.00	  712.62	-1945.46	  568.45
     11.1700	  713.00	  714.18	-1947.03	  567.12
     11.2700	  717.00	  716.29	-1945.14	  565.80
     11.3700	  717.00	  719.01	-1947.86	  564.49
     11.4700	  699.00	  722.43	-1969.28	  563.19
     11.5700	  694.00	  726.70	-1978.55	  561.90
     11.6700	  761.00	  732.06	-1916.91	  560.62
     11.7700	  739.00	  738.79	-1945.64	  559.35
     11.8700	  775.00	  747.16	-1918.00	  558.09
     11.9700	  778.00	  757.17	-1925.02	  556.84
     12.0700	  815.00	  768.19	-1899.04	  555.60
     12.1700	  845.00	  778.39	-1879.23	  554.36
     12.2700	  848.00	  784.24	-1882.08	  553.14
     12.3700	  855.00	  781.00	-1871.85	  551.93
     12.4700	  802.00	  766.67	-1910.52	  550.72
     12.5700	  777.00	  746.21	-1915.06	  549.52
     12.6700	  740.00	  726.72	-1932.57	  548.34
     12.7700	  720.00	  711.43	-1937.27	  547.16
     12.8700	  662.00	  700.56	-1984.40	  545.99
     12.9700	  689.00	  693.15	-1950.00	  544.83
     13.0700	  669.00	  688.07	-1964.92	  543.68
     13.1700	  633.00	  684.41	-1997.25	  542.53
     13.2700	  671.00	  681.56	-1956.41	  541.40
     13.3700	  669.00	  679.21	-1956.06	  540.28
     13.4700	  639.00	  677.16	-1984.01	  539.16
     13.5700	  677.00	  675.32	-1944.17	  538.05
     13.6700	  662.00	  673.64	-1957.48	  536.95
     13.7700	  714.00	  672.07	-1903.92	  535.86
     13.8700	  648.00	  670.60	-1968.44	  534.78
     13.9700	  664.00	  669.20	-1951.04	  533.71
     14.0700	  696.00	  667.86	-1917.70	  532.65
     14.1700	  667.00	  666.57	-1945.41	  531.59
     14.2700	  677.00	  665.32	-1934.16	  530.54
     14.3700	  709.00	  664.10	-1900.95	  529.50
     14.4700	  687.00	  662.92	-1921.77	  528.47
     14.5700	  649.00	  661.77	-1958.61	  527.45
     14.6700	  636.00	  660.64	-1970.48	  526.43
     14.7700	  658.00	  659.53	-1947.37	  525.43
     14.8700	  651.00	  658.44	-1953.28	  524.43
     14.9700	  661.00	  657.37	-1942.21	  523.44
     15.0700	  654.00	  656.31	-1948.16	  522.46
     15.1700	  632.00	  655.27	-1969.12	  521.48
     15.2700	  659.00	  654.25	-1941.09	  520.52
     15.3700	  626.00	  653.24	-1973.08	  519.56
     15.4700	  645.00	  652.24	-1953.08	  518.61
     15.5700	  600.00	  651.25	-1997.10	  517.67
     15.6700	  622.00	  650.28	-1974.12	  516.73
     15.7700	  660.00	  649.31	-1935.16	  515.81
     15.8700	  642.00	  648.36	-1952.21	  514.89
     15.9700	  646.00	  647.42	-1947.27	  513.98
     16.0700	  598.00	  646.49	-1994.33	  513.08
     16.1700	  644.00	  645.57	-1947.41	  512.18
     16.2700	  648.00	  644.65	-1942.50	  511.29
     16.3700	  624.00	  643.75	-1965.60	  510.41
     16.4700	  686.00	  642.86	-1902.70	  509.54
     16.5700	  609.00	  641.97	-1978.82	  508.67
     16.6700	  664.00	  641.10	-1922.94	  507.81
     16.7700	  696.00	  640.23	-1890.08	  506.96
     16.8700	  635.00	  639.37	-1950.22	  506.12
     16.9700	  585.00	  638.52	-1999.37	  505.28
     17.0700	  662.00	  637.68	-1921.53	  504.46
     17.1700	  663.00	  636.85	-1919.69	  503.63
     17.2700	  619.00	  636.02	-1962.87	  502.82
     17.3700	  661.00	  635.20	-1920.05	  502.01
     17.4700	  590.00	  634.39	-1990.24	  501.21
     17.5700	  635.00	  633.59	-1944.44	  500.42
     17.6700	  670.00	  632.80	-1908.65	  499.63
     17.7700	  644.00	  632.01	-1933.86	  498.85
     17.8700	  642.00	  631.23	-1935.08	  498.08
     17.9700	  620.00	  630.46	-1956.31	  497.32
     18.0700	  654.00	  629.70	-1921.54	  496.56
     18.1700	  600.00	  628.94	-1974.79	  495.81
     18.2700	  606.00	  628.19	-1968.04	  495.06
     18.3700	  621.00	  627.45	-1952.30	  494.32
     18.4700	  631.00	  626.72	-1941.56	  493.59
     18.5700	  629.00	  625.99	-1942.84	  492.87
     18.6700	  603.00	  625.27	-1968.12	  492.15
     18.7700	  649.00	  624.56	-1921.40	  491.44
     18.8700	  614.00	  624.87	-1956.71	  490.74
     18.9700	  569.00	  625.95	-2002.80	  490.04
     19.0700	  637.00	  625.32	-1934.17	  489.35
     19.1700	  650.00	  624.69	-1920.54	  488.66
     19.2700	  617.00	  624.08	-1952.93	  487.98
     19.3700	  573.00	  623.47	-1996.32	  487.31
     19.4700	  588.00	  622.87	-1980.72	  486.65
     19.5700	  610.00	  622.28	-1958.13	  485.99
     19.6700	  593.00	  621.70	-1974.55	  485.33
     19.7700	  636.00	  621.13	-1930.98	  484.69
     19.8700	  612.00	  620.57	-1954.42	  484.05
     19.9700	  572.00	  620.02	-1993.86	  483.41
     20.0700	  607.00	  619.52	-1958.37	  482.78
     20.1700	  653.00	  618.99	-1911.84	  482.16
     20.2700	  642.00	  618.47	-1922.31	  481.55
     20.3700	  623.00	  617.95	-1940.80	  480.94
     20.4700	  637.00	  617.45	-1926.30	  480.33
     20.5700	  607.00	  616.96	-1955.81	  479.73
     20.6700	  584.00	  616.48	-1978.32	  479.14
     20.7700	  598.00	  616.00	-1963.85	  478.56
     20.8700	  646.00	  615.54	-1915.39	  477.98
     20.9700	  597.00	  615.09	-1963.94	  477.40
     21.0700	  609.00	  614.66	-1951.50	  476.83
     21.1700	  610.00	  614.23	-1950.08	  476.27
     21.2700	  582.00	  613.82	-1977.66	  475.71
     21.3700	  627.00	  613.42	-1932.26	  475.16
     21.4700	  636.00	  613.03	-1922.87	  474.62
     21.5700	  618.00	  612.65	-1940.50	  474.08
     21.6700	  645.00	  612.29	-1913.14	  473.54
     21.7700	  627.00	  611.94	-1930.79	  473.01
     21.8700	  600.00	  611.61	-1957.46	  472.49
     21.9700	  596.00	  611.29	-1961.14	  471.97
     22.0700	  615.00	  610.99	-1941.84	  471.46
     22.1700	  610.00	  610.71	-1946.56	  470.95
     22.2700	  595.00	  610.65	-1961.50	  470.45
     22.3700	  639.00	  610.41	-1917.26	  469.95
     22.4700	  628.00	  610.19	-1928.04	  469.46
     22.5700	  590.00	  609.99	-1965.84	  468.98
     22.6700	  603.00	  609.82	-1952.67	  468.50
     22.7700	  599.00	  609.68	-1956.52	  468.02
     22.8700	  623.00	  609.56	-1932.41	  467.55
     22.9700	  637.00	  609.48	-1918.33	  467.09
     23.0700	  597.00	  609.43	-1958.28	  466.63
     23.1700	  610.00	  609.43	-1945.28	  466.17
     23.2700	  621.00	  609.47	-1934.32	  465.73
     23.3700	  657.00	  609.57	-1898.42	  465.28
     23.4700	  591.00	  609.73	-1964.58	  464.84
     23.5700	  606.00	  609.97	-1949.82	  464.41
     23.6700	  609.00	  610.31	-1947.15	  463.98
     23.7700	  641.00	  610.77	-1915.61	  463.55
     23.8700	  621.00	  611.40	-1936.25	  463.13
     23.9700	  611.00	  612.28	-1947.13	  462.72
     24.0700	  668.00	  613.53	-1891.37	  462.31
     24.1700	  617.00	  615.34	-1944.19	  461.90
     24.2700	  651.00	  618.03	-1912.88	  461.50
     24.3700	  653.00	  621.97	-1914.82	  461.11
     24.4700	  630.00	  627.52	-1943.37	  460.72
     24.5700	  658.00	  635.04	-1922.89	  460.33
     24.6700	  710.00	  644.39	-1880.24	  459.95
     24.7700	  672.00	  654.83	-1928.68	  459.57
     24.8700	  666.00	  664.71	-1944.56	  459.20
     24.9700	  746.00	  671.16	-1871.01	  458.83
     25.0700	  706.00	  670.90	-1910.75	  458.47
     25.1700	  717.00	  663.44	-1892.29	  458.11
     25.2700	  644.00	  652.69	-1954.53	  457.76
     25.3700	  644.00	  642.72	-1944.57	  457.40
     25.4700	  665.00	  635.40	-1916.24	  457.06
     25.5700	  663.00	  630.85	-1913.70	  456.72
     25.6700	  630.00	  628.57	-1944.41	  456.38
     25.7700	  659.00	  627.91	-1914.76	  456.05
     25.8700	  609.00	  628.38	-1965.23	  455.72
     25.9700	  597.00	  629.63	-1978.48	  455.40
     26.0700	  640.00	  631.50	-1937.35	  455.08
     26.1700	  677.00	  633.92	-1902.77	  454.76
     26.2700	  630.00	  636.91	-1952.76	  454.45
     26.3700	  631.00	  640.50	-1955.35	  454.14
     26.4700	  646.00	  644.78	-1944.63	  453.84
     26.5700	  692.00	  649.86	-1903.71	  453.54
     26.6700	  618.00	  655.90	-1983.74	  453.24
     26.7700	  667.00	  663.08	-1941.93	  452.95
     26.8700	  696.00	  671.70	-1921.54	  452.66
     26.9700	  663.00	  682.10	-1964.95	  452.38
     27.0700	  652.00	  694.80	-1988.64	  452.10
     27.1700	  711.00	  710.49	-1945.34	  451.82
     27.2700	  679.00	  730.22	-1997.07	  451.55
     27.3700	  696.00	  755.69	-2005.53	  451.29
     27.4700	  760.00	  790.08	-1975.93	  451.02
     27.5700	  801.00	  840.20	-1985.05	  450.76
     27.6700	  823.00	  920.65	-2043.50	  450.50
     27.7700	  920.00	 1060.29	-2086.14	  450.25
     27.8700	 1042.00	 1309.31	-2213.16	  450.00
     27.9700	 1305.00	 1741.26	-2382.11	  449.76
     28.0700	 1847.00	 2437.44	-2536.29	  449.52
     28.1700	 3138.00	 3441.24	-2249.09	  449.28
     28.2700	 4980.00	 4676.99	-1642.84	  449.04
     28.3700	 6631.00	 5856.29	-1171.13	  448.81
     28.4700	 7404.00	 6469.20	-1011.05	  448.58
     28.5700	 6706.00	 6079.01	-1318.85	  448.36
     28.6700	 4866.00	 4974.88	-2054.72	  448.14
     28.7700	 3553.00	 3947.14	-2339.98	  447.92
     28.8700	 3139.00	 3439.35	-2246.20	  447.71
     28.9700	 3524.00	 3448.19	-1870.03	  447.50
     29.0700	 3944.00	 3702.70	-1704.54	  447.29
     29.1700	 4149.00	 3822.56	-1619.41	  447.09
     29.2700	 3706.00	 3510.00	-1749.85	  446.89
     29.3700	 2806.00	 2829.79	-1969.64	  446.69
     29.4700	 1936.00	 2106.56	-2116.41	  446.50
     29.5700	 1398.00	 1546.17	-2094.01	  446.31
     29.6700	 1051.00	 1186.10	-2080.95	  446.12
     29.7700	  965.00	  981.54	-1962.39	  445.94
     29.8700	  837.00	  870.64	-1979.49	  445.76
     29.9700	  824.00	  807.50	-1929.34	  445.58
     30.0700	  817.00	  767.26	-1896.11	  445.40
     30.1700	  772.00	  738.91	-1912.76	  445.23
     30.2700	  713.00	  717.89	-1950.74	  445.06
     30.3700	  686.00	  702.29	-1962.13	  444.90
     30.4700	  744.00	  691.43	-1893.27	  444.74
     30.5700	  693.00	  685.48	-1938.33	  444.58
     30.6700	  691.00	  685.33	-1940.18	  444.42
     30.7700	  702.00	  692.09	-1935.94	  444.27
     30.8700	  710.00	  706.07	-1941.92	  444.12
     30.9700	  732.00	  725.31	-1939.16	  443.97
     31.0700	  712.00	  744.47	-1978.31	  443.82
     31.1700	  773.00	  754.54	-1927.38	  443.68
     31.2700	  766.00	  746.37	-1926.22	  443.54
     31.3700	  720.00	  720.62	-1946.46	  443.41
     31.4700	  718.00	  689.09	-1916.94	  443.27
     31.5700	  706.00	  661.75	-1901.60	  443.14
     31.6700	  689.00	  641.96	-1898.81	  443.01
     31.7700	  715.00	  629.14	-1859.99	  442.89
     31.8700	  639.00	  621.26	-1928.11	  442.77
     31.9700	  642.00	  616.34	-1920.19	  442.65
     32.0700	  694.00	  613.05	-1864.90	  442.53
     32.1700	  653.00	  610.68	-1903.52	  442.41
     32.2700	  649.00	  608.89	-1905.73	  442.30
     32.3700	  629.00	  607.53	-1924.38	  442.19
     32.4700	  645.00	  606.56	-1907.40	  442.08
     32.5700	  611.00	  605.92	-1940.77	  441.98
     32.6700	  651.00	  605.63	-1900.48	  441.88
     32.7700	  666.00	  605.73	-1885.57	  441.78
     32.8700	  643.00	  606.19	-1909.03	  441.68
     32.9700	  662.00	  607.10	-1890.95	  441.59
     33.0700	  655.00	  608.57	-1899.42	  441.49
     33.1700	  663.00	  610.78	-1893.63	  441.40
     33.2700	  594.00	  614.02	-1965.87	  441.32
     33.3700	  650.00	  618.88	-1914.72	  441.23
     33.4700	  552.00	  626.50	-2020.34	  441.15
     33.5700	  653.00	  639.04	-1931.89	  441.07
     33.6700	  698.00	  660.20	-1908.04	  440.99
     33.7700	  691.00	  695.34	-1950.19	  440.91
     33.8700	  739.00	  750.58	-1957.43	  440.84
     33.9700	  803.00	  829.58	-1972.43	  440.77
     34.0700	  987.00	  928.43	-1887.28	  440.70
     34.1700	 1092.00	 1030.81	-1884.66	  440.63
     34.2700	 1198.00	 1106.26	-1854.10	  440.56
     34.3700	 1197.00	 1118.19	-1867.04	  440.50
     34.4700	 1070.00	 1053.86	-1929.71	  440.44
     34.5700	 1012.00	  945.87	-1879.72	  440.38
     34.6700	  837.00	  837.50	-1946.35	  440.32
     34.7700	  732.00	  751.30	-1965.15	  440.27
     34.8700	  720.00	  691.77	-1917.62	  440.21
     34.9700	  677.00	  654.52	-1923.37	  440.16
     35.0700	  676.00	  632.48	-1902.33	  440.11
     35.1700	  653.00	  619.43	-1912.28	  440.07
     35.2700	  669.00	  611.23	-1888.08	  440.02
     35.3700	  624.00	  605.62	-1927.47	  439.98
     35.4700	  633.00	  601.48	-1914.33	  439.94
     35.5700	  613.00	  598.29	-1931.13	  439.90
     35.6700	  646.00	  595.75	-1895.59	  439.86
     35.7700	  590.00	  593.70	-1949.55	  439.82
     35.8700	  598.00	  592.03	-1939.88	  439.79
     35.9700	  613.00	  590.67	-1923.52	  439.76
     36.0700	  646.00	  589.55	-1889.40	  439.73
     36.1700	  571.00	  588.65	-1963.49	  439.70
     36.2700	  628.00	  587.92	-1905.76	  439.67
     36.3700	  624.00	  587.34	-1909.19	  439.64
     36.4700	  630.00	  586.92	-1902.77	  439.62
     36.5700	  572.00	  586.64	-1960.49	  439.60
     36.6700	  590.00	  586.50	-1942.35	  439.58
     36.7700	  599.00	  586.51	-1933.36	  439.56
     36.8700	  607.00	  586.89	-1925.74	  439.54
     36.9700	  570.00	  587.33	-1963.18	  439.53
     37.0700	  626.00	  588.49	-1908.33	  439.51
     37.1700	  592.00	  589.50	-1943.34	  439.50
     37.2700	  601.00	  591.03	-1935.87	  439.49
     37.3700	  627.00	  593.37	-1912.22	  439.48
     37.4700	  614.00	  597.00	-1928.85	  439.47
     37.5700	  613.00	  602.67	-1935.52	  439.46
     37.6700	  576.00	  611.53	-1981.37	  439.46
     37.7700	  623.00	  624.89	-1947.74	  439.46
     37.8700	  658.00	  643.97	-1931.82	  439.45
     37.9700	  643.00	  669.01	-1971.86	  439.45
     38.0700	  691.00	  696.57	-1951.42	  439.45
     38.1700	  725.00	  725.60	-1946.45	  439.45
     38.2700	  778.00	  746.73	-1914.58	  439.46
     38.3700	  708.00	  750.68	-1988.52	  439.46
     38.4700	  653.00	  733.50	-2026.34	  439.47
     38.5700	  615.00	  702.50	-2033.35	  439.47
     38.6700	  644.00	  669.27	-1971.12	  439.48
     38.7700	  624.00	  641.02	-1962.87	  439.49
     38.8700	  592.00	  620.07	-1973.92	  439.50
     38.9700	  569.00	  605.99	-1982.84	  439.52
     39.0700	  621.00	  597.14	-1921.98	  439.53
     39.1700	  586.00	  591.73	-1951.58	  439.54
     39.2700	  560.00	  588.37	-1974.22	  439.56
     39.3700	  572.00	  586.16	-1960.00	  439.58
     39.4700	  599.00	  584.59	-1931.44	  439.59
     39.5700	  595.00	  582.42	-1933.27	  439.61
     39.6700	  614.00	  581.52	-1913.37	  439.63
     39.7700	  571.00	  580.82	-1955.66	  439.65
     39.8700	  636.00	  580.25	-1890.10	  439.68
     39.9700	  562.00	  579.80	-1963.65	  439.70
     40.0700	  575.00	  579.44	-1950.29	  439.72
     40.1700	  598.00	  579.16	-1927.01	  439.75
     40.2700	  602.00	  578.94	-1922.79	  439.78
     40.3700	  559.00	  578.78	-1965.62	  439.80
     40.4700	  544.00	  578.66	-1980.51	  439.83
     40.5700	  557.00	  578.59	-1967.44	  439.86
     40.6700	  563.00	  579.09	-1961.94	  439.89
     40.7700	  582.00	  579.11	-1942.96	  439.92
