MSG Master    CELL:    5.91976   5.91976  23.28155   90.0000   90.0000  120.0000   SPGR: P 63/m m c             TEMP:   1074.85
  1   1280     2.52000     0.00000    -0.12856     0.00000     0.00000    0
    99     0     2
       0.00000      10.00000
     125.00000     130.00000
 2Theta	Yobs	Ycal	Yobs-Ycal	Backg	Posr	(hkl)	K
      0.7700	    0.00	  535.56	-1731.25	  416.09
      0.8700	    0.00	  536.42	-1731.25	  416.94
      0.9700	   45.00	  537.26	-1731.25	  417.79
      1.0700	   42.00	  538.09	-1731.25	  418.62
      1.1700	   46.00	  538.91	-1731.25	  419.44
      1.2700	   52.00	  539.72	-1731.25	  420.25
      1.3700	   49.00	  540.52	-1731.25	  421.04
      1.4700	  117.00	  541.30	-1731.25	  421.83
      1.5700	  290.00	  542.08	-1731.25	  422.60
      1.6700	  479.00	  542.84	-1731.25	  423.36
      1.7700	  589.00	  543.59	-1731.25	  424.11
      1.8700	  646.00	  544.33	-1731.25	  424.85
      1.9700	  715.00	  545.05	-1731.25	  425.58
      2.0700	  767.00	  545.77	-1731.25	  426.30
      2.1700	  829.00	  546.48	-1731.25	  427.00
      2.2700	  798.00	  547.17	-1731.25	  427.70
      2.3700	  741.00	  547.85	-1731.25	  428.38
      2.4700	  743.00	  548.53	-1731.25	  429.05
      2.5700	  664.00	  549.19	-1731.25	  429.71
      2.6700	  689.00	  549.84	-1731.25	  430.36
      2.7700	  676.00	  550.48	-1731.25	  431.00
      2.8700	  666.00	  551.11	-1731.25	  431.63
      2.9700	  618.00	  551.73	-1731.25	  432.25
      3.0700	  575.00	  552.33	-1731.25	  432.86
      3.1700	  630.00	  552.93	-1731.25	  433.46
      3.2700	  630.00	  553.52	-1731.25	  434.04
      3.3700	  682.00	  554.10	-1731.25	  434.62
      3.4700	  751.00	  554.66	-1731.25	  435.19
      3.5700	  808.00	  555.22	-1731.25	  435.75
      3.6700	  894.00	  555.77	-1731.25	  436.29
      3.7700	  975.00	  556.31	-1731.25	  436.83
      3.8700	  970.00	  556.83	-1731.25	  437.36
      3.9700	  977.00	  557.35	-1731.25	  437.88
      4.0700	 1102.00	  557.86	-1731.25	  438.38
      4.1700	 1093.00	  558.36	-1731.25	  438.88
      4.2700	 1089.00	  558.84	-1731.25	  439.37
      4.3700	 1109.00	  559.32	-1731.25	  439.85
      4.4700	 1104.00	  559.79	-1731.25	  440.32
      4.5700	  991.00	  560.25	-1731.25	  440.78
      4.6700	 1103.00	  560.70	-1731.25	  441.23
      4.7700	  980.00	  561.15	-1731.25	  441.67
      4.8700	  990.00	  561.58	-1731.25	  442.10
      4.9700	  881.00	  562.00	-1731.25	  442.53
      5.0700	  928.00	  562.42	-1731.25	  442.94
      5.1700	  922.00	  562.82	-1731.25	  443.35
      5.2700	  889.00	  563.22	-1731.25	  443.75
      5.3700	  892.00	  563.61	-1731.25	  444.13
      5.4700	  863.00	  563.99	-1731.25	  444.51
      5.5700	  827.00	  564.36	-1731.25	  444.88
      5.6700	  758.00	  564.72	-1731.25	  445.24
      5.7700	  750.00	  565.07	-1731.25	  445.60
      5.8700	  830.00	  565.42	-1731.25	  445.94
      5.9700	  813.00	  565.75	-1731.25	  446.28
      6.0700	  755.00	  566.08	-1731.25	  446.61
      6.1700	  772.00	  566.40	-1731.25	  446.93
      6.2700	  766.00	  566.71	-1731.25	  447.24
      6.3700	  771.00	  567.02	-1731.25	  447.54
      6.4700	  727.00	  567.31	-1731.25	  447.84
      6.5700	  748.00	  567.60	-1731.25	  448.12
      6.6700	  768.00	  567.88	-1731.25	  448.40
      6.7700	  735.00	  568.15	-1731.25	  448.68
      6.8700	  704.00	  568.41	-1731.25	  448.94
      6.9700	  717.00	  568.67	-1731.25	  449.20
      7.0700	  691.00	  568.92	-1731.25	  449.44
      7.1700	  718.00	  569.16	-1731.25	  449.68
      7.2700	  669.00	  569.39	-1731.25	  449.92
      7.3700	  666.00	  569.62	-1731.25	  450.14
      7.4700	  648.00	  569.84	-1731.25	  450.36
      7.5700	  656.00	  570.05	-1731.25	  450.57
      7.6700	  667.00	  570.25	-1731.25	  450.78
      7.7700	  698.00	  570.45	-1731.25	  450.97
      7.8700	  673.00	  570.63	-1731.25	  451.16
      7.9700	  670.00	  570.82	-1731.25	  451.34
      8.0700	  632.00	  570.99	-1731.25	  451.52
      8.1700	  646.00	  571.16	-1731.25	  451.69
      8.2700	  684.00	  571.32	-1731.25	  451.85
      8.3700	  647.00	  571.47	-1731.25	  452.00
      8.4700	  623.00	  571.62	-1731.25	  452.15
      8.5700	  667.00	  571.76	-1731.25	  452.29
      8.6700	  600.00	  571.90	-1731.25	  452.42
      8.7700	  635.00	  572.02	-1731.25	  452.55
      8.8700	  626.00	  572.14	-1731.25	  452.67
      8.9700	  644.00	  572.26	-1731.25	  452.78
      9.0700	  573.00	  572.37	-1731.25	  452.89
      9.1700	  631.00	  572.47	-1731.25	  452.99
      9.2700	  584.00	  572.56	-1731.25	  453.09
      9.3700	  625.00	  572.65	-1731.25	  453.18
      9.4700	  667.00	  572.73	-1731.25	  453.26
      9.5700	  621.00	  572.81	-1731.25	  453.33
      9.6700	  606.00	  572.88	-1731.25	  453.40
      9.7700	  609.00	  572.94	-1731.25	  453.47
      9.8700	  606.00	  573.00	-1731.25	  453.53
      9.9700	  595.00	  573.05	-1731.25	  453.58
     10.0700	  570.00	  574.20	-1735.45	  453.62
     10.1700	  553.00	  574.37	-1752.62	  453.66
     10.2700	  605.00	  574.56	-1700.81	  453.70
     10.3700	  586.00	  574.80	-1720.05	  453.73
     10.4700	  623.00	  575.11	-1683.36	  453.75
     10.5700	  567.00	  575.57	-1739.82	  453.77
     10.6700	  564.00	  576.28	-1743.53	  453.78
     10.7700	  613.00	  577.34	-1695.59	  453.79
     10.8700	  589.00	  578.84	-1721.09	  453.79
     10.9700	  607.00	  580.77	-1705.02	  453.78
     11.0700	  589.00	  583.09	-1725.34	  453.77
     11.1700	  583.00	  585.82	-1734.07	  453.76
     11.2700	  612.00	  589.00	-1708.25	  453.74
     11.3700	  547.00	  592.72	-1776.97	  453.71
     11.4700	  594.00	  597.14	-1734.39	  453.68
     11.5700	  632.00	  602.50	-1701.75	  453.65
     11.6700	  594.00	  609.22	-1746.47	  453.61
     11.7700	  637.00	  617.95	-1712.20	  453.56
     11.8700	  653.00	  629.49	-1707.74	  453.51
     11.9700	  656.00	  643.96	-1719.21	  453.45
     12.0700	  716.00	  659.03	-1674.28	  453.39
     12.1700	  698.00	  668.36	-1701.61	  453.33
     12.2700	  672.00	  663.02	-1722.27	  453.26
     12.3700	  643.00	  641.58	-1729.83	  453.19
     12.4700	  636.00	  616.36	-1711.61	  453.11
     12.5700	  624.00	  597.45	-1704.70	  453.02
     12.6700	  612.00	  586.40	-1705.65	  452.93
     12.7700	  601.00	  580.87	-1711.12	  452.84
     12.8700	  608.00	  578.15	-1701.40	  452.75
     12.9700	  546.00	  576.64	-1761.89	  452.64
     13.0700	  545.00	  575.64	-1761.89	  452.54
     13.1700	  579.00	  574.90	-1727.15	  452.43
     13.2700	  554.00	  574.31	-1751.56	  452.31
     13.3700	  582.00	  573.83	-1723.08	  452.20
     13.4700	  501.00	  573.42	-1803.67	  452.07
     13.5700	  564.00	  573.07	-1740.32	  451.95
     13.6700	  559.00	  572.75	-1745.00	  451.82
     13.7700	  565.00	  572.46	-1738.71	  451.68
     13.8700	  562.00	  572.19	-1741.44	  451.54
     13.9700	  565.00	  571.94	-1738.19	  451.40
     14.0700	  557.00	  571.71	-1745.96	  451.26
     14.1700	  553.00	  571.48	-1749.73	  451.11
     14.2700	  546.00	  571.26	-1756.51	  450.95
     14.3700	  580.00	  571.04	-1722.29	  450.79
     14.4700	  539.00	  570.83	-1763.08	  450.63
     14.5700	  595.00	  570.62	-1706.87	  450.47
     14.6700	  537.00	  570.41	-1764.66	  450.30
     14.7700	  554.00	  570.20	-1747.45	  450.13
     14.8700	  552.00	  569.99	-1749.24	  449.95
     14.9700	  590.00	  569.78	-1711.03	  449.78
     15.0700	  566.00	  569.58	-1734.83	  449.59
     15.1700	  600.00	  569.37	-1700.62	  449.41
     15.2700	  578.00	  569.16	-1722.41	  449.22
     15.3700	  549.00	  568.95	-1751.20	  449.03
     15.4700	  534.00	  568.76	-1766.01	  448.83
     15.5700	  605.00	  568.55	-1694.80	  448.63
     15.6700	  567.00	  568.33	-1732.58	  448.43
     15.7700	  559.00	  568.11	-1740.36	  448.23
     15.8700	  574.00	  567.89	-1725.14	  448.02
     15.9700	  571.00	  567.67	-1727.92	  447.81
     16.0700	  571.00	  567.45	-1727.70	  447.60
     16.1700	  528.00	  567.22	-1770.47	  447.38
     16.2700	  559.00	  566.99	-1739.24	  447.16
     16.3700	  583.00	  566.77	-1715.02	  446.94
     16.4700	  567.00	  566.53	-1730.78	  446.71
     16.5700	  533.00	  566.30	-1764.55	  446.49
     16.6700	  502.00	  566.06	-1795.31	  446.26
     16.7700	  577.00	  565.82	-1720.07	  446.02
     16.8700	  561.00	  565.58	-1735.83	  445.79
     16.9700	  597.00	  565.34	-1699.59	  445.55
     17.0700	  589.00	  565.10	-1707.35	  445.31
     17.1700	  572.00	  564.85	-1724.10	  445.07
     17.2700	  591.00	  564.60	-1704.85	  444.82
     17.3700	  556.00	  564.35	-1739.60	  444.57
     17.4700	  551.00	  564.09	-1744.34	  444.32
     17.5700	  520.00	  563.84	-1775.09	  444.07
     17.6700	  566.00	  563.58	-1728.83	  443.81
     17.7700	  541.00	  563.32	-1753.57	  443.56
     17.8700	  567.00	  563.06	-1727.31	  443.30
     17.9700	  595.00	  562.80	-1699.05	  443.03
     18.0700	  576.00	  562.53	-1717.78	  442.77
     18.1700	  529.00	  562.37	-1764.62	  442.50
     18.2700	  531.00	  562.10	-1762.35	  442.24
     18.3700	  537.00	  561.83	-1756.08	  441.97
     18.4700	  548.00	  561.56	-1744.81	  441.69
     18.5700	  540.00	  561.29	-1752.54	  441.42
     18.6700	  562.00	  561.01	-1730.26	  441.14
     18.7700	  567.00	  560.74	-1724.99	  440.86
     18.8700	  580.00	  560.54	-1711.79	  440.58
     18.9700	  548.00	  560.26	-1743.51	  440.30
     19.0700	  588.00	  559.98	-1703.23	  440.02
     19.1700	  535.00	  559.70	-1755.95	  439.73
     19.2700	  594.00	  559.42	-1696.67	  439.45
     19.3700	  565.00	  559.14	-1725.39	  439.16
     19.4700	  539.00	  558.85	-1751.10	  438.87
     19.5700	  521.00	  558.57	-1768.82	  438.58
     19.6700	  577.00	  558.28	-1712.53	  438.28
     19.7700	  592.00	  558.00	-1697.25	  437.99
     19.8700	  526.00	  557.71	-1762.96	  437.69
     19.9700	  534.00	  557.42	-1754.67	  437.39
     20.0700	  543.00	  557.13	-1745.38	  437.09
     20.1700	  570.00	  556.84	-1718.09	  436.79
     20.2700	  551.00	  556.54	-1736.79	  436.49
     20.3700	  545.00	  556.25	-1742.50	  436.19
     20.4700	  555.00	  555.96	-1732.21	  435.88
     20.5700	  536.00	  555.66	-1750.91	  435.58
     20.6700	  545.00	  555.37	-1741.62	  435.27
     20.7700	  574.00	  555.11	-1712.36	  434.96
     20.8700	  529.00	  554.81	-1757.06	  434.65
     20.9700	  522.00	  554.52	-1763.77	  434.34
     21.0700	  580.00	  554.22	-1705.47	  434.03
     21.1700	  520.00	  553.93	-1765.18	  433.71
     21.2700	  562.00	  553.59	-1722.84	  433.40
     21.3700	  540.00	  553.30	-1744.55	  433.08
     21.4700	  541.00	  553.01	-1743.26	  432.77
     21.5700	  508.00	  552.71	-1775.96	  432.45
     21.6700	  595.00	  552.42	-1688.67	  432.13
     21.7700	  541.00	  552.13	-1742.38	  431.81
     21.8700	  551.00	  551.84	-1732.09	  431.49
     21.9700	  550.00	  551.56	-1732.81	  431.17
     22.0700	  539.00	  551.27	-1743.52	  430.85
     22.1700	  540.00	  550.99	-1742.24	  430.53
     22.2700	  536.00	  550.71	-1745.96	  430.20
     22.3700	  552.00	  550.43	-1729.68	  429.88
     22.4700	  555.00	  550.16	-1726.41	  429.56
     22.5700	  587.00	  549.90	-1694.15	  429.23
     22.6700	  532.00	  549.63	-1748.88	  428.90
     22.7700	  570.00	  549.38	-1710.63	  428.58
     22.8700	  547.00	  549.14	-1733.39	  428.25
     22.9700	  513.00	  548.91	-1767.16	  427.92
     23.0700	  559.00	  548.69	-1720.94	  427.60
     23.1700	  512.00	  548.49	-1767.74	  427.27
     23.2700	  569.00	  548.31	-1710.56	  426.94
     23.3700	  576.00	  548.16	-1703.41	  426.61
     23.4700	  535.00	  548.20	-1744.45	  426.28
     23.5700	  540.00	  548.15	-1739.40	  425.95
     23.6700	  510.00	  548.18	-1769.43	  425.62
     23.7700	  527.00	  548.34	-1752.59	  425.29
     23.8700	  544.00	  548.75	-1736.00	  424.95
     23.9700	  593.00	  549.62	-1687.87	  424.62
     24.0700	  557.00	  551.35	-1725.60	  424.29
     24.1700	  536.00	  554.50	-1749.75	  423.96
     24.2700	  565.00	  559.78	-1726.03	  423.63
     24.3700	  588.00	  567.93	-1711.18	  423.29
     24.4700	  637.00	  579.53	-1673.78	  422.96
     24.5700	  586.00	  594.13	-1739.38	  422.63
     24.6700	  589.00	  608.89	-1751.14	  422.29
     24.7700	  562.00	  617.62	-1786.87	  421.96
     24.8700	  665.00	  613.09	-1679.34	  421.63
     24.9700	  636.00	  596.02	-1691.27	  421.29
     25.0700	  617.00	  576.54	-1690.79	  420.96
     25.1700	  575.00	  561.79	-1718.04	  420.63
     25.2700	  598.00	  552.94	-1686.19	  420.30
     25.3700	  531.00	  548.35	-1748.60	  419.96
     25.4700	  563.00	  546.04	-1714.29	  419.63
     25.5700	  569.00	  544.75	-1707.00	  419.30
     25.6700	  527.00	  543.90	-1748.15	  418.96
     25.7700	  558.00	  543.28	-1716.53	  418.63
     25.8700	  543.00	  542.81	-1731.06	  418.30
     25.9700	  530.00	  542.45	-1743.70	  417.97
     26.0700	  520.00	  542.17	-1753.42	  417.63
     26.1700	  560.00	  541.98	-1713.23	  417.30
     26.2700	  588.00	  541.86	-1685.11	  416.97
     26.3700	  566.00	  541.83	-1707.08	  416.64
     26.4700	  554.00	  541.87	-1719.12	  416.31
     26.5700	  576.00	  542.02	-1697.27	  415.98
     26.6700	  490.00	  542.28	-1783.53	  415.65
     26.7700	  571.00	  542.67	-1702.92	  415.32
     26.8700	  509.00	  543.24	-1765.49	  414.99
     26.9700	  609.00	  544.03	-1666.28	  414.66
     27.0700	  552.00	  545.12	-1724.37	  414.33
     27.1700	  555.00	  546.65	-1722.90	  414.00
     27.2700	  558.00	  548.87	-1722.12	  413.67
     27.3700	  592.00	  552.31	-1691.56	  413.35
     27.4700	  554.00	  558.00	-1735.25	  413.02
     27.5700	  588.00	  567.83	-1711.08	  412.69
     27.6700	  620.00	  584.78	-1696.03	  412.37
     27.7700	  571.00	  612.72	-1772.97	  412.04
     27.8700	  609.00	  655.02	-1777.27	  411.72
     27.9700	  686.00	  711.82	-1757.07	  411.39
     28.0700	  806.00	  776.28	-1701.53	  411.07
     28.1700	  895.00	  831.38	-1667.63	  410.75
     28.2700	  961.00	  851.91	-1622.16	  410.43
     28.3700	  874.00	  824.29	-1681.54	  410.11
     28.4700	  770.00	  773.46	-1734.71	  409.78
     28.5700	  685.00	  736.97	-1783.22	  409.47
     28.6700	  702.00	  730.77	-1760.02	  409.15
     28.7700	  723.00	  749.39	-1757.64	  408.83
     28.8700	  794.00	  772.84	-1710.09	  408.51
     28.9700	  820.00	  774.42	-1685.67	  408.19
     29.0700	  726.00	  738.71	-1743.96	  407.88
     29.1700	  725.00	  681.25	-1687.50	  407.56
     29.2700	  595.00	  627.61	-1763.86	  407.25
     29.3700	  600.00	  589.34	-1720.59	  406.93
     29.4700	  570.00	  566.34	-1727.59	  406.62
     29.5700	  562.00	  553.92	-1723.17	  406.31
     29.6700	  584.00	  547.32	-1694.57	  406.00
     29.7700	  558.00	  543.55	-1716.80	  405.69
     29.8700	  566.00	  541.19	-1706.44	  405.38
     29.9700	  558.00	  539.69	-1712.94	  405.07
     30.0700	  575.00	  538.96	-1695.21	  404.77
     30.1700	  556.00	  539.15	-1714.40	  404.46
     30.2700	  570.00	  540.79	-1702.04	  404.15
     30.3700	  597.00	  544.83	-1679.08	  403.85
     30.4700	  593.00	  552.71	-1690.96	  403.55
     30.5700	  544.00	  565.81	-1753.06	  403.25
     30.6700	  612.00	  584.33	-1703.58	  402.94
     30.7700	  669.00	  605.66	-1667.91	  402.64
     30.8700	  598.00	  623.56	-1756.81	  402.35
     30.9700	  595.00	  628.84	-1765.09	  402.05
     31.0700	  636.00	  615.93	-1711.18	  401.75
     31.1700	  579.00	  591.72	-1743.97	  401.46
     31.2700	  574.00	  567.92	-1725.17	  401.16
     31.3700	  540.00	  550.40	-1741.65	  400.87
     31.4700	  539.00	  539.67	-1731.92	  400.58
     31.5700	  526.00	  533.85	-1739.10	  400.29
     31.6700	  563.00	  530.81	-1699.06	  400.00
     31.7700	  516.00	  529.11	-1744.36	  399.71
     31.8700	  543.00	  528.05	-1716.30	  399.42
     31.9700	  531.00	  527.34	-1727.59	  399.14
     32.0700	  565.00	  526.85	-1693.10	  398.85
     32.1700	  534.00	  526.55	-1723.80	  398.57
     32.2700	  536.00	  526.42	-1721.67	  398.29
     32.3700	  566.00	  526.44	-1691.69	  398.01
     32.4700	  525.00	  526.64	-1732.89	  397.73
     32.5700	  559.00	  527.04	-1699.29	  397.45
     32.6700	  533.00	  527.66	-1725.91	  397.17
     32.7700	  555.00	  528.57	-1704.82	  396.90
     32.8700	  575.00	  529.85	-1686.10	  396.62
     32.9700	  536.00	  531.65	-1726.90	  396.35
     33.0700	  589.00	  534.23	-1676.48	  396.08
     33.1700	  572.00	  538.20	-1697.45	  395.81
     33.2700	  508.00	  544.82	-1768.07	  395.54
     33.3700	  517.00	  556.76	-1771.01	  395.27
     33.4700	  602.00	  578.90	-1708.15	  395.01
     33.5700	  568.00	  618.48	-1781.73	  394.74
     33.6700	  670.00	  683.07	-1744.32	  394.48
     33.7700	  822.00	  774.64	-1683.89	  394.22
     33.8700	  855.00	  881.65	-1757.90	  393.96
     33.9700	 1080.00	  974.42	-1625.67	  393.70
     34.0700	 1108.00	 1009.87	-1633.12	  393.44
     34.1700	 1063.00	  959.92	-1628.17	  393.18
     34.2700	  884.00	  851.06	-1698.31	  392.93
     34.3700	  716.00	  736.85	-1752.10	  392.68
     34.4700	  656.00	  648.49	-1723.74	  392.43
     34.5700	  559.00	  592.07	-1764.32	  392.18
     34.6700	  546.00	  560.65	-1745.90	  391.93
     34.7700	  549.00	  544.33	-1726.58	  391.68
     34.8700	  536.00	  535.57	-1730.82	  391.44
     34.9700	  516.00	  530.28	-1745.53	  391.19
     35.0700	  548.00	  526.62	-1709.87	  390.95
     35.1700	  501.00	  523.87	-1754.12	  390.71
     35.2700	  541.00	  521.69	-1711.94	  390.47
     35.3700	  481.00	  519.93	-1770.18	  390.23
     35.4700	  528.00	  518.46	-1721.71	  390.00
     35.5700	  506.00	  517.23	-1742.48	  389.77
     35.6700	  580.00	  516.17	-1667.42	  389.53
     35.7700	  502.00	  515.26	-1744.51	  389.30
     35.8700	  562.00	  514.46	-1683.71	  389.07
     35.9700	  535.00	  513.75	-1710.00	  388.84
     36.0700	  521.00	  513.12	-1723.37	  388.62
     36.1700	  480.00	  513.00	-1764.25	  388.39
     36.2700	  519.00	  512.50	-1724.75	  388.17
     36.3700	  507.00	  512.04	-1736.29	  387.95
     36.4700	  523.00	  511.63	-1719.88	  387.73
     36.5700	  483.00	  511.27	-1759.52	  387.51
     36.6700	  537.00	  510.96	-1705.21	  387.30
     36.7700	  537.00	  510.70	-1704.95	  387.08
     36.8700	  524.00	  510.54	-1717.79	  386.87
     36.9700	  476.00	  510.54	-1765.79	  386.66
     37.0700	  490.00	  510.85	-1752.10	  386.45
     37.1700	  508.00	  511.71	-1734.96	  386.24
     37.2700	  553.00	  513.43	-1691.68	  386.04
     37.3700	  496.00	  516.18	-1751.43	  385.83
     37.4700	  491.00	  519.79	-1760.04	  385.63
     37.5700	  497.00	  523.46	-1757.71	  385.43
     37.6700	  547.00	  525.78	-1710.03	  385.23
     37.7700	  503.00	  525.42	-1753.67	  385.03
     37.8700	  532.00	  522.46	-1721.71	  384.84
     37.9700	  481.00	  518.42	-1768.67	  384.64
     38.0700	  507.00	  514.62	-1738.87	  384.45
     38.1700	  485.00	  511.58	-1757.83	  384.26
     38.2700	  509.00	  509.38	-1731.63	  384.07
     38.3700	  488.00	  507.90	-1751.15	  383.89
     38.4700	  518.00	  506.93	-1720.18	  383.70
     38.5700	  502.00	  506.19	-1735.44	  383.52
     38.6700	  541.00	  505.73	-1695.98	  383.34
     38.7700	  497.00	  505.38	-1739.63	  383.16
     38.8700	  515.00	  505.09	-1721.34	  382.98
     38.9700	  503.00	  504.83	-1733.08	  382.80
     39.0700	  504.00	  504.75	-1732.00	  382.63
     39.1700	  549.00	  504.54	-1686.79	  382.46
     39.2700	  491.00	  504.27	-1744.52	  382.29
     39.3700	  475.00	  504.09	-1760.34	  382.12
     39.4700	  508.00	  503.92	-1727.17	  381.95
     39.5700	  540.00	  503.76	-1695.01	  381.79
     39.6700	  527.00	  503.61	-1707.86	  381.62
     39.7700	  496.00	  503.47	-1738.72	  381.46
     39.8700	  469.00	  503.34	-1765.59	  381.30
     39.9700	  483.00	  503.22	-1751.47	  381.14
     40.0700	  493.00	  503.11	-1741.36	  380.99
     40.1700	  505.00	  503.01	-1729.26	  380.83
     40.2700	  482.00	  502.92	-1752.17	  380.68
     40.3700	  526.00	  502.85	-1708.10	  380.53
     40.4700	  432.00	  502.78	-1802.03	  380.38
     40.5700	  501.00	  502.74	-1732.99	  380.23
     40.6700	  497.00	  502.71	-1736.96	  380.09
     40.7700	  535.00	  502.70	-1698.95	  379.94
