MSG Master    CELL:    5.91904   5.91904  23.26667   90.0000   90.0000  120.0000   SPGR: P 63/m m c             TEMP:   1074.95
  1   1280     2.52000     0.00000    -0.13172     0.00000     0.00000    0
    99     0     2
       0.00000      10.00000
     125.00000     130.00000
 2Theta	Yobs	Ycal	Yobs-Ycal	Backg	Posr	(hkl)	K
      0.7700	    0.00	  563.52	-1760.75	  445.94
      0.8700	    0.00	  564.08	-1760.75	  446.49
      0.9700	   44.00	  564.63	-1760.75	  447.04
      1.0700	   37.00	  565.17	-1760.75	  447.58
      1.1700	   50.00	  565.70	-1760.75	  448.11
      1.2700	   37.00	  566.22	-1760.75	  448.63
      1.3700	   49.00	  566.73	-1760.75	  449.15
      1.4700	   92.00	  567.23	-1760.75	  449.65
      1.5700	  279.00	  567.72	-1760.75	  450.14
      1.6700	  440.00	  568.21	-1760.75	  450.62
      1.7700	  571.00	  568.68	-1760.75	  451.09
      1.8700	  663.00	  569.14	-1760.75	  451.56
      1.9700	  714.00	  569.60	-1760.75	  452.01
      2.0700	  759.00	  570.04	-1760.75	  452.46
      2.1700	  778.00	  570.48	-1760.75	  452.89
      2.2700	  812.00	  570.91	-1760.75	  453.32
      2.3700	  681.00	  571.33	-1760.75	  453.74
      2.4700	  690.00	  571.74	-1760.75	  454.15
      2.5700	  701.00	  572.14	-1760.75	  454.55
      2.6700	  689.00	  572.53	-1760.75	  454.94
      2.7700	  635.00	  572.91	-1760.75	  455.33
      2.8700	  571.00	  573.29	-1760.75	  455.70
      2.9700	  642.00	  573.65	-1760.75	  456.07
      3.0700	  628.00	  574.01	-1760.75	  456.43
      3.1700	  603.00	  574.36	-1760.75	  456.78
      3.2700	  609.00	  574.70	-1760.75	  457.12
      3.3700	  671.00	  575.04	-1760.75	  457.45
      3.4700	  726.00	  575.36	-1760.75	  457.77
      3.5700	  780.00	  575.68	-1760.75	  458.09
      3.6700	  852.00	  575.99	-1760.75	  458.40
      3.7700	  935.00	  576.29	-1760.75	  458.70
      3.8700	  916.00	  576.58	-1760.75	  458.99
      3.9700	  971.00	  576.86	-1760.75	  459.28
      4.0700	 1038.00	  577.14	-1760.75	  459.55
      4.1700	 1088.00	  577.41	-1760.75	  459.82
      4.2700	 1115.00	  577.67	-1760.75	  460.09
      4.3700	 1065.00	  577.92	-1760.75	  460.34
      4.4700	 1044.00	  578.17	-1760.75	  460.58
      4.5700	  974.00	  578.41	-1760.75	  460.82
      4.6700	 1061.00	  578.64	-1760.75	  461.05
      4.7700	 1010.00	  578.86	-1760.75	  461.28
      4.8700	  983.00	  579.08	-1760.75	  461.49
      4.9700	  977.00	  579.29	-1760.75	  461.70
      5.0700	  987.00	  579.49	-1760.75	  461.91
      5.1700	  930.00	  579.69	-1760.75	  462.10
      5.2700	  903.00	  579.87	-1760.75	  462.29
      5.3700	  917.00	  580.05	-1760.75	  462.47
      5.4700	  858.00	  580.23	-1760.75	  462.64
      5.5700	  865.00	  580.39	-1760.75	  462.81
      5.6700	  864.00	  580.55	-1760.75	  462.97
      5.7700	  832.00	  580.71	-1760.75	  463.12
      5.8700	  840.00	  580.85	-1760.75	  463.27
      5.9700	  802.00	  580.99	-1760.75	  463.41
      6.0700	  769.00	  581.13	-1760.75	  463.54
      6.1700	  801.00	  581.25	-1760.75	  463.67
      6.2700	  776.00	  581.37	-1760.75	  463.78
      6.3700	  811.00	  581.48	-1760.75	  463.90
      6.4700	  752.00	  581.59	-1760.75	  464.00
      6.5700	  772.00	  581.69	-1760.75	  464.11
      6.6700	  746.00	  581.78	-1760.75	  464.20
      6.7700	  712.00	  581.87	-1760.75	  464.29
      6.8700	  694.00	  581.95	-1760.75	  464.37
      6.9700	  762.00	  582.03	-1760.75	  464.44
      7.0700	  675.00	  582.10	-1760.75	  464.51
      7.1700	  742.00	  582.16	-1760.75	  464.58
      7.2700	  700.00	  582.22	-1760.75	  464.63
      7.3700	  653.00	  582.27	-1760.75	  464.68
      7.4700	  712.00	  582.32	-1760.75	  464.73
      7.5700	  666.00	  582.36	-1760.75	  464.77
      7.6700	  653.00	  582.39	-1760.75	  464.80
      7.7700	  624.00	  582.42	-1760.75	  464.83
      7.8700	  658.00	  582.44	-1760.75	  464.85
      7.9700	  627.00	  582.46	-1760.75	  464.87
      8.0700	  604.00	  582.47	-1760.75	  464.88
      8.1700	  630.00	  582.47	-1760.75	  464.89
      8.2700	  649.00	  582.47	-1760.75	  464.89
      8.3700	  628.00	  582.47	-1760.75	  464.88
      8.4700	  687.00	  582.46	-1760.75	  464.87
      8.5700	  592.00	  582.44	-1760.75	  464.86
      8.6700	  631.00	  582.42	-1760.75	  464.84
      8.7700	  602.00	  582.40	-1760.75	  464.81
      8.8700	  652.00	  582.36	-1760.75	  464.78
      8.9700	  601.00	  582.33	-1760.75	  464.74
      9.0700	  576.00	  582.29	-1760.75	  464.70
      9.1700	  623.00	  582.24	-1760.75	  464.65
      9.2700	  564.00	  582.19	-1760.75	  464.60
      9.3700	  597.00	  582.13	-1760.75	  464.55
      9.4700	  579.00	  582.07	-1760.75	  464.49
      9.5700	  608.00	  582.00	-1760.75	  464.42
      9.6700	  609.00	  581.93	-1760.75	  464.35
      9.7700	  571.00	  581.86	-1760.75	  464.27
      9.8700	  582.00	  581.78	-1760.75	  464.19
      9.9700	  615.00	  581.69	-1760.75	  464.11
     10.0700	  598.00	  582.28	-1745.03	  464.02
     10.1700	  649.00	  582.25	-1694.00	  463.92
     10.2700	  607.00	  582.24	-1735.99	  463.83
     10.3700	  580.00	  582.25	-1763.00	  463.72
     10.4700	  587.00	  582.30	-1756.05	  463.62
     10.5700	  589.00	  582.45	-1754.20	  463.51
     10.6700	  595.00	  582.79	-1748.54	  463.39
     10.7700	  600.00	  583.42	-1744.17	  463.27
     10.8700	  597.00	  584.40	-1748.15	  463.15
     10.9700	  576.00	  585.73	-1770.48	  463.02
     11.0700	  585.00	  587.38	-1763.13	  462.88
     11.1700	  583.00	  589.32	-1767.07	  462.75
     11.2700	  603.00	  591.59	-1749.34	  462.61
     11.3700	  573.00	  594.28	-1782.03	  462.46
     11.4700	  573.00	  597.49	-1785.24	  462.32
     11.5700	  601.00	  601.41	-1761.16	  462.16
     11.6700	  596.00	  606.37	-1771.11	  462.01
     11.7700	  656.00	  612.91	-1717.66	  461.85
     11.8700	  618.00	  621.98	-1764.73	  461.68
     11.9700	  656.00	  634.34	-1739.09	  461.52
     12.0700	  689.00	  648.65	-1720.40	  461.35
     12.1700	  695.00	  658.86	-1724.61	  461.17
     12.2700	  697.00	  655.33	-1719.08	  460.99
     12.3700	  619.00	  635.43	-1777.18	  460.81
     12.4700	  630.00	  611.72	-1742.47	  460.63
     12.5700	  617.00	  594.94	-1738.69	  460.44
     12.6700	  585.00	  586.25	-1762.00	  460.25
     12.7700	  585.00	  582.49	-1758.24	  460.05
     12.8700	  554.00	  580.79	-1787.54	  459.85
     12.9700	  563.00	  579.82	-1777.57	  459.65
     13.0700	  559.00	  579.12	-1780.87	  459.45
     13.1700	  604.00	  578.56	-1735.31	  459.24
     13.2700	  531.00	  578.08	-1807.83	  459.03
     13.3700	  543.00	  577.67	-1795.42	  458.81
     13.4700	  570.00	  577.29	-1768.04	  458.60
     13.5700	  553.00	  576.94	-1784.69	  458.37
     13.6700	  562.00	  576.62	-1775.37	  458.15
     13.7700	  528.00	  576.30	-1809.05	  457.92
     13.8700	  568.00	  576.00	-1768.75	  457.70
     13.9700	  585.00	  575.71	-1751.46	  457.46
     14.0700	  562.00	  575.43	-1774.18	  457.23
     14.1700	  594.00	  575.15	-1741.90	  456.99
     14.2700	  590.00	  574.87	-1745.62	  456.75
     14.3700	  559.00	  574.59	-1776.34	  456.51
     14.4700	  597.00	  574.32	-1738.07	  456.26
     14.5700	  546.00	  574.05	-1788.80	  456.01
     14.6700	  588.00	  573.77	-1746.52	  455.76
     14.7700	  573.00	  573.50	-1761.25	  455.51
     14.8700	  556.00	  573.23	-1777.98	  455.25
     14.9700	  539.00	  572.95	-1794.70	  454.99
     15.0700	  561.00	  572.68	-1772.43	  454.73
     15.1700	  586.00	  572.40	-1747.15	  454.47
     15.2700	  613.00	  572.12	-1719.87	  454.20
     15.3700	  563.00	  571.85	-1769.60	  453.94
     15.4700	  564.00	  571.57	-1768.32	  453.67
     15.5700	  558.00	  571.28	-1774.03	  453.39
     15.6700	  542.00	  571.00	-1789.75	  453.12
     15.7700	  590.00	  570.72	-1741.47	  452.84
     15.8700	  568.00	  570.43	-1763.18	  452.56
     15.9700	  588.00	  570.14	-1742.89	  452.28
     16.0700	  590.00	  569.86	-1740.61	  452.00
     16.1700	  582.00	  569.56	-1748.31	  451.71
     16.2700	  611.00	  569.27	-1719.02	  451.42
     16.3700	  514.00	  569.00	-1815.75	  451.14
     16.4700	  577.00	  568.71	-1752.46	  450.84
     16.5700	  553.00	  568.41	-1776.16	  450.55
     16.6700	  577.00	  568.12	-1751.87	  450.26
     16.7700	  579.00	  567.82	-1749.57	  449.96
     16.8700	  541.00	  567.52	-1787.27	  449.66
     16.9700	  494.00	  567.21	-1833.96	  449.36
     17.0700	  523.00	  566.91	-1804.66	  449.06
     17.1700	  588.00	  566.60	-1739.35	  448.75
     17.2700	  581.00	  566.30	-1746.05	  448.45
     17.3700	  585.00	  565.99	-1741.74	  448.14
     17.4700	  541.00	  565.68	-1785.43	  447.83
     17.5700	  554.00	  565.37	-1772.12	  447.52
     17.6700	  548.00	  565.05	-1777.80	  447.21
     17.7700	  556.00	  564.74	-1769.49	  446.90
     17.8700	  606.00	  564.53	-1719.28	  446.58
     17.9700	  557.00	  564.21	-1767.96	  446.27
     18.0700	  559.00	  563.89	-1765.64	  445.95
     18.1700	  540.00	  563.58	-1784.33	  445.63
     18.2700	  522.00	  563.26	-1802.01	  445.31
     18.3700	  560.00	  562.94	-1763.69	  444.99
     18.4700	  550.00	  562.62	-1773.37	  444.67
     18.5700	  557.00	  562.30	-1766.05	  444.34
     18.6700	  599.00	  561.98	-1723.73	  444.02
     18.7700	  545.00	  561.65	-1777.40	  443.69
     18.8700	  571.00	  561.42	-1751.17	  443.36
     18.9700	  552.00	  561.10	-1769.85	  443.04
     19.0700	  562.00	  560.78	-1759.53	  442.71
     19.1700	  560.00	  560.45	-1761.20	  442.38
     19.2700	  531.00	  560.13	-1789.88	  442.04
     19.3700	  546.00	  559.80	-1774.55	  441.71
     19.4700	  527.00	  559.47	-1793.22	  441.38
     19.5700	  618.00	  559.15	-1701.90	  441.04
     19.6700	  583.00	  558.82	-1736.57	  440.71
     19.7700	  526.00	  558.49	-1793.24	  440.37
     19.8700	  556.00	  558.16	-1762.91	  440.03
     19.9700	  543.00	  557.83	-1775.58	  439.69
     20.0700	  559.00	  557.50	-1759.25	  439.36
     20.1700	  523.00	  557.17	-1794.92	  439.02
     20.2700	  513.00	  556.84	-1804.59	  438.68
     20.3700	  515.00	  556.49	-1802.24	  438.33
     20.4700	  562.00	  556.16	-1754.91	  437.99
     20.5700	  512.00	  555.83	-1804.58	  437.65
     20.6700	  524.00	  555.50	-1792.25	  437.31
     20.7700	  521.00	  555.17	-1794.92	  436.96
     20.8700	  561.00	  554.84	-1754.59	  436.62
     20.9700	  578.00	  554.55	-1737.30	  436.27
     21.0700	  566.00	  554.22	-1748.97	  435.93
     21.1700	  528.00	  553.89	-1786.64	  435.58
     21.2700	  530.00	  553.56	-1784.31	  435.24
     21.3700	  579.00	  553.24	-1734.99	  434.89
     21.4700	  582.00	  552.91	-1731.66	  434.54
     21.5700	  537.00	  552.59	-1776.34	  434.20
     21.6700	  511.00	  552.27	-1802.02	  433.85
     21.7700	  568.00	  551.94	-1744.69	  433.50
     21.8700	  612.00	  551.63	-1700.38	  433.15
     21.9700	  539.00	  551.31	-1773.06	  432.80
     22.0700	  546.00	  550.99	-1765.74	  432.45
     22.1700	  539.00	  550.68	-1772.43	  432.10
     22.2700	  586.00	  550.37	-1725.12	  431.75
     22.3700	  525.00	  550.06	-1785.81	  431.40
     22.4700	  564.00	  549.76	-1746.51	  431.05
     22.5700	  572.00	  549.46	-1738.21	  430.70
     22.6700	  589.00	  549.17	-1720.92	  430.35
     22.7700	  549.00	  548.89	-1760.64	  430.00
     22.8700	  551.00	  548.61	-1758.36	  429.65
     22.9700	  536.00	  548.35	-1773.10	  429.30
     23.0700	  591.00	  548.09	-1717.84	  428.95
     23.1700	  545.00	  547.85	-1763.60	  428.60
     23.2700	  558.00	  547.63	-1750.38	  428.25
     23.3700	  556.00	  547.44	-1752.19	  427.90
     23.4700	  569.00	  547.28	-1739.03	  427.55
     23.5700	  549.00	  547.16	-1758.91	  427.20
     23.6700	  566.00	  547.11	-1741.86	  426.85
     23.7700	  584.00	  547.16	-1723.91	  426.50
     23.8700	  504.00	  547.55	-1804.30	  426.15
     23.9700	  559.00	  548.24	-1749.99	  425.80
     24.0700	  534.00	  549.83	-1776.58	  425.45
     24.1700	  554.00	  553.03	-1759.78	  425.10
     24.2700	  581.00	  558.75	-1738.50	  424.75
     24.3700	  570.00	  568.04	-1758.79	  424.40
     24.4700	  566.00	  582.14	-1776.89	  424.05
     24.5700	  596.00	  601.58	-1766.33	  423.71
     24.6700	  636.00	  623.53	-1748.28	  423.36
     24.7700	  610.00	  639.12	-1789.87	  423.01
     24.8700	  625.00	  636.07	-1771.82	  422.66
     24.9700	  616.00	  612.61	-1757.36	  422.32
     25.0700	  551.00	  584.19	-1793.94	  421.97
     25.1700	  573.00	  563.33	-1751.08	  421.62
     25.2700	  564.00	  551.98	-1748.73	  421.28
     25.3700	  576.00	  546.91	-1731.66	  420.93
     25.4700	  575.00	  544.69	-1730.44	  420.59
     25.5700	  556.00	  543.52	-1748.27	  420.25
     25.6700	  536.00	  542.76	-1767.51	  419.90
     25.7700	  537.00	  542.19	-1765.94	  419.56
     25.8700	  555.00	  541.76	-1747.51	  419.22
     25.9700	  574.00	  541.43	-1728.18	  418.87
     26.0700	  557.00	  541.19	-1744.94	  418.53
     26.1700	  576.00	  541.03	-1725.78	  418.19
     26.2700	  530.00	  540.94	-1771.69	  417.85
     26.3700	  520.00	  540.93	-1781.68	  417.51
     26.4700	  531.00	  541.00	-1770.75	  417.17
     26.5700	  585.00	  541.17	-1716.92	  416.84
     26.6700	  564.00	  541.46	-1738.21	  416.50
     26.7700	  504.00	  541.89	-1798.64	  416.16
     26.8700	  560.00	  542.49	-1743.24	  415.83
     26.9700	  537.00	  543.33	-1767.08	  415.49
     27.0700	  587.00	  544.47	-1718.22	  415.16
     27.1700	  536.00	  546.06	-1770.81	  414.82
     27.2700	  567.00	  548.35	-1742.10	  414.49
     27.3700	  632.00	  551.87	-1680.62	  414.16
     27.4700	  600.00	  557.60	-1718.35	  413.83
     27.5700	  594.00	  567.28	-1734.03	  413.50
     27.6700	  598.00	  583.64	-1746.39	  413.17
     27.7700	  654.00	  610.09	-1716.84	  412.84
     27.8700	  584.00	  649.45	-1826.20	  412.51
     27.9700	  666.00	  701.51	-1796.26	  412.18
     28.0700	  771.00	  760.00	-1749.75	  411.86
     28.1700	  941.00	  810.15	-1629.90	  411.53
     28.2700	  922.00	  830.45	-1669.20	  411.21
     28.3700	  871.00	  809.91	-1699.66	  410.89
     28.4700	  802.00	  771.00	-1729.75	  410.56
     28.5700	  676.00	  747.38	-1832.13	  410.24
     28.6700	  747.00	  753.45	-1767.20	  409.92
     28.7700	  751.00	  783.17	-1792.92	  409.60
     28.8700	  797.00	  815.02	-1778.77	  409.29
     28.9700	  885.00	  819.11	-1694.86	  408.97
     29.0700	  796.00	  777.70	-1742.45	  408.65
     29.1700	  665.00	  709.46	-1805.21	  408.34
     29.2700	  638.00	  645.30	-1768.05	  408.03
     29.3700	  556.00	  599.38	-1804.13	  407.71
     29.4700	  665.00	  571.77	-1667.52	  407.40
     29.5700	  627.00	  556.89	-1690.64	  407.09
     29.6700	  613.00	  549.02	-1696.77	  406.78
     29.7700	  610.00	  544.55	-1695.30	  406.48
     29.8700	  582.00	  541.75	-1720.50	  406.17
     29.9700	  597.00	  539.95	-1703.70	  405.86
     30.0700	  595.00	  539.00	-1704.75	  405.56
     30.1700	  539.00	  539.04	-1760.79	  405.26
     30.2700	  540.00	  540.63	-1761.38	  404.95
     30.3700	  537.00	  544.84	-1768.59	  404.65
     30.4700	  527.00	  553.30	-1787.05	  404.36
     30.5700	  536.00	  567.73	-1792.48	  404.06
     30.6700	  583.00	  588.55	-1766.30	  403.76
     30.7700	  602.00	  613.10	-1771.85	  403.47
     30.8700	  642.00	  634.22	-1752.97	  403.17
     30.9700	  628.00	  641.15	-1773.90	  402.88
     31.0700	  571.00	  626.89	-1816.64	  402.59
     31.1700	  575.00	  599.06	-1784.81	  402.30
     31.2700	  518.00	  571.59	-1814.34	  402.01
     31.3700	  566.00	  551.49	-1746.24	  401.72
     31.4700	  558.00	  539.39	-1742.14	  401.43
     31.5700	  562.00	  532.97	-1731.72	  401.15
     31.6700	  537.00	  529.68	-1753.43	  400.87
     31.7700	  548.00	  527.84	-1740.59	  400.58
     31.8700	  518.00	  526.66	-1769.41	  400.30
     31.9700	  536.00	  525.83	-1750.58	  400.02
     32.0700	  533.00	  525.23	-1752.98	  399.75
     32.1700	  550.00	  524.81	-1735.56	  399.47
     32.2700	  516.00	  524.54	-1769.29	  399.20
     32.3700	  550.00	  524.42	-1735.17	  398.92
     32.4700	  564.00	  524.44	-1721.19	  398.65
     32.5700	  559.00	  524.63	-1726.38	  398.38
     32.6700	  538.00	  525.01	-1747.76	  398.11
     32.7700	  531.00	  525.61	-1755.36	  397.84
     32.8700	  504.00	  526.51	-1783.26	  397.58
     32.9700	  571.00	  527.80	-1717.55	  397.31
     33.0700	  523.00	  529.70	-1767.45	  397.05
     33.1700	  560.00	  532.64	-1733.39	  396.79
     33.2700	  513.00	  537.61	-1785.36	  396.53
     33.3700	  565.00	  546.82	-1742.57	  396.27
     33.4700	  548.00	  564.54	-1777.29	  396.02
     33.5700	  633.00	  597.70	-1725.45	  395.76
     33.6700	  627.00	  654.33	-1788.08	  395.51
     33.7700	  718.00	  738.17	-1780.92	  395.26
     33.8700	  856.00	  840.16	-1744.91	  395.01
     33.9700	 1037.00	  932.65	-1656.40	  394.76
     34.0700	 1061.00	  973.05	-1672.80	  394.51
     34.1700	  981.00	  930.37	-1710.12	  394.26
     34.2700	  912.00	  827.01	-1675.76	  394.02
     34.3700	  746.00	  716.66	-1731.41	  393.78
     34.4700	  602.00	  631.98	-1790.73	  393.54
     34.5700	  544.00	  579.37	-1796.12	  393.30
     34.6700	  575.00	  551.30	-1737.05	  393.06
     34.7700	  557.00	  537.39	-1741.14	  392.83
     34.8700	  514.00	  530.19	-1776.94	  392.59
     34.9700	  521.00	  525.88	-1765.63	  392.36
     35.0700	  507.00	  522.90	-1776.65	  392.13
     35.1700	  493.00	  520.64	-1788.39	  391.90
     35.2700	  504.00	  518.85	-1775.60	  391.67
     35.3700	  509.00	  517.41	-1769.16	  391.45
     35.4700	  515.00	  516.20	-1761.95	  391.22
     35.5700	  512.00	  515.17	-1763.92	  391.00
     35.6700	  576.00	  514.29	-1699.04	  390.78
     35.7700	  539.00	  513.53	-1735.28	  390.56
     35.8700	  528.00	  513.34	-1746.09	  390.34
     35.9700	  527.00	  512.74	-1746.49	  390.13
     36.0700	  512.00	  512.21	-1760.96	  389.91
     36.1700	  491.00	  511.73	-1781.48	  389.70
     36.2700	  512.00	  511.30	-1760.05	  389.49
     36.3700	  506.00	  510.91	-1765.66	  389.28
     36.4700	  535.00	  510.55	-1736.30	  389.08
     36.5700	  500.00	  510.23	-1770.98	  388.87
     36.6700	  502.00	  509.95	-1768.70	  388.67
     36.7700	  523.00	  509.72	-1747.47	  388.47
     36.8700	  571.00	  509.54	-1699.29	  388.27
     36.9700	  476.00	  509.49	-1794.24	  388.07
     37.0700	  510.00	  509.66	-1760.41	  387.87
     37.1700	  530.00	  510.33	-1741.08	  387.68
     37.2700	  521.00	  511.86	-1751.61	  387.49
     37.3700	  514.00	  514.70	-1761.45	  387.30
     37.4700	  492.00	  518.96	-1787.71	  387.11
     37.5700	  541.00	  524.04	-1743.79	  386.92
     37.6700	  563.00	  528.45	-1726.20	  386.74
     37.7700	  489.00	  530.41	-1802.16	  386.55
     37.8700	  507.00	  529.27	-1783.02	  386.37
     37.9700	  534.00	  526.18	-1752.93	  386.19
     38.0700	  498.00	  522.27	-1785.02	  386.01
     38.1700	  536.00	  517.98	-1742.73	  385.84
     38.2700	  458.00	  513.90	-1816.65	  385.66
     38.3700	  526.00	  510.62	-1745.37	  385.49
     38.4700	  481.00	  508.31	-1788.06	  385.32
     38.5700	  494.00	  506.85	-1773.60	  385.15
     38.6700	  518.00	  505.97	-1748.72	  384.98
     38.7700	  477.00	  505.34	-1789.09	  384.81
     38.8700	  468.00	  504.97	-1797.72	  384.65
     38.9700	  557.00	  504.69	-1708.44	  384.49
     39.0700	  481.00	  504.45	-1784.20	  384.33
     39.1700	  557.00	  504.24	-1707.99	  384.17
     39.2700	  492.00	  503.96	-1772.71	  384.01
     39.3700	  507.00	  503.78	-1757.53	  383.86
     39.4700	  542.00	  503.62	-1722.37	  383.71
     39.5700	  489.00	  503.47	-1775.22	  383.56
     39.6700	  499.00	  503.33	-1765.08	  383.41
     39.7700	  483.00	  503.31	-1781.06	  383.26
     39.8700	  470.00	  503.19	-1793.94	  383.12
     39.9700	  524.00	  503.08	-1739.83	  382.97
     40.0700	  519.00	  502.99	-1744.74	  382.83
     40.1700	  539.00	  502.90	-1724.65	  382.69
     40.2700	  499.00	  502.82	-1764.57	  382.55
     40.3700	  485.00	  502.75	-1778.50	  382.42
     40.4700	  498.00	  502.70	-1765.45	  382.28
     40.5700	  489.00	  502.66	-1774.41	  382.15
     40.6700	  485.00	  502.64	-1778.39	  382.02
     40.7700	  529.00	  502.64	-1734.39	  381.89
