MSG Master    CELL:    5.91988   5.91988  23.28103   90.0000   90.0000  120.0000   SPGR: P 63/m m c             TEMP:   1074.85
  1   1280     2.52000     0.00000    -0.12360     0.00000     0.00000    0
    99     0     2
       0.00000      10.00000
     125.00000     130.00000
 2Theta	Yobs	Ycal	Yobs-Ycal	Backg	Posr	(hkl)	K
      0.7700	    0.00	  544.06	-1727.00	  425.31
      0.8700	    0.00	  544.75	-1727.00	  425.99
      0.9700	   50.00	  545.42	-1727.00	  426.66
      1.0700	   42.00	  546.08	-1727.00	  427.32
      1.1700	   41.00	  546.73	-1727.00	  427.97
      1.2700	   54.00	  547.36	-1727.00	  428.61
      1.3700	   35.00	  547.99	-1727.00	  429.24
      1.4700	  104.00	  548.61	-1727.00	  429.86
      1.5700	  313.00	  549.22	-1727.00	  430.47
      1.6700	  459.00	  549.82	-1727.00	  431.07
      1.7700	  561.00	  550.41	-1727.00	  431.66
      1.8700	  639.00	  550.99	-1727.00	  432.24
      1.9700	  708.00	  551.56	-1727.00	  432.81
      2.0700	  734.00	  552.12	-1727.00	  433.37
      2.1700	  786.00	  552.67	-1727.00	  433.92
      2.2700	  784.00	  553.21	-1727.00	  434.46
      2.3700	  769.00	  553.74	-1727.00	  434.99
      2.4700	  755.00	  554.26	-1727.00	  435.51
      2.5700	  682.00	  554.77	-1727.00	  436.02
      2.6700	  662.00	  555.28	-1727.00	  436.52
      2.7700	  675.00	  555.77	-1727.00	  437.02
      2.8700	  651.00	  556.25	-1727.00	  437.50
      2.9700	  568.00	  556.73	-1727.00	  437.98
      3.0700	  567.00	  557.20	-1727.00	  438.44
      3.1700	  561.00	  557.65	-1727.00	  438.90
      3.2700	  616.00	  558.10	-1727.00	  439.35
      3.3700	  654.00	  558.54	-1727.00	  439.79
      3.4700	  739.00	  558.97	-1727.00	  440.22
      3.5700	  788.00	  559.40	-1727.00	  440.64
      3.6700	  891.00	  559.81	-1727.00	  441.06
      3.7700	  932.00	  560.21	-1727.00	  441.46
      3.8700	 1031.00	  560.61	-1727.00	  441.86
      3.9700	  976.00	  561.00	-1727.00	  442.25
      4.0700	 1095.00	  561.38	-1727.00	  442.63
      4.1700	 1022.00	  561.75	-1727.00	  443.00
      4.2700	 1097.00	  562.11	-1727.00	  443.36
      4.3700	 1058.00	  562.47	-1727.00	  443.72
      4.4700	 1054.00	  562.81	-1727.00	  444.06
      4.5700	 1075.00	  563.15	-1727.00	  444.40
      4.6700	  969.00	  563.48	-1727.00	  444.73
      4.7700	  986.00	  563.81	-1727.00	  445.06
      4.8700	  999.00	  564.12	-1727.00	  445.37
      4.9700	  946.00	  564.43	-1727.00	  445.68
      5.0700	  899.00	  564.73	-1727.00	  445.98
      5.1700	  891.00	  565.02	-1727.00	  446.27
      5.2700	  907.00	  565.30	-1727.00	  446.55
      5.3700	  903.00	  565.58	-1727.00	  446.83
      5.4700	  893.00	  565.85	-1727.00	  447.10
      5.5700	  873.00	  566.11	-1727.00	  447.36
      5.6700	  823.00	  566.37	-1727.00	  447.61
      5.7700	  848.00	  566.61	-1727.00	  447.86
      5.8700	  819.00	  566.85	-1727.00	  448.10
      5.9700	  785.00	  567.08	-1727.00	  448.33
      6.0700	  791.00	  567.31	-1727.00	  448.56
      6.1700	  747.00	  567.53	-1727.00	  448.78
      6.2700	  795.00	  567.74	-1727.00	  448.99
      6.3700	  750.00	  567.94	-1727.00	  449.19
      6.4700	  784.00	  568.14	-1727.00	  449.39
      6.5700	  722.00	  568.33	-1727.00	  449.58
      6.6700	  784.00	  568.51	-1727.00	  449.76
      6.7700	  730.00	  568.69	-1727.00	  449.94
      6.8700	  687.00	  568.86	-1727.00	  450.11
      6.9700	  720.00	  569.02	-1727.00	  450.27
      7.0700	  697.00	  569.18	-1727.00	  450.43
      7.1700	  701.00	  569.33	-1727.00	  450.58
      7.2700	  699.00	  569.48	-1727.00	  450.72
      7.3700	  650.00	  569.61	-1727.00	  450.86
      7.4700	  685.00	  569.74	-1727.00	  450.99
      7.5700	  739.00	  569.87	-1727.00	  451.12
      7.6700	  640.00	  569.99	-1727.00	  451.24
      7.7700	  628.00	  570.10	-1727.00	  451.35
      7.8700	  645.00	  570.21	-1727.00	  451.45
      7.9700	  726.00	  570.31	-1727.00	  451.55
      8.0700	  611.00	  570.40	-1727.00	  451.65
      8.1700	  648.00	  570.49	-1727.00	  451.74
      8.2700	  658.00	  570.57	-1727.00	  451.82
      8.3700	  631.00	  570.65	-1727.00	  451.90
      8.4700	  662.00	  570.72	-1727.00	  451.97
      8.5700	  638.00	  570.78	-1727.00	  452.03
      8.6700	  611.00	  570.84	-1727.00	  452.09
      8.7700	  642.00	  570.90	-1727.00	  452.14
      8.8700	  591.00	  570.94	-1727.00	  452.19
      8.9700	  663.00	  570.99	-1727.00	  452.23
      9.0700	  631.00	  571.02	-1727.00	  452.27
      9.1700	  657.00	  571.05	-1727.00	  452.30
      9.2700	  625.00	  571.08	-1727.00	  452.33
      9.3700	  597.00	  571.10	-1727.00	  452.35
      9.4700	  595.00	  571.12	-1727.00	  452.37
      9.5700	  629.00	  571.13	-1727.00	  452.38
      9.6700	  560.00	  571.13	-1727.00	  452.38
      9.7700	  599.00	  571.13	-1727.00	  452.38
      9.8700	  591.00	  571.13	-1727.00	  452.37
      9.9700	  631.00	  571.12	-1727.00	  452.36
     10.0700	  571.00	  572.10	-1728.10	  452.35
     10.1700	  571.00	  572.19	-1728.19	  452.33
     10.2700	  574.00	  572.30	-1725.30	  452.30
     10.3700	  614.00	  572.46	-1685.46	  452.27
     10.4700	  588.00	  572.68	-1711.68	  452.24
     10.5700	  579.00	  573.03	-1721.03	  452.20
     10.6700	  568.00	  573.60	-1732.60	  452.16
     10.7700	  560.00	  574.51	-1741.51	  452.11
     10.8700	  556.00	  575.81	-1746.81	  452.05
     10.9700	  608.00	  577.51	-1696.51	  452.00
     11.0700	  578.00	  579.59	-1728.59	  451.93
     11.1700	  550.00	  582.03	-1759.03	  451.87
     11.2700	  573.00	  584.89	-1738.89	  451.80
     11.3700	  604.00	  588.24	-1711.24	  451.72
     11.4700	  596.00	  592.23	-1723.23	  451.64
     11.5700	  560.00	  597.07	-1764.07	  451.56
     11.6700	  647.00	  603.15	-1683.15	  451.47
     11.7700	  596.00	  611.05	-1742.05	  451.38
     11.8700	  628.00	  621.58	-1720.58	  451.28
     11.9700	  693.00	  634.95	-1668.95	  451.18
     12.0700	  738.00	  649.22	-1638.22	  451.07
     12.1700	  720.00	  658.56	-1665.56	  450.96
     12.2700	  655.00	  654.44	-1726.44	  450.85
     12.3700	  610.00	  634.76	-1751.76	  450.73
     12.4700	  630.00	  610.84	-1707.84	  450.61
     12.5700	  630.00	  592.71	-1689.71	  450.49
     12.6700	  580.00	  582.12	-1729.12	  450.36
     12.7700	  582.00	  576.84	-1721.84	  450.23
     12.8700	  575.00	  574.27	-1726.27	  450.09
     12.9700	  559.00	  572.83	-1740.83	  449.96
     13.0700	  579.00	  571.87	-1719.87	  449.81
     13.1700	  539.00	  571.15	-1759.15	  449.67
     13.2700	  555.00	  570.57	-1742.57	  449.52
     13.3700	  574.00	  570.08	-1723.08	  449.36
     13.4700	  556.00	  569.66	-1740.66	  449.21
     13.5700	  518.00	  569.30	-1778.30	  449.05
     13.6700	  597.00	  568.96	-1698.96	  448.88
     13.7700	  554.00	  568.66	-1741.66	  448.72
     13.8700	  575.00	  568.37	-1720.37	  448.55
     13.9700	  530.00	  568.10	-1765.10	  448.37
     14.0700	  583.00	  567.84	-1711.84	  448.20
     14.1700	  557.00	  567.59	-1737.59	  448.02
     14.2700	  526.00	  567.35	-1768.35	  447.83
     14.3700	  558.00	  567.11	-1736.11	  447.65
     14.4700	  563.00	  566.87	-1730.87	  447.46
     14.5700	  612.00	  566.64	-1681.64	  447.27
     14.6700	  566.00	  566.41	-1727.41	  447.07
     14.7700	  541.00	  566.18	-1752.18	  446.88
     14.8700	  550.00	  565.95	-1742.95	  446.68
     14.9700	  548.00	  565.72	-1744.72	  446.47
     15.0700	  594.00	  565.49	-1698.49	  446.27
     15.1700	  529.00	  565.26	-1763.26	  446.06
     15.2700	  574.00	  565.03	-1718.03	  445.85
     15.3700	  552.00	  564.80	-1739.80	  445.63
     15.4700	  559.00	  564.57	-1732.57	  445.42
     15.5700	  592.00	  564.36	-1699.36	  445.20
     15.6700	  538.00	  564.13	-1753.13	  444.98
     15.7700	  561.00	  563.89	-1729.89	  444.75
     15.8700	  562.00	  563.65	-1728.65	  444.53
     15.9700	  551.00	  563.41	-1739.41	  444.30
     16.0700	  558.00	  563.17	-1732.17	  444.06
     16.1700	  558.00	  562.93	-1731.93	  443.83
     16.2700	  578.00	  562.69	-1711.69	  443.59
     16.3700	  529.00	  562.44	-1760.44	  443.36
     16.4700	  581.00	  562.19	-1708.19	  443.12
     16.5700	  582.00	  561.95	-1706.95	  442.87
     16.6700	  577.00	  561.70	-1711.70	  442.63
     16.7700	  507.00	  561.44	-1781.44	  442.38
     16.8700	  548.00	  561.19	-1740.19	  442.13
     16.9700	  544.00	  560.93	-1743.93	  441.88
     17.0700	  568.00	  560.68	-1719.68	  441.63
     17.1700	  571.00	  560.42	-1716.42	  441.37
     17.2700	  517.00	  560.16	-1770.16	  441.11
     17.3700	  582.00	  559.90	-1704.90	  440.85
     17.4700	  577.00	  559.63	-1709.63	  440.59
     17.5700	  576.00	  559.37	-1710.37	  440.33
     17.6700	  585.00	  559.10	-1701.10	  440.06
     17.7700	  563.00	  558.83	-1722.83	  439.80
     17.8700	  533.00	  558.56	-1752.56	  439.53
     17.9700	  555.00	  558.29	-1730.29	  439.26
     18.0700	  564.00	  558.12	-1721.12	  438.99
     18.1700	  572.00	  557.85	-1712.85	  438.71
     18.2700	  547.00	  557.58	-1737.58	  438.44
     18.3700	  530.00	  557.30	-1754.30	  438.16
     18.4700	  569.00	  557.03	-1715.03	  437.88
     18.5700	  581.00	  556.75	-1702.75	  437.60
     18.6700	  592.00	  556.47	-1691.47	  437.32
     18.7700	  561.00	  556.19	-1722.19	  437.04
     18.8700	  534.00	  555.99	-1748.99	  436.75
     18.9700	  545.00	  555.71	-1737.71	  436.47
     19.0700	  563.00	  555.43	-1719.43	  436.18
     19.1700	  569.00	  555.15	-1713.15	  435.89
     19.2700	  550.00	  554.86	-1731.86	  435.60
     19.3700	  592.00	  554.58	-1689.58	  435.31
     19.4700	  535.00	  554.29	-1746.29	  435.02
     19.5700	  517.00	  554.01	-1764.01	  434.73
     19.6700	  554.00	  553.72	-1726.72	  434.43
     19.7700	  510.00	  553.43	-1770.43	  434.14
     19.8700	  526.00	  553.15	-1754.15	  433.84
     19.9700	  523.00	  552.86	-1756.86	  433.54
     20.0700	  534.00	  552.57	-1745.57	  433.24
     20.1700	  519.00	  552.28	-1760.28	  432.94
     20.2700	  537.00	  551.99	-1741.99	  432.64
     20.3700	  567.00	  551.70	-1711.70	  432.34
     20.4700	  515.00	  551.41	-1763.41	  432.04
     20.5700	  554.00	  551.11	-1724.11	  431.73
     20.6700	  542.00	  550.86	-1735.86	  431.43
     20.7700	  533.00	  550.57	-1744.57	  431.12
     20.8700	  541.00	  550.27	-1736.27	  430.81
     20.9700	  575.00	  549.98	-1701.98	  430.51
     21.0700	  549.00	  549.69	-1727.69	  430.20
     21.1700	  511.00	  549.37	-1765.37	  429.89
     21.2700	  556.00	  549.08	-1720.08	  429.58
     21.3700	  538.00	  548.79	-1737.79	  429.27
     21.4700	  552.00	  548.51	-1723.51	  428.96
     21.5700	  577.00	  548.22	-1698.22	  428.65
     21.6700	  549.00	  547.93	-1725.93	  428.33
     21.7700	  534.00	  547.65	-1740.65	  428.02
     21.8700	  550.00	  547.37	-1724.37	  427.71
     21.9700	  546.00	  547.09	-1728.09	  427.39
     22.0700	  570.00	  546.81	-1703.81	  427.08
     22.1700	  595.00	  546.54	-1678.54	  426.76
     22.2700	  587.00	  546.27	-1686.27	  426.45
     22.3700	  511.00	  546.00	-1762.00	  426.13
     22.4700	  564.00	  545.74	-1708.74	  425.82
     22.5700	  517.00	  545.48	-1755.48	  425.50
     22.6700	  526.00	  545.23	-1746.23	  425.18
     22.7700	  542.00	  544.99	-1729.99	  424.86
     22.8700	  568.00	  544.76	-1703.76	  424.55
     22.9700	  558.00	  544.54	-1713.54	  424.23
     23.0700	  569.00	  544.33	-1702.33	  423.91
     23.1700	  561.00	  544.14	-1710.14	  423.59
     23.2700	  537.00	  543.98	-1733.98	  423.27
     23.3700	  517.00	  543.84	-1753.84	  422.95
     23.4700	  507.00	  543.89	-1763.89	  422.63
     23.5700	  554.00	  543.85	-1716.85	  422.31
     23.6700	  576.00	  543.89	-1694.89	  422.00
     23.7700	  546.00	  544.06	-1725.06	  421.68
     23.8700	  516.00	  544.48	-1755.48	  421.36
     23.9700	  576.00	  545.35	-1696.35	  421.04
     24.0700	  531.00	  547.09	-1743.09	  420.72
     24.1700	  554.00	  550.27	-1723.27	  420.40
     24.2700	  565.00	  555.64	-1717.64	  420.08
     24.3700	  574.00	  564.00	-1717.00	  419.76
     24.4700	  597.00	  576.01	-1706.01	  419.44
     24.5700	  617.00	  591.39	-1701.39	  419.12
     24.6700	  620.00	  607.32	-1714.32	  418.80
     24.7700	  607.00	  617.37	-1737.37	  418.48
     24.8700	  592.00	  613.58	-1748.58	  418.16
     24.9700	  557.00	  595.90	-1765.90	  417.84
     25.0700	  606.00	  575.05	-1696.05	  417.52
     25.1700	  539.00	  559.10	-1747.10	  417.20
     25.2700	  574.00	  549.53	-1702.53	  416.88
     25.3700	  585.00	  544.63	-1686.63	  416.57
     25.4700	  543.00	  542.21	-1726.21	  416.25
     25.5700	  574.00	  540.90	-1693.90	  415.93
     25.6700	  561.00	  540.05	-1706.05	  415.61
     25.7700	  552.00	  539.44	-1714.44	  415.29
     25.8700	  557.00	  538.98	-1708.98	  414.98
     25.9700	  553.00	  538.64	-1712.64	  414.66
     26.0700	  584.00	  538.39	-1681.39	  414.35
     26.1700	  511.00	  538.23	-1754.23	  414.03
     26.2700	  542.00	  538.15	-1723.15	  413.71
     26.3700	  562.00	  538.14	-1703.14	  413.40
     26.4700	  553.00	  538.23	-1712.23	  413.09
     26.5700	  562.00	  538.42	-1703.42	  412.77
     26.6700	  497.00	  538.72	-1768.72	  412.46
     26.7700	  563.00	  539.18	-1703.18	  412.15
     26.8700	  529.00	  539.81	-1737.81	  411.83
     26.9700	  543.00	  540.67	-1724.67	  411.52
     27.0700	  518.00	  541.85	-1750.85	  411.21
     27.1700	  552.00	  543.47	-1718.47	  410.90
     27.2700	  530.00	  545.82	-1742.82	  410.59
     27.3700	  557.00	  549.40	-1719.40	  410.28
     27.4700	  528.00	  555.25	-1754.25	  409.97
     27.5700	  565.00	  565.24	-1727.24	  409.66
     27.6700	  522.00	  582.29	-1787.29	  409.36
     27.7700	  550.00	  610.23	-1787.23	  409.05
     27.8700	  611.00	  652.35	-1768.35	  408.74
     27.9700	  684.00	  708.83	-1751.83	  408.44
     28.0700	  782.00	  773.14	-1718.14	  408.13
     28.1700	  904.00	  828.99	-1651.99	  407.83
     28.2700	  924.00	  851.94	-1654.94	  407.53
     28.3700	  960.00	  827.79	-1594.79	  407.22
     28.4700	  796.00	  779.68	-1710.68	  406.92
     28.5700	  713.00	  745.08	-1759.08	  406.62
     28.6700	  725.00	  740.78	-1742.78	  406.32
     28.7700	  726.00	  761.83	-1762.83	  406.02
     28.8700	  797.00	  788.04	-1718.04	  405.72
     28.9700	  806.00	  791.51	-1712.51	  405.43
     29.0700	  777.00	  754.94	-1704.94	  405.13
     29.1700	  698.00	  693.69	-1722.69	  404.83
     29.2700	  616.00	  635.39	-1746.39	  404.54
     29.3700	  645.00	  593.19	-1675.19	  404.25
     29.4700	  569.00	  567.51	-1725.51	  403.95
     29.5700	  571.00	  553.49	-1709.49	  403.66
     29.6700	  604.00	  546.02	-1669.02	  403.37
     29.7700	  569.00	  541.77	-1699.77	  403.08
     29.8700	  528.00	  539.12	-1738.12	  402.79
     29.9700	  613.00	  537.43	-1651.43	  402.50
     30.0700	  557.00	  536.55	-1706.55	  402.22
     30.1700	  545.00	  536.63	-1718.63	  401.93
     30.2700	  523.00	  538.16	-1742.16	  401.65
     30.3700	  575.00	  542.09	-1694.09	  401.36
     30.4700	  563.00	  549.82	-1713.82	  401.08
     30.5700	  529.00	  562.77	-1760.77	  400.80
     30.6700	  576.00	  581.18	-1732.18	  400.52
     30.7700	  607.00	  602.59	-1722.59	  400.24
     30.8700	  631.00	  620.90	-1716.90	  399.96
     30.9700	  548.00	  626.94	-1805.94	  399.68
     31.0700	  581.00	  614.75	-1760.75	  399.41
     31.1700	  566.00	  590.67	-1751.67	  399.13
     31.2700	  557.00	  566.53	-1736.53	  398.86
     31.3700	  590.00	  548.55	-1685.55	  398.59
     31.4700	  552.00	  537.42	-1712.42	  398.32
     31.5700	  551.00	  531.33	-1707.33	  398.05
     31.6700	  554.00	  528.14	-1701.14	  397.78
     31.7700	  550.00	  526.37	-1703.37	  397.51
     31.8700	  550.00	  525.27	-1702.27	  397.24
     31.9700	  552.00	  524.52	-1699.52	  396.98
     32.0700	  519.00	  524.02	-1732.02	  396.72
     32.1700	  538.00	  523.70	-1712.70	  396.45
     32.2700	  551.00	  523.54	-1699.54	  396.19
     32.3700	  539.00	  523.55	-1711.55	  395.93
     32.4700	  546.00	  523.72	-1704.72	  395.67
     32.5700	  541.00	  524.09	-1710.09	  395.42
     32.6700	  540.00	  524.67	-1711.67	  395.16
     32.7700	  532.00	  525.53	-1720.53	  394.91
     32.8700	  550.00	  526.74	-1703.74	  394.65
     32.9700	  544.00	  528.44	-1711.44	  394.40
     33.0700	  530.00	  530.89	-1727.89	  394.15
     33.1700	  563.00	  534.62	-1698.62	  393.90
     33.2700	  518.00	  540.83	-1749.83	  393.65
     33.3700	  590.00	  552.00	-1689.00	  393.41
     33.4700	  556.00	  572.69	-1743.69	  393.16
     33.5700	  617.00	  609.79	-1719.79	  392.92
     33.6700	  608.00	  670.66	-1789.66	  392.68
     33.7700	  734.00	  757.63	-1750.63	  392.44
     33.8700	  935.00	  860.32	-1652.32	  392.20
     33.9700	  984.00	  951.05	-1694.05	  391.96
     34.0700	 1108.00	  988.64	-1607.64	  391.72
     34.1700	  998.00	  944.36	-1673.36	  391.49
     34.2700	  914.00	  841.14	-1654.14	  391.25
     34.3700	  681.00	  730.70	-1776.70	  391.02
     34.4700	  642.00	  644.30	-1729.30	  390.79
     34.5700	  586.00	  588.69	-1729.69	  390.56
     34.6700	  583.00	  557.57	-1701.57	  390.33
     34.7700	  517.00	  541.38	-1751.39	  390.11
     34.8700	  571.00	  532.73	-1688.73	  389.88
     34.9700	  543.00	  527.54	-1711.54	  389.66
     35.0700	  555.00	  523.98	-1695.98	  389.44
     35.1700	  541.00	  521.31	-1707.31	  389.22
     35.2700	  545.00	  519.20	-1701.20	  389.00
     35.3700	  503.00	  517.49	-1741.49	  388.78
     35.4700	  545.00	  516.08	-1698.08	  388.57
     35.5700	  513.00	  514.90	-1728.90	  388.36
     35.6700	  547.00	  513.89	-1693.89	  388.14
     35.7700	  517.00	  513.01	-1723.01	  387.93
     35.8700	  501.00	  512.24	-1738.24	  387.72
     35.9700	  517.00	  511.57	-1721.57	  387.52
     36.0700	  504.00	  511.43	-1734.43	  387.31
     36.1700	  510.00	  510.90	-1727.90	  387.11
     36.2700	  536.00	  510.42	-1701.42	  386.90
     36.3700	  496.00	  509.99	-1740.99	  386.70
     36.4700	  503.00	  509.60	-1733.60	  386.50
     36.5700	  478.00	  509.26	-1758.26	  386.30
     36.6700	  536.00	  508.97	-1699.97	  386.11
     36.7700	  513.00	  508.73	-1722.73	  385.91
     36.8700	  548.00	  508.58	-1687.58	  385.72
     36.9700	  547.00	  508.58	-1688.58	  385.53
     37.0700	  506.00	  508.87	-1729.87	  385.34
     37.1700	  538.00	  509.69	-1698.69	  385.15
     37.2700	  497.00	  511.33	-1741.33	  384.96
     37.3700	  450.00	  514.04	-1791.04	  384.78
     37.4700	  521.00	  517.64	-1723.64	  384.60
     37.5700	  541.00	  521.39	-1707.39	  384.41
     37.6700	  500.00	  523.91	-1750.91	  384.23
     37.7700	  492.00	  523.80	-1758.80	  384.06
     37.8700	  527.00	  521.03	-1721.03	  383.88
     37.9700	  511.00	  517.08	-1733.08	  383.70
     38.0700	  508.00	  513.29	-1732.29	  383.53
     38.1700	  520.00	  510.21	-1717.21	  383.36
     38.2700	  527.00	  507.96	-1707.96	  383.19
     38.3700	  455.00	  506.43	-1778.43	  383.02
     38.4700	  511.00	  505.42	-1721.42	  382.86
     38.5700	  485.00	  504.66	-1746.66	  382.69
     38.6700	  507.00	  504.20	-1724.20	  382.53
     38.7700	  480.00	  503.86	-1750.86	  382.37
     38.8700	  469.00	  503.58	-1761.58	  382.21
     38.9700	  504.00	  503.35	-1726.35	  382.05
     39.0700	  488.00	  503.28	-1742.28	  381.89
     39.1700	  539.00	  503.09	-1691.09	  381.74
     39.2700	  501.00	  502.83	-1728.83	  381.58
     39.3700	  526.00	  502.67	-1703.67	  381.43
     39.4700	  538.00	  502.51	-1691.51	  381.28
     39.5700	  508.00	  502.37	-1721.37	  381.14
     39.6700	  555.00	  502.24	-1674.24	  380.99
     39.7700	  496.00	  502.12	-1733.12	  380.85
     39.8700	  479.00	  502.00	-1750.00	  380.70
     39.9700	  548.00	  501.90	-1680.90	  380.56
     40.0700	  526.00	  501.81	-1702.81	  380.42
     40.1700	  511.00	  501.72	-1717.72	  380.28
     40.2700	  476.00	  501.65	-1752.65	  380.15
     40.3700	  496.00	  501.59	-1732.59	  380.02
     40.4700	  476.00	  501.54	-1752.54	  379.88
     40.5700	  518.00	  501.51	-1710.51	  379.75
     40.6700	  487.00	  501.49	-1741.49	  379.62
     40.7700	  500.00	  501.50	-1728.50	  379.50
