MSG Master    CELL:    5.89935   5.89935  23.16862   90.0000   90.0000  120.0000   SPGR: P 63/m m c             TEMP:    772.15
  1   1280     2.52000     0.00000    -0.12937     0.00000     0.00000    0
    97     0     2
       0.00000      10.00000
     125.00000     130.00000
 2Theta	Yobs	Ycal	Yobs-Ycal	Backg	Posr	(hkl)	K
      0.7700	    0.00	  449.83	-1766.64	  354.26
      0.8700	    0.00	  452.38	-1766.64	  356.81
      0.9700	   36.00	  454.90	-1766.64	  359.33
      1.0700	   32.00	  457.40	-1766.64	  361.83
      1.1700	   43.00	  459.87	-1766.64	  364.30
      1.2700	   45.00	  462.32	-1766.64	  366.75
      1.3700	   39.00	  464.74	-1766.64	  369.17
      1.4700	  101.00	  467.13	-1766.64	  371.56
      1.5700	  314.00	  469.50	-1766.64	  373.93
      1.6700	  450.00	  471.85	-1766.64	  376.28
      1.7700	  595.00	  474.17	-1766.64	  378.60
      1.8700	  643.00	  476.46	-1766.64	  380.89
      1.9700	  728.00	  478.73	-1766.64	  383.17
      2.0700	  756.00	  480.98	-1766.64	  385.41
      2.1700	  752.00	  483.20	-1766.64	  387.63
      2.2700	  754.00	  485.40	-1766.64	  389.83
      2.3700	  678.00	  487.57	-1766.64	  392.00
      2.4700	  729.00	  489.72	-1766.64	  394.15
      2.5700	  665.00	  491.85	-1766.64	  396.28
      2.6700	  645.00	  493.95	-1766.64	  398.38
      2.7700	  674.00	  496.03	-1766.64	  400.46
      2.8700	  590.00	  498.09	-1766.64	  402.52
      2.9700	  607.00	  500.12	-1766.64	  404.55
      3.0700	  629.00	  502.13	-1766.64	  406.56
      3.1700	  602.00	  504.12	-1766.64	  408.55
      3.2700	  652.00	  506.08	-1766.64	  410.51
      3.3700	  918.00	  508.02	-1766.64	  412.45
      3.4700	 1024.00	  509.94	-1766.64	  414.37
      3.5700	 1099.00	  511.84	-1766.64	  416.27
      3.6700	 1181.00	  513.71	-1766.64	  418.14
      3.7700	 1280.00	  515.57	-1766.64	  420.00
      3.8700	 1436.00	  517.40	-1766.64	  421.83
      3.9700	 1465.00	  519.21	-1766.64	  423.64
      4.0700	 1604.00	  520.99	-1766.64	  425.42
      4.1700	 1494.00	  522.76	-1766.64	  427.19
      4.2700	 1570.00	  524.50	-1766.64	  428.93
      4.3700	 1501.00	  526.23	-1766.64	  430.66
      4.4700	 1458.00	  527.93	-1766.64	  432.36
      4.5700	 1408.00	  529.61	-1766.64	  434.04
      4.6700	 1307.00	  531.27	-1766.64	  435.70
      4.7700	 1346.00	  532.91	-1766.64	  437.34
      4.8700	 1232.00	  534.53	-1766.64	  438.96
      4.9700	 1219.00	  536.13	-1766.64	  440.56
      5.0700	 1203.00	  537.71	-1766.64	  442.14
      5.1700	 1167.00	  539.27	-1766.64	  443.70
      5.2700	 1148.00	  540.81	-1766.64	  445.24
      5.3700	 1111.00	  542.32	-1766.64	  446.76
      5.4700	 1147.00	  543.82	-1766.64	  448.25
      5.5700	 1018.00	  545.30	-1766.64	  449.73
      5.6700	 1035.00	  546.76	-1766.64	  451.19
      5.7700	 1019.00	  548.20	-1766.64	  452.63
      5.8700	 1014.00	  549.62	-1766.64	  454.05
      5.9700	  968.00	  551.03	-1766.64	  455.46
      6.0700	  958.00	  552.41	-1766.64	  456.84
      6.1700	  878.00	  553.77	-1766.64	  458.20
      6.2700	  957.00	  555.12	-1766.64	  459.55
      6.3700	  916.00	  556.45	-1766.64	  460.88
      6.4700	  867.00	  557.76	-1766.64	  462.19
      6.5700	  899.00	  559.05	-1766.64	  463.48
      6.6700	  846.00	  560.32	-1766.64	  464.75
      6.7700	  807.00	  561.57	-1766.64	  466.00
      6.8700	  830.00	  562.81	-1766.64	  467.24
      6.9700	  788.00	  564.03	-1766.64	  468.46
      7.0700	  843.00	  565.23	-1766.64	  469.66
      7.1700	  770.00	  566.41	-1766.64	  470.84
      7.2700	  771.00	  567.57	-1766.64	  472.00
      7.3700	  775.00	  568.72	-1766.64	  473.15
      7.4700	  783.00	  569.85	-1766.64	  474.28
      7.5700	  783.00	  570.97	-1766.64	  475.40
      7.6700	  719.00	  572.06	-1766.64	  476.49
      7.7700	  757.00	  573.14	-1766.64	  477.57
      7.8700	  732.00	  574.21	-1766.64	  478.64
      7.9700	  759.00	  575.25	-1766.64	  479.68
      8.0700	  691.00	  576.28	-1766.64	  480.71
      8.1700	  695.00	  577.29	-1766.64	  481.72
      8.2700	  709.00	  578.29	-1766.64	  482.72
      8.3700	  658.00	  579.27	-1766.64	  483.70
      8.4700	  706.00	  580.24	-1766.64	  484.67
      8.5700	  734.00	  581.19	-1766.64	  485.62
      8.6700	  692.00	  582.12	-1766.64	  486.55
      8.7700	  703.00	  583.04	-1766.64	  487.47
      8.8700	  668.00	  583.94	-1766.64	  488.37
      8.9700	  710.00	  584.82	-1766.64	  489.25
      9.0700	  713.00	  585.70	-1766.64	  490.13
      9.1700	  688.00	  586.55	-1766.64	  490.98
      9.2700	  682.00	  587.39	-1766.64	  491.82
      9.3700	  687.00	  588.22	-1766.64	  492.65
      9.4700	  668.00	  589.03	-1766.64	  493.46
      9.5700	  685.00	  589.82	-1766.64	  494.25
      9.6700	  618.00	  590.60	-1766.64	  495.03
      9.7700	  629.00	  591.37	-1766.64	  495.80
      9.8700	  646.00	  592.12	-1766.64	  496.55
      9.9700	  690.00	  592.86	-1766.64	  497.29
     10.0700	  715.00	  599.17	-1650.82	  498.01
     10.1700	  662.00	  600.09	-1704.73	  498.72
     10.2700	  628.00	  601.03	-1739.68	  499.42
     10.3700	  617.00	  602.03	-1751.67	  500.10
     10.4700	  679.00	  603.10	-1690.74	  500.77
     10.5700	  660.00	  604.31	-1710.95	  501.42
     10.6700	  655.00	  605.72	-1717.37	  502.06
     10.7700	  713.00	  607.45	-1661.09	  502.69
     10.8700	  628.00	  609.57	-1748.21	  503.30
     10.9700	  645.00	  612.14	-1733.78	  503.90
     11.0700	  620.00	  615.17	-1761.81	  504.49
     11.1700	  652.00	  618.65	-1733.30	  505.06
     11.2700	  643.00	  622.63	-1746.28	  505.62
     11.3700	  635.00	  627.18	-1758.82	  506.17
     11.4700	  702.00	  632.41	-1697.05	  506.70
     11.5700	  661.00	  638.54	-1744.18	  507.22
     11.6700	  686.00	  645.87	-1726.51	  507.73
     11.7700	  637.00	  654.80	-1784.44	  508.23
     11.8700	  654.00	  665.69	-1778.34	  508.72
     11.9700	  679.00	  678.44	-1766.09	  509.19
     12.0700	  726.00	  691.77	-1732.42	  509.65
     12.1700	  736.00	  702.44	-1733.08	  510.10
     12.2700	  698.00	  704.99	-1773.64	  510.53
     12.3700	  761.00	  694.85	-1700.49	  510.96
     12.4700	  671.00	  675.42	-1771.06	  511.37
     12.5700	  714.00	  655.69	-1708.34	  511.77
     12.6700	  653.00	  640.73	-1754.37	  512.16
     12.7700	  619.00	  631.05	-1778.70	  512.54
     12.8700	  633.00	  625.41	-1759.05	  512.91
     12.9700	  605.00	  622.28	-1783.92	  513.26
     13.0700	  620.00	  620.52	-1767.16	  513.61
     13.1700	  561.00	  619.47	-1825.12	  513.94
     13.2700	  605.00	  618.81	-1780.46	  514.26
     13.3700	  605.00	  618.39	-1780.03	  514.57
     13.4700	  553.00	  618.12	-1831.76	  514.87
     13.5700	  562.00	  617.96	-1822.60	  515.16
     13.6700	  631.00	  617.87	-1753.52	  515.44
     13.7700	  619.00	  617.87	-1765.52	  515.71
     13.8700	  622.00	  617.89	-1762.53	  515.97
     13.9700	  594.00	  617.93	-1790.58	  516.21
     14.0700	  611.00	  618.00	-1773.64	  516.45
     14.1700	  594.00	  618.08	-1790.73	  516.68
     14.2700	  601.00	  618.18	-1783.82	  516.90
     14.3700	  578.00	  618.28	-1806.92	  517.10
     14.4700	  629.00	  618.39	-1756.03	  517.30
     14.5700	  648.00	  618.50	-1737.14	  517.49
     14.6700	  641.00	  618.61	-1744.25	  517.66
     14.7700	  609.00	  618.72	-1776.36	  517.83
     14.8700	  592.00	  618.82	-1793.47	  517.99
     14.9700	  608.00	  618.93	-1777.57	  518.14
     15.0700	  562.00	  619.03	-1823.68	  518.28
     15.1700	  572.00	  619.13	-1813.77	  518.41
     15.2700	  595.00	  619.22	-1790.86	  518.53
     15.3700	  617.00	  619.31	-1768.95	  518.64
     15.4700	  600.00	  619.39	-1786.03	  518.75
     15.5700	  584.00	  619.46	-1802.11	  518.84
     15.6700	  567.00	  619.53	-1819.18	  518.93
     15.7700	  620.00	  619.59	-1766.24	  519.00
     15.8700	  604.00	  619.65	-1782.30	  519.07
     15.9700	  563.00	  619.70	-1823.34	  519.13
     16.0700	  596.00	  619.74	-1790.39	  519.18
     16.1700	  581.00	  619.78	-1805.42	  519.22
     16.2700	  579.00	  619.81	-1807.45	  519.26
     16.3700	  634.00	  619.83	-1752.47	  519.28
     16.4700	  592.00	  619.84	-1794.49	  519.30
     16.5700	  570.00	  619.85	-1816.50	  519.31
     16.6700	  549.00	  619.85	-1837.50	  519.31
     16.7700	  563.00	  619.85	-1823.49	  519.31
     16.8700	  663.00	  619.83	-1723.48	  519.29
     16.9700	  640.00	  619.81	-1746.46	  519.27
     17.0700	  599.00	  619.79	-1787.43	  519.24
     17.1700	  590.00	  619.75	-1796.40	  519.20
     17.2700	  576.00	  619.71	-1810.36	  519.16
     17.3700	  606.00	  619.77	-1780.42	  519.11
     17.4700	  607.00	  619.72	-1779.37	  519.05
     17.5700	  582.00	  619.66	-1804.31	  518.98
     17.6700	  589.00	  619.60	-1797.24	  518.91
     17.7700	  558.00	  619.52	-1828.17	  518.83
     17.8700	  591.00	  619.58	-1795.22	  518.74
     17.9700	  563.00	  619.49	-1823.14	  518.64
     18.0700	  617.00	  619.40	-1769.05	  518.54
     18.1700	  612.00	  619.31	-1773.95	  518.43
     18.2700	  596.00	  619.21	-1789.85	  518.32
     18.3700	  603.00	  619.10	-1782.74	  518.19
     18.4700	  600.00	  618.99	-1785.63	  518.07
     18.5700	  609.00	  618.87	-1776.51	  517.93
     18.6700	  601.00	  618.74	-1784.39	  517.79
     18.7700	  602.00	  618.61	-1783.25	  517.64
     18.8700	  541.00	  618.47	-1844.12	  517.49
     18.9700	  586.00	  618.33	-1798.97	  517.32
     19.0700	  616.00	  618.18	-1768.83	  517.16
     19.1700	  563.00	  618.03	-1821.67	  516.98
     19.2700	  615.00	  617.87	-1769.51	  516.80
     19.3700	  562.00	  617.70	-1822.35	  516.62
     19.4700	  572.00	  617.54	-1812.18	  516.43
     19.5700	  638.00	  617.41	-1746.05	  516.23
     19.6700	  598.00	  617.23	-1785.87	  516.03
     19.7700	  603.00	  617.04	-1780.69	  515.82
     19.8700	  583.00	  616.86	-1800.50	  515.61
     19.9700	  606.00	  616.66	-1777.31	  515.39
     20.0700	  601.00	  616.46	-1782.11	  515.16
     20.1700	  597.00	  616.26	-1785.91	  514.93
     20.2700	  569.00	  616.06	-1813.70	  514.70
     20.3700	  631.00	  615.84	-1751.49	  514.46
     20.4700	  575.00	  615.63	-1807.27	  514.21
     20.5700	  633.00	  615.41	-1749.05	  513.96
     20.6700	  580.00	  615.19	-1801.83	  513.70
     20.7700	  584.00	  614.96	-1797.60	  513.44
     20.8700	  628.00	  614.73	-1753.37	  513.18
     20.9700	  575.00	  614.49	-1806.14	  512.91
     21.0700	  568.00	  614.26	-1812.90	  512.63
     21.1700	  600.00	  614.02	-1780.66	  512.35
     21.2700	  572.00	  613.78	-1808.42	  512.06
     21.3700	  527.00	  613.53	-1853.17	  511.77
     21.4700	  646.00	  613.28	-1733.93	  511.48
     21.5700	  591.00	  613.03	-1788.68	  511.18
     21.6700	  554.00	  612.78	-1825.43	  510.88
     21.7700	  576.00	  612.53	-1803.17	  510.57
     21.8700	  595.00	  612.27	-1783.92	  510.26
     21.9700	  611.00	  612.02	-1767.66	  509.94
     22.0700	  626.00	  611.77	-1752.41	  509.62
     22.1700	  552.00	  611.67	-1826.31	  509.30
     22.2700	  615.00	  611.42	-1763.06	  508.97
     22.3700	  606.00	  611.17	-1771.81	  508.64
     22.4700	  634.00	  610.92	-1743.57	  508.30
     22.5700	  595.00	  610.68	-1782.33	  507.96
     22.6700	  597.00	  610.45	-1780.09	  507.62
     22.7700	  604.00	  610.22	-1772.86	  507.27
     22.8700	  600.00	  610.00	-1776.65	  506.92
     22.9700	  604.00	  609.79	-1772.44	  506.56
     23.0700	  604.00	  609.60	-1772.25	  506.21
     23.1700	  560.00	  609.38	-1816.02	  505.84
     23.2700	  598.00	  609.23	-1777.88	  505.48
     23.3700	  612.00	  609.12	-1763.76	  505.11
     23.4700	  604.00	  609.05	-1771.69	  504.74
     23.5700	  615.00	  609.03	-1760.68	  504.36
     23.6700	  648.00	  609.10	-1727.74	  503.98
     23.7700	  625.00	  609.28	-1750.92	  503.60
     23.8700	  666.00	  609.64	-1710.29	  503.21
     23.9700	  572.00	  610.31	-1804.96	  502.83
     24.0700	  597.00	  611.49	-1781.14	  502.44
     24.1700	  665.00	  613.51	-1715.16	  502.04
     24.2700	  597.00	  616.84	-1786.49	  501.64
     24.3700	  635.00	  622.02	-1753.66	  501.24
     24.4700	  683.00	  629.50	-1713.15	  500.84
     24.5700	  640.00	  639.39	-1766.03	  500.44
     24.6700	  654.00	  651.01	-1763.66	  500.03
     24.7700	  667.00	  662.39	-1762.04	  499.62
     24.8700	  707.00	  669.78	-1729.42	  499.20
     24.9700	  724.00	  668.52	-1711.17	  498.79
     25.0700	  697.00	  657.66	-1727.31	  498.37
     25.1700	  709.00	  642.66	-1700.31	  497.95
     25.2700	  672.00	  629.20	-1723.85	  497.53
     25.3700	  650.00	  619.36	-1736.01	  497.10
     25.4700	  606.00	  612.99	-1773.64	  496.67
     25.5700	  645.00	  609.13	-1730.78	  496.24
     25.6700	  657.00	  606.81	-1716.46	  495.81
     25.7700	  646.00	  605.34	-1725.99	  495.38
     25.8700	  615.00	  604.33	-1755.97	  494.94
     25.9700	  652.00	  603.59	-1718.24	  494.50
     26.0700	  642.00	  603.04	-1727.68	  494.06
     26.1700	  675.00	  602.63	-1694.27	  493.62
     26.2700	  671.00	  602.35	-1697.99	  493.18
     26.3700	  624.00	  602.18	-1744.82	  492.73
     26.4700	  684.00	  602.12	-1684.76	  492.28
     26.5700	  625.00	  602.18	-1743.82	  491.83
     26.6700	  628.00	  602.37	-1741.02	  491.38
     26.7700	  671.00	  602.72	-1698.37	  490.93
     26.8700	  634.00	  603.25	-1735.90	  490.47
     26.9700	  638.00	  604.01	-1732.65	  490.02
     27.0700	  644.00	  605.06	-1727.70	  489.56
     27.1700	  674.00	  606.49	-1699.14	  489.10
     27.2700	  665.00	  608.49	-1710.13	  488.64
     27.3700	  651.00	  611.35	-1727.00	  488.18
     27.4700	  655.00	  615.67	-1727.32	  487.72
     27.5700	  661.00	  622.51	-1728.16	  487.25
     27.6700	  696.00	  633.66	-1704.31	  486.79
     27.7700	  680.00	  651.78	-1738.43	  486.32
     27.8700	  726.00	  680.00	-1720.65	  485.85
     27.9700	  725.00	  720.54	-1762.18	  485.38
     28.0700	  824.00	  772.58	-1715.22	  484.91
     28.1700	  906.00	  829.92	-1690.56	  484.44
     28.2700	  982.00	  879.20	-1663.84	  483.97
     28.3700	 1014.00	  901.78	-1654.43	  483.49
     28.4700	 1006.00	  889.10	-1649.75	  483.02
     28.5700	  876.00	  861.65	-1752.30	  482.54
     28.6700	  788.00	  849.01	-1827.65	  482.07
     28.7700	  842.00	  863.12	-1787.76	  481.59
     28.8700	  831.00	  897.24	-1832.89	  481.11
     28.9700	  947.00	  930.54	-1750.19	  480.64
     29.0700	  966.00	  934.25	-1734.89	  480.16
     29.1700	  935.00	  891.17	-1722.81	  479.68
     29.2700	  868.00	  818.22	-1716.86	  479.20
     29.3700	  741.00	  746.03	-1771.68	  478.72
     29.4700	  746.00	  690.43	-1711.07	  478.23
     29.5700	  711.00	  653.51	-1709.15	  477.75
     29.6700	  697.00	  631.27	-1700.92	  477.27
     29.7700	  716.00	  618.47	-1669.12	  476.79
     29.8700	  713.00	  610.98	-1664.63	  476.30
     29.9700	  692.00	  606.38	-1681.02	  475.82
     30.0700	  713.00	  603.52	-1657.17	  475.34
     30.1700	  699.00	  602.05	-1669.69	  474.85
     30.2700	  718.00	  602.07	-1650.71	  474.37
     30.3700	  707.00	  604.11	-1663.75	  473.88
     30.4700	  682.00	  609.16	-1693.81	  473.40
     30.5700	  642.00	  618.53	-1743.18	  472.91
     30.6700	  679.00	  633.30	-1720.94	  472.43
     30.7700	  715.00	  653.27	-1704.91	  471.95
     30.8700	  667.00	  675.83	-1775.47	  471.46
     30.9700	  748.00	  695.18	-1713.82	  470.98
     31.0700	  731.00	  702.74	-1738.39	  470.49
     31.1700	  734.00	  692.20	-1724.85	  470.01
     31.2700	  682.00	  668.01	-1752.66	  469.52
     31.3700	  681.00	  641.38	-1727.03	  469.04
     31.4700	  658.00	  619.48	-1728.13	  468.55
     31.5700	  644.00	  604.15	-1726.79	  468.07
     31.6700	  624.00	  594.49	-1737.13	  467.58
     31.7700	  655.00	  588.73	-1700.38	  467.10
     31.8700	  632.00	  585.29	-1719.94	  466.62
     31.9700	  641.00	  583.11	-1708.75	  466.13
     32.0700	  553.00	  581.62	-1795.26	  465.65
     32.1700	  597.00	  580.56	-1750.20	  465.17
     32.2700	  604.00	  579.81	-1742.45	  464.69
     32.3700	  605.00	  579.32	-1740.96	  464.20
     32.4700	  576.00	  579.07	-1769.71	  463.72
     32.5700	  585.00	  579.05	-1760.70	  463.24
     32.6700	  605.00	  579.30	-1740.94	  462.76
     32.7700	  642.00	  579.83	-1704.48	  462.28
     32.8700	  587.00	  580.72	-1760.37	  461.80
     32.9700	  588.00	  582.06	-1760.71	  461.33
     33.0700	  648.00	  584.02	-1702.66	  460.85
     33.1700	  590.00	  586.89	-1763.54	  460.37
     33.2700	  559.00	  591.29	-1798.94	  459.89
     33.3700	  592.00	  598.31	-1772.96	  459.42
     33.4700	  620.00	  610.05	-1756.69	  458.94
     33.5700	  633.00	  629.86	-1763.51	  458.47
     33.6700	  634.00	  662.30	-1794.94	  458.00
     33.7700	  687.00	  711.75	-1791.40	  457.52
     33.8700	  744.00	  779.36	-1802.00	  457.05
     33.9700	  865.00	  858.85	-1760.49	  456.58
     34.0700	 1008.00	  933.42	-1692.06	  456.11
     34.1700	 1044.00	  976.26	-1698.91	  455.64
     34.2700	 1042.00	  962.35	-1686.99	  455.17
     34.3700	  988.00	  895.25	-1673.89	  454.71
     34.4700	  805.00	  807.89	-1769.54	  454.24
     34.5700	  744.00	  728.93	-1751.58	  453.78
     34.6700	  630.00	  669.68	-1806.33	  453.31
     34.7700	  602.00	  630.32	-1794.97	  452.85
     34.8700	  610.00	  606.22	-1762.87	  452.39
     34.9700	  607.00	  591.92	-1751.57	  451.93
     35.0700	  555.00	  583.18	-1794.82	  451.47
     35.1700	  516.00	  577.39	-1828.03	  451.01
     35.2700	  595.00	  573.19	-1744.83	  450.55
     35.3700	  579.00	  569.93	-1757.58	  450.10
     35.4700	  576.00	  567.78	-1758.42	  449.64
     35.5700	  558.00	  565.59	-1774.24	  449.19
     35.6700	  582.00	  563.75	-1748.40	  448.74
     35.7700	  525.00	  562.16	-1803.80	  448.29
     35.8700	  576.00	  560.76	-1751.41	  447.84
     35.9700	  561.00	  559.53	-1765.17	  447.39
     36.0700	  582.00	  558.43	-1743.07	  446.94
     36.1700	  523.00	  557.43	-1801.08	  446.50
     36.2700	  531.00	  556.53	-1792.17	  446.05
     36.3700	  563.00	  555.68	-1759.32	  445.61
     36.4700	  535.00	  554.92	-1786.57	  445.17
     36.5700	  565.00	  554.23	-1755.88	  444.73
     36.6700	  544.00	  553.60	-1776.25	  444.29
     36.7700	  567.00	  553.04	-1752.68	  443.85
     36.8700	  522.00	  552.54	-1797.19	  443.42
     36.9700	  528.00	  552.14	-1790.78	  442.99
     37.0700	  572.00	  551.88	-1746.52	  442.55
     37.1700	  529.00	  551.83	-1789.47	  442.12
     37.2700	  610.00	  552.13	-1708.77	  441.69
     37.3700	  561.00	  552.93	-1758.57	  441.27
     37.4700	  547.00	  554.39	-1774.03	  440.84
     37.5700	  531.00	  556.73	-1792.37	  440.42
     37.6700	  528.00	  559.39	-1798.04	  439.99
     37.7700	  527.00	  562.02	-1801.66	  439.57
     37.8700	  564.00	  563.71	-1766.36	  439.15
     37.9700	  514.00	  563.67	-1816.31	  438.74
     38.0700	  561.00	  561.89	-1767.53	  438.32
     38.1700	  504.00	  559.08	-1821.73	  437.91
     38.2700	  524.00	  555.86	-1798.50	  437.49
     38.3700	  555.00	  552.62	-1764.27	  437.08
     38.4700	  530.00	  549.77	-1786.42	  436.67
     38.5700	  503.00	  547.51	-1811.15	  436.27
     38.6700	  543.00	  545.81	-1769.45	  435.86
     38.7700	  509.00	  544.56	-1802.21	  435.46
     38.8700	  544.00	  543.64	-1766.28	  435.06
     38.9700	  535.00	  542.91	-1774.55	  434.66
     39.0700	  546.00	  542.31	-1762.95	  434.26
     39.1700	  506.00	  541.78	-1802.43	  433.86
     39.2700	  562.00	  541.30	-1745.95	  433.47
     39.3700	  519.00	  540.86	-1788.50	  433.08
     39.4700	  505.00	  540.33	-1801.97	  432.69
     39.5700	  523.00	  539.93	-1783.58	  432.30
     39.6700	  546.00	  539.55	-1760.20	  431.91
     39.7700	  510.00	  539.24	-1795.89	  431.53
     39.8700	  535.00	  538.89	-1770.54	  431.15
     39.9700	  525.00	  538.56	-1780.20	  430.76
     40.0700	  503.00	  538.23	-1801.88	  430.39
     40.1700	  517.00	  537.93	-1787.57	  430.01
     40.2700	  539.00	  538.17	-1765.82	  429.64
     40.3700	  491.00	  537.90	-1813.55	  429.26
     40.4700	  471.00	  537.52	-1833.17	  428.89
     40.5700	  538.00	  537.29	-1765.93	  428.52
     40.6700	  503.00	  537.07	-1800.71	  428.16
     40.7700	  517.00	  536.87	-1786.52	  427.79
