MSG Master    CELL:    5.88541   5.88541  23.13035   90.0000   90.0000  120.0000   SPGR: P 63/m m c             TEMP:    600.15
  2   1280     2.52000     0.00000    -0.09355     0.00000     0.00000    0
    96    96     0     0     2
       0.00000      10.00000
     125.00000     130.00000
 2Theta	Yobs	Ycal	Yobs-Ycal	Backg	Posr	(hkl)	K
      0.7700	    0.00	  842.92	-1924.95	  714.91
      0.8700	    0.00	  840.95	-1924.95	  712.94
      0.9700	   34.00	  838.98	-1924.95	  710.97
      1.0700	   44.00	  837.03	-1924.95	  709.02
      1.1700	   42.00	  835.09	-1924.95	  707.08
      1.2700	   50.00	  833.15	-1924.95	  705.14
      1.3700	   45.00	  831.23	-1924.95	  703.22
      1.4700	  101.00	  829.31	-1924.95	  701.30
      1.5700	  326.00	  827.40	-1924.95	  699.39
      1.6700	  479.00	  825.51	-1924.95	  697.50
      1.7700	  575.00	  823.62	-1924.95	  695.61
      1.8700	  675.00	  821.74	-1924.95	  693.73
      1.9700	  715.00	  819.88	-1924.95	  691.86
      2.0700	  778.00	  818.02	-1924.95	  690.01
      2.1700	  802.00	  816.17	-1924.95	  688.16
      2.2700	  793.00	  814.33	-1924.95	  686.32
      2.3700	  755.00	  812.50	-1924.95	  684.48
      2.4700	  688.00	  810.67	-1924.95	  682.66
      2.5700	  686.00	  808.86	-1924.95	  680.85
      2.6700	  665.00	  807.06	-1924.95	  679.05
      2.7700	  685.00	  805.26	-1924.95	  677.25
      2.8700	  640.00	  803.48	-1924.95	  675.47
      2.9700	  629.00	  801.70	-1924.95	  673.69
      3.0700	  568.00	  799.94	-1924.95	  671.93
      3.1700	  626.00	  798.18	-1924.95	  670.17
      3.2700	  769.00	  796.43	-1924.95	  668.42
      3.3700	  927.00	  794.69	-1924.95	  666.68
      3.4700	 1024.00	  792.96	-1924.95	  664.95
      3.5700	 1200.00	  791.24	-1924.95	  663.23
      3.6700	 1335.00	  789.52	-1924.95	  661.51
      3.7700	 1339.00	  787.82	-1924.95	  659.81
      3.8700	 1519.00	  786.12	-1924.95	  658.11
      3.9700	 1578.00	  784.44	-1924.95	  656.43
      4.0700	 1646.00	  782.76	-1924.95	  654.75
      4.1700	 1739.00	  781.09	-1924.95	  653.08
      4.2700	 1720.00	  779.43	-1924.95	  651.42
      4.3700	 1666.00	  777.78	-1924.95	  649.77
      4.4700	 1627.00	  776.14	-1924.95	  648.13
      4.5700	 1480.00	  774.50	-1924.95	  646.49
      4.6700	 1489.00	  772.88	-1924.95	  644.87
      4.7700	 1477.00	  771.26	-1924.95	  643.25
      4.8700	 1447.00	  769.65	-1924.95	  641.64
      4.9700	 1342.00	  768.05	-1924.95	  640.04
      5.0700	 1315.00	  766.46	-1924.95	  638.45
      5.1700	 1280.00	  764.88	-1924.95	  636.87
      5.2700	 1214.00	  763.30	-1924.95	  635.29
      5.3700	 1153.00	  761.74	-1924.95	  633.73
      5.4700	 1165.00	  760.18	-1924.95	  632.17
      5.5700	 1191.00	  758.63	-1924.95	  630.62
      5.6700	 1106.00	  757.09	-1924.95	  629.08
      5.7700	 1123.00	  755.56	-1924.95	  627.55
      5.8700	 1088.00	  754.04	-1924.95	  626.02
      5.9700	 1079.00	  752.52	-1924.95	  624.51
      6.0700	 1078.00	  751.01	-1924.95	  623.00
      6.1700	 1008.00	  749.51	-1924.95	  621.50
      6.2700	 1004.00	  748.02	-1924.95	  620.01
      6.3700	  994.00	  746.54	-1924.95	  618.53
      6.4700	  984.00	  745.06	-1924.95	  617.05
      6.5700	  904.00	  743.60	-1924.95	  615.59
      6.6700	  954.00	  742.14	-1924.95	  614.13
      6.7700	  981.00	  740.69	-1924.95	  612.68
      6.8700	  960.00	  739.25	-1924.95	  611.23
      6.9700	  910.00	  737.81	-1924.95	  609.80
      7.0700	  877.00	  736.38	-1924.95	  608.37
      7.1700	  862.00	  734.97	-1924.95	  606.96
      7.2700	  855.00	  733.56	-1924.95	  605.54
      7.3700	  850.00	  732.15	-1924.95	  604.14
      7.4700	  806.00	  730.76	-1924.95	  602.75
      7.5700	  807.00	  729.37	-1924.95	  601.36
      7.6700	  820.00	  727.99	-1924.95	  599.98
      7.7700	  812.00	  726.62	-1924.95	  598.61
      7.8700	  792.00	  725.26	-1924.95	  597.25
      7.9700	  769.00	  723.90	-1924.95	  595.89
      8.0700	  764.00	  722.55	-1924.95	  594.54
      8.1700	  772.00	  721.21	-1924.95	  593.20
      8.2700	  777.00	  719.88	-1924.95	  591.87
      8.3700	  796.00	  718.55	-1924.95	  590.54
      8.4700	  745.00	  717.24	-1924.95	  589.23
      8.5700	  767.00	  715.93	-1924.95	  587.92
      8.6700	  745.00	  714.62	-1924.95	  586.61
      8.7700	  751.00	  713.33	-1924.95	  585.32
      8.8700	  735.00	  712.04	-1924.95	  584.03
      8.9700	  715.00	  710.76	-1924.95	  582.75
      9.0700	  761.00	  709.49	-1924.95	  581.48
      9.1700	  716.00	  708.22	-1924.95	  580.21
      9.2700	  757.00	  706.97	-1924.95	  578.96
      9.3700	  753.00	  705.72	-1924.95	  577.70
      9.4700	  736.00	  704.47	-1924.95	  576.46
      9.5700	  745.00	  703.24	-1924.95	  575.23
      9.6700	  677.00	  702.01	-1924.95	  574.00
      9.7700	  692.00	  700.79	-1924.95	  572.78
      9.8700	  763.00	  699.57	-1924.95	  571.56
      9.9700	  730.00	  698.37	-1924.95	  570.36
     10.0700	  700.00	  699.33	-1924.28	  569.16
     10.1700	  690.00	  698.38	-1933.32	  567.96
     10.2700	  672.00	  697.48	-1950.42	  566.78
     10.3700	  747.00	  696.65	-1874.60	  565.60
     10.4700	  731.00	  695.93	-1889.87	  564.43
     10.5700	  731.00	  695.35	-1889.29	  563.27
     10.6700	  684.00	  694.98	-1935.92	  562.11
     10.7700	  739.00	  694.90	-1880.85	  560.96
     10.8700	  732.00	  695.22	-1888.17	  559.82
     10.9700	  709.00	  696.01	-1911.96	  558.68
     11.0700	  653.00	  697.32	-1969.26	  557.55
     11.1700	  714.00	  699.15	-1910.10	  556.43
     11.2700	  656.00	  701.53	-1970.48	  555.32
     11.3700	  711.00	  704.53	-1918.47	  554.21
     11.4700	  718.00	  708.23	-1915.18	  553.11
     11.5700	  681.00	  712.81	-1956.76	  552.01
     11.6700	  726.00	  718.51	-1917.45	  550.92
     11.7700	  765.00	  725.62	-1885.57	  549.84
     11.8700	  744.00	  734.42	-1915.36	  548.77
     11.9700	  762.00	  744.85	-1907.80	  547.70
     12.0700	  802.00	  756.18	-1879.12	  546.64
     12.1700	  816.00	  766.34	-1875.28	  545.59
     12.2700	  800.00	  771.53	-1896.48	  544.54
     12.3700	  826.00	  766.97	-1865.92	  543.50
     12.4700	  759.00	  751.42	-1917.37	  542.46
     12.5700	  778.00	  730.71	-1877.65	  541.44
     12.6700	  668.00	  711.72	-1968.67	  540.41
     12.7700	  613.00	  697.17	-2009.12	  539.40
     12.8700	  682.00	  687.01	-1929.96	  538.39
     12.9700	  687.00	  680.18	-1918.13	  537.39
     13.0700	  648.00	  675.54	-1952.48	  536.39
     13.1700	  673.00	  672.20	-1924.14	  535.41
     13.2700	  635.00	  669.61	-1959.56	  534.42
     13.3700	  672.00	  667.47	-1920.41	  533.45
     13.4700	  672.00	  665.61	-1918.56	  532.48
     13.5700	  632.00	  663.95	-1956.89	  531.51
     13.6700	  668.00	  662.43	-1919.38	  530.56
     13.7700	  662.00	  661.02	-1923.97	  529.61
     13.8700	  622.00	  659.70	-1962.65	  528.66
     13.9700	  665.00	  658.45	-1918.39	  527.72
     14.0700	  635.00	  657.25	-1947.20	  526.79
     14.1700	  676.00	  656.10	-1905.04	  525.87
     14.2700	  636.00	  654.98	-1943.93	  524.95
     14.3700	  686.00	  653.90	-1892.85	  524.03
     14.4700	  680.00	  652.85	-1897.79	  523.12
     14.5700	  679.00	  651.82	-1897.76	  522.22
     14.6700	  646.00	  650.81	-1929.76	  521.33
     14.7700	  600.00	  649.82	-1974.77	  520.44
     14.8700	  692.00	  648.85	-1881.79	  519.55
     14.9700	  604.00	  647.89	-1968.84	  518.68
     15.0700	  628.00	  646.95	-1943.90	  517.81
     15.1700	  654.00	  646.02	-1916.97	  516.94
     15.2700	  624.00	  645.10	-1946.05	  516.08
     15.3700	  619.00	  644.20	-1950.14	  515.23
     15.4700	  636.00	  643.30	-1932.25	  514.38
     15.5700	  611.00	  642.42	-1956.36	  513.54
     15.6700	  633.00	  641.54	-1933.49	  512.70
     15.7700	  610.00	  640.68	-1955.62	  511.87
     15.8700	  646.00	  639.82	-1918.77	  511.05
     15.9700	  633.00	  638.97	-1930.92	  510.23
     16.0700	  671.00	  638.13	-1892.08	  509.41
     16.1700	  666.00	  637.30	-1896.24	  508.61
     16.2700	  603.00	  636.47	-1958.42	  507.80
     16.3700	  600.00	  635.65	-1960.60	  507.01
     16.4700	  681.00	  634.84	-1878.79	  506.22
     16.5700	  658.00	  634.04	-1900.99	  505.43
     16.6700	  581.00	  633.24	-1977.19	  504.65
     16.7700	  621.00	  632.45	-1936.40	  503.88
     16.8700	  664.00	  631.67	-1892.62	  503.11
     16.9700	  602.00	  630.90	-1953.84	  502.35
     17.0700	  635.00	  630.13	-1920.07	  501.59
     17.1700	  607.00	  629.36	-1947.31	  500.84
     17.2700	  639.00	  628.61	-1914.55	  500.10
     17.3700	  667.00	  627.86	-1885.80	  499.35
     17.4700	  623.00	  627.11	-1929.06	  498.62
     17.5700	  614.00	  626.37	-1937.32	  497.89
     17.6700	  645.00	  625.64	-1905.59	  497.17
     17.7700	  673.00	  624.91	-1876.86	  496.45
     17.8700	  618.00	  624.19	-1931.14	  495.73
     17.9700	  590.00	  623.48	-1958.43	  495.02
     18.0700	  595.00	  622.77	-1952.72	  494.32
     18.1700	  637.00	  622.07	-1910.01	  493.62
     18.2700	  609.00	  621.37	-1937.32	  492.93
     18.3700	  603.00	  620.68	-1942.62	  492.24
     18.4700	  620.00	  619.99	-1924.94	  491.56
     18.5700	  618.00	  619.31	-1926.26	  490.88
     18.6700	  577.00	  618.64	-1966.58	  490.21
     18.7700	  700.00	  617.97	-1842.92	  489.54
     18.8700	  603.00	  619.70	-1941.65	  488.88
     18.9700	  630.00	  619.10	-1914.04	  488.22
     19.0700	  602.00	  618.49	-1941.44	  487.57
     19.1700	  623.00	  617.90	-1919.85	  486.93
     19.2700	  618.00	  617.31	-1924.26	  486.28
     19.3700	  614.00	  616.73	-1927.68	  485.65
     19.4700	  571.00	  616.16	-1970.11	  485.02
     19.5700	  597.00	  615.60	-1943.54	  484.39
     19.6700	  605.00	  615.04	-1934.98	  483.77
     19.7700	  624.00	  614.49	-1915.43	  483.15
     19.8700	  611.00	  613.94	-1927.89	  482.54
     19.9700	  560.00	  613.41	-1978.36	  481.93
     20.0700	  637.00	  612.93	-1900.88	  481.33
     20.1700	  628.00	  612.41	-1909.36	  480.73
     20.2700	  620.00	  611.90	-1916.85	  480.14
     20.3700	  597.00	  611.40	-1939.35	  479.55
     20.4700	  613.00	  610.91	-1922.85	  478.97
     20.5700	  650.00	  610.42	-1885.37	  478.39
     20.6700	  570.00	  609.94	-1964.89	  477.81
     20.7700	  598.00	  609.48	-1936.42	  477.24
     20.8700	  617.00	  609.02	-1916.96	  476.68
     20.9700	  647.00	  608.57	-1886.52	  476.12
     21.0700	  596.00	  608.13	-1937.08	  475.56
     21.1700	  592.00	  607.70	-1940.65	  475.01
     21.2700	  618.00	  607.28	-1914.23	  474.47
     21.3700	  631.00	  606.87	-1900.82	  473.93
     21.4700	  618.00	  606.48	-1913.42	  473.39
     21.5700	  564.00	  606.09	-1967.04	  472.86
     21.6700	  608.00	  605.72	-1922.67	  472.33
     21.7700	  583.00	  605.36	-1947.30	  471.80
     21.8700	  593.00	  605.01	-1936.96	  471.28
     21.9700	  636.00	  604.68	-1893.62	  470.77
     22.0700	  615.00	  604.36	-1914.30	  470.26
     22.1700	  589.00	  604.05	-1940.00	  469.75
     22.2700	  632.00	  603.96	-1896.90	  469.25
     22.3700	  580.00	  603.69	-1948.64	  468.76
     22.4700	  589.00	  603.45	-1939.39	  468.26
     22.5700	  609.00	  603.22	-1919.17	  467.77
     22.6700	  605.00	  603.02	-1922.96	  467.29
     22.7700	  591.00	  602.84	-1936.78	  466.81
     22.8700	  617.00	  602.69	-1910.63	  466.33
     22.9700	  619.00	  602.56	-1908.51	  465.86
     23.0700	  610.00	  602.48	-1917.42	  465.39
     23.1700	  620.00	  602.43	-1907.38	  464.93
     23.2700	  581.00	  602.43	-1946.37	  464.47
     23.3700	  615.00	  602.48	-1912.42	  464.02
     23.4700	  600.00	  602.59	-1927.54	  463.57
     23.5700	  630.00	  602.78	-1897.73	  463.12
     23.6700	  627.00	  603.06	-1901.01	  462.68
     23.7700	  604.00	  603.48	-1924.42	  462.24
     23.8700	  615.00	  604.07	-1914.01	  461.80
     23.9700	  613.00	  604.92	-1916.87	  461.37
     24.0700	  620.00	  606.17	-1911.12	  460.95
     24.1700	  614.00	  608.03	-1918.98	  460.52
     24.2700	  604.00	  610.83	-1931.78	  460.11
     24.3700	  635.00	  614.92	-1904.87	  459.69
     24.4700	  606.00	  620.80	-1939.75	  459.28
     24.5700	  688.00	  628.63	-1865.58	  458.87
     24.6700	  669.00	  638.21	-1894.15	  458.47
     24.7700	  690.00	  648.63	-1883.58	  458.07
     24.8700	  685.00	  657.98	-1897.93	  457.68
     24.9700	  738.00	  663.12	-1850.07	  457.28
     25.0700	  710.00	  660.99	-1875.93	  456.90
     25.1700	  690.00	  652.10	-1887.04	  456.51
     25.2700	  676.00	  640.95	-1889.89	  456.13
     25.3700	  654.00	  631.21	-1902.16	  455.76
     25.4700	  604.00	  624.28	-1945.23	  455.38
     25.5700	  614.00	  620.05	-1930.99	  455.02
     25.6700	  641.00	  617.93	-1901.87	  454.65
     25.7700	  590.00	  617.28	-1952.23	  454.29
     25.8700	  609.00	  617.63	-1933.57	  453.93
     25.9700	  616.00	  618.66	-1927.61	  453.58
     26.0700	  652.00	  620.25	-1893.19	  453.23
     26.1700	  597.00	  622.33	-1950.28	  452.88
     26.2700	  629.00	  624.93	-1920.88	  452.53
     26.3700	  634.00	  628.07	-1919.02	  452.19
     26.4700	  636.00	  631.84	-1920.79	  451.86
     26.5700	  627.00	  636.34	-1934.28	  451.53
     26.6700	  622.00	  641.70	-1944.65	  451.20
     26.7700	  638.00	  648.12	-1935.06	  450.87
     26.8700	  657.00	  655.84	-1923.79	  450.55
     26.9700	  720.00	  665.21	-1870.15	  450.23
     27.0700	  686.00	  676.69	-1915.63	  449.91
     27.1700	  673.00	  690.94	-1942.89	  449.60
     27.2700	  705.00	  708.97	-1928.92	  449.29
     27.3700	  678.00	  732.44	-1979.39	  448.99
     27.4700	  759.00	  764.60	-1930.55	  448.68
     27.5700	  720.00	  812.36	-2017.31	  448.38
     27.6700	  818.00	  890.22	-1997.17	  448.09
     27.7700	  864.00	 1025.91	-2086.85	  447.80
     27.8700	 1016.00	 1265.79	-2174.74	  447.51
     27.9700	 1289.00	 1674.21	-2310.15	  447.22
     28.0700	 1872.00	 2315.18	-2368.13	  446.94
     28.1700	 3034.00	 3208.12	-2099.06	  446.66
     28.2700	 4428.00	 4256.68	-1753.62	  446.38
     28.3700	 5883.00	 5180.08	-1222.03	  446.11
     28.4700	 6307.00	 5537.26	-1155.21	  445.84
     28.5700	 5463.00	 5050.15	-1512.09	  445.57
     28.6700	 3983.00	 4097.99	-2039.94	  445.31
     28.7700	 3004.00	 3315.42	-2236.36	  445.05
     28.8700	 2759.00	 2985.06	-2151.00	  444.79
     28.9700	 3040.00	 3049.05	-1934.00	  444.54
     29.0700	 3603.00	 3256.20	-1578.14	  444.28
     29.1700	 3553.00	 3288.50	-1660.45	  444.04
     29.2700	 3062.00	 2943.30	-1806.25	  443.79
     29.3700	 2351.00	 2343.31	-1917.25	  443.55
     29.4700	 1577.00	 1756.53	-2104.48	  443.31
     29.5700	 1201.00	 1320.63	-2044.58	  443.07
     29.6700	 1016.00	 1047.41	-1956.36	  442.84
     29.7700	  915.00	  893.70	-1903.64	  442.61
     29.8700	  830.00	  809.63	-1904.58	  442.38
     29.9700	  786.00	  760.60	-1899.55	  442.16
     30.0700	  741.00	  728.61	-1912.56	  441.93
     30.1700	  734.00	  705.79	-1896.73	  441.71
     30.2700	  663.00	  688.89	-1950.84	  441.50
     30.3700	  711.00	  676.61	-1890.55	  441.28
     30.4700	  679.00	  668.62	-1914.56	  441.07
     30.5700	  619.00	  665.39	-1971.34	  440.87
     30.6700	  703.00	  667.99	-1889.94	  440.66
     30.7700	  705.00	  677.52	-1897.47	  440.46
     30.8700	  689.00	  693.92	-1929.87	  440.26
     30.9700	  717.00	  714.57	-1922.51	  440.06
     31.0700	  783.00	  733.24	-1875.19	  439.87
     31.1700	  772.00	  740.37	-1893.32	  439.68
     31.2700	  735.00	  728.04	-1917.99	  439.49
     31.3700	  675.00	  700.09	-1950.04	  439.30
     31.4700	  704.00	  669.09	-1890.04	  439.12
     31.5700	  667.00	  643.51	-1901.45	  438.94
     31.6700	  645.00	  625.55	-1905.50	  438.76
     31.7700	  694.00	  614.15	-1845.10	  438.58
     31.8700	  646.00	  607.21	-1886.16	  438.41
     31.9700	  625.00	  602.86	-1902.81	  438.24
     32.0700	  609.00	  599.92	-1915.87	  438.07
     32.1700	  618.00	  597.79	-1904.74	  437.90
     32.2700	  657.00	  596.19	-1864.13	  437.74
     32.3700	  675.00	  594.99	-1844.93	  437.58
     32.4700	  625.00	  594.13	-1894.08	  437.42
     32.5700	  609.00	  593.61	-1909.55	  437.26
     32.6700	  563.00	  593.40	-1955.35	  437.11
     32.7700	  629.00	  593.58	-1889.52	  436.96
     32.8700	  631.00	  594.10	-1888.05	  436.81
     32.9700	  624.00	  595.08	-1896.03	  436.66
     33.0700	  642.00	  596.63	-1879.57	  436.52
     33.1700	  649.00	  598.92	-1874.87	  436.38
     33.2700	  597.00	  602.30	-1930.25	  436.24
     33.3700	  636.00	  607.42	-1896.37	  436.10
     33.4700	  601.00	  615.58	-1939.53	  435.97
     33.5700	  626.00	  629.14	-1928.08	  435.83
     33.6700	  628.00	  652.02	-1948.96	  435.70
     33.7700	  661.00	  689.66	-1953.61	  435.57
     33.8700	  744.00	  747.66	-1928.61	  435.45
     33.9700	  802.00	  828.22	-1951.16	  435.32
     34.0700	 1007.00	  924.99	-1842.93	  435.20
     34.1700	 1121.00	 1019.08	-1823.03	  435.08
     34.2700	 1221.00	 1078.71	-1782.66	  434.97
     34.3700	 1168.00	 1071.28	-1828.23	  434.85
     34.4700	 1111.00	  995.48	-1809.43	  434.74
     34.5700	  959.00	  889.38	-1855.32	  434.63
     34.6700	  767.00	  790.42	-1948.37	  434.52
     34.7700	  718.00	  714.84	-1921.79	  434.41
     34.8700	  665.00	  664.10	-1924.04	  434.31
     34.9700	  654.00	  632.92	-1903.86	  434.21
     35.0700	  657.00	  614.56	-1882.50	  434.10
     35.1700	  658.00	  603.55	-1870.50	  434.01
     35.2700	  646.00	  596.48	-1875.43	  433.91
     35.3700	  614.00	  591.52	-1902.47	  433.82
     35.4700	  576.00	  587.80	-1936.75	  433.72
     35.5700	  549.00	  584.89	-1960.84	  433.63
     35.6700	  598.00	  582.56	-1909.51	  433.54
     35.7700	  610.00	  580.66	-1895.61	  433.46
     35.8700	  582.00	  579.11	-1922.05	  433.37
     35.9700	  607.00	  577.82	-1895.77	  433.29
     36.0700	  576.00	  576.76	-1925.71	  433.21
     36.1700	  536.00	  575.89	-1964.83	  433.13
     36.2700	  559.00	  575.18	-1941.12	  433.05
     36.3700	  606.00	  574.61	-1893.56	  432.98
     36.4700	  606.00	  574.18	-1893.13	  432.90
     36.5700	  613.00	  573.88	-1885.83	  432.83
     36.6700	  591.00	  573.71	-1907.66	  432.76
     36.7700	  589.00	  573.69	-1909.64	  432.69
     36.8700	  594.00	  574.32	-1905.27	  432.62
     36.9700	  532.00	  574.86	-1967.81	  432.56
     37.0700	  572.00	  575.46	-1928.41	  432.50
     37.1700	  576.00	  576.43	-1925.38	  432.43
     37.2700	  573.00	  577.94	-1929.88	  432.37
     37.3700	  544.00	  580.29	-1961.24	  432.32
     37.4700	  560.00	  583.97	-1948.91	  432.26
     37.5700	  572.00	  589.78	-1942.72	  432.21
     37.6700	  575.00	  598.73	-1948.67	  432.15
     37.7700	  608.00	  611.98	-1928.93	  432.10
     37.8700	  630.00	  630.38	-1925.32	  432.05
     37.9700	  598.00	  653.68	-1980.63	  432.00
     38.0700	  669.00	  679.57	-1935.52	  431.96
     38.1700	  651.00	  703.45	-1977.40	  431.91
     38.2700	  684.00	  716.62	-1957.57	  431.87
     38.3700	  683.00	  714.43	-1956.38	  431.82
     38.4700	  649.00	  694.66	-1970.61	  431.78
     38.5700	  612.00	  665.82	-1978.76	  431.74
     38.6700	  589.00	  637.39	-1973.34	  431.71
     38.7700	  610.00	  614.32	-1929.26	  431.67
     38.8700	  610.00	  597.74	-1912.69	  431.64
     38.9700	  599.00	  586.85	-1912.79	  431.60
     39.0700	  574.00	  580.08	-1931.02	  431.57
     39.1700	  599.00	  575.93	-1901.88	  431.54
     39.2700	  594.00	  573.30	-1904.25	  431.51
     39.3700	  572.00	  571.52	-1924.46	  431.48
     39.4700	  584.00	  570.22	-1911.17	  431.46
     39.5700	  569.00	  569.23	-1925.17	  431.43
     39.6700	  560.00	  567.61	-1932.55	  431.41
     39.7700	  531.00	  566.99	-1960.94	  431.39
     39.8700	  541.00	  566.49	-1950.44	  431.37
     39.9700	  599.00	  566.09	-1892.03	  431.35
     40.0700	  556.00	  565.76	-1934.71	  431.33
     40.1700	  556.00	  565.50	-1934.44	  431.31
     40.2700	  530.00	  565.29	-1960.24	  431.30
     40.3700	  552.00	  565.13	-1938.08	  431.28
     40.4700	  564.00	  565.01	-1925.96	  431.27
     40.5700	  548.00	  565.47	-1942.41	  431.26
     40.6700	  578.00	  565.43	-1912.38	  431.25
     40.7700	  628.00	  565.44	-1862.38	  431.24
