MSG Master    CELL:    5.90083   5.90083  23.17102   90.0000   90.0000  120.0000   SPGR: P 63/m m c             TEMP:    791.35
  1   1280     2.52000     0.00000    -0.13340     0.00000     0.00000    0
    98     0     2
       0.00000      10.00000
     125.00000     130.00000
 2Theta	Yobs	Ycal	Yobs-Ycal	Backg	Posr	(hkl)	K
      0.7700	    0.00	  456.00	-1774.25	  350.31
      0.8700	    0.00	  458.26	-1774.25	  352.58
      0.9700	   46.00	  460.50	-1774.25	  354.81
      1.0700	   46.00	  462.72	-1774.25	  357.03
      1.1700	   42.00	  464.91	-1774.25	  359.22
      1.2700	   31.00	  467.08	-1774.25	  361.39
      1.3700	   56.00	  469.23	-1774.25	  363.54
      1.4700	   93.00	  471.35	-1774.25	  365.66
      1.5700	  273.00	  473.45	-1774.25	  367.76
      1.6700	  454.00	  475.53	-1774.25	  369.84
      1.7700	  565.00	  477.58	-1774.25	  371.89
      1.8700	  659.00	  479.61	-1774.25	  373.93
      1.9700	  711.00	  481.63	-1774.25	  375.94
      2.0700	  784.00	  483.61	-1774.25	  377.93
      2.1700	  806.00	  485.58	-1774.25	  379.89
      2.2700	  753.00	  487.53	-1774.25	  381.84
      2.3700	  751.00	  489.45	-1774.25	  383.76
      2.4700	  686.00	  491.35	-1774.25	  385.66
      2.5700	  699.00	  493.23	-1774.25	  387.54
      2.6700	  700.00	  495.09	-1774.25	  389.40
      2.7700	  641.00	  496.93	-1774.25	  391.24
      2.8700	  665.00	  498.75	-1774.25	  393.06
      2.9700	  631.00	  500.55	-1774.25	  394.86
      3.0700	  596.00	  502.32	-1774.25	  396.63
      3.1700	  623.00	  504.08	-1774.25	  398.39
      3.2700	  691.00	  505.81	-1774.25	  400.12
      3.3700	  878.00	  507.53	-1774.25	  401.84
      3.4700	  963.00	  509.22	-1774.25	  403.53
      3.5700	 1055.00	  510.89	-1774.25	  405.21
      3.6700	 1111.00	  512.55	-1774.25	  406.86
      3.7700	 1240.00	  514.18	-1774.25	  408.49
      3.8700	 1400.00	  515.80	-1774.25	  410.11
      3.9700	 1414.00	  517.39	-1774.25	  411.70
      4.0700	 1384.00	  518.97	-1774.25	  413.28
      4.1700	 1455.00	  520.52	-1774.25	  414.84
      4.2700	 1475.00	  522.06	-1774.25	  416.37
      4.3700	 1484.00	  523.58	-1774.25	  417.89
      4.4700	 1409.00	  525.08	-1774.25	  419.39
      4.5700	 1344.00	  526.56	-1774.25	  420.87
      4.6700	 1316.00	  528.02	-1774.25	  422.33
      4.7700	 1274.00	  529.46	-1774.25	  423.77
      4.8700	 1234.00	  530.89	-1774.25	  425.20
      4.9700	 1155.00	  532.29	-1774.25	  426.60
      5.0700	 1149.00	  533.68	-1774.25	  427.99
      5.1700	 1143.00	  535.05	-1774.25	  429.36
      5.2700	 1043.00	  536.40	-1774.25	  430.71
      5.3700	 1032.00	  537.74	-1774.25	  432.05
      5.4700	 1055.00	  539.05	-1774.25	  433.36
      5.5700	 1062.00	  540.35	-1774.25	  434.66
      5.6700	 1013.00	  541.63	-1774.25	  435.94
      5.7700	  974.00	  542.90	-1774.25	  437.21
      5.8700	  907.00	  544.14	-1774.25	  438.45
      5.9700	  857.00	  545.37	-1774.25	  439.68
      6.0700	  910.00	  546.58	-1774.25	  440.89
      6.1700	  890.00	  547.78	-1774.25	  442.09
      6.2700	  908.00	  548.95	-1774.25	  443.27
      6.3700	  894.00	  550.12	-1774.25	  444.43
      6.4700	  840.00	  551.26	-1774.25	  445.57
      6.5700	  830.00	  552.39	-1774.25	  446.70
      6.6700	  831.00	  553.50	-1774.25	  447.81
      6.7700	  788.00	  554.60	-1774.25	  448.91
      6.8700	  819.00	  555.68	-1774.25	  449.99
      6.9700	  813.00	  556.74	-1774.25	  451.05
      7.0700	  777.00	  557.79	-1774.25	  452.10
      7.1700	  787.00	  558.82	-1774.25	  453.13
      7.2700	  773.00	  559.83	-1774.25	  454.14
      7.3700	  697.00	  560.83	-1774.25	  455.15
      7.4700	  717.00	  561.82	-1774.25	  456.13
      7.5700	  702.00	  562.79	-1774.25	  457.10
      7.6700	  781.00	  563.74	-1774.25	  458.05
      7.7700	  719.00	  564.68	-1774.25	  458.99
      7.8700	  744.00	  565.61	-1774.25	  459.92
      7.9700	  723.00	  566.51	-1774.25	  460.83
      8.0700	  715.00	  567.41	-1774.25	  461.72
      8.1700	  693.00	  568.29	-1774.25	  462.60
      8.2700	  690.00	  569.15	-1774.25	  463.46
      8.3700	  680.00	  570.00	-1774.25	  464.31
      8.4700	  661.00	  570.84	-1774.25	  465.15
      8.5700	  682.00	  571.66	-1774.25	  465.97
      8.6700	  668.00	  572.47	-1774.25	  466.78
      8.7700	  678.00	  573.26	-1774.25	  467.57
      8.8700	  697.00	  574.04	-1774.25	  468.35
      8.9700	  643.00	  574.80	-1774.25	  469.11
      9.0700	  675.00	  575.55	-1774.25	  469.87
      9.1700	  676.00	  576.29	-1774.25	  470.60
      9.2700	  618.00	  577.02	-1774.25	  471.33
      9.3700	  639.00	  577.73	-1774.25	  472.04
      9.4700	  619.00	  578.42	-1774.25	  472.74
      9.5700	  604.00	  579.11	-1774.25	  473.42
      9.6700	  619.00	  579.78	-1774.25	  474.09
      9.7700	  589.00	  580.44	-1774.25	  474.75
      9.8700	  630.00	  581.08	-1774.25	  475.39
      9.9700	  640.00	  581.71	-1774.25	  476.02
     10.0700	  638.00	  585.92	-1722.17	  476.64
     10.1700	  645.00	  586.74	-1715.99	  477.25
     10.2700	  663.00	  587.58	-1698.83	  477.84
     10.3700	  617.00	  588.48	-1745.73	  478.42
     10.4700	  581.00	  589.46	-1782.71	  478.99
     10.5700	  640.00	  590.57	-1724.82	  479.55
     10.6700	  620.00	  591.91	-1746.16	  480.09
     10.7700	  634.00	  593.54	-1733.79	  480.62
     10.8700	  610.00	  595.57	-1759.82	  481.14
     10.9700	  630.00	  598.04	-1742.29	  481.65
     11.0700	  624.00	  600.95	-1751.20	  482.15
     11.1700	  630.00	  604.32	-1748.57	  482.63
     11.2700	  592.00	  608.18	-1790.43	  483.11
     11.3700	  611.00	  612.59	-1775.84	  483.57
     11.4700	  631.00	  617.69	-1760.94	  484.02
     11.5700	  626.00	  623.69	-1771.94	  484.46
     11.6700	  646.00	  630.87	-1759.12	  484.88
     11.7700	  649.00	  639.61	-1764.86	  485.30
     11.8700	  700.00	  650.21	-1724.46	  485.70
     11.9700	  717.00	  662.46	-1719.71	  486.10
     12.0700	  721.00	  675.04	-1728.29	  486.48
     12.1700	  750.00	  684.75	-1709.00	  486.85
     12.2700	  729.00	  686.43	-1731.68	  487.22
     12.3700	  706.00	  676.07	-1744.32	  487.57
     12.4700	  654.00	  657.33	-1777.58	  487.91
     12.5700	  643.00	  638.59	-1769.84	  488.24
     12.6700	  615.00	  624.35	-1783.60	  488.56
     12.7700	  595.00	  615.04	-1794.29	  488.87
     12.8700	  626.00	  609.51	-1757.76	  489.17
     12.9700	  587.00	  606.37	-1793.62	  489.45
     13.0700	  597.00	  604.55	-1781.80	  489.73
     13.1700	  590.00	  603.43	-1787.68	  490.00
     13.2700	  606.00	  602.71	-1770.96	  490.26
     13.3700	  548.00	  602.21	-1828.46	  490.51
     13.4700	  544.00	  601.87	-1832.12	  490.75
     13.5700	  601.00	  601.67	-1774.92	  490.98
     13.6700	  584.00	  601.52	-1791.77	  491.20
     13.7700	  566.00	  601.42	-1809.67	  491.41
     13.8700	  649.00	  601.37	-1726.62	  491.62
     13.9700	  570.00	  601.35	-1805.60	  491.81
     14.0700	  615.00	  601.36	-1760.61	  491.99
     14.1700	  575.00	  601.38	-1800.63	  492.17
     14.2700	  550.00	  601.41	-1825.66	  492.33
     14.3700	  555.00	  601.46	-1820.71	  492.49
     14.4700	  607.00	  601.50	-1768.75	  492.64
     14.5700	  581.00	  601.56	-1794.81	  492.78
     14.6700	  587.00	  601.61	-1788.86	  492.91
     14.7700	  630.00	  601.66	-1745.91	  493.03
     14.8700	  580.00	  601.72	-1795.97	  493.14
     14.9700	  572.00	  601.77	-1804.02	  493.25
     15.0700	  578.00	  601.82	-1798.07	  493.34
     15.1700	  618.00	  601.87	-1758.11	  493.43
     15.2700	  569.00	  601.91	-1807.16	  493.51
     15.3700	  606.00	  601.94	-1770.19	  493.58
     15.4700	  565.00	  601.98	-1811.23	  493.65
     15.5700	  569.00	  602.01	-1807.26	  493.70
     15.6700	  576.00	  602.03	-1800.28	  493.75
     15.7700	  566.00	  602.05	-1810.30	  493.79
     15.8700	  565.00	  602.06	-1811.31	  493.82
     15.9700	  595.00	  602.06	-1781.31	  493.85
     16.0700	  535.00	  602.06	-1841.31	  493.87
     16.1700	  545.00	  602.06	-1831.31	  493.88
     16.2700	  561.00	  602.05	-1815.30	  493.88
     16.3700	  580.00	  602.03	-1796.28	  493.87
     16.4700	  597.00	  602.01	-1779.26	  493.86
     16.5700	  601.00	  601.98	-1775.23	  493.84
     16.6700	  592.00	  601.94	-1784.19	  493.82
     16.7700	  617.00	  601.90	-1759.15	  493.78
     16.8700	  631.00	  601.85	-1745.10	  493.74
     16.9700	  606.00	  601.79	-1770.04	  493.69
     17.0700	  569.00	  601.73	-1806.98	  493.64
     17.1700	  573.00	  601.67	-1802.92	  493.58
     17.2700	  614.00	  601.59	-1761.84	  493.51
     17.3700	  577.00	  601.62	-1798.87	  493.44
     17.4700	  619.00	  601.54	-1756.79	  493.36
     17.5700	  606.00	  601.45	-1769.70	  493.27
     17.6700	  571.00	  601.36	-1804.61	  493.18
     17.7700	  599.00	  601.26	-1776.51	  493.08
     17.8700	  571.00	  601.27	-1804.52	  492.97
     17.9700	  583.00	  601.16	-1792.41	  492.86
     18.0700	  603.00	  601.04	-1772.29	  492.74
     18.1700	  553.00	  600.92	-1822.17	  492.61
     18.2700	  562.00	  600.80	-1813.05	  492.48
     18.3700	  569.00	  600.67	-1805.92	  492.35
     18.4700	  594.00	  600.53	-1780.78	  492.21
     18.5700	  622.00	  600.39	-1752.64	  492.06
     18.6700	  554.00	  600.24	-1820.49	  491.90
     18.7700	  579.00	  600.09	-1795.34	  491.74
     18.8700	  588.00	  599.93	-1786.18	  491.58
     18.9700	  580.00	  599.77	-1794.02	  491.41
     19.0700	  574.00	  599.60	-1799.85	  491.23
     19.1700	  554.00	  599.43	-1819.68	  491.05
     19.2700	  573.00	  599.25	-1800.50	  490.86
     19.3700	  551.00	  599.07	-1822.32	  490.67
     19.4700	  609.00	  598.93	-1764.18	  490.48
     19.5700	  561.00	  598.74	-1811.99	  490.27
     19.6700	  585.00	  598.54	-1787.79	  490.07
     19.7700	  560.00	  598.34	-1812.59	  489.85
     19.8700	  564.00	  598.14	-1808.39	  489.64
     19.9700	  593.00	  597.94	-1779.19	  489.41
     20.0700	  572.00	  597.72	-1799.97	  489.19
     20.1700	  573.00	  597.51	-1798.76	  488.96
     20.2700	  560.00	  597.29	-1811.54	  488.72
     20.3700	  570.00	  597.07	-1801.32	  488.48
     20.4700	  590.00	  596.84	-1781.09	  488.23
     20.5700	  546.00	  596.62	-1824.87	  487.98
     20.6700	  601.00	  596.38	-1769.63	  487.73
     20.7700	  558.00	  596.15	-1812.40	  487.47
     20.8700	  596.00	  595.91	-1774.16	  487.21
     20.9700	  571.00	  595.67	-1798.92	  486.94
     21.0700	  603.00	  595.43	-1766.68	  486.67
     21.1700	  562.00	  595.18	-1807.43	  486.39
     21.2700	  599.00	  594.93	-1770.18	  486.11
     21.3700	  544.00	  594.68	-1824.93	  485.83
     21.4700	  600.00	  594.43	-1768.68	  485.54
     21.5700	  617.00	  594.18	-1751.43	  485.25
     21.6700	  578.00	  593.92	-1790.17	  484.95
     21.7700	  580.00	  593.67	-1787.92	  484.65
     21.8700	  584.00	  593.41	-1783.66	  484.35
     21.9700	  594.00	  593.16	-1773.41	  484.04
     22.0700	  599.00	  593.07	-1768.32	  483.73
     22.1700	  632.00	  592.81	-1735.06	  483.42
     22.2700	  528.00	  592.57	-1838.82	  483.10
     22.3700	  608.00	  592.32	-1758.57	  482.78
     22.4700	  579.00	  592.08	-1787.33	  482.46
     22.5700	  547.00	  591.84	-1819.09	  482.13
     22.6700	  604.00	  591.61	-1761.86	  481.80
     22.7700	  553.00	  591.39	-1812.64	  481.46
     22.8700	  578.00	  591.18	-1787.43	  481.12
     22.9700	  592.00	  590.98	-1773.23	  480.78
     23.0700	  545.00	  590.80	-1820.05	  480.44
     23.1700	  592.00	  590.64	-1772.89	  480.09
     23.2700	  607.00	  590.51	-1757.76	  479.74
     23.3700	  623.00	  590.36	-1741.61	  479.39
     23.4700	  595.00	  590.31	-1769.56	  479.04
     23.5700	  625.00	  590.33	-1739.58	  478.68
     23.6700	  613.00	  590.43	-1751.68	  478.32
     23.7700	  569.00	  590.66	-1795.91	  477.95
     23.8700	  568.00	  591.09	-1797.34	  477.59
     23.9700	  569.00	  591.85	-1797.10	  477.22
     24.0700	  611.00	  593.17	-1756.42	  476.84
     24.1700	  650.00	  595.38	-1719.63	  476.47
     24.2700	  597.00	  598.97	-1776.22	  476.09
     24.3700	  659.00	  604.46	-1719.71	  475.71
     24.4700	  660.00	  612.29	-1726.54	  475.33
     24.5700	  619.00	  622.46	-1777.71	  474.95
     24.6700	  657.00	  634.22	-1751.47	  474.56
     24.7700	  688.00	  645.44	-1731.69	  474.17
     24.8700	  698.00	  652.32	-1728.57	  473.78
     24.9700	  706.00	  650.36	-1718.61	  473.39
     25.0700	  664.00	  639.08	-1749.33	  473.00
     25.1700	  674.00	  624.08	-1724.33	  472.60
     25.2700	  647.00	  610.75	-1738.00	  472.20
     25.3700	  649.00	  600.99	-1726.24	  471.80
     25.4700	  599.00	  594.62	-1769.87	  471.40
     25.5700	  623.00	  590.72	-1741.97	  470.99
     25.6700	  616.00	  588.34	-1746.59	  470.59
     25.7700	  672.00	  586.82	-1689.07	  470.18
     25.8700	  594.00	  585.78	-1766.03	  469.77
     25.9700	  626.00	  585.02	-1733.27	  469.36
     26.0700	  600.00	  584.45	-1758.70	  468.94
     26.1700	  605.00	  584.02	-1753.27	  468.53
     26.2700	  602.00	  583.73	-1755.98	  468.11
     26.3700	  588.00	  583.55	-1769.80	  467.69
     26.4700	  619.00	  583.48	-1738.73	  467.27
     26.5700	  639.00	  583.54	-1718.79	  466.85
     26.6700	  622.00	  583.73	-1735.98	  466.43
     26.7700	  640.00	  584.07	-1718.32	  466.01
     26.8700	  606.00	  584.60	-1752.85	  465.58
     26.9700	  633.00	  585.35	-1726.60	  465.16
     27.0700	  621.00	  586.40	-1739.65	  464.73
     27.1700	  654.00	  587.85	-1708.10	  464.30
     27.2700	  605.00	  589.87	-1759.12	  463.87
     27.3700	  638.00	  592.80	-1729.05	  463.44
     27.4700	  642.00	  597.24	-1729.49	  463.01
     27.5700	  643.00	  604.33	-1735.58	  462.58
     27.6700	  701.00	  615.91	-1689.16	  462.14
     27.7700	  687.00	  634.67	-1721.92	  461.71
     27.8700	  703.00	  663.63	-1734.88	  461.27
     27.9700	  669.00	  704.72	-1809.97	  460.84
     28.0700	  802.00	  756.58	-1728.83	  460.40
     28.1700	  811.00	  812.33	-1775.58	  459.96
     28.2700	  902.00	  857.98	-1730.23	  459.52
     28.3700	  945.00	  875.14	-1704.39	  459.08
     28.4700	  967.00	  857.81	-1665.06	  458.64
     28.5700	  835.00	  828.37	-1767.62	  458.20
     28.6700	  754.00	  814.33	-1834.58	  457.76
     28.7700	  797.00	  825.25	-1802.50	  457.32
     28.8700	  825.00	  853.64	-1802.89	  456.87
     28.9700	  825.00	  879.63	-1828.88	  456.43
     29.0700	  888.00	  877.52	-1763.77	  455.99
     29.1700	  887.00	  834.60	-1721.85	  455.54
     29.2700	  821.00	  768.61	-1721.86	  455.10
     29.3700	  700.00	  705.64	-1779.89	  454.66
     29.4700	  663.00	  657.92	-1769.17	  454.21
     29.5700	  655.00	  626.46	-1745.71	  453.77
     29.6700	  677.00	  607.51	-1704.76	  453.32
     29.7700	  697.00	  596.50	-1673.75	  452.87
     29.8700	  681.00	  589.97	-1683.22	  452.43
     29.9700	  641.00	  585.90	-1719.15	  451.98
     30.0700	  625.00	  583.34	-1732.59	  451.54
     30.1700	  623.00	  582.00	-1733.25	  451.09
     30.2700	  641.00	  581.99	-1715.24	  450.64
     30.3700	  654.00	  583.80	-1704.05	  450.20
     30.4700	  627.00	  588.25	-1735.50	  449.75
     30.5700	  681.00	  596.42	-1689.67	  449.30
     30.6700	  642.00	  609.08	-1741.33	  448.86
     30.7700	  645.00	  625.86	-1755.11	  448.41
     30.8700	  683.00	  644.32	-1735.57	  447.97
     30.9700	  667.00	  659.39	-1766.64	  447.52
     31.0700	  656.00	  663.98	-1782.23	  447.08
     31.1700	  714.00	  653.63	-1713.88	  446.63
     31.2700	  671.00	  633.02	-1736.27	  446.19
     31.3700	  625.00	  611.28	-1760.53	  445.74
     31.4700	  639.00	  593.70	-1728.95	  445.30
     31.5700	  642.00	  581.48	-1713.73	  444.85
     31.6700	  618.00	  573.79	-1730.04	  444.41
     31.7700	  630.00	  569.20	-1713.45	  443.96
     31.8700	  601.00	  566.43	-1739.68	  443.52
     31.9700	  580.00	  564.67	-1758.92	  443.08
     32.0700	  545.00	  563.48	-1792.73	  442.64
     32.1700	  602.00	  562.65	-1734.90	  442.20
     32.2700	  576.00	  562.10	-1760.35	  441.76
     32.3700	  573.00	  561.79	-1763.04	  441.32
     32.4700	  575.00	  561.71	-1760.96	  440.88
     32.5700	  618.00	  561.86	-1718.11	  440.44
     32.6700	  649.00	  562.27	-1687.52	  440.00
     32.7700	  620.00	  562.99	-1717.24	  439.56
     32.8700	  572.00	  564.08	-1766.33	  439.12
     32.9700	  559.00	  565.66	-1780.91	  438.69
     33.0700	  556.00	  567.93	-1786.18	  438.25
     33.1700	  559.00	  571.20	-1786.45	  437.82
     33.2700	  595.00	  576.15	-1755.40	  437.38
     33.3700	  595.00	  584.06	-1763.31	  436.95
     33.4700	  582.00	  597.20	-1789.45	  436.52
     33.5700	  663.00	  619.14	-1730.39	  436.09
     33.6700	  615.00	  654.51	-1813.76	  435.66
     33.7700	  695.00	  707.41	-1786.66	  435.23
     33.8700	  779.00	  778.19	-1773.44	  434.80
     33.9700	  864.00	  859.32	-1769.57	  434.37
     34.0700	  932.00	  932.57	-1774.82	  433.94
     34.1700	 1079.00	  970.29	-1665.54	  433.52
     34.2700	 1028.00	  949.29	-1695.54	  433.09
     34.3700	  921.00	  877.43	-1730.68	  432.67
     34.4700	  827.00	  788.89	-1736.14	  432.25
     34.5700	  679.00	  710.59	-1805.84	  431.83
     34.6700	  620.00	  652.38	-1806.63	  431.41
     34.7700	  615.00	  613.82	-1773.07	  430.99
     34.8700	  574.00	  590.15	-1790.40	  430.57
     34.9700	  553.00	  575.99	-1797.24	  430.15
     35.0700	  564.00	  567.26	-1777.51	  429.74
     35.1700	  598.00	  561.42	-1737.67	  429.32
     35.2700	  616.00	  557.17	-1715.42	  428.91
     35.3700	  509.00	  554.34	-1819.59	  428.50
     35.4700	  570.00	  551.70	-1755.95	  428.09
     35.5700	  553.00	  549.48	-1770.73	  427.68
     35.6700	  539.00	  547.61	-1782.86	  427.27
     35.7700	  520.00	  546.00	-1800.25	  426.86
     35.8700	  468.00	  544.60	-1850.85	  426.46
     35.9700	  563.00	  543.36	-1754.61	  426.06
     36.0700	  531.00	  542.26	-1785.51	  425.65
     36.1700	  517.00	  541.27	-1798.52	  425.25
     36.2700	  538.00	  540.38	-1776.63	  424.85
     36.3700	  555.00	  539.56	-1758.81	  424.46
     36.4700	  483.00	  538.79	-1830.04	  424.06
     36.5700	  508.00	  538.12	-1804.37	  423.66
     36.6700	  555.00	  537.51	-1756.76	  423.27
     36.7700	  511.00	  536.96	-1800.21	  422.88
     36.8700	  485.00	  536.49	-1825.74	  422.49
     36.9700	  542.00	  536.12	-1768.37	  422.10
     37.0700	  528.00	  535.91	-1782.16	  421.71
     37.1700	  474.00	  535.94	-1836.19	  421.33
     37.2700	  497.00	  536.34	-1813.59	  420.94
     37.3700	  521.00	  537.45	-1790.70	  420.56
     37.4700	  527.00	  539.04	-1786.29	  420.18
     37.5700	  465.00	  541.29	-1850.54	  419.80
     37.6700	  553.00	  543.90	-1765.15	  419.42
     37.7700	  565.00	  546.24	-1755.49	  419.05
     37.8700	  528.00	  547.35	-1793.60	  418.67
     37.9700	  549.00	  546.48	-1771.73	  418.30
     38.0700	  514.00	  543.87	-1804.12	  417.93
     38.1700	  556.00	  540.50	-1758.75	  417.56
     38.2700	  515.00	  537.19	-1796.44	  417.20
     38.3700	  499.00	  534.34	-1809.59	  416.83
     38.4700	  489.00	  532.10	-1817.35	  416.47
     38.5700	  493.00	  530.44	-1811.69	  416.11
     38.6700	  520.00	  529.23	-1783.48	  415.75
     38.7700	  471.00	  528.34	-1831.59	  415.39
     38.8700	  503.00	  527.63	-1798.88	  415.03
     38.9700	  518.00	  527.05	-1783.30	  414.68
     39.0700	  490.00	  526.54	-1810.79	  414.33
     39.1700	  532.00	  526.07	-1768.32	  413.98
     39.2700	  504.00	  525.64	-1795.89	  413.63
     39.3700	  558.00	  525.24	-1741.49	  413.28
     39.4700	  479.00	  524.86	-1820.11	  412.94
     39.5700	  527.00	  524.39	-1771.64	  412.59
     39.6700	  524.00	  524.04	-1774.29	  412.25
     39.7700	  512.00	  523.71	-1785.96	  411.91
     39.8700	  519.00	  523.44	-1778.69	  411.58
     39.9700	  473.00	  523.14	-1824.39	  411.24
     40.0700	  526.00	  523.39	-1771.64	  410.91
     40.1700	  524.00	  523.11	-1773.36	  410.58
     40.2700	  525.00	  522.86	-1772.11	  410.25
     40.3700	  504.00	  522.61	-1792.86	  409.92
     40.4700	  511.00	  522.27	-1785.52	  409.60
     40.5700	  549.00	  522.07	-1747.32	  409.27
     40.6700	  518.00	  521.88	-1778.13	  408.95
     40.7700	  504.00	  521.71	-1791.96	  408.63
