MSG Master    CELL:    5.91909   5.91909  23.26898   90.0000   90.0000  120.0000   SPGR: P 63/m m c             TEMP:   1074.85
  1   1280     2.52000     0.00000    -0.12970     0.00000     0.00000    0
    99     0     2
       0.00000      10.00000
     125.00000     130.00000
 2Theta	Yobs	Ycal	Yobs-Ycal	Backg	Posr	(hkl)	K
      0.7700	    0.00	  539.17	-1752.50	  420.91
      0.8700	    0.00	  539.96	-1752.50	  421.70
      0.9700	   49.00	  540.74	-1752.50	  422.48
      1.0700	   45.00	  541.51	-1752.50	  423.24
      1.1700	   51.00	  542.26	-1752.50	  424.00
      1.2700	   39.00	  543.01	-1752.50	  424.75
      1.3700	   38.00	  543.74	-1752.50	  425.48
      1.4700	  108.00	  544.47	-1752.50	  426.20
      1.5700	  266.00	  545.18	-1752.50	  426.91
      1.6700	  477.00	  545.88	-1752.50	  427.62
      1.7700	  565.00	  546.57	-1752.50	  428.31
      1.8700	  639.00	  547.25	-1752.50	  428.99
      1.9700	  692.00	  547.92	-1752.50	  429.66
      2.0700	  774.00	  548.58	-1752.50	  430.31
      2.1700	  810.00	  549.23	-1752.50	  430.96
      2.2700	  753.00	  549.86	-1752.50	  431.60
      2.3700	  724.00	  550.49	-1752.50	  432.23
      2.4700	  728.00	  551.11	-1752.50	  432.85
      2.5700	  675.00	  551.72	-1752.50	  433.45
      2.6700	  674.00	  552.32	-1752.50	  434.05
      2.7700	  622.00	  552.90	-1752.50	  434.64
      2.8700	  653.00	  553.48	-1752.50	  435.22
      2.9700	  644.00	  554.05	-1752.50	  435.78
      3.0700	  581.00	  554.61	-1752.50	  436.34
      3.1700	  593.00	  555.16	-1752.50	  436.89
      3.2700	  656.00	  555.69	-1752.50	  437.43
      3.3700	  624.00	  556.22	-1752.50	  437.96
      3.4700	  726.00	  556.74	-1752.50	  438.48
      3.5700	  795.00	  557.25	-1752.50	  438.99
      3.6700	  866.00	  557.75	-1752.50	  439.49
      3.7700	  944.00	  558.25	-1752.50	  439.98
      3.8700	  930.00	  558.73	-1752.50	  440.46
      3.9700	  978.00	  559.20	-1752.50	  440.94
      4.0700	 1059.00	  559.67	-1752.50	  441.40
      4.1700	 1061.00	  560.12	-1752.50	  441.86
      4.2700	 1069.00	  560.57	-1752.50	  442.30
      4.3700	 1082.00	  561.00	-1752.50	  442.74
      4.4700	 1103.00	  561.43	-1752.50	  443.17
      4.5700	 1110.00	  561.85	-1752.50	  443.59
      4.6700	 1022.00	  562.26	-1752.50	  444.00
      4.7700	 1037.00	  562.67	-1752.50	  444.40
      4.8700	  963.00	  563.06	-1752.50	  444.80
      4.9700	  965.00	  563.45	-1752.50	  445.18
      5.0700	 1024.00	  563.82	-1752.50	  445.56
      5.1700	  905.00	  564.19	-1752.50	  445.93
      5.2700	  861.00	  564.55	-1752.50	  446.29
      5.3700	  860.00	  564.90	-1752.50	  446.64
      5.4700	  888.00	  565.25	-1752.50	  446.98
      5.5700	  855.00	  565.58	-1752.50	  447.32
      5.6700	  840.00	  565.91	-1752.50	  447.65
      5.7700	  882.00	  566.23	-1752.50	  447.97
      5.8700	  840.00	  566.54	-1752.50	  448.28
      5.9700	  804.00	  566.85	-1752.50	  448.58
      6.0700	  804.00	  567.14	-1752.50	  448.88
      6.1700	  786.00	  567.43	-1752.50	  449.17
      6.2700	  767.00	  567.71	-1752.50	  449.45
      6.3700	  781.00	  567.99	-1752.50	  449.72
      6.4700	  768.00	  568.25	-1752.50	  449.99
      6.5700	  747.00	  568.51	-1752.50	  450.25
      6.6700	  734.00	  568.76	-1752.50	  450.50
      6.7700	  721.00	  569.00	-1752.50	  450.74
      6.8700	  715.00	  569.24	-1752.50	  450.98
      6.9700	  689.00	  569.47	-1752.50	  451.21
      7.0700	  694.00	  569.69	-1752.50	  451.43
      7.1700	  716.00	  569.91	-1752.50	  451.64
      7.2700	  689.00	  570.11	-1752.50	  451.85
      7.3700	  709.00	  570.31	-1752.50	  452.05
      7.4700	  698.00	  570.51	-1752.50	  452.24
      7.5700	  691.00	  570.69	-1752.50	  452.43
      7.6700	  685.00	  570.87	-1752.50	  452.61
      7.7700	  670.00	  571.05	-1752.50	  452.78
      7.8700	  656.00	  571.21	-1752.50	  452.95
      7.9700	  636.00	  571.37	-1752.50	  453.11
      8.0700	  642.00	  571.53	-1752.50	  453.26
      8.1700	  615.00	  571.67	-1752.50	  453.41
      8.2700	  618.00	  571.81	-1752.50	  453.55
      8.3700	  604.00	  571.95	-1752.50	  453.68
      8.4700	  595.00	  572.07	-1752.50	  453.81
      8.5700	  662.00	  572.20	-1752.50	  453.93
      8.6700	  623.00	  572.31	-1752.50	  454.05
      8.7700	  645.00	  572.42	-1752.50	  454.16
      8.8700	  623.00	  572.52	-1752.50	  454.26
      8.9700	  626.00	  572.62	-1752.50	  454.35
      9.0700	  605.00	  572.71	-1752.50	  454.44
      9.1700	  609.00	  572.79	-1752.50	  454.53
      9.2700	  606.00	  572.87	-1752.50	  454.61
      9.3700	  624.00	  572.94	-1752.50	  454.68
      9.4700	  608.00	  573.01	-1752.50	  454.75
      9.5700	  559.00	  573.07	-1752.50	  454.81
      9.6700	  617.00	  573.13	-1752.50	  454.86
      9.7700	  583.00	  573.17	-1752.50	  454.91
      9.8700	  591.00	  573.22	-1752.50	  454.95
      9.9700	  601.00	  573.26	-1752.50	  454.99
     10.0700	  594.00	  574.04	-1732.54	  455.03
     10.1700	  636.00	  574.15	-1690.65	  455.05
     10.2700	  605.00	  574.27	-1721.77	  455.07
     10.3700	  563.00	  574.41	-1763.91	  455.09
     10.4700	  567.00	  574.60	-1760.10	  455.10
     10.5700	  602.00	  574.90	-1725.40	  455.11
     10.6700	  609.00	  575.40	-1718.90	  455.11
     10.7700	  574.00	  576.20	-1754.70	  455.11
     10.8700	  573.00	  577.38	-1756.88	  455.10
     10.9700	  610.00	  578.93	-1721.43	  455.08
     11.0700	  601.00	  580.81	-1732.31	  455.06
     11.1700	  593.00	  583.02	-1742.52	  455.04
     11.2700	  564.00	  585.58	-1774.08	  455.01
     11.3700	  625.00	  588.58	-1716.08	  454.97
     11.4700	  571.00	  592.15	-1773.65	  454.94
     11.5700	  600.00	  596.47	-1748.97	  454.89
     11.6700	  615.00	  601.90	-1739.40	  454.84
     11.7700	  568.00	  609.02	-1793.52	  454.79
     11.8700	  643.00	  618.78	-1728.28	  454.73
     11.9700	  669.00	  631.89	-1715.39	  454.67
     12.0700	  692.00	  646.84	-1707.34	  454.60
     12.1700	  673.00	  657.42	-1736.92	  454.53
     12.2700	  671.00	  653.84	-1735.34	  454.46
     12.3700	  578.00	  633.38	-1807.88	  454.38
     12.4700	  634.00	  608.82	-1727.32	  454.29
     12.5700	  632.00	  591.21	-1711.71	  454.20
     12.6700	  552.00	  581.90	-1782.40	  454.11
     12.7700	  551.00	  577.81	-1779.31	  454.02
     12.8700	  579.00	  576.00	-1749.50	  453.91
     12.9700	  593.00	  575.01	-1734.51	  453.81
     13.0700	  580.00	  574.33	-1746.83	  453.70
     13.1700	  601.00	  573.81	-1725.31	  453.59
     13.2700	  571.00	  573.40	-1754.90	  453.47
     13.3700	  497.00	  573.04	-1828.54	  453.35
     13.4700	  525.00	  572.74	-1800.24	  453.22
     13.5700	  553.00	  572.46	-1771.96	  453.10
     13.6700	  590.00	  572.21	-1734.71	  452.96
     13.7700	  545.00	  571.98	-1779.48	  452.83
     13.8700	  557.00	  571.76	-1767.26	  452.69
     13.9700	  546.00	  571.55	-1778.05	  452.54
     14.0700	  597.00	  571.35	-1726.85	  452.40
     14.1700	  562.00	  571.15	-1761.65	  452.25
     14.2700	  549.00	  570.95	-1774.45	  452.09
     14.3700	  558.00	  570.76	-1765.26	  451.94
     14.4700	  600.00	  570.56	-1723.06	  451.77
     14.5700	  548.00	  570.37	-1774.87	  451.61
     14.6700	  554.00	  570.18	-1768.68	  451.44
     14.7700	  560.00	  569.98	-1762.48	  451.27
     14.8700	  576.00	  569.79	-1746.29	  451.10
     14.9700	  510.00	  569.59	-1812.09	  450.92
     15.0700	  542.00	  569.40	-1779.90	  450.74
     15.1700	  562.00	  569.20	-1759.70	  450.56
     15.2700	  554.00	  569.00	-1767.50	  450.37
     15.3700	  585.00	  568.80	-1736.30	  450.18
     15.4700	  518.00	  568.59	-1803.09	  449.99
     15.5700	  597.00	  568.39	-1723.89	  449.79
     15.6700	  587.00	  568.18	-1733.68	  449.59
     15.7700	  558.00	  567.97	-1762.47	  449.39
     15.8700	  544.00	  567.76	-1776.26	  449.19
     15.9700	  550.00	  567.54	-1770.04	  448.98
     16.0700	  590.00	  567.33	-1729.83	  448.77
     16.1700	  576.00	  567.11	-1743.61	  448.56
     16.2700	  527.00	  566.91	-1792.41	  448.34
     16.3700	  594.00	  566.69	-1725.19	  448.12
     16.4700	  586.00	  566.47	-1732.97	  447.90
     16.5700	  559.00	  566.24	-1759.74	  447.68
     16.6700	  554.00	  566.01	-1764.51	  447.45
     16.7700	  573.00	  565.78	-1745.28	  447.23
     16.8700	  570.00	  565.54	-1748.04	  446.99
     16.9700	  561.00	  565.31	-1756.81	  446.76
     17.0700	  564.00	  565.07	-1753.57	  446.53
     17.1700	  570.00	  564.83	-1747.33	  446.29
     17.2700	  555.00	  564.59	-1762.09	  446.05
     17.3700	  527.00	  564.35	-1789.85	  445.81
     17.4700	  543.00	  564.10	-1773.60	  445.56
     17.5700	  565.00	  563.85	-1751.35	  445.32
     17.6700	  566.00	  563.60	-1750.10	  445.07
     17.7700	  560.00	  563.35	-1755.85	  444.82
     17.8700	  594.00	  563.09	-1721.59	  444.56
     17.9700	  543.00	  562.93	-1772.43	  444.31
     18.0700	  533.00	  562.68	-1782.18	  444.05
     18.1700	  572.00	  562.42	-1742.92	  443.79
     18.2700	  557.00	  562.16	-1757.66	  443.53
     18.3700	  546.00	  561.90	-1768.40	  443.27
     18.4700	  539.00	  561.64	-1775.14	  443.00
     18.5700	  568.00	  561.37	-1745.87	  442.73
     18.6700	  539.00	  561.11	-1774.61	  442.47
     18.7700	  591.00	  560.84	-1722.34	  442.20
     18.8700	  564.00	  560.65	-1749.15	  441.92
     18.9700	  545.00	  560.38	-1767.88	  441.65
     19.0700	  550.00	  560.11	-1762.61	  441.37
     19.1700	  552.00	  559.84	-1760.34	  441.10
     19.2700	  573.00	  559.57	-1739.07	  440.82
     19.3700	  561.00	  559.29	-1750.79	  440.54
     19.4700	  539.00	  559.02	-1772.52	  440.26
     19.5700	  576.00	  558.74	-1735.24	  439.97
     19.6700	  562.00	  558.46	-1748.96	  439.69
     19.7700	  546.00	  558.18	-1764.68	  439.40
     19.8700	  563.00	  557.90	-1747.40	  439.11
     19.9700	  548.00	  557.62	-1762.12	  438.83
     20.0700	  575.00	  557.34	-1734.84	  438.54
     20.1700	  544.00	  557.06	-1765.56	  438.24
     20.2700	  514.00	  556.78	-1795.28	  437.95
     20.3700	  560.00	  556.49	-1748.99	  437.66
     20.4700	  535.00	  556.21	-1773.71	  437.36
     20.5700	  537.00	  555.89	-1771.39	  437.06
     20.6700	  564.00	  555.61	-1744.11	  436.77
     20.7700	  513.00	  555.32	-1794.82	  436.47
     20.8700	  558.00	  555.07	-1749.57	  436.17
     20.9700	  536.00	  554.79	-1771.29	  435.87
     21.0700	  522.00	  554.50	-1785.00	  435.56
     21.1700	  543.00	  554.21	-1763.71	  435.26
     21.2700	  564.00	  553.93	-1742.43	  434.96
     21.3700	  595.00	  553.64	-1711.14	  434.65
     21.4700	  628.00	  553.36	-1677.86	  434.35
     21.5700	  551.00	  553.07	-1754.57	  434.04
     21.6700	  555.00	  552.79	-1750.29	  433.73
     21.7700	  521.00	  552.51	-1784.01	  433.42
     21.8700	  567.00	  552.22	-1737.72	  433.11
     21.9700	  531.00	  551.94	-1773.44	  432.80
     22.0700	  563.00	  551.67	-1741.17	  432.49
     22.1700	  527.00	  551.39	-1776.89	  432.18
     22.2700	  564.00	  551.11	-1739.61	  431.87
     22.3700	  517.00	  550.84	-1786.34	  431.55
     22.4700	  564.00	  550.57	-1739.07	  431.24
     22.5700	  562.00	  550.31	-1740.81	  430.93
     22.6700	  575.00	  550.05	-1727.55	  430.61
     22.7700	  566.00	  549.80	-1736.30	  430.29
     22.8700	  570.00	  549.55	-1732.05	  429.98
     22.9700	  539.00	  549.32	-1762.82	  429.66
     23.0700	  546.00	  549.09	-1755.59	  429.35
     23.1700	  549.00	  548.88	-1752.38	  429.03
     23.2700	  562.00	  548.69	-1739.19	  428.71
     23.3700	  547.00	  548.53	-1754.03	  428.39
     23.4700	  546.00	  548.39	-1754.89	  428.07
     23.5700	  556.00	  548.30	-1744.80	  427.75
     23.6700	  565.00	  548.27	-1735.77	  427.43
     23.7700	  586.00	  548.47	-1714.97	  427.11
     23.8700	  557.00	  548.74	-1744.24	  426.79
     23.9700	  517.00	  549.43	-1784.93	  426.47
     24.0700	  585.00	  550.95	-1718.45	  426.15
     24.1700	  583.00	  553.95	-1723.45	  425.83
     24.2700	  532.00	  559.25	-1779.75	  425.51
     24.3700	  588.00	  567.82	-1732.32	  425.19
     24.4700	  596.00	  580.69	-1737.19	  424.87
     24.5700	  553.00	  598.24	-1797.74	  424.55
     24.6700	  649.00	  617.77	-1721.27	  424.22
     24.7700	  637.00	  631.41	-1746.91	  423.90
     24.8700	  645.00	  628.48	-1735.98	  423.58
     24.9700	  587.00	  607.57	-1773.07	  423.26
     25.0700	  563.00	  582.26	-1771.76	  422.94
     25.1700	  557.00	  563.50	-1759.00	  422.62
     25.2700	  563.00	  553.09	-1742.59	  422.29
     25.3700	  551.00	  548.30	-1749.80	  421.97
     25.4700	  585.00	  546.15	-1713.65	  421.65
     25.5700	  521.00	  545.02	-1776.52	  421.33
     25.6700	  528.00	  544.27	-1768.77	  421.01
     25.7700	  550.00	  543.72	-1746.22	  420.69
     25.8700	  547.00	  543.30	-1748.80	  420.37
     25.9700	  555.00	  542.98	-1740.48	  420.05
     26.0700	  567.00	  542.74	-1728.24	  419.73
     26.1700	  546.00	  542.57	-1749.07	  419.40
     26.2700	  519.00	  542.47	-1775.97	  419.08
     26.3700	  580.00	  542.45	-1714.95	  418.76
     26.4700	  593.00	  542.50	-1702.00	  418.45
     26.5700	  538.00	  542.65	-1757.15	  418.13
     26.6700	  517.00	  542.89	-1778.39	  417.81
     26.7700	  566.00	  543.27	-1729.77	  417.49
     26.8700	  581.00	  543.81	-1715.31	  417.17
     26.9700	  582.00	  544.56	-1715.06	  416.85
     27.0700	  541.00	  545.59	-1757.09	  416.54
     27.1700	  580.00	  547.03	-1719.53	  416.22
     27.2700	  519.00	  549.12	-1782.62	  415.90
     27.3700	  584.00	  552.32	-1720.82	  415.59
     27.4700	  549.00	  557.56	-1761.06	  415.27
     27.5700	  611.00	  566.46	-1707.96	  414.96
     27.6700	  569.00	  581.57	-1765.07	  414.64
     27.7700	  554.00	  606.13	-1804.63	  414.33
     27.8700	  571.00	  642.87	-1824.37	  414.01
     27.9700	  687.00	  691.73	-1757.23	  413.70
     28.0700	  739.00	  746.92	-1760.42	  413.39
     28.1700	  864.00	  794.46	-1682.96	  413.08
     28.2700	  966.00	  813.82	-1600.32	  412.77
     28.3700	  885.00	  793.92	-1661.42	  412.46
     28.4700	  822.00	  755.48	-1685.98	  412.15
     28.5700	  684.00	  730.49	-1798.99	  411.84
     28.6700	  707.00	  732.92	-1778.42	  411.53
     28.7700	  731.00	  757.65	-1779.15	  411.22
     28.8700	  815.00	  785.36	-1722.86	  410.91
     28.9700	  819.00	  789.17	-1722.67	  410.61
     29.0700	  743.00	  752.79	-1762.29	  410.30
     29.1700	  686.00	  692.26	-1758.76	  410.00
     29.2700	  631.00	  635.13	-1756.63	  409.69
     29.3700	  578.00	  594.15	-1768.65	  409.39
     29.4700	  599.00	  569.49	-1722.99	  409.09
     29.5700	  611.00	  556.19	-1697.69	  408.79
     29.6700	  629.00	  549.18	-1672.68	  408.49
     29.7700	  551.00	  545.20	-1746.70	  408.19
     29.8700	  612.00	  542.73	-1683.23	  407.89
     29.9700	  571.00	  541.17	-1722.67	  407.59
     30.0700	  520.00	  540.40	-1772.90	  407.29
     30.1700	  620.00	  540.58	-1673.08	  407.00
     30.2700	  543.00	  542.26	-1751.76	  406.70
     30.3700	  561.00	  546.51	-1738.01	  406.41
     30.4700	  593.00	  554.93	-1714.43	  406.12
     30.5700	  587.00	  569.21	-1734.71	  405.82
     30.6700	  569.00	  589.77	-1773.27	  405.53
     30.7700	  603.00	  614.02	-1763.52	  405.24
     30.8700	  623.00	  634.96	-1764.46	  404.95
     30.9700	  577.00	  642.02	-1817.52	  404.67
     31.0700	  603.00	  628.21	-1777.71	  404.38
     31.1700	  560.00	  600.91	-1793.41	  404.09
     31.2700	  533.00	  573.75	-1793.25	  403.81
     31.3700	  549.00	  553.82	-1757.32	  403.53
     31.4700	  551.00	  541.77	-1743.27	  403.24
     31.5700	  546.00	  535.37	-1741.87	  402.96
     31.6700	  585.00	  532.08	-1699.58	  402.68
     31.7700	  531.00	  530.25	-1751.75	  402.40
     31.8700	  539.00	  529.10	-1742.60	  402.12
     31.9700	  532.00	  528.29	-1748.79	  401.85
     32.0700	  607.00	  527.72	-1673.22	  401.57
     32.1700	  505.00	  527.32	-1774.82	  401.30
     32.2700	  570.00	  527.08	-1709.58	  401.02
     32.3700	  549.00	  526.99	-1730.49	  400.75
     32.4700	  567.00	  527.05	-1712.55	  400.48
     32.5700	  523.00	  527.27	-1756.77	  400.21
     32.6700	  592.00	  527.69	-1688.19	  399.94
     32.7700	  576.00	  528.34	-1704.84	  399.68
     32.8700	  558.00	  529.30	-1723.80	  399.41
     32.9700	  533.00	  530.68	-1750.18	  399.15
     33.0700	  540.00	  532.68	-1745.18	  398.88
     33.1700	  567.00	  535.77	-1721.27	  398.62
     33.2700	  537.00	  540.97	-1756.47	  398.36
     33.3700	  549.00	  550.55	-1754.05	  398.10
     33.4700	  565.00	  568.91	-1756.41	  397.84
     33.5700	  560.00	  602.99	-1795.49	  397.59
     33.6700	  613.00	  660.92	-1800.42	  397.33
     33.7700	  791.00	  746.30	-1707.80	  397.08
     33.8700	  851.00	  849.80	-1751.30	  396.82
     33.9700	 1027.00	  943.42	-1668.92	  396.57
     34.0700	 1062.00	  984.28	-1674.78	  396.32
     34.1700	  982.00	  941.14	-1711.64	  396.08
     34.2700	  896.00	  836.54	-1693.04	  395.83
     34.3700	  751.00	  724.58	-1726.08	  395.58
     34.4700	  623.00	  638.33	-1767.83	  395.34
     34.5700	  589.00	  584.42	-1747.92	  395.10
     34.6700	  534.00	  555.43	-1773.93	  394.85
     34.7700	  520.00	  540.96	-1773.46	  394.61
     34.8700	  574.00	  533.44	-1711.94	  394.38
     34.9700	  533.00	  528.94	-1748.44	  394.14
     35.0700	  533.00	  525.83	-1745.33	  393.90
     35.1700	  515.00	  523.48	-1760.98	  393.67
     35.2700	  546.00	  521.64	-1728.14	  393.44
     35.3700	  494.00	  520.12	-1778.62	  393.21
     35.4700	  523.00	  518.86	-1748.36	  392.98
     35.5700	  548.00	  517.80	-1722.30	  392.75
     35.6700	  514.00	  516.88	-1755.38	  392.52
     35.7700	  543.00	  516.08	-1725.58	  392.30
     35.8700	  532.00	  515.38	-1735.88	  392.08
     35.9700	  531.00	  515.24	-1736.74	  391.85
     36.0700	  501.00	  514.68	-1766.18	  391.63
     36.1700	  514.00	  514.18	-1752.68	  391.41
     36.2700	  555.00	  513.72	-1711.22	  391.20
     36.3700	  529.00	  513.31	-1736.81	  390.98
     36.4700	  502.00	  512.93	-1763.43	  390.77
     36.5700	  518.00	  512.59	-1747.09	  390.56
     36.6700	  481.00	  512.28	-1783.78	  390.34
     36.7700	  505.00	  512.02	-1759.52	  390.14
     36.8700	  523.00	  511.81	-1741.31	  389.93
     36.9700	  495.00	  511.70	-1769.20	  389.72
     37.0700	  490.00	  511.79	-1774.29	  389.52
     37.1700	  498.00	  512.26	-1766.76	  389.31
     37.2700	  536.00	  513.42	-1729.92	  389.11
     37.3700	  499.00	  515.58	-1769.08	  388.91
     37.4700	  500.00	  518.83	-1771.33	  388.72
     37.5700	  527.00	  522.69	-1748.19	  388.52
     37.6700	  554.00	  526.09	-1724.59	  388.32
     37.7700	  531.00	  527.69	-1749.19	  388.13
     37.8700	  534.00	  527.01	-1745.51	  387.94
     37.9700	  489.00	  524.84	-1788.34	  387.75
     38.0700	  497.00	  521.90	-1777.40	  387.56
     38.1700	  514.00	  518.45	-1756.95	  387.38
     38.2700	  508.00	  515.01	-1759.51	  387.19
     38.3700	  553.00	  512.16	-1711.66	  387.01
     38.4700	  518.00	  510.11	-1744.61	  386.83
     38.5700	  510.00	  508.79	-1751.29	  386.65
     38.6700	  526.00	  507.98	-1734.48	  386.47
     38.7700	  522.00	  507.38	-1737.88	  386.29
     38.8700	  464.00	  507.03	-1795.53	  386.12
     38.9700	  488.00	  506.75	-1771.25	  385.94
     39.0700	  504.00	  506.51	-1755.01	  385.77
     39.1700	  524.00	  506.29	-1734.79	  385.60
     39.2700	  526.00	  506.01	-1732.51	  385.44
     39.3700	  491.00	  505.83	-1767.33	  385.27
     39.4700	  512.00	  505.65	-1746.15	  385.11
     39.5700	  471.00	  505.49	-1786.99	  384.94
     39.6700	  513.00	  505.46	-1744.96	  384.78
     39.7700	  500.00	  505.32	-1757.82	  384.62
     39.8700	  504.00	  505.19	-1753.69	  384.46
     39.9700	  499.00	  505.07	-1758.57	  384.31
     40.0700	  534.00	  504.96	-1723.46	  384.15
     40.1700	  494.00	  504.85	-1763.35	  384.00
     40.2700	  482.00	  504.76	-1775.26	  383.85
     40.3700	  476.00	  504.68	-1781.18	  383.70
     40.4700	  500.00	  504.61	-1757.11	  383.55
     40.5700	  509.00	  504.56	-1748.06	  383.41
     40.6700	  488.00	  504.52	-1769.02	  383.26
     40.7700	  479.00	  504.50	-1778.00	  383.12
