MSG Master    CELL:    5.91209   5.91209  23.24862   90.0000   90.0000  120.0000   SPGR: P 63/m m c             TEMP:    948.55
  1   1280     2.52000     0.00000    -0.12562     0.00000     0.00000    0
    98     0     2
       0.00000      10.00000
     125.00000     130.00000
 2Theta	Yobs	Ycal	Yobs-Ycal	Backg	Posr	(hkl)	K
      0.7700	    0.00	  488.21	-1742.25	  375.68
      0.8700	    0.00	  489.53	-1742.25	  377.01
      0.9700	   43.00	  490.84	-1742.25	  378.32
      1.0700	   46.00	  492.14	-1742.25	  379.61
      1.1700	   56.00	  493.42	-1742.25	  380.89
      1.2700	   35.00	  494.68	-1742.25	  382.16
      1.3700	   32.00	  495.93	-1742.25	  383.41
      1.4700	   88.00	  497.16	-1742.25	  384.64
      1.5700	  290.00	  498.38	-1742.25	  385.86
      1.6700	  456.00	  499.58	-1742.25	  387.06
      1.7700	  578.00	  500.77	-1742.25	  388.25
      1.8700	  626.00	  501.95	-1742.25	  389.42
      1.9700	  763.00	  503.10	-1742.25	  390.58
      2.0700	  727.00	  504.25	-1742.25	  391.73
      2.1700	  758.00	  505.38	-1742.25	  392.86
      2.2700	  745.00	  506.50	-1742.25	  393.97
      2.3700	  817.00	  507.60	-1742.25	  395.08
      2.4700	  683.00	  508.68	-1742.25	  396.16
      2.5700	  725.00	  509.76	-1742.25	  397.24
      2.6700	  674.00	  510.82	-1742.25	  398.29
      2.7700	  598.00	  511.86	-1742.25	  399.34
      2.8700	  607.00	  512.89	-1742.25	  400.37
      2.9700	  600.00	  513.91	-1742.25	  401.39
      3.0700	  560.00	  514.91	-1742.25	  402.39
      3.1700	  624.00	  515.90	-1742.25	  403.38
      3.2700	  699.00	  516.88	-1742.25	  404.36
      3.3700	  694.00	  517.84	-1742.25	  405.32
      3.4700	  849.00	  518.79	-1742.25	  406.27
      3.5700	  888.00	  519.73	-1742.25	  407.21
      3.6700	  956.00	  520.65	-1742.25	  408.13
      3.7700	 1094.00	  521.56	-1742.25	  409.04
      3.8700	 1085.00	  522.46	-1742.25	  409.94
      3.9700	 1100.00	  523.35	-1742.25	  410.83
      4.0700	 1200.00	  524.22	-1742.25	  411.70
      4.1700	 1220.00	  525.08	-1742.25	  412.56
      4.2700	 1207.00	  525.92	-1742.25	  413.40
      4.3700	 1142.00	  526.76	-1742.25	  414.24
      4.4700	 1116.00	  527.58	-1742.25	  415.06
      4.5700	 1167.00	  528.39	-1742.25	  415.87
      4.6700	 1132.00	  529.19	-1742.25	  416.67
      4.7700	 1069.00	  529.97	-1742.25	  417.45
      4.8700	 1039.00	  530.75	-1742.25	  418.22
      4.9700	  952.00	  531.51	-1742.25	  418.98
      5.0700	 1006.00	  532.26	-1742.25	  419.73
      5.1700	 1002.00	  532.99	-1742.25	  420.47
      5.2700	  946.00	  533.72	-1742.25	  421.20
      5.3700	  887.00	  534.43	-1742.25	  421.91
      5.4700	  905.00	  535.13	-1742.25	  422.61
      5.5700	  880.00	  535.82	-1742.25	  423.30
      5.6700	  894.00	  536.50	-1742.25	  423.98
      5.7700	  875.00	  537.17	-1742.25	  424.65
      5.8700	  827.00	  537.83	-1742.25	  425.31
      5.9700	  856.00	  538.47	-1742.25	  425.95
      6.0700	  827.00	  539.11	-1742.25	  426.59
      6.1700	  807.00	  539.73	-1742.25	  427.21
      6.2700	  767.00	  540.35	-1742.25	  427.82
      6.3700	  827.00	  540.95	-1742.25	  428.43
      6.4700	  744.00	  541.54	-1742.25	  429.02
      6.5700	  760.00	  542.12	-1742.25	  429.60
      6.6700	  746.00	  542.69	-1742.25	  430.17
      6.7700	  757.00	  543.25	-1742.25	  430.73
      6.8700	  704.00	  543.80	-1742.25	  431.27
      6.9700	  726.00	  544.33	-1742.25	  431.81
      7.0700	  667.00	  544.86	-1742.25	  432.34
      7.1700	  681.00	  545.38	-1742.25	  432.86
      7.2700	  692.00	  545.89	-1742.25	  433.37
      7.3700	  702.00	  546.39	-1742.25	  433.86
      7.4700	  718.00	  546.87	-1742.25	  434.35
      7.5700	  658.00	  547.35	-1742.25	  434.83
      7.6700	  633.00	  547.82	-1742.25	  435.30
      7.7700	  666.00	  548.28	-1742.25	  435.76
      7.8700	  625.00	  548.73	-1742.25	  436.21
      7.9700	  625.00	  549.17	-1742.25	  436.64
      8.0700	  620.00	  549.60	-1742.25	  437.07
      8.1700	  650.00	  550.02	-1742.25	  437.49
      8.2700	  588.00	  550.43	-1742.25	  437.90
      8.3700	  657.00	  550.83	-1742.25	  438.31
      8.4700	  598.00	  551.22	-1742.25	  438.70
      8.5700	  677.00	  551.60	-1742.25	  439.08
      8.6700	  599.00	  551.98	-1742.25	  439.45
      8.7700	  597.00	  552.34	-1742.25	  439.82
      8.8700	  627.00	  552.70	-1742.25	  440.18
      8.9700	  633.00	  553.04	-1742.25	  440.52
      9.0700	  583.00	  553.38	-1742.25	  440.86
      9.1700	  627.00	  553.71	-1742.25	  441.19
      9.2700	  588.00	  554.03	-1742.25	  441.51
      9.3700	  642.00	  554.35	-1742.25	  441.82
      9.4700	  603.00	  554.65	-1742.25	  442.13
      9.5700	  589.00	  554.95	-1742.25	  442.42
      9.6700	  559.00	  555.23	-1742.25	  442.71
      9.7700	  579.00	  555.51	-1742.25	  442.99
      9.8700	  542.00	  555.78	-1742.25	  443.26
      9.9700	  559.00	  556.04	-1742.25	  443.52
     10.0700	  589.00	  557.76	-1711.01	  443.78
     10.1700	  625.00	  558.17	-1675.42	  444.02
     10.2700	  579.00	  558.61	-1721.86	  444.26
     10.3700	  587.00	  559.09	-1714.34	  444.49
     10.4700	  552.00	  559.66	-1749.91	  444.72
     10.5700	  585.00	  560.37	-1717.62	  444.93
     10.6700	  589.00	  561.31	-1714.56	  445.14
     10.7700	  601.00	  562.57	-1703.82	  445.34
     10.8700	  580.00	  564.24	-1726.49	  445.53
     10.9700	  578.00	  566.33	-1730.58	  445.71
     11.0700	  559.00	  568.83	-1752.08	  445.89
     11.1700	  612.00	  571.75	-1702.00	  446.06
     11.2700	  595.00	  575.12	-1722.37	  446.22
     11.3700	  597.00	  579.03	-1724.28	  446.38
     11.4700	  588.00	  583.62	-1737.87	  446.53
     11.5700	  601.00	  589.11	-1730.36	  446.67
     11.6700	  557.00	  595.86	-1781.11	  446.80
     11.7700	  614.00	  604.36	-1732.61	  446.93
     11.8700	  657.00	  615.09	-1700.34	  447.05
     11.9700	  664.00	  627.89	-1706.14	  447.17
     12.0700	  663.00	  640.93	-1720.18	  447.27
     12.1700	  638.00	  649.74	-1753.99	  447.37
     12.2700	  661.00	  647.69	-1728.94	  447.47
     12.3700	  617.00	  631.96	-1757.21	  447.55
     12.4700	  599.00	  610.37	-1753.62	  447.63
     12.5700	  595.00	  592.02	-1739.27	  447.71
     12.6700	  541.00	  579.77	-1781.02	  447.78
     12.7700	  558.00	  572.70	-1756.95	  447.84
     12.8700	  560.00	  568.91	-1751.16	  447.89
     12.9700	  565.00	  566.82	-1744.07	  447.94
     13.0700	  595.00	  565.56	-1712.81	  447.98
     13.1700	  578.00	  564.70	-1728.95	  448.02
     13.2700	  530.00	  564.07	-1776.32	  448.05
     13.3700	  602.00	  563.59	-1703.84	  448.08
     13.4700	  526.00	  563.21	-1779.46	  448.10
     13.5700	  574.00	  562.91	-1731.16	  448.11
     13.6700	  527.00	  562.65	-1777.90	  448.12
     13.7700	  526.00	  562.44	-1778.69	  448.12
     13.8700	  546.00	  562.26	-1758.51	  448.11
     13.9700	  558.00	  562.10	-1746.35	  448.10
     14.0700	  539.00	  561.96	-1765.21	  448.09
     14.1700	  553.00	  561.83	-1751.08	  448.07
     14.2700	  592.00	  561.71	-1711.96	  448.04
     14.3700	  577.00	  561.60	-1726.85	  448.01
     14.4700	  515.00	  561.49	-1788.74	  447.97
     14.5700	  583.00	  561.42	-1720.67	  447.93
     14.6700	  510.00	  561.31	-1793.56	  447.88
     14.7700	  555.00	  561.21	-1748.46	  447.83
     14.8700	  570.00	  561.11	-1733.36	  447.77
     14.9700	  548.00	  561.01	-1755.26	  447.71
     15.0700	  558.00	  560.91	-1745.16	  447.64
     15.1700	  577.00	  560.80	-1726.05	  447.57
     15.2700	  527.00	  560.70	-1775.95	  447.49
     15.3700	  515.00	  560.59	-1787.84	  447.41
     15.4700	  512.00	  560.48	-1790.73	  447.32
     15.5700	  541.00	  560.37	-1761.62	  447.23
     15.6700	  486.00	  560.25	-1816.50	  447.13
     15.7700	  548.00	  560.13	-1754.38	  447.03
     15.8700	  576.00	  560.01	-1726.26	  446.93
     15.9700	  534.00	  559.89	-1768.14	  446.82
     16.0700	  613.00	  559.76	-1689.01	  446.70
     16.1700	  551.00	  559.63	-1750.88	  446.58
     16.2700	  569.00	  559.49	-1732.74	  446.46
     16.3700	  519.00	  559.36	-1782.61	  446.33
     16.4700	  512.00	  559.21	-1789.46	  446.20
     16.5700	  585.00	  559.07	-1716.32	  446.07
     16.6700	  521.00	  558.92	-1780.17	  445.93
     16.7700	  581.00	  558.77	-1720.02	  445.78
     16.8700	  536.00	  558.61	-1764.86	  445.63
     16.9700	  556.00	  558.46	-1744.71	  445.48
     17.0700	  516.00	  558.29	-1784.54	  445.33
     17.1700	  554.00	  558.13	-1746.38	  445.17
     17.2700	  554.00	  557.96	-1746.21	  445.00
     17.3700	  522.00	  557.79	-1778.04	  444.83
     17.4700	  555.00	  557.61	-1744.86	  444.66
     17.5700	  534.00	  557.43	-1765.68	  444.49
     17.6700	  519.00	  557.25	-1780.50	  444.31
     17.7700	  560.00	  557.07	-1739.32	  444.13
     17.8700	  598.00	  556.98	-1701.23	  443.94
     17.9700	  552.00	  556.79	-1747.04	  443.75
     18.0700	  541.00	  556.60	-1757.85	  443.56
     18.1700	  511.00	  556.41	-1787.66	  443.36
     18.2700	  581.00	  556.21	-1717.46	  443.16
     18.3700	  527.00	  556.01	-1771.26	  442.96
     18.4700	  538.00	  555.90	-1760.15	  442.75
     18.5700	  554.00	  555.69	-1743.94	  442.54
     18.6700	  523.00	  555.48	-1774.73	  442.33
     18.7700	  558.00	  555.27	-1739.52	  442.12
     18.8700	  575.00	  555.06	-1722.31	  441.90
     18.9700	  549.00	  554.84	-1748.09	  441.68
     19.0700	  556.00	  554.62	-1740.87	  441.45
     19.1700	  557.00	  554.40	-1739.65	  441.22
     19.2700	  567.00	  554.18	-1729.43	  440.99
     19.3700	  566.00	  553.95	-1730.20	  440.76
     19.4700	  565.00	  553.72	-1730.97	  440.52
     19.5700	  534.00	  553.49	-1761.74	  440.28
     19.6700	  566.00	  553.26	-1729.51	  440.04
     19.7700	  571.00	  553.03	-1724.28	  439.80
     19.8700	  532.00	  552.79	-1763.04	  439.55
     19.9700	  492.00	  552.55	-1802.80	  439.30
     20.0700	  536.00	  552.31	-1758.56	  439.05
     20.1700	  546.00	  552.11	-1748.36	  438.79
     20.2700	  522.00	  551.86	-1772.11	  438.54
     20.3700	  559.00	  551.62	-1734.87	  438.28
     20.4700	  559.00	  551.37	-1734.62	  438.02
     20.5700	  542.00	  551.12	-1751.37	  437.75
     20.6700	  564.00	  550.87	-1729.12	  437.48
     20.7700	  577.00	  550.62	-1715.87	  437.22
     20.8700	  533.00	  550.37	-1759.62	  436.94
     20.9700	  558.00	  550.12	-1734.37	  436.67
     21.0700	  533.00	  549.86	-1759.11	  436.40
     21.1700	  539.00	  549.61	-1752.86	  436.12
     21.2700	  538.00	  549.35	-1753.60	  435.84
     21.3700	  556.00	  549.10	-1735.35	  435.56
     21.4700	  592.00	  548.84	-1699.09	  435.27
     21.5700	  576.00	  548.59	-1714.84	  434.99
     21.6700	  539.00	  548.34	-1751.59	  434.70
     21.7700	  535.00	  548.08	-1755.33	  434.41
     21.8700	  526.00	  547.83	-1764.08	  434.12
     21.9700	  541.00	  547.58	-1748.83	  433.83
     22.0700	  544.00	  547.33	-1745.58	  433.53
     22.1700	  536.00	  547.08	-1753.33	  433.23
     22.2700	  547.00	  546.80	-1742.05	  432.94
     22.3700	  545.00	  546.56	-1743.81	  432.64
     22.4700	  556.00	  546.32	-1732.57	  432.34
     22.5700	  581.00	  546.10	-1707.35	  432.03
     22.6700	  532.00	  545.88	-1756.13	  431.73
     22.7700	  598.00	  545.81	-1690.06	  431.42
     22.8700	  577.00	  545.61	-1710.86	  431.11
     22.9700	  544.00	  545.43	-1743.68	  430.81
     23.0700	  547.00	  545.26	-1740.51	  430.50
     23.1700	  552.00	  545.12	-1735.37	  430.18
     23.2700	  578.00	  545.00	-1709.25	  429.87
     23.3700	  563.00	  544.92	-1724.17	  429.56
     23.4700	  538.00	  544.88	-1749.13	  429.24
     23.5700	  562.00	  544.91	-1725.16	  428.92
     23.6700	  544.00	  545.04	-1743.29	  428.61
     23.7700	  618.00	  545.31	-1669.56	  428.29
     23.8700	  555.00	  545.84	-1733.09	  427.97
     23.9700	  536.00	  546.80	-1753.05	  427.65
     24.0700	  551.00	  548.53	-1739.78	  427.32
     24.1700	  576.00	  551.52	-1717.77	  427.00
     24.2700	  552.00	  556.39	-1746.64	  426.68
     24.3700	  561.00	  563.78	-1745.03	  426.35
     24.4700	  614.00	  574.10	-1702.35	  426.02
     24.5700	  596.00	  587.04	-1733.29	  425.70
     24.6700	  636.00	  600.72	-1706.97	  425.37
     24.7700	  695.00	  610.96	-1658.21	  425.04
     24.8700	  613.00	  611.75	-1741.00	  424.71
     24.9700	  595.00	  600.38	-1747.63	  424.38
     25.0700	  617.00	  582.93	-1708.18	  424.05
     25.1700	  575.00	  567.13	-1734.38	  423.72
     25.2700	  602.00	  555.95	-1696.20	  423.38
     25.3700	  535.00	  549.14	-1756.39	  423.05
     25.4700	  553.00	  545.33	-1734.58	  422.72
     25.5700	  531.00	  543.19	-1754.44	  422.38
     25.6700	  542.00	  541.88	-1742.13	  422.05
     25.7700	  562.00	  541.00	-1721.25	  421.71
     25.8700	  569.00	  540.35	-1713.60	  421.38
     25.9700	  575.00	  539.86	-1707.11	  421.04
     26.0700	  565.00	  539.50	-1716.75	  420.70
     26.1700	  533.00	  539.24	-1748.49	  420.37
     26.2700	  539.00	  539.08	-1742.33	  420.03
     26.3700	  567.00	  539.02	-1714.27	  419.69
     26.4700	  531.00	  539.05	-1750.30	  419.35
     26.5700	  546.00	  539.19	-1735.44	  419.02
     26.6700	  543.00	  539.45	-1738.70	  418.68
     26.7700	  555.00	  539.85	-1727.10	  418.34
     26.8700	  553.00	  540.43	-1729.68	  418.00
     26.9700	  573.00	  541.23	-1710.48	  417.66
     27.0700	  544.00	  542.33	-1740.58	  417.32
     27.1700	  518.00	  543.85	-1768.10	  416.98
     27.2700	  565.00	  545.99	-1723.24	  416.64
     27.3700	  539.00	  549.17	-1752.42	  416.30
     27.4700	  534.00	  554.21	-1762.46	  415.96
     27.5700	  545.00	  562.58	-1759.83	  415.62
     27.6700	  545.00	  576.73	-1773.98	  415.28
     27.7700	  532.00	  600.01	-1810.26	  414.94
     27.8700	  610.00	  635.80	-1768.05	  414.60
     27.9700	  690.00	  685.42	-1737.67	  414.26
     28.0700	  738.00	  745.19	-1749.44	  413.92
     28.1700	  803.00	  803.44	-1742.69	  413.58
     28.2700	  916.00	  839.81	-1666.06	  413.24
     28.3700	  930.00	  834.93	-1647.18	  412.90
     28.4700	  863.00	  797.22	-1676.47	  412.57
     28.5700	  755.00	  761.38	-1748.63	  412.23
     28.6700	  733.00	  750.88	-1760.13	  411.89
     28.7700	  752.00	  767.24	-1757.49	  411.55
     28.8700	  822.00	  795.60	-1715.85	  411.21
     28.9700	  813.00	  810.56	-1739.81	  410.87
     29.0700	  766.00	  788.51	-1764.76	  410.54
     29.1700	  729.00	  732.24	-1745.49	  410.20
     29.2700	  686.00	  668.79	-1725.04	  409.86
     29.3700	  580.00	  617.61	-1779.86	  409.53
     29.4700	  606.00	  583.44	-1719.69	  409.19
     29.5700	  592.00	  563.33	-1713.58	  408.86
     29.6700	  546.00	  552.23	-1748.48	  408.52
     29.7700	  580.00	  546.02	-1708.27	  408.19
     29.8700	  561.00	  542.35	-1723.60	  407.85
     29.9700	  599.00	  540.04	-1683.29	  407.52
     30.0700	  546.00	  538.76	-1735.01	  407.19
     30.1700	  589.00	  538.55	-1691.80	  406.86
     30.2700	  547.00	  539.80	-1735.05	  406.52
     30.3700	  540.00	  543.32	-1745.57	  406.19
     30.4700	  564.00	  550.40	-1728.65	  405.86
     30.5700	  586.00	  562.43	-1718.68	  405.53
     30.6700	  552.00	  580.01	-1770.26	  405.20
     30.7700	  575.00	  601.63	-1768.88	  404.88
     30.8700	  606.00	  622.54	-1758.79	  404.55
     30.9700	  644.00	  634.61	-1732.86	  404.22
     31.0700	  644.00	  629.61	-1727.86	  403.90
     31.1700	  608.00	  608.53	-1742.78	  403.57
     31.2700	  617.00	  582.46	-1707.71	  403.25
     31.3700	  565.00	  560.35	-1737.60	  402.92
     31.4700	  522.00	  545.00	-1765.25	  402.60
     31.5700	  522.00	  535.68	-1755.93	  402.28
     31.6700	  512.00	  530.45	-1760.70	  401.96
     31.7700	  562.00	  527.52	-1707.77	  401.64
     31.8700	  511.00	  525.77	-1757.02	  401.32
     31.9700	  488.00	  524.62	-1778.87	  401.00
     32.0700	  548.00	  523.83	-1718.08	  400.68
     32.1700	  534.00	  523.31	-1731.56	  400.37
     32.2700	  543.00	  523.00	-1722.25	  400.05
     32.3700	  542.00	  522.88	-1723.13	  399.74
     32.4700	  553.00	  522.97	-1712.22	  399.42
     32.5700	  549.00	  523.27	-1716.52	  399.11
     32.6700	  531.00	  523.81	-1735.06	  398.80
     32.7700	  545.00	  524.65	-1721.90	  398.49
     32.8700	  521.00	  525.86	-1747.11	  398.18
     32.9700	  577.00	  527.57	-1692.82	  397.87
     33.0700	  564.00	  530.01	-1708.26	  397.56
     33.1700	  536.00	  533.64	-1739.89	  397.26
     33.2700	  544.00	  539.40	-1737.65	  396.95
     33.3700	  570.00	  549.19	-1721.44	  396.65
     33.4700	  606.00	  566.39	-1702.64	  396.35
     33.5700	  577.00	  596.14	-1761.39	  396.05
     33.6700	  637.00	  644.38	-1749.63	  395.75
     33.7700	  741.00	  714.44	-1715.69	  395.45
     33.8700	  809.00	  801.68	-1734.93	  395.15
     33.9700	  920.00	  888.86	-1711.11	  394.85
     34.0700	 1041.00	  945.60	-1646.85	  394.56
     34.1700	 1033.00	  939.69	-1648.94	  394.26
     34.2700	  917.00	  869.02	-1694.27	  393.97
     34.3700	  781.00	  771.00	-1732.25	  393.68
     34.4700	  648.00	  681.89	-1776.14	  393.39
     34.5700	  591.00	  616.51	-1767.76	  393.10
     34.6700	  566.00	  574.95	-1751.20	  392.81
     34.7700	  529.00	  550.97	-1764.22	  392.53
     34.8700	  554.00	  537.60	-1725.85	  392.24
     34.9700	  546.00	  529.79	-1726.04	  391.96
     35.0700	  509.00	  524.74	-1757.99	  391.68
     35.1700	  517.00	  521.12	-1746.37	  391.40
     35.2700	  516.00	  518.33	-1744.58	  391.12
     35.3700	  480.00	  516.07	-1778.32	  390.84
     35.4700	  519.00	  514.24	-1737.49	  390.56
     35.5700	  572.00	  512.70	-1682.95	  390.29
     35.6700	  476.00	  511.40	-1777.65	  390.01
     35.7700	  460.00	  510.27	-1792.52	  389.74
     35.8700	  548.00	  509.74	-1703.99	  389.47
     35.9700	  496.00	  508.88	-1755.13	  389.20
     36.0700	  507.00	  508.12	-1743.37	  388.93
     36.1700	  533.00	  507.43	-1716.68	  388.67
     36.2700	  444.00	  506.82	-1805.07	  388.40
     36.3700	  520.00	  506.29	-1728.54	  388.14
     36.4700	  538.00	  505.79	-1710.04	  387.88
     36.5700	  523.00	  505.36	-1724.61	  387.62
     36.6700	  503.00	  504.98	-1744.23	  387.36
     36.7700	  524.00	  504.67	-1722.92	  387.10
     36.8700	  517.00	  504.46	-1729.71	  386.85
     36.9700	  503.00	  504.40	-1743.65	  386.59
     37.0700	  527.00	  504.61	-1719.86	  386.34
     37.1700	  485.00	  505.26	-1762.51	  386.09
     37.2700	  506.00	  506.61	-1742.85	  385.84
     37.3700	  522.00	  508.83	-1729.08	  385.59
     37.4700	  547.00	  511.93	-1707.18	  385.35
     37.5700	  517.00	  515.47	-1740.72	  385.10
     37.6700	  520.00	  518.49	-1740.74	  384.86
     37.7700	  512.00	  519.67	-1749.92	  384.62
     37.8700	  528.00	  518.23	-1732.48	  384.38
     37.9700	  521.00	  514.86	-1736.11	  384.14
     38.0700	  505.00	  510.95	-1748.20	  383.91
     38.1700	  484.00	  507.54	-1765.79	  383.67
     38.2700	  497.00	  504.63	-1749.88	  383.44
     38.3700	  457.00	  502.46	-1787.71	  383.21
     38.4700	  507.00	  500.95	-1736.20	  382.98
     38.5700	  523.00	  499.91	-1719.16	  382.75
     38.6700	  504.00	  499.19	-1737.44	  382.53
     38.7700	  482.00	  498.65	-1758.90	  382.30
     38.8700	  473.00	  498.23	-1767.48	  382.08
     38.9700	  511.00	  497.77	-1729.02	  381.86
     39.0700	  546.00	  497.45	-1693.70	  381.64
     39.1700	  483.00	  497.17	-1756.42	  381.43
     39.2700	  442.00	  496.90	-1797.15	  381.21
     39.3700	  502.00	  496.66	-1736.91	  381.00
     39.4700	  529.00	  496.43	-1709.68	  380.78
     39.5700	  507.00	  496.21	-1731.46	  380.57
     39.6700	  471.00	  496.01	-1767.26	  380.37
     39.7700	  518.00	  495.73	-1719.98	  380.16
     39.8700	  506.00	  495.55	-1731.80	  379.96
     39.9700	  463.00	  495.39	-1774.64	  379.75
     40.0700	  465.00	  495.23	-1772.48	  379.55
     40.1700	  495.00	  495.09	-1742.34	  379.35
     40.2700	  515.00	  494.96	-1722.21	  379.15
     40.3700	  521.00	  494.85	-1716.10	  378.96
     40.4700	  477.00	  494.75	-1760.00	  378.76
     40.5700	  479.00	  494.67	-1757.92	  378.57
     40.6700	  487.00	  494.61	-1749.86	  378.38
     40.7700	  454.00	  495.06	-1783.31	  378.19
