MSG Master    CELL:    5.88877   5.88877  23.14866   90.0000   90.0000  120.0000   SPGR: P 63/m m c             TEMP:    639.45
  2   1280     2.52000     0.00000    -0.09772     0.00000     0.00000    0
    96    96     0     0     2
       0.00000      10.00000
     125.00000     130.00000
 2Theta	Yobs	Ycal	Yobs-Ycal	Backg	Posr	(hkl)	K
      0.7700	    0.00	  799.07	-1886.60	  674.32
      0.8700	    0.00	  797.53	-1886.60	  672.78
      0.9700	   52.00	  796.00	-1886.60	  671.25
      1.0700	   47.00	  794.48	-1886.60	  669.72
      1.1700	   46.00	  792.96	-1886.60	  668.20
      1.2700	   54.00	  791.44	-1886.60	  666.69
      1.3700	   52.00	  789.94	-1886.60	  665.18
      1.4700	   79.00	  788.44	-1886.60	  663.68
      1.5700	  302.00	  786.94	-1886.60	  662.18
      1.6700	  423.00	  785.45	-1886.60	  660.70
      1.7700	  582.00	  783.97	-1886.60	  659.21
      1.8700	  686.00	  782.49	-1886.60	  657.74
      1.9700	  718.00	  781.03	-1886.60	  656.27
      2.0700	  767.00	  779.56	-1886.60	  654.80
      2.1700	  747.00	  778.10	-1886.60	  653.35
      2.2700	  729.00	  776.65	-1886.60	  651.90
      2.3700	  750.00	  775.21	-1886.60	  650.45
      2.4700	  723.00	  773.77	-1886.60	  649.01
      2.5700	  693.00	  772.34	-1886.60	  647.58
      2.6700	  638.00	  770.91	-1886.60	  646.15
      2.7700	  680.00	  769.49	-1886.60	  644.73
      2.8700	  674.00	  768.07	-1886.60	  643.32
      2.9700	  646.00	  766.67	-1886.60	  641.91
      3.0700	  652.00	  765.26	-1886.60	  640.51
      3.1700	  592.00	  763.87	-1886.60	  639.11
      3.2700	  750.00	  762.48	-1886.60	  637.72
      3.3700	  907.00	  761.09	-1886.60	  636.34
      3.4700	 1074.00	  759.71	-1886.60	  634.96
      3.5700	 1197.00	  758.34	-1886.60	  633.59
      3.6700	 1314.00	  756.98	-1886.60	  632.22
      3.7700	 1411.00	  755.62	-1886.60	  630.86
      3.8700	 1490.00	  754.26	-1886.60	  629.50
      3.9700	 1525.00	  752.91	-1886.60	  628.16
      4.0700	 1531.00	  751.57	-1886.60	  626.81
      4.1700	 1615.00	  750.23	-1886.60	  625.48
      4.2700	 1604.00	  748.90	-1886.60	  624.15
      4.3700	 1591.00	  747.58	-1886.60	  622.82
      4.4700	 1527.00	  746.26	-1886.60	  621.50
      4.5700	 1488.00	  744.95	-1886.60	  620.19
      4.6700	 1399.00	  743.64	-1886.60	  618.88
      4.7700	 1401.00	  742.34	-1886.60	  617.58
      4.8700	 1327.00	  741.04	-1886.60	  616.28
      4.9700	 1286.00	  739.75	-1886.60	  615.00
      5.0700	 1223.00	  738.47	-1886.60	  613.71
      5.1700	 1212.00	  737.19	-1886.60	  612.43
      5.2700	 1190.00	  735.92	-1886.60	  611.16
      5.3700	 1188.00	  734.65	-1886.60	  609.89
      5.4700	 1171.00	  733.39	-1886.60	  608.63
      5.5700	 1140.00	  732.13	-1886.60	  607.38
      5.6700	 1087.00	  730.89	-1886.60	  606.13
      5.7700	 1057.00	  729.64	-1886.60	  604.88
      5.8700	  994.00	  728.40	-1886.60	  603.65
      5.9700	 1126.00	  727.17	-1886.60	  602.41
      6.0700	 1011.00	  725.94	-1886.60	  601.19
      6.1700	  993.00	  724.72	-1886.60	  599.97
      6.2700	 1073.00	  723.51	-1886.60	  598.75
      6.3700	 1004.00	  722.30	-1886.60	  597.54
      6.4700	  959.00	  721.09	-1886.60	  596.34
      6.5700	  923.00	  719.90	-1886.60	  595.14
      6.6700	  875.00	  718.70	-1886.60	  593.95
      6.7700	  896.00	  717.51	-1886.60	  592.76
      6.8700	  862.00	  716.33	-1886.60	  591.58
      6.9700	  904.00	  715.16	-1886.60	  590.40
      7.0700	  869.00	  713.99	-1886.60	  589.23
      7.1700	  801.00	  712.82	-1886.60	  588.06
      7.2700	  846.00	  711.66	-1886.60	  586.90
      7.3700	  845.00	  710.51	-1886.60	  585.75
      7.4700	  823.00	  709.36	-1886.60	  584.60
      7.5700	  822.00	  708.21	-1886.60	  583.46
      7.6700	  796.00	  707.08	-1886.60	  582.32
      7.7700	  787.00	  705.94	-1886.60	  581.19
      7.8700	  743.00	  704.82	-1886.60	  580.06
      7.9700	  674.00	  703.70	-1886.60	  578.94
      8.0700	  738.00	  702.58	-1886.60	  577.82
      8.1700	  792.00	  701.47	-1886.60	  576.71
      8.2700	  760.00	  700.36	-1886.60	  575.61
      8.3700	  745.00	  699.26	-1886.60	  574.51
      8.4700	  780.00	  698.17	-1886.60	  573.41
      8.5700	  745.00	  697.08	-1886.60	  572.32
      8.6700	  726.00	  696.00	-1886.60	  571.24
      8.7700	  771.00	  694.92	-1886.60	  570.16
      8.8700	  681.00	  693.84	-1886.60	  569.09
      8.9700	  745.00	  692.78	-1886.60	  568.02
      9.0700	  665.00	  691.71	-1886.60	  566.96
      9.1700	  704.00	  690.66	-1886.60	  565.90
      9.2700	  708.00	  689.60	-1886.60	  564.85
      9.3700	  761.00	  688.56	-1886.60	  563.80
      9.4700	  675.00	  687.51	-1886.60	  562.76
      9.5700	  650.00	  686.48	-1886.60	  561.72
      9.6700	  657.00	  685.45	-1886.60	  560.69
      9.7700	  692.00	  684.42	-1886.60	  559.66
      9.8700	  723.00	  683.40	-1886.60	  558.64
      9.9700	  740.00	  682.38	-1886.60	  557.63
     10.0700	  734.00	  683.57	-1836.17	  556.61
     10.1700	  661.00	  682.81	-1908.41	  555.61
     10.2700	  701.00	  682.10	-1867.70	  554.61
     10.3700	  704.00	  681.47	-1864.07	  553.61
     10.4700	  712.00	  680.94	-1855.55	  552.62
     10.5700	  690.00	  680.57	-1877.18	  551.64
     10.6700	  675.00	  680.42	-1892.02	  550.66
     10.7700	  721.00	  680.58	-1846.19	  549.68
     10.8700	  690.00	  681.15	-1877.76	  548.71
     10.9700	  656.00	  682.21	-1912.81	  547.75
     11.0700	  704.00	  683.79	-1866.39	  546.79
     11.1700	  718.00	  685.90	-1854.50	  545.83
     11.2700	  701.00	  688.57	-1874.17	  544.88
     11.3700	  648.00	  691.86	-1930.46	  543.94
     11.4700	  703.00	  695.89	-1879.49	  543.00
     11.5700	  688.00	  700.83	-1899.44	  542.06
     11.6700	  715.00	  706.95	-1878.55	  541.13
     11.7700	  749.00	  714.55	-1852.15	  540.20
     11.8700	  762.00	  723.89	-1848.49	  539.28
     11.9700	  757.00	  734.87	-1864.47	  538.37
     12.0700	  754.00	  746.58	-1879.18	  537.46
     12.1700	  853.00	  756.71	-1790.32	  536.55
     12.2700	  845.00	  761.11	-1802.72	  535.65
     12.3700	  865.00	  754.98	-1776.58	  534.75
     12.4700	  809.00	  738.02	-1815.62	  533.86
     12.5700	  708.00	  716.94	-1895.54	  532.98
     12.6700	  717.00	  698.29	-1867.89	  532.09
     12.7700	  671.00	  684.37	-1899.97	  531.22
     12.8700	  648.00	  674.79	-1913.39	  530.35
     12.9700	  654.00	  668.42	-1901.02	  529.48
     13.0700	  676.00	  664.13	-1874.73	  528.62
     13.1700	  614.00	  661.04	-1933.65	  527.76
     13.2700	  652.00	  658.66	-1893.26	  526.90
     13.3700	  659.00	  656.69	-1884.29	  526.06
     13.4700	  623.00	  654.99	-1918.59	  525.21
     13.5700	  618.00	  653.47	-1922.07	  524.37
     13.6700	  611.00	  652.09	-1927.69	  523.54
     13.7700	  592.00	  650.81	-1945.42	  522.71
     13.8700	  616.00	  649.62	-1920.22	  521.88
     13.9700	  696.00	  648.49	-1839.10	  521.06
     14.0700	  635.00	  647.42	-1899.02	  520.25
     14.1700	  645.00	  646.38	-1887.99	  519.43
     14.2700	  644.00	  645.38	-1887.99	  518.63
     14.3700	  687.00	  644.42	-1844.02	  517.82
     14.4700	  639.00	  643.48	-1891.08	  517.03
     14.5700	  629.00	  642.56	-1900.16	  516.23
     14.6700	  677.00	  641.66	-1851.26	  515.44
     14.7700	  640.00	  640.77	-1887.38	  514.66
     14.8700	  631.00	  639.91	-1895.51	  513.88
     14.9700	  636.00	  639.05	-1889.66	  513.11
     15.0700	  607.00	  638.21	-1917.82	  512.33
     15.1700	  580.00	  637.38	-1943.99	  511.57
     15.2700	  610.00	  636.57	-1913.17	  510.81
     15.3700	  603.00	  635.76	-1919.36	  510.05
     15.4700	  635.00	  634.96	-1886.56	  509.30
     15.5700	  586.00	  634.17	-1934.77	  508.55
     15.6700	  601.00	  633.38	-1918.99	  507.80
     15.7700	  620.00	  632.61	-1899.21	  507.06
     15.8700	  532.00	  631.84	-1986.44	  506.33
     15.9700	  633.00	  631.08	-1884.68	  505.60
     16.0700	  624.00	  630.33	-1892.93	  504.87
     16.1700	  642.00	  629.58	-1874.18	  504.15
     16.2700	  665.00	  628.84	-1850.44	  503.43
     16.3700	  597.00	  628.10	-1917.71	  502.72
     16.4700	  602.00	  627.37	-1911.98	  502.01
     16.5700	  611.00	  626.65	-1902.25	  501.30
     16.6700	  631.00	  625.93	-1881.53	  500.60
     16.7700	  585.00	  625.22	-1926.82	  499.90
     16.8700	  590.00	  624.51	-1921.12	  499.21
     16.9700	  658.00	  623.81	-1852.41	  498.52
     17.0700	  639.00	  623.11	-1870.72	  497.84
     17.1700	  615.00	  622.42	-1894.03	  497.16
     17.2700	  619.00	  621.74	-1889.34	  496.48
     17.3700	  625.00	  621.05	-1882.66	  495.81
     17.4700	  618.00	  620.38	-1888.98	  495.14
     17.5700	  638.00	  619.71	-1868.31	  494.48
     17.6700	  623.00	  619.04	-1882.64	  493.82
     17.7700	  572.00	  618.38	-1932.98	  493.17
     17.8700	  608.00	  617.72	-1896.32	  492.52
     17.9700	  646.00	  617.07	-1857.67	  491.87
     18.0700	  623.00	  616.42	-1880.02	  491.23
     18.1700	  590.00	  615.78	-1912.38	  490.59
     18.2700	  590.00	  615.14	-1911.74	  489.95
     18.3700	  611.00	  614.50	-1890.11	  489.32
     18.4700	  571.00	  613.87	-1929.48	  488.70
     18.5700	  574.00	  614.49	-1927.10	  488.07
     18.6700	  620.00	  614.62	-1881.23	  487.45
     18.7700	  605.00	  614.05	-1895.65	  486.84
     18.8700	  634.00	  613.48	-1866.08	  486.23
     18.9700	  542.00	  612.91	-1957.51	  485.62
     19.0700	  655.00	  612.35	-1843.96	  485.02
     19.1700	  595.00	  611.80	-1903.40	  484.42
     19.2700	  620.00	  611.25	-1877.85	  483.83
     19.3700	  570.00	  610.71	-1927.31	  483.24
     19.4700	  662.00	  610.17	-1834.78	  482.65
     19.5700	  614.00	  609.65	-1882.25	  482.07
     19.6700	  587.00	  609.12	-1908.73	  481.49
     19.7700	  597.00	  608.61	-1898.21	  480.91
     19.8700	  603.00	  608.15	-1891.75	  480.34
     19.9700	  566.00	  607.65	-1928.25	  479.77
     20.0700	  584.00	  607.15	-1909.75	  479.21
     20.1700	  590.00	  606.66	-1903.26	  478.65
     20.2700	  590.00	  606.17	-1902.78	  478.09
     20.3700	  574.00	  605.70	-1918.30	  477.54
     20.4700	  582.00	  605.23	-1909.83	  476.99
     20.5700	  608.00	  604.77	-1883.37	  476.44
     20.6700	  609.00	  604.31	-1881.91	  475.90
     20.7700	  613.00	  603.86	-1877.47	  475.36
     20.8700	  585.00	  603.42	-1905.03	  474.83
     20.9700	  607.00	  602.99	-1882.60	  474.30
     21.0700	  623.00	  602.57	-1866.17	  473.77
     21.1700	  629.00	  602.15	-1859.76	  473.25
     21.2700	  656.00	  601.75	-1832.35	  472.73
     21.3700	  637.00	  601.35	-1850.96	  472.22
     21.4700	  651.00	  600.96	-1836.57	  471.70
     21.5700	  630.00	  600.59	-1857.19	  471.19
     21.6700	  587.00	  600.22	-1899.82	  470.69
     21.7700	  593.00	  599.87	-1893.47	  470.19
     21.8700	  578.00	  599.52	-1908.13	  469.69
     21.9700	  640.00	  599.19	-1845.79	  469.20
     22.0700	  571.00	  598.87	-1914.48	  468.71
     22.1700	  600.00	  598.75	-1885.36	  468.22
     22.2700	  567.00	  598.47	-1918.07	  467.74
     22.3700	  594.00	  598.20	-1890.80	  467.26
     22.4700	  602.00	  597.94	-1882.55	  466.78
     22.5700	  612.00	  597.71	-1872.31	  466.31
     22.6700	  598.00	  597.50	-1886.10	  465.84
     22.7700	  601.00	  597.31	-1882.91	  465.37
     22.8700	  605.00	  597.14	-1878.75	  464.91
     22.9700	  606.00	  597.01	-1877.61	  464.45
     23.0700	  581.00	  596.90	-1902.51	  463.99
     23.1700	  622.00	  596.84	-1861.44	  463.54
     23.2700	  582.00	  596.82	-1901.42	  463.09
     23.3700	  615.00	  596.85	-1868.45	  462.64
     23.4700	  611.00	  596.94	-1872.55	  462.20
     23.5700	  607.00	  597.11	-1876.72	  461.76
     23.6700	  600.00	  597.38	-1883.99	  461.33
     23.7700	  644.00	  597.78	-1840.39	  460.90
     23.8700	  577.00	  598.38	-1907.98	  460.47
     23.9700	  631.00	  599.26	-1854.86	  460.04
     24.0700	  593.00	  600.58	-1894.18	  459.62
     24.1700	  614.00	  602.58	-1875.19	  459.20
     24.2700	  635.00	  605.57	-1857.17	  458.78
     24.3700	  651.00	  610.07	-1845.68	  458.37
     24.4700	  618.00	  616.42	-1885.02	  457.96
     24.5700	  671.00	  624.74	-1840.35	  457.55
     24.6700	  671.00	  634.71	-1850.32	  457.15
     24.7700	  711.00	  645.20	-1820.80	  456.75
     24.8700	  697.00	  653.92	-1843.52	  456.35
     24.9700	  712.00	  657.45	-1832.05	  455.96
     25.0700	  695.00	  653.18	-1844.79	  455.57
     25.1700	  641.00	  642.92	-1888.53	  455.18
     25.2700	  664.00	  631.42	-1854.02	  454.80
     25.3700	  669.00	  621.96	-1839.56	  454.42
     25.4700	  643.00	  615.41	-1859.01	  454.04
     25.5700	  633.00	  611.48	-1865.08	  453.67
     25.6700	  600.00	  609.51	-1896.11	  453.29
     25.7700	  659.00	  608.86	-1836.47	  452.93
     25.8700	  611.00	  609.09	-1884.70	  452.56
     25.9700	  677.00	  609.93	-1819.53	  452.20
     26.0700	  636.00	  611.26	-1861.86	  451.84
     26.1700	  639.00	  613.04	-1860.64	  451.48
     26.2700	  646.00	  615.27	-1855.87	  451.13
     26.3700	  591.00	  618.00	-1913.60	  450.78
     26.4700	  628.00	  621.30	-1879.90	  450.43
     26.5700	  650.00	  625.25	-1861.85	  450.08
     26.6700	  646.00	  629.98	-1870.59	  449.74
     26.7700	  673.00	  635.67	-1849.28	  449.40
     26.8700	  656.00	  642.55	-1873.15	  449.07
     26.9700	  666.00	  650.92	-1871.52	  448.74
     27.0700	  666.00	  661.22	-1881.83	  448.41
     27.1700	  664.00	  674.07	-1896.68	  448.08
     27.2700	  668.00	  690.43	-1909.03	  447.75
     27.3700	  659.00	  711.95	-1939.55	  447.43
     27.4700	  734.00	  741.89	-1894.49	  447.11
     27.5700	  730.00	  787.07	-1943.68	  446.80
     27.6700	  799.00	  861.23	-1948.83	  446.49
     27.7700	  794.00	  989.39	-2081.99	  446.18
     27.8700	  924.00	 1211.29	-2173.89	  445.87
     27.9700	 1253.00	 1577.81	-2211.41	  445.56
     28.0700	 1782.00	 2131.54	-2236.14	  445.26
     28.1700	 2754.00	 2868.22	-2000.82	  444.96
     28.2700	 3996.00	 3683.47	-1574.08	  444.67
     28.3700	 4821.00	 4332.32	-1397.92	  444.37
     28.4700	 5131.00	 4477.92	-1233.53	  444.08
     28.5700	 4297.00	 3997.49	-1587.09	  443.79
     28.6700	 3090.00	 3268.66	-2065.26	  443.51
     28.7700	 2375.00	 2734.73	-2246.34	  443.23
     28.8700	 2360.00	 2548.53	-2075.13	  442.95
     28.9700	 2657.00	 2630.02	-1859.62	  442.67
     29.0700	 3032.00	 2770.54	-1625.14	  442.39
     29.1700	 2925.00	 2728.66	-1690.27	  442.12
     29.2700	 2547.00	 2392.58	-1732.18	  441.85
     29.3700	 1844.00	 1903.62	-1946.23	  441.58
     29.4700	 1318.00	 1457.22	-2025.83	  441.32
     29.5700	 1037.00	 1135.60	-1985.20	  441.06
     29.6700	  956.00	  936.26	-1866.87	  440.80
     29.7700	  867.00	  823.48	-1843.08	  440.54
     29.8700	  848.00	  760.46	-1799.06	  440.29
     29.9700	  716.00	  722.70	-1893.30	  440.04
     30.0700	  703.00	  697.61	-1881.21	  439.79
     30.1700	  677.00	  679.68	-1889.28	  439.54
     30.2700	  698.00	  666.66	-1855.26	  439.30
     30.3700	  659.00	  657.76	-1885.37	  439.06
     30.4700	  663.00	  653.12	-1876.73	  438.82
     30.5700	  654.00	  653.61	-1886.22	  438.58
     30.6700	  697.00	  660.63	-1850.23	  438.35
     30.7700	  687.00	  675.26	-1874.86	  438.11
     30.8700	  711.00	  696.88	-1872.49	  437.88
     30.9700	  718.00	  721.67	-1890.28	  437.66
     31.0700	  741.00	  741.68	-1887.28	  437.43
     31.1700	  732.00	  745.86	-1900.46	  437.21
     31.2700	  777.00	  727.65	-1837.25	  436.99
     31.3700	  672.00	  694.83	-1909.43	  436.77
     31.4700	  687.00	  661.36	-1860.96	  436.56
     31.5700	  634.00	  634.87	-1887.47	  436.35
     31.6700	  640.00	  616.76	-1863.36	  436.13
     31.7700	  617.00	  605.46	-1875.07	  435.93
     31.8700	  600.00	  598.64	-1885.24	  435.72
     31.9700	  627.00	  594.38	-1853.98	  435.52
     32.0700	  618.00	  591.50	-1860.11	  435.32
     32.1700	  586.00	  589.43	-1890.03	  435.12
     32.2700	  634.00	  587.88	-1840.48	  434.92
     32.3700	  648.00	  586.74	-1825.34	  434.73
     32.4700	  620.00	  585.95	-1852.55	  434.53
     32.5700	  601.00	  585.48	-1871.09	  434.34
     32.6700	  602.00	  585.35	-1869.96	  434.15
     32.7700	  582.00	  585.60	-1890.20	  433.97
     32.8700	  639.00	  586.21	-1833.82	  433.78
     32.9700	  636.00	  587.29	-1837.89	  433.60
     33.0700	  662.00	  588.96	-1813.56	  433.42
     33.1700	  618.00	  591.43	-1860.03	  433.25
     33.2700	  642.00	  595.10	-1839.70	  433.07
     33.3700	  609.00	  600.73	-1878.33	  432.90
     33.4700	  640.00	  609.80	-1856.40	  432.73
     33.5700	  570.00	  624.95	-1941.55	  432.56
     33.6700	  683.00	  650.33	-1853.94	  432.39
     33.7700	  717.00	  691.33	-1860.93	  432.23
     33.8700	  714.00	  752.68	-1925.28	  432.06
     33.9700	  862.00	  834.66	-1859.26	  431.90
     34.0700	  906.00	  928.27	-1908.87	  431.75
     34.1700	 1102.00	 1012.07	-1796.67	  431.59
     34.2700	 1168.00	 1053.89	-1772.49	  431.43
     34.3700	 1142.00	 1027.59	-1772.20	  431.28
     34.4700	  971.00	  943.68	-1859.29	  431.13
     34.5700	  856.00	  841.98	-1872.58	  430.98
     34.6700	  774.00	  752.88	-1865.48	  430.84
     34.7700	  659.00	  687.14	-1914.75	  430.69
     34.8700	  637.00	  643.96	-1893.56	  430.55
     34.9700	  660.00	  617.69	-1844.30	  430.41
     35.0700	  591.00	  602.15	-1897.75	  430.27
     35.1700	  627.00	  592.65	-1852.25	  430.13
     35.2700	  618.00	  586.39	-1854.99	  430.00
     35.3700	  563.00	  581.89	-1905.50	  429.86
     35.4700	  605.00	  578.47	-1860.07	  429.73
     35.5700	  590.00	  575.76	-1872.36	  429.60
     35.6700	  595.00	  573.57	-1865.17	  429.47
     35.7700	  551.00	  571.77	-1907.38	  429.35
     35.8700	  582.00	  570.29	-1874.89	  429.22
     35.9700	  557.00	  569.05	-1898.65	  429.10
     36.0700	  541.00	  568.01	-1913.62	  428.98
     36.1700	  589.00	  567.15	-1864.76	  428.86
     36.2700	  573.00	  566.44	-1880.04	  428.75
     36.3700	  550.00	  565.86	-1902.47	  428.63
     36.4700	  598.00	  565.41	-1854.01	  428.52
     36.5700	  576.00	  565.08	-1875.68	  428.41
     36.6700	  534.00	  565.36	-1917.97	  428.30
     36.7700	  540.00	  565.30	-1911.90	  428.19
     36.8700	  570.00	  565.59	-1882.19	  428.08
     36.9700	  592.00	  565.87	-1860.47	  427.98
     37.0700	  579.00	  566.41	-1874.02	  427.87
     37.1700	  547.00	  567.33	-1906.93	  427.77
     37.2700	  585.00	  568.81	-1870.41	  427.67
     37.3700	  561.00	  571.17	-1896.77	  427.57
     37.4700	  565.00	  574.88	-1896.48	  427.48
     37.5700	  575.00	  580.70	-1892.30	  427.38
     37.6700	  562.00	  589.47	-1914.08	  427.29
     37.7700	  653.00	  602.05	-1835.65	  427.19
     37.8700	  601.00	  618.75	-1904.36	  427.10
     37.9700	  605.00	  638.77	-1920.37	  427.02
     38.0700	  649.00	  659.64	-1897.25	  426.93
     38.1700	  658.00	  677.01	-1905.61	  426.84
     38.2700	  683.00	  684.67	-1888.27	  426.76
     38.3700	  685.00	  677.63	-1879.24	  426.68
     38.4700	  670.00	  656.63	-1873.24	  426.60
     38.5700	  656.00	  632.17	-1862.77	  426.52
     38.6700	  637.00	  609.77	-1859.38	  426.44
     38.7700	  546.00	  592.33	-1932.93	  426.36
     38.8700	  627.00	  580.13	-1839.74	  426.29
     38.9700	  525.00	  572.25	-1933.85	  426.21
     39.0700	  596.00	  567.36	-1857.96	  426.14
     39.1700	  569.00	  564.32	-1881.92	  426.07
     39.2700	  560.00	  562.34	-1888.94	  426.00
     39.3700	  546.00	  560.95	-1901.55	  425.93
     39.4700	  524.00	  559.91	-1922.51	  425.87
     39.5700	  548.00	  559.09	-1897.70	  425.80
     39.6700	  542.00	  558.44	-1903.04	  425.74
     39.7700	  569.00	  557.90	-1875.50	  425.67
     39.8700	  546.00	  556.78	-1897.38	  425.61
     39.9700	  522.00	  556.42	-1921.03	  425.55
     40.0700	  537.00	  556.13	-1905.74	  425.49
     40.1700	  553.00	  555.89	-1889.50	  425.44
     40.2700	  534.00	  555.70	-1908.31	  425.38
     40.3700	  565.00	  555.55	-1877.15	  425.33
     40.4700	  522.00	  555.98	-1920.58	  425.27
     40.5700	  547.00	  555.91	-1895.51	  425.22
     40.6700	  529.00	  555.87	-1913.47	  425.17
     40.7700	  537.00	  555.87	-1905.47	  425.12
