MSG Master    CELL:    5.91917   5.91917  23.27508   90.0000   90.0000  120.0000   SPGR: P 63/m m c             TEMP:   1074.95
  1   1280     2.52000     0.00000    -0.12698     0.00000     0.00000    0
    99     0     2
       0.00000      10.00000
     125.00000     130.00000
 2Theta	Yobs	Ycal	Yobs-Ycal	Backg	Posr	(hkl)	K
      0.7700	    0.00	  541.97	-1731.99	  423.44
      0.8700	    0.00	  542.69	-1731.99	  424.16
      0.9700	   35.00	  543.40	-1731.99	  424.87
      1.0700	   47.00	  544.10	-1731.99	  425.57
      1.1700	   46.00	  544.79	-1731.99	  426.26
      1.2700	   36.00	  545.47	-1731.99	  426.94
      1.3700	   47.00	  546.14	-1731.99	  427.61
      1.4700	   89.00	  546.80	-1731.99	  428.27
      1.5700	  273.00	  547.44	-1731.99	  428.92
      1.6700	  484.00	  548.08	-1731.99	  429.55
      1.7700	  591.00	  548.71	-1731.99	  430.18
      1.8700	  645.00	  549.33	-1731.99	  430.80
      1.9700	  728.00	  549.94	-1731.99	  431.41
      2.0700	  746.00	  550.53	-1731.99	  432.01
      2.1700	  767.00	  551.12	-1731.99	  432.59
      2.2700	  832.00	  551.70	-1731.99	  433.17
      2.3700	  745.00	  552.27	-1731.99	  433.74
      2.4700	  738.00	  552.83	-1731.99	  434.30
      2.5700	  691.00	  553.38	-1731.99	  434.85
      2.6700	  668.00	  553.92	-1731.99	  435.39
      2.7700	  628.00	  554.45	-1731.99	  435.92
      2.8700	  704.00	  554.97	-1731.99	  436.45
      2.9700	  657.00	  555.49	-1731.99	  436.96
      3.0700	  599.00	  555.99	-1731.99	  437.46
      3.1700	  590.00	  556.48	-1731.99	  437.96
      3.2700	  625.00	  556.97	-1731.99	  438.44
      3.3700	  643.00	  557.45	-1731.99	  438.92
      3.4700	  737.00	  557.91	-1731.99	  439.39
      3.5700	  743.00	  558.37	-1731.99	  439.84
      3.6700	  852.00	  558.82	-1731.99	  440.29
      3.7700	  919.00	  559.26	-1731.99	  440.74
      3.8700	  992.00	  559.70	-1731.99	  441.17
      3.9700	 1060.00	  560.12	-1731.99	  441.59
      4.0700	 1038.00	  560.54	-1731.99	  442.01
      4.1700	 1059.00	  560.94	-1731.99	  442.41
      4.2700	 1110.00	  561.34	-1731.99	  442.81
      4.3700	 1175.00	  561.73	-1731.99	  443.20
      4.4700	 1039.00	  562.11	-1731.99	  443.59
      4.5700	 1044.00	  562.49	-1731.99	  443.96
      4.6700	 1012.00	  562.85	-1731.99	  444.33
      4.7700	  951.00	  563.21	-1731.99	  444.68
      4.8700	  991.00	  563.56	-1731.99	  445.03
      4.9700	  993.00	  563.90	-1731.99	  445.38
      5.0700	  922.00	  564.24	-1731.99	  445.71
      5.1700	  912.00	  564.56	-1731.99	  446.04
      5.2700	  887.00	  564.88	-1731.99	  446.35
      5.3700	  893.00	  565.19	-1731.99	  446.66
      5.4700	  828.00	  565.50	-1731.99	  446.97
      5.5700	  874.00	  565.79	-1731.99	  447.26
      5.6700	  830.00	  566.08	-1731.99	  447.55
      5.7700	  908.00	  566.36	-1731.99	  447.83
      5.8700	  807.00	  566.63	-1731.99	  448.10
      5.9700	  832.00	  566.90	-1731.99	  448.37
      6.0700	  859.00	  567.16	-1731.99	  448.63
      6.1700	  764.00	  567.41	-1731.99	  448.88
      6.2700	  757.00	  567.65	-1731.99	  449.12
      6.3700	  730.00	  567.89	-1731.99	  449.36
      6.4700	  770.00	  568.12	-1731.99	  449.59
      6.5700	  768.00	  568.34	-1731.99	  449.81
      6.6700	  733.00	  568.56	-1731.99	  450.03
      6.7700	  738.00	  568.77	-1731.99	  450.24
      6.8700	  713.00	  568.97	-1731.99	  450.44
      6.9700	  671.00	  569.17	-1731.99	  450.64
      7.0700	  689.00	  569.35	-1731.99	  450.83
      7.1700	  714.00	  569.54	-1731.99	  451.01
      7.2700	  706.00	  569.71	-1731.99	  451.18
      7.3700	  695.00	  569.88	-1731.99	  451.35
      7.4700	  665.00	  570.04	-1731.99	  451.52
      7.5700	  684.00	  570.20	-1731.99	  451.67
      7.6700	  689.00	  570.35	-1731.99	  451.82
      7.7700	  622.00	  570.49	-1731.99	  451.97
      7.8700	  681.00	  570.63	-1731.99	  452.10
      7.9700	  635.00	  570.76	-1731.99	  452.23
      8.0700	  663.00	  570.89	-1731.99	  452.36
      8.1700	  609.00	  571.01	-1731.99	  452.48
      8.2700	  627.00	  571.12	-1731.99	  452.59
      8.3700	  644.00	  571.23	-1731.99	  452.70
      8.4700	  672.00	  571.33	-1731.99	  452.80
      8.5700	  622.00	  571.42	-1731.99	  452.89
      8.6700	  627.00	  571.51	-1731.99	  452.98
      8.7700	  641.00	  571.59	-1731.99	  453.07
      8.8700	  604.00	  571.67	-1731.99	  453.14
      8.9700	  607.00	  571.74	-1731.99	  453.22
      9.0700	  672.00	  571.81	-1731.99	  453.28
      9.1700	  641.00	  571.87	-1731.99	  453.34
      9.2700	  620.00	  571.93	-1731.99	  453.40
      9.3700	  595.00	  571.98	-1731.99	  453.45
      9.4700	  635.00	  572.02	-1731.99	  453.49
      9.5700	  610.00	  572.06	-1731.99	  453.53
      9.6700	  661.00	  572.10	-1731.99	  453.57
      9.7700	  605.00	  572.12	-1731.99	  453.60
      9.8700	  612.00	  572.15	-1731.99	  453.62
      9.9700	  607.00	  572.17	-1731.99	  453.64
     10.0700	  661.00	  572.99	-1643.98	  453.65
     10.1700	  563.00	  573.08	-1742.08	  453.66
     10.2700	  589.00	  573.19	-1716.19	  453.66
     10.3700	  591.00	  573.33	-1714.32	  453.66
     10.4700	  613.00	  573.52	-1692.52	  453.65
     10.5700	  543.00	  573.82	-1762.82	  453.64
     10.6700	  602.00	  574.33	-1704.32	  453.63
     10.7700	  616.00	  575.14	-1691.13	  453.61
     10.8700	  562.00	  576.32	-1746.32	  453.58
     10.9700	  556.00	  577.87	-1753.87	  453.55
     11.0700	  585.00	  579.76	-1726.75	  453.51
     11.1700	  557.00	  581.97	-1756.97	  453.47
     11.2700	  576.00	  584.56	-1740.55	  453.43
     11.3700	  566.00	  587.58	-1753.57	  453.38
     11.4700	  572.00	  591.17	-1751.17	  453.33
     11.5700	  593.00	  595.54	-1734.53	  453.27
     11.6700	  634.00	  601.01	-1699.00	  453.21
     11.7700	  586.00	  608.18	-1754.18	  453.14
     11.8700	  601.00	  617.93	-1748.92	  453.07
     11.9700	  705.00	  630.78	-1657.77	  453.00
     12.0700	  719.00	  645.10	-1658.09	  452.92
     12.1700	  687.00	  654.95	-1699.95	  452.84
     12.2700	  662.00	  651.25	-1721.24	  452.75
     12.3700	  675.00	  631.58	-1688.58	  452.66
     12.4700	  666.00	  607.93	-1673.92	  452.57
     12.5700	  612.00	  590.65	-1710.64	  452.47
     12.6700	  609.00	  581.20	-1704.19	  452.36
     12.7700	  559.00	  576.85	-1749.85	  452.26
     12.8700	  621.00	  574.87	-1685.86	  452.15
     12.9700	  571.00	  573.77	-1734.77	  452.03
     13.0700	  570.00	  573.03	-1735.02	  451.92
     13.1700	  564.00	  572.46	-1740.46	  451.79
     13.2700	  562.00	  572.01	-1742.00	  451.67
     13.3700	  527.00	  571.62	-1776.62	  451.54
     13.4700	  547.00	  571.29	-1756.29	  451.41
     13.5700	  571.00	  571.00	-1731.99	  451.27
     13.6700	  527.00	  570.73	-1775.72	  451.13
     13.7700	  570.00	  570.48	-1732.47	  450.99
     13.8700	  567.00	  570.25	-1735.24	  450.85
     13.9700	  596.00	  570.02	-1706.01	  450.70
     14.0700	  579.00	  569.81	-1722.80	  450.54
     14.1700	  570.00	  569.60	-1731.59	  450.39
     14.2700	  545.00	  569.39	-1756.38	  450.23
     14.3700	  530.00	  569.19	-1771.18	  450.07
     14.4700	  575.00	  568.99	-1725.98	  449.90
     14.5700	  534.00	  568.79	-1766.78	  449.73
     14.6700	  547.00	  568.59	-1753.58	  449.56
     14.7700	  556.00	  568.39	-1744.38	  449.39
     14.8700	  512.00	  568.19	-1788.18	  449.21
     14.9700	  560.00	  567.99	-1739.98	  449.03
     15.0700	  578.00	  567.79	-1721.78	  448.85
     15.1700	  583.00	  567.59	-1716.58	  448.66
     15.2700	  589.00	  567.38	-1710.38	  448.47
     15.3700	  569.00	  567.18	-1730.17	  448.28
     15.4700	  578.00	  566.97	-1720.97	  448.09
     15.5700	  525.00	  566.77	-1773.76	  447.89
     15.6700	  586.00	  566.56	-1712.55	  447.69
     15.7700	  533.00	  566.34	-1765.34	  447.49
     15.8700	  552.00	  566.13	-1746.12	  447.29
     15.9700	  545.00	  565.92	-1752.91	  447.08
     16.0700	  533.00	  565.73	-1764.72	  446.87
     16.1700	  529.00	  565.51	-1768.50	  446.66
     16.2700	  551.00	  565.29	-1746.28	  446.44
     16.3700	  559.00	  565.07	-1738.06	  446.23
     16.4700	  542.00	  564.84	-1754.84	  446.01
     16.5700	  581.00	  564.62	-1715.61	  445.79
     16.6700	  535.00	  564.39	-1761.38	  445.56
     16.7700	  585.00	  564.16	-1711.15	  445.34
     16.8700	  542.00	  563.93	-1753.92	  445.11
     16.9700	  563.00	  563.70	-1732.69	  444.88
     17.0700	  539.00	  563.46	-1756.45	  444.64
     17.1700	  496.00	  563.22	-1799.22	  444.41
     17.2700	  532.00	  562.98	-1762.98	  444.17
     17.3700	  537.00	  562.74	-1757.74	  443.93
     17.4700	  605.00	  562.50	-1689.49	  443.69
     17.5700	  546.00	  562.26	-1748.25	  443.45
     17.6700	  557.00	  562.01	-1737.00	  443.20
     17.7700	  543.00	  561.76	-1750.76	  442.96
     17.8700	  520.00	  561.51	-1773.51	  442.71
     17.9700	  554.00	  561.26	-1739.26	  442.46
     18.0700	  547.00	  561.11	-1746.11	  442.21
     18.1700	  576.00	  560.86	-1716.85	  441.95
     18.2700	  583.00	  560.61	-1709.60	  441.70
     18.3700	  574.00	  560.35	-1718.35	  441.44
     18.4700	  568.00	  560.10	-1724.09	  441.18
     18.5700	  576.00	  559.84	-1715.83	  440.92
     18.6700	  540.00	  559.58	-1751.57	  440.66
     18.7700	  514.00	  559.32	-1777.31	  440.39
     18.8700	  533.00	  559.14	-1758.13	  440.13
     18.9700	  545.00	  558.88	-1745.87	  439.86
     19.0700	  554.00	  558.62	-1736.61	  439.59
     19.1700	  578.00	  558.35	-1712.35	  439.32
     19.2700	  588.00	  558.09	-1702.08	  439.05
     19.3700	  558.00	  557.82	-1731.81	  438.78
     19.4700	  539.00	  557.55	-1750.55	  438.51
     19.5700	  544.00	  557.29	-1745.28	  438.23
     19.6700	  575.00	  557.02	-1714.01	  437.96
     19.7700	  581.00	  556.75	-1707.74	  437.68
     19.8700	  561.00	  556.48	-1727.47	  437.40
     19.9700	  533.00	  556.21	-1755.20	  437.12
     20.0700	  552.00	  555.93	-1735.93	  436.84
     20.1700	  533.00	  555.66	-1754.66	  436.55
     20.2700	  579.00	  555.39	-1708.38	  436.27
     20.3700	  529.00	  555.12	-1758.11	  435.99
     20.4700	  582.00	  554.84	-1704.84	  435.70
     20.5700	  545.00	  554.57	-1741.56	  435.41
     20.6700	  532.00	  554.29	-1754.29	  435.13
     20.7700	  526.00	  553.99	-1759.98	  434.84
     20.8700	  531.00	  553.75	-1754.74	  434.55
     20.9700	  583.00	  553.48	-1702.47	  434.26
     21.0700	  550.00	  553.20	-1735.20	  433.97
     21.1700	  560.00	  552.93	-1724.92	  433.67
     21.2700	  602.00	  552.66	-1682.65	  433.38
     21.3700	  552.00	  552.39	-1732.38	  433.09
     21.4700	  537.00	  552.12	-1747.11	  432.79
     21.5700	  544.00	  551.84	-1739.84	  432.50
     21.6700	  538.00	  551.58	-1745.57	  432.20
     21.7700	  556.00	  551.31	-1727.30	  431.90
     21.8700	  529.00	  551.04	-1754.03	  431.61
     21.9700	  505.00	  550.78	-1777.77	  431.31
     22.0700	  612.00	  550.51	-1670.51	  431.01
     22.1700	  575.00	  550.25	-1707.25	  430.71
     22.2700	  542.00	  550.00	-1739.99	  430.41
     22.3700	  594.00	  549.74	-1687.74	  430.11
     22.4700	  529.00	  549.50	-1752.49	  429.81
     22.5700	  544.00	  549.25	-1737.25	  429.51
     22.6700	  591.00	  549.01	-1690.01	  429.21
     22.7700	  522.00	  548.79	-1758.78	  428.90
     22.8700	  534.00	  548.56	-1746.56	  428.60
     22.9700	  549.00	  548.35	-1731.35	  428.30
     23.0700	  554.00	  548.16	-1726.15	  428.00
     23.1700	  539.00	  547.98	-1740.97	  427.69
     23.2700	  551.00	  547.82	-1728.82	  427.39
     23.3700	  566.00	  547.70	-1713.69	  427.08
     23.4700	  597.00	  547.61	-1682.60	  426.78
     23.5700	  565.00	  547.57	-1714.56	  426.47
     23.6700	  524.00	  547.74	-1755.73	  426.17
     23.7700	  557.00	  547.90	-1722.90	  425.86
     23.8700	  547.00	  548.30	-1733.30	  425.56
     23.9700	  574.00	  549.19	-1707.18	  425.25
     24.0700	  576.00	  551.01	-1707.00	  424.95
     24.1700	  532.00	  554.47	-1754.46	  424.64
     24.2700	  569.00	  560.45	-1723.44	  424.33
     24.3700	  596.00	  569.95	-1705.94	  424.03
     24.4700	  673.00	  583.98	-1642.97	  423.72
     24.5700	  578.00	  602.63	-1756.63	  423.42
     24.6700	  656.00	  622.78	-1698.77	  423.11
     24.7700	  622.00	  636.19	-1746.18	  422.80
     24.8700	  661.00	  632.23	-1703.23	  422.50
     24.9700	  608.00	  610.25	-1734.25	  422.19
     25.0700	  598.00	  584.21	-1718.20	  421.89
     25.1700	  545.00	  564.81	-1751.80	  421.58
     25.2700	  572.00	  553.82	-1713.81	  421.28
     25.3700	  537.00	  548.59	-1743.59	  420.97
     25.4700	  526.00	  546.19	-1752.19	  420.67
     25.5700	  540.00	  544.92	-1736.91	  420.36
     25.6700	  551.00	  544.10	-1725.09	  420.06
     25.7700	  611.00	  543.51	-1664.50	  419.75
     25.8700	  600.00	  543.07	-1675.06	  419.45
     25.9700	  553.00	  542.73	-1721.73	  419.14
     26.0700	  584.00	  542.49	-1690.49	  418.84
     26.1700	  542.00	  542.33	-1732.33	  418.54
     26.2700	  554.00	  542.25	-1720.25	  418.23
     26.3700	  565.00	  542.25	-1709.24	  417.93
     26.4700	  544.00	  542.33	-1730.33	  417.63
     26.5700	  521.00	  542.52	-1753.51	  417.33
     26.6700	  573.00	  542.81	-1701.80	  417.02
     26.7700	  579.00	  543.24	-1696.24	  416.72
     26.8700	  590.00	  543.85	-1685.84	  416.42
     26.9700	  514.00	  544.68	-1762.67	  416.12
     27.0700	  519.00	  545.81	-1758.80	  415.82
     27.1700	  522.00	  547.37	-1757.37	  415.52
     27.2700	  548.00	  549.63	-1733.62	  415.22
     27.3700	  533.00	  553.06	-1752.06	  414.93
     27.4700	  551.00	  558.67	-1739.66	  414.63
     27.5700	  572.00	  568.21	-1728.21	  414.33
     27.6700	  544.00	  584.48	-1772.47	  414.03
     27.7700	  566.00	  611.05	-1777.05	  413.74
     27.8700	  634.00	  651.05	-1749.05	  413.44
     27.9700	  670.00	  704.60	-1766.60	  413.15
     28.0700	  730.00	  765.53	-1767.52	  412.85
     28.1700	  874.00	  818.49	-1676.48	  412.56
     28.2700	  984.00	  840.53	-1588.53	  412.27
     28.3700	  873.00	  818.45	-1677.45	  411.98
     28.4700	  885.00	  774.28	-1621.28	  411.68
     28.5700	  735.00	  743.64	-1740.64	  411.39
     28.6700	  683.00	  742.58	-1791.57	  411.10
     28.7700	  749.00	  766.13	-1749.13	  410.82
     28.8700	  800.00	  794.17	-1726.16	  410.53
     28.9700	  797.00	  798.53	-1733.52	  410.24
     29.0700	  750.00	  761.61	-1743.60	  409.95
     29.1700	  686.00	  699.22	-1745.22	  409.67
     29.2700	  668.00	  639.92	-1703.91	  409.38
     29.3700	  615.00	  597.20	-1714.20	  409.10
     29.4700	  599.00	  571.41	-1704.41	  408.81
     29.5700	  589.00	  557.48	-1700.48	  408.53
     29.6700	  602.00	  550.13	-1680.12	  408.25
     29.7700	  596.00	  545.97	-1681.96	  407.97
     29.8700	  585.00	  543.38	-1690.37	  407.69
     29.9700	  546.00	  541.73	-1727.73	  407.41
     30.0700	  587.00	  540.88	-1685.88	  407.13
     30.1700	  584.00	  540.99	-1688.98	  406.86
     30.2700	  582.00	  542.56	-1692.56	  406.58
     30.3700	  536.00	  546.62	-1742.61	  406.31
     30.4700	  571.00	  554.69	-1715.68	  406.03
     30.5700	  499.00	  568.36	-1801.36	  405.76
     30.6700	  603.00	  588.04	-1717.04	  405.49
     30.7700	  604.00	  611.25	-1739.24	  405.22
     30.8700	  622.00	  631.34	-1741.33	  404.95
     30.9700	  583.00	  638.28	-1787.28	  404.68
     31.0700	  590.00	  625.28	-1767.27	  404.41
     31.1700	  589.00	  599.20	-1742.19	  404.14
     31.2700	  566.00	  573.10	-1739.09	  403.88
     31.3700	  536.00	  553.83	-1749.82	  403.61
     31.4700	  515.00	  542.10	-1759.09	  403.35
     31.5700	  560.00	  535.81	-1707.81	  403.09
     31.6700	  567.00	  532.58	-1697.57	  402.83
     31.7700	  533.00	  530.78	-1729.78	  402.57
     31.8700	  571.00	  529.66	-1690.65	  402.31
     31.9700	  536.00	  528.88	-1724.88	  402.05
     32.0700	  509.00	  528.34	-1751.33	  401.80
     32.1700	  539.00	  527.97	-1720.97	  401.54
     32.2700	  512.00	  527.76	-1747.76	  401.29
     32.3700	  533.00	  527.70	-1726.70	  401.03
     32.4700	  527.00	  527.80	-1732.79	  400.78
     32.5700	  595.00	  528.06	-1665.05	  400.53
     32.6700	  594.00	  528.52	-1666.51	  400.28
     32.7700	  569.00	  529.22	-1692.21	  400.04
     32.8700	  592.00	  530.23	-1670.23	  399.79
     32.9700	  536.00	  531.67	-1727.67	  399.54
     33.0700	  544.00	  533.76	-1721.75	  399.30
     33.1700	  544.00	  536.95	-1724.94	  399.06
     33.2700	  524.00	  542.31	-1750.30	  398.82
     33.3700	  537.00	  552.10	-1747.09	  398.58
     33.4700	  545.00	  570.66	-1757.66	  398.34
     33.5700	  646.00	  604.81	-1690.80	  398.10
     33.6700	  653.00	  662.22	-1741.22	  397.87
     33.7700	  756.00	  746.20	-1722.19	  397.63
     33.8700	  849.00	  847.32	-1730.32	  397.40
     33.9700	 1059.00	  938.36	-1611.36	  397.17
     34.0700	 1079.00	  977.81	-1630.80	  396.94
     34.1700	 1024.00	  935.63	-1643.63	  396.71
     34.2700	  902.00	  833.75	-1663.74	  396.48
     34.3700	  739.00	  724.48	-1717.48	  396.25
     34.4700	  623.00	  639.83	-1748.82	  396.03
     34.5700	  582.00	  586.43	-1736.42	  395.80
     34.6700	  535.00	  557.36	-1754.36	  395.58
     34.7700	  551.00	  542.68	-1723.67	  395.36
     34.8700	  508.00	  535.00	-1758.99	  395.14
     34.9700	  500.00	  530.41	-1762.40	  394.92
     35.0700	  555.00	  527.25	-1704.24	  394.71
     35.1700	  551.00	  524.89	-1705.88	  394.49
     35.2700	  581.00	  523.01	-1674.00	  394.28
     35.3700	  555.00	  521.48	-1698.48	  394.07
     35.4700	  539.00	  520.22	-1713.21	  393.86
     35.5700	  546.00	  519.16	-1705.15	  393.65
     35.6700	  550.00	  518.24	-1700.24	  393.44
     35.7700	  519.00	  517.45	-1730.45	  393.24
     35.8700	  505.00	  516.76	-1743.76	  393.03
     35.9700	  534.00	  516.15	-1714.14	  392.83
     36.0700	  488.00	  516.08	-1760.08	  392.63
     36.1700	  524.00	  515.60	-1723.59	  392.43
     36.2700	  532.00	  515.16	-1715.16	  392.23
     36.3700	  486.00	  514.77	-1760.77	  392.03
     36.4700	  533.00	  514.42	-1713.42	  391.84
     36.5700	  505.00	  514.11	-1741.11	  391.64
     36.6700	  521.00	  513.85	-1724.84	  391.45
     36.7700	  529.00	  513.63	-1716.62	  391.26
     36.8700	  515.00	  513.49	-1730.48	  391.07
     36.9700	  525.00	  513.49	-1720.48	  390.88
     37.0700	  523.00	  513.77	-1722.76	  390.70
     37.1700	  520.00	  514.59	-1726.58	  390.51
     37.2700	  507.00	  516.33	-1741.32	  390.33
     37.3700	  529.00	  519.34	-1722.33	  390.15
     37.4700	  522.00	  523.61	-1733.60	  389.97
     37.5700	  520.00	  528.40	-1740.39	  389.79
     37.6700	  543.00	  532.19	-1721.18	  389.61
     37.7700	  545.00	  533.30	-1720.29	  389.44
     37.8700	  526.00	  531.38	-1737.37	  389.27
     37.9700	  520.00	  527.80	-1739.79	  389.09
     38.0700	  513.00	  523.79	-1742.79	  388.92
     38.1700	  545.00	  519.84	-1706.83	  388.76
     38.2700	  514.00	  516.34	-1734.34	  388.59
     38.3700	  491.00	  513.64	-1754.64	  388.42
     38.4700	  528.00	  511.77	-1715.76	  388.26
     38.5700	  521.00	  510.56	-1721.56	  388.10
     38.6700	  523.00	  509.81	-1718.81	  387.94
     38.7700	  488.00	  509.24	-1753.23	  387.78
     38.8700	  492.00	  508.90	-1748.89	  387.62
     38.9700	  505.00	  508.63	-1735.62	  387.47
     39.0700	  514.00	  508.40	-1726.39	  387.31
     39.1700	  544.00	  508.19	-1696.18	  387.16
     39.2700	  537.00	  507.92	-1702.92	  387.01
     39.3700	  514.00	  507.75	-1725.75	  386.86
     39.4700	  519.00	  507.73	-1720.72	  386.71
     39.5700	  524.00	  507.58	-1715.58	  386.57
     39.6700	  515.00	  507.45	-1724.44	  386.42
     39.7700	  484.00	  507.33	-1755.32	  386.28
     39.8700	  474.00	  507.21	-1765.21	  386.14
     39.9700	  505.00	  507.11	-1734.10	  386.00
     40.0700	  505.00	  507.02	-1734.01	  385.86
     40.1700	  520.00	  506.94	-1718.93	  385.73
     40.2700	  490.00	  506.86	-1748.86	  385.59
     40.3700	  514.00	  506.81	-1724.80	  385.46
     40.4700	  511.00	  506.76	-1727.75	  385.33
     40.5700	  540.00	  506.73	-1698.72	  385.20
     40.6700	  452.00	  506.72	-1786.71	  385.07
     40.7700	  443.00	  506.72	-1795.72	  384.95
