MSG Master    CELL:    5.91933   5.91933  23.27103   90.0000   90.0000  120.0000   SPGR: P 63/m m c             TEMP:   1074.85
  1   1280     2.52000     0.00000    -0.12187     0.00000     0.00000    0
    99     0     2
       0.00000      10.00000
     125.00000     130.00000
 2Theta	Yobs	Ycal	Yobs-Ycal	Backg	Posr	(hkl)	K
      0.7700	    0.00	  563.97	-1776.75	  445.38
      0.8700	    0.00	  564.47	-1776.75	  445.87
      0.9700	   37.00	  564.96	-1776.75	  446.36
      1.0700	   41.00	  565.43	-1776.75	  446.83
      1.1700	   37.00	  565.90	-1776.75	  447.30
      1.2700	   34.00	  566.36	-1776.75	  447.76
      1.3700	   51.00	  566.81	-1776.75	  448.21
      1.4700	   92.00	  567.25	-1776.75	  448.65
      1.5700	  291.00	  567.68	-1776.75	  449.09
      1.6700	  456.00	  568.11	-1776.75	  449.51
      1.7700	  585.00	  568.52	-1776.75	  449.93
      1.8700	  638.00	  568.93	-1776.75	  450.33
      1.9700	  689.00	  569.33	-1776.75	  450.73
      2.0700	  792.00	  569.72	-1776.75	  451.12
      2.1700	  791.00	  570.10	-1776.75	  451.51
      2.2700	  741.00	  570.48	-1776.75	  451.88
      2.3700	  757.00	  570.85	-1776.75	  452.25
      2.4700	  696.00	  571.20	-1776.75	  452.60
      2.5700	  742.00	  571.55	-1776.75	  452.95
      2.6700	  627.00	  571.90	-1776.75	  453.30
      2.7700	  665.00	  572.23	-1776.75	  453.63
      2.8700	  669.00	  572.56	-1776.75	  453.96
      2.9700	  584.00	  572.88	-1776.75	  454.28
      3.0700	  633.00	  573.19	-1776.75	  454.59
      3.1700	  622.00	  573.49	-1776.75	  454.89
      3.2700	  587.00	  573.79	-1776.75	  455.19
      3.3700	  687.00	  574.07	-1776.75	  455.47
      3.4700	  768.00	  574.35	-1776.75	  455.76
      3.5700	  795.00	  574.63	-1776.75	  456.03
      3.6700	  868.00	  574.89	-1776.75	  456.29
      3.7700	  918.00	  575.15	-1776.75	  456.55
      3.8700	  996.00	  575.40	-1776.75	  456.80
      3.9700	 1029.00	  575.65	-1776.75	  457.05
      4.0700	 1003.00	  575.88	-1776.75	  457.29
      4.1700	 1097.00	  576.11	-1776.75	  457.52
      4.2700	 1029.00	  576.34	-1776.75	  457.74
      4.3700	 1127.00	  576.55	-1776.75	  457.95
      4.4700	 1079.00	  576.76	-1776.75	  458.16
      4.5700	 1000.00	  576.96	-1776.75	  458.37
      4.6700	 1072.00	  577.16	-1776.75	  458.56
      4.7700	  966.00	  577.35	-1776.75	  458.75
      4.8700	  934.00	  577.53	-1776.75	  458.93
      4.9700	  956.00	  577.71	-1776.75	  459.11
      5.0700	  901.00	  577.87	-1776.75	  459.28
      5.1700	  940.00	  578.04	-1776.75	  459.44
      5.2700	  933.00	  578.19	-1776.75	  459.59
      5.3700	  928.00	  578.34	-1776.75	  459.74
      5.4700	  861.00	  578.48	-1776.75	  459.89
      5.5700	  819.00	  578.62	-1776.75	  460.02
      5.6700	  825.00	  578.75	-1776.75	  460.15
      5.7700	  841.00	  578.87	-1776.75	  460.28
      5.8700	  844.00	  578.99	-1776.75	  460.39
      5.9700	  800.00	  579.10	-1776.75	  460.51
      6.0700	  853.00	  579.21	-1776.75	  460.61
      6.1700	  718.00	  579.31	-1776.75	  460.71
      6.2700	  740.00	  579.40	-1776.75	  460.81
      6.3700	  783.00	  579.49	-1776.75	  460.89
      6.4700	  765.00	  579.57	-1776.75	  460.98
      6.5700	  742.00	  579.65	-1776.75	  461.05
      6.6700	  692.00	  579.72	-1776.75	  461.12
      6.7700	  721.00	  579.79	-1776.75	  461.19
      6.8700	  737.00	  579.84	-1776.75	  461.25
      6.9700	  713.00	  579.90	-1776.75	  461.30
      7.0700	  676.00	  579.95	-1776.75	  461.35
      7.1700	  700.00	  579.99	-1776.75	  461.39
      7.2700	  678.00	  580.03	-1776.75	  461.43
      7.3700	  676.00	  580.06	-1776.75	  461.46
      7.4700	  692.00	  580.08	-1776.75	  461.49
      7.5700	  639.00	  580.10	-1776.75	  461.51
      7.6700	  620.00	  580.12	-1776.75	  461.52
      7.7700	  688.00	  580.13	-1776.75	  461.53
      7.8700	  641.00	  580.14	-1776.75	  461.54
      7.9700	  655.00	  580.14	-1776.75	  461.54
      8.0700	  664.00	  580.13	-1776.75	  461.53
      8.1700	  581.00	  580.12	-1776.75	  461.52
      8.2700	  613.00	  580.11	-1776.75	  461.51
      8.3700	  667.00	  580.09	-1776.75	  461.49
      8.4700	  637.00	  580.06	-1776.75	  461.47
      8.5700	  663.00	  580.03	-1776.75	  461.44
      8.6700	  681.00	  580.00	-1776.75	  461.40
      8.7700	  595.00	  579.96	-1776.75	  461.36
      8.8700	  608.00	  579.92	-1776.75	  461.32
      8.9700	  607.00	  579.87	-1776.75	  461.27
      9.0700	  585.00	  579.82	-1776.75	  461.22
      9.1700	  634.00	  579.76	-1776.75	  461.16
      9.2700	  599.00	  579.70	-1776.75	  461.10
      9.3700	  602.00	  579.63	-1776.75	  461.03
      9.4700	  633.00	  579.56	-1776.75	  460.96
      9.5700	  575.00	  579.49	-1776.75	  460.89
      9.6700	  605.00	  579.41	-1776.75	  460.81
      9.7700	  576.00	  579.32	-1776.75	  460.73
      9.8700	  584.00	  579.24	-1776.75	  460.64
      9.9700	  577.00	  579.14	-1776.75	  460.55
     10.0700	  583.00	  579.74	-1773.49	  460.45
     10.1700	  591.00	  579.71	-1765.46	  460.35
     10.2700	  611.00	  579.69	-1745.44	  460.25
     10.3700	  616.00	  579.70	-1740.45	  460.14
     10.4700	  570.00	  579.75	-1786.50	  460.03
     10.5700	  554.00	  579.89	-1802.64	  459.91
     10.6700	  602.00	  580.22	-1754.97	  459.79
     10.7700	  590.00	  580.83	-1767.58	  459.67
     10.8700	  611.00	  581.79	-1747.54	  459.54
     10.9700	  643.00	  583.11	-1716.86	  459.41
     11.0700	  596.00	  584.74	-1765.49	  459.27
     11.1700	  600.00	  586.68	-1763.43	  459.13
     11.2700	  581.00	  588.95	-1784.70	  458.99
     11.3700	  595.00	  591.63	-1773.38	  458.85
     11.4700	  607.00	  594.83	-1764.58	  458.70
     11.5700	  606.00	  598.73	-1769.48	  458.54
     11.6700	  607.00	  603.63	-1773.38	  458.39
     11.7700	  667.00	  610.10	-1719.85	  458.23
     11.8700	  639.00	  618.99	-1756.74	  458.06
     11.9700	  644.00	  631.08	-1763.83	  457.90
     12.0700	  681.00	  645.21	-1740.96	  457.73
     12.1700	  714.00	  655.81	-1718.56	  457.55
     12.2700	  657.00	  653.53	-1773.28	  457.38
     12.3700	  610.00	  634.78	-1801.53	  457.20
     12.4700	  629.00	  611.13	-1758.88	  457.02
     12.5700	  602.00	  593.76	-1768.51	  456.83
     12.6700	  572.00	  584.45	-1789.20	  456.64
     12.7700	  564.00	  580.31	-1793.06	  456.45
     12.8700	  552.00	  578.45	-1803.20	  456.25
     12.9700	  544.00	  577.41	-1810.16	  456.06
     13.0700	  575.00	  576.67	-1778.42	  455.86
     13.1700	  579.00	  576.09	-1773.84	  455.65
     13.2700	  606.00	  575.60	-1746.35	  455.45
     13.3700	  533.00	  575.17	-1818.92	  455.24
     13.4700	  573.00	  574.79	-1778.54	  455.03
     13.5700	  529.00	  574.44	-1822.19	  454.81
     13.6700	  553.00	  574.11	-1797.86	  454.59
     13.7700	  521.00	  573.80	-1829.55	  454.37
     13.8700	  527.00	  573.50	-1823.25	  454.15
     13.9700	  590.00	  573.21	-1759.96	  453.93
     14.0700	  568.00	  572.93	-1781.68	  453.70
     14.1700	  546.00	  572.66	-1803.41	  453.47
     14.2700	  588.00	  572.38	-1761.13	  453.24
     14.3700	  541.00	  572.12	-1807.87	  453.00
     14.4700	  560.00	  571.85	-1788.60	  452.76
     14.5700	  564.00	  571.58	-1784.33	  452.52
     14.6700	  576.00	  571.32	-1772.07	  452.28
     14.7700	  576.00	  571.05	-1771.80	  452.04
     14.8700	  534.00	  570.79	-1813.54	  451.79
     14.9700	  520.00	  570.52	-1827.27	  451.54
     15.0700	  520.00	  570.25	-1827.00	  451.29
     15.1700	  573.00	  569.99	-1773.74	  451.04
     15.2700	  539.00	  569.72	-1807.47	  450.78
     15.3700	  576.00	  569.45	-1770.20	  450.52
     15.4700	  566.00	  569.18	-1779.93	  450.26
     15.5700	  591.00	  568.91	-1754.66	  450.00
     15.6700	  564.00	  568.64	-1781.39	  449.74
     15.7700	  603.00	  568.37	-1742.12	  449.47
     15.8700	  608.00	  568.09	-1736.84	  449.21
     15.9700	  559.00	  567.82	-1785.57	  448.94
     16.0700	  597.00	  567.54	-1747.29	  448.67
     16.1700	  547.00	  567.26	-1797.01	  448.39
     16.2700	  560.00	  566.98	-1783.73	  448.12
     16.3700	  539.00	  566.72	-1804.47	  447.84
     16.4700	  508.00	  566.44	-1835.19	  447.56
     16.5700	  564.00	  566.16	-1778.91	  447.28
     16.6700	  530.00	  565.87	-1812.62	  447.00
     16.7700	  556.00	  565.59	-1786.34	  446.72
     16.8700	  559.00	  565.30	-1783.05	  446.43
     16.9700	  542.00	  565.01	-1799.76	  446.15
     17.0700	  550.00	  564.72	-1791.47	  445.86
     17.1700	  569.00	  564.43	-1772.18	  445.57
     17.2700	  535.00	  564.14	-1805.89	  445.28
     17.3700	  579.00	  563.84	-1761.59	  444.99
     17.4700	  588.00	  563.55	-1752.30	  444.69
     17.5700	  559.00	  563.25	-1781.00	  444.40
     17.6700	  590.00	  562.95	-1749.70	  444.10
     17.7700	  555.00	  562.65	-1784.40	  443.80
     17.8700	  564.00	  562.35	-1775.10	  443.50
     17.9700	  555.00	  562.15	-1783.90	  443.20
     18.0700	  533.00	  561.85	-1805.60	  442.90
     18.1700	  549.00	  561.55	-1789.30	  442.60
     18.2700	  557.00	  561.25	-1781.00	  442.30
     18.3700	  554.00	  560.95	-1783.70	  441.99
     18.4700	  584.00	  560.64	-1753.39	  441.68
     18.5700	  577.00	  560.34	-1760.09	  441.38
     18.6700	  553.00	  560.03	-1783.78	  441.07
     18.7700	  542.00	  559.73	-1794.48	  440.76
     18.8700	  552.00	  559.42	-1784.17	  440.45
     18.9700	  552.00	  559.19	-1783.94	  440.14
     19.0700	  574.00	  558.88	-1761.63	  439.83
     19.1700	  563.00	  558.58	-1772.33	  439.51
     19.2700	  558.00	  558.27	-1777.02	  439.20
     19.3700	  603.00	  557.96	-1731.71	  438.88
     19.4700	  542.00	  557.65	-1792.40	  438.57
     19.5700	  551.00	  557.34	-1783.09	  438.25
     19.6700	  517.00	  557.03	-1816.78	  437.93
     19.7700	  545.00	  556.72	-1788.47	  437.61
     19.8700	  529.00	  556.41	-1804.16	  437.30
     19.9700	  524.00	  556.10	-1808.85	  436.98
     20.0700	  573.00	  555.78	-1759.53	  436.66
     20.1700	  512.00	  555.47	-1820.22	  436.33
     20.2700	  587.00	  555.16	-1744.91	  436.01
     20.3700	  577.00	  554.85	-1754.60	  435.69
     20.4700	  554.00	  554.51	-1777.26	  435.37
     20.5700	  512.00	  554.20	-1818.95	  435.04
     20.6700	  557.00	  553.89	-1773.64	  434.72
     20.7700	  539.00	  553.57	-1791.32	  434.40
     20.8700	  534.00	  553.26	-1796.01	  434.07
     20.9700	  575.00	  552.99	-1754.74	  433.74
     21.0700	  535.00	  552.68	-1794.43	  433.42
     21.1700	  575.00	  552.37	-1754.12	  433.09
     21.2700	  552.00	  552.06	-1776.81	  432.77
     21.3700	  548.00	  551.75	-1780.50	  432.44
     21.4700	  525.00	  551.44	-1803.19	  432.11
     21.5700	  528.00	  551.14	-1799.89	  431.78
     21.6700	  563.00	  550.83	-1764.58	  431.46
     21.7700	  543.00	  550.53	-1784.28	  431.13
     21.8700	  596.00	  550.23	-1730.98	  430.80
     21.9700	  595.00	  549.93	-1731.68	  430.47
     22.0700	  547.00	  549.63	-1779.38	  430.14
     22.1700	  601.00	  549.34	-1725.09	  429.81
     22.2700	  538.00	  549.04	-1787.79	  429.48
     22.3700	  517.00	  548.75	-1808.50	  429.15
     22.4700	  537.00	  548.47	-1788.22	  428.82
     22.5700	  540.00	  548.19	-1784.94	  428.49
     22.6700	  499.00	  547.91	-1825.66	  428.16
     22.7700	  530.00	  547.64	-1794.39	  427.83
     22.8700	  564.00	  547.38	-1760.13	  427.50
     22.9700	  553.00	  547.13	-1770.88	  427.17
     23.0700	  546.00	  546.89	-1777.64	  426.84
     23.1700	  590.00	  546.66	-1733.41	  426.51
     23.2700	  568.00	  546.45	-1755.20	  426.18
     23.3700	  570.00	  546.26	-1753.01	  425.85
     23.4700	  537.00	  546.11	-1785.86	  425.53
     23.5700	  533.00	  545.99	-1789.74	  425.20
     23.6700	  585.00	  545.93	-1737.68	  424.87
     23.7700	  572.00	  545.97	-1750.72	  424.54
     23.8700	  556.00	  546.31	-1767.06	  424.21
     23.9700	  526.00	  546.91	-1797.66	  423.88
     24.0700	  561.00	  548.28	-1764.03	  423.55
     24.1700	  574.00	  551.02	-1753.77	  423.22
     24.2700	  564.00	  555.95	-1768.70	  422.89
     24.3700	  551.00	  563.96	-1789.71	  422.57
     24.4700	  608.00	  576.11	-1744.86	  422.24
     24.5700	  616.00	  592.86	-1753.61	  421.91
     24.6700	  610.00	  611.91	-1778.66	  421.58
     24.7700	  616.00	  625.87	-1786.62	  421.26
     24.8700	  592.00	  624.20	-1808.95	  420.93
     24.9700	  604.00	  604.56	-1777.31	  420.61
     25.0700	  586.00	  579.78	-1770.53	  420.28
     25.1700	  582.00	  561.08	-1755.83	  419.96
     25.2700	  531.00	  550.63	-1796.38	  419.63
     25.3700	  584.00	  545.83	-1738.58	  419.31
     25.4700	  575.00	  543.70	-1745.45	  418.98
     25.5700	  547.00	  542.59	-1772.34	  418.66
     25.6700	  604.00	  541.87	-1714.62	  418.34
     25.7700	  500.00	  541.34	-1818.09	  418.02
     25.8700	  533.00	  540.94	-1784.69	  417.69
     25.9700	  520.00	  540.63	-1797.38	  417.37
     26.0700	  559.00	  540.41	-1758.16	  417.05
     26.1700	  545.00	  540.25	-1772.00	  416.73
     26.2700	  573.00	  540.17	-1743.92	  416.41
     26.3700	  530.00	  540.16	-1786.91	  416.09
     26.4700	  582.00	  540.23	-1734.98	  415.78
     26.5700	  531.00	  540.39	-1786.14	  415.46
     26.6700	  509.00	  540.66	-1808.41	  415.14
     26.7700	  499.00	  541.06	-1818.81	  414.83
     26.8700	  578.00	  541.63	-1740.38	  414.51
     26.9700	  537.00	  542.42	-1782.17	  414.20
     27.0700	  554.00	  543.49	-1766.24	  413.88
     27.1700	  563.00	  544.98	-1758.73	  413.57
     27.2700	  541.00	  547.12	-1782.87	  413.26
     27.3700	  608.00	  550.40	-1719.15	  412.95
     27.4700	  580.00	  555.74	-1752.49	  412.64
     27.5700	  544.00	  564.83	-1797.58	  412.33
     27.6700	  555.00	  580.32	-1802.07	  412.02
     27.7700	  590.00	  605.69	-1792.44	  411.71
     27.8700	  617.00	  643.99	-1803.74	  411.40
     27.9700	  654.00	  695.49	-1818.24	  411.09
     28.0700	  785.00	  754.48	-1746.23	  410.79
     28.1700	  894.00	  806.50	-1689.25	  410.48
     28.2700	  920.00	  829.43	-1686.18	  410.18
     28.3700	  911.00	  809.43	-1675.18	  409.88
     28.4700	  786.00	  766.32	-1757.07	  409.58
     28.5700	  704.00	  734.96	-1807.71	  409.27
     28.6700	  685.00	  731.97	-1823.72	  408.97
     28.7700	  731.00	  753.48	-1799.23	  408.68
     28.8700	  766.00	  780.63	-1791.38	  408.38
     28.9700	  770.00	  786.33	-1793.08	  408.08
     29.0700	  805.00	  752.43	-1724.18	  407.78
     29.1700	  675.00	  692.77	-1794.52	  407.49
     29.2700	  599.00	  635.16	-1812.91	  407.19
     29.3700	  623.00	  593.36	-1747.11	  406.90
     29.4700	  602.00	  568.05	-1742.80	  406.61
     29.5700	  594.00	  554.38	-1737.13	  406.32
     29.6700	  660.00	  547.20	-1663.95	  406.03
     29.7700	  611.00	  543.15	-1708.90	  405.74
     29.8700	  568.00	  540.64	-1749.39	  405.45
     29.9700	  574.00	  539.04	-1741.79	  405.17
     30.0700	  566.00	  538.22	-1748.97	  404.88
     30.1700	  556.00	  538.32	-1759.07	  404.60
     30.2700	  584.00	  539.86	-1732.61	  404.31
     30.3700	  576.00	  543.85	-1744.60	  404.03
     30.4700	  572.00	  551.90	-1756.65	  403.75
     30.5700	  615.00	  565.71	-1727.46	  403.47
     30.6700	  607.00	  585.91	-1755.66	  403.19
     30.7700	  615.00	  610.16	-1771.91	  402.92
     30.8700	  597.00	  631.72	-1811.47	  402.64
     30.9700	  604.00	  640.06	-1812.81	  402.37
     31.0700	  611.00	  627.51	-1793.26	  402.09
     31.1700	  593.00	  600.55	-1784.30	  401.82
     31.2700	  577.00	  573.02	-1772.77	  401.55
     31.3700	  555.00	  552.59	-1774.34	  401.28
     31.4700	  549.00	  540.16	-1767.91	  401.01
     31.5700	  530.00	  533.56	-1780.31	  400.74
     31.6700	  550.00	  530.19	-1756.94	  400.48
     31.7700	  564.00	  528.35	-1741.10	  400.21
     31.8700	  521.00	  527.19	-1782.94	  399.95
     31.9700	  508.00	  526.39	-1795.14	  399.69
     32.0700	  556.00	  525.82	-1746.57	  399.43
     32.1700	  537.00	  525.43	-1765.18	  399.17
     32.2700	  539.00	  525.19	-1762.94	  398.91
     32.3700	  525.00	  525.10	-1776.85	  398.66
     32.4700	  518.00	  525.16	-1783.91	  398.40
     32.5700	  529.00	  525.38	-1773.13	  398.15
     32.6700	  553.00	  525.79	-1749.54	  397.89
     32.7700	  538.00	  526.43	-1765.18	  397.64
     32.8700	  618.00	  527.36	-1686.11	  397.39
     32.9700	  527.00	  528.69	-1778.44	  397.15
     33.0700	  521.00	  530.62	-1786.37	  396.90
     33.1700	  535.00	  533.57	-1775.32	  396.65
     33.2700	  549.00	  538.52	-1766.27	  396.41
     33.3700	  552.00	  547.61	-1772.36	  396.17
     33.4700	  562.00	  565.07	-1779.82	  395.93
     33.5700	  607.00	  597.75	-1767.50	  395.69
     33.6700	  613.00	  653.93	-1817.68	  395.45
     33.7700	  739.00	  737.87	-1775.61	  395.21
     33.8700	  862.00	  841.33	-1756.08	  394.98
     33.9700	 1011.00	  937.33	-1703.08	  394.74
     34.0700	 1108.00	  983.03	-1651.78	  394.51
     34.1700	  980.00	  944.81	-1741.56	  394.28
     34.2700	  871.00	  841.78	-1747.53	  394.05
     34.3700	  794.00	  728.48	-1711.23	  393.82
     34.4700	  636.00	  640.10	-1780.85	  393.60
     34.5700	  608.00	  584.51	-1753.26	  393.37
     34.6700	  551.00	  554.58	-1780.33	  393.15
     34.7700	  569.00	  539.72	-1747.47	  392.93
     34.8700	  525.00	  532.08	-1783.83	  392.71
     34.9700	  487.00	  527.56	-1817.31	  392.49
     35.0700	  503.00	  524.46	-1798.21	  392.27
     35.1700	  513.00	  522.13	-1785.88	  392.06
     35.2700	  536.00	  520.29	-1761.04	  391.84
     35.3700	  514.00	  518.82	-1781.57	  391.63
     35.4700	  483.00	  517.58	-1811.33	  391.42
     35.5700	  504.00	  516.54	-1789.29	  391.21
     35.6700	  521.00	  515.65	-1771.40	  391.00
     35.7700	  539.00	  514.88	-1752.63	  390.80
     35.8700	  561.00	  514.20	-1729.95	  390.59
     35.9700	  509.00	  514.07	-1781.82	  390.39
     36.0700	  510.00	  513.54	-1780.29	  390.19
     36.1700	  475.00	  513.06	-1814.81	  389.99
     36.2700	  564.00	  512.63	-1725.38	  389.79
     36.3700	  505.00	  512.24	-1783.99	  389.60
     36.4700	  527.00	  511.88	-1761.63	  389.40
     36.5700	  557.00	  511.57	-1731.32	  389.21
     36.6700	  526.00	  511.29	-1762.04	  389.02
     36.7700	  482.00	  511.05	-1805.80	  388.83
     36.8700	  509.00	  510.87	-1778.62	  388.64
     36.9700	  488.00	  510.80	-1799.55	  388.45
     37.0700	  514.00	  510.93	-1773.68	  388.27
     37.1700	  506.00	  511.47	-1782.22	  388.08
     37.2700	  517.00	  512.75	-1772.50	  387.90
     37.3700	  538.00	  515.13	-1753.88	  387.72
     37.4700	  531.00	  518.73	-1764.48	  387.54
     37.5700	  517.00	  523.08	-1782.83	  387.37
     37.6700	  504.00	  526.98	-1799.73	  387.19
     37.7700	  535.00	  528.94	-1770.69	  387.02
     37.8700	  529.00	  528.36	-1776.11	  386.85
     37.9700	  504.00	  526.07	-1798.82	  386.68
     38.0700	  548.00	  522.89	-1751.64	  386.51
     38.1700	  520.00	  519.13	-1775.88	  386.34
     38.2700	  484.00	  515.32	-1808.07	  386.18
     38.3700	  523.00	  512.14	-1765.89	  386.01
     38.4700	  538.00	  509.85	-1748.60	  385.85
     38.5700	  518.00	  508.39	-1767.14	  385.69
     38.6700	  510.00	  507.51	-1774.26	  385.53
     38.7700	  504.00	  506.88	-1779.63	  385.38
     38.8700	  522.00	  506.52	-1761.27	  385.22
     38.9700	  501.00	  506.25	-1782.00	  385.07
     39.0700	  460.00	  506.02	-1822.77	  384.91
     39.1700	  470.00	  505.82	-1812.57	  384.76
     39.2700	  509.00	  505.56	-1773.31	  384.62
     39.3700	  490.00	  505.40	-1792.15	  384.47
     39.4700	  469.00	  505.24	-1812.99	  384.32
     39.5700	  445.00	  505.10	-1836.85	  384.18
     39.6700	  537.00	  505.09	-1744.84	  384.04
     39.7700	  474.00	  504.97	-1807.72	  383.90
     39.8700	  515.00	  504.86	-1766.61	  383.76
     39.9700	  459.00	  504.76	-1822.51	  383.63
     40.0700	  509.00	  504.67	-1772.42	  383.49
     40.1700	  518.00	  504.59	-1763.34	  383.36
     40.2700	  482.00	  504.52	-1799.27	  383.23
     40.3700	  509.00	  504.47	-1772.22	  383.10
     40.4700	  500.00	  504.43	-1781.18	  382.97
     40.5700	  494.00	  504.40	-1787.15	  382.84
     40.6700	  482.00	  504.39	-1799.14	  382.72
     40.7700	  521.00	  504.40	-1760.15	  382.59
