MSG Master    CELL:    5.91915   5.91915  23.27557   90.0000   90.0000  120.0000   SPGR: P 63/m m c             TEMP:   1074.85
  1   1280     2.52000     0.00000    -0.12439     0.00000     0.00000    0
    99     0     2
       0.00000      10.00000
     125.00000     130.00000
 2Theta	Yobs	Ycal	Yobs-Ycal	Backg	Posr	(hkl)	K
      0.7700	    0.00	  555.13	-1741.75	  437.94
      0.8700	    0.00	  555.82	-1741.75	  438.62
      0.9700	   54.00	  556.49	-1741.75	  439.29
      1.0700	   44.00	  557.15	-1741.75	  439.96
      1.1700	   42.00	  557.80	-1741.75	  440.60
      1.2700	   36.00	  558.44	-1741.75	  441.24
      1.3700	   51.00	  559.06	-1741.75	  441.87
      1.4700	  104.00	  559.68	-1741.75	  442.49
      1.5700	  309.00	  560.29	-1741.75	  443.09
      1.6700	  434.00	  560.88	-1741.75	  443.69
      1.7700	  574.00	  561.47	-1741.75	  444.28
      1.8700	  641.00	  562.04	-1741.75	  444.85
      1.9700	  717.00	  562.61	-1741.75	  445.41
      2.0700	  783.00	  563.16	-1741.75	  445.97
      2.1700	  767.00	  563.71	-1741.75	  446.51
      2.2700	  791.00	  564.24	-1741.75	  447.05
      2.3700	  775.00	  564.76	-1741.75	  447.57
      2.4700	  745.00	  565.28	-1741.75	  448.08
      2.5700	  676.00	  565.78	-1741.75	  448.59
      2.6700	  667.00	  566.28	-1741.75	  449.08
      2.7700	  657.00	  566.76	-1741.75	  449.57
      2.8700	  647.00	  567.23	-1741.75	  450.04
      2.9700	  584.00	  567.70	-1741.75	  450.51
      3.0700	  603.00	  568.15	-1741.75	  450.96
      3.1700	  600.00	  568.60	-1741.75	  451.41
      3.2700	  623.00	  569.04	-1741.75	  451.84
      3.3700	  631.00	  569.46	-1741.75	  452.27
      3.4700	  756.00	  569.88	-1741.75	  452.69
      3.5700	  743.00	  570.29	-1741.75	  453.10
      3.6700	  865.00	  570.69	-1741.75	  453.50
      3.7700	  912.00	  571.08	-1741.75	  453.89
      3.8700	  969.00	  571.46	-1741.75	  454.27
      3.9700	 1024.00	  571.83	-1741.75	  454.64
      4.0700	 1065.00	  572.20	-1741.75	  455.00
      4.1700	 1085.00	  572.55	-1741.75	  455.36
      4.2700	 1117.00	  572.90	-1741.75	  455.70
      4.3700	 1088.00	  573.23	-1741.75	  456.04
      4.4700	 1078.00	  573.56	-1741.75	  456.37
      4.5700	 1027.00	  573.88	-1741.75	  456.69
      4.6700	  983.00	  574.20	-1741.75	  457.00
      4.7700	  993.00	  574.50	-1741.75	  457.30
      4.8700	  965.00	  574.79	-1741.75	  457.60
      4.9700	  908.00	  575.08	-1741.75	  457.89
      5.0700	  932.00	  575.36	-1741.75	  458.17
      5.1700	  904.00	  575.63	-1741.75	  458.44
      5.2700	  877.00	  575.89	-1741.75	  458.70
      5.3700	  845.00	  576.15	-1741.75	  458.95
      5.4700	  828.00	  576.39	-1741.75	  459.20
      5.5700	  874.00	  576.63	-1741.75	  459.44
      5.6700	  798.00	  576.86	-1741.75	  459.67
      5.7700	  870.00	  577.09	-1741.75	  459.89
      5.8700	  865.00	  577.30	-1741.75	  460.11
      5.9700	  803.00	  577.51	-1741.75	  460.32
      6.0700	  823.00	  577.71	-1741.75	  460.52
      6.1700	  818.00	  577.90	-1741.75	  460.71
      6.2700	  766.00	  578.09	-1741.75	  460.89
      6.3700	  757.00	  578.27	-1741.75	  461.07
      6.4700	  773.00	  578.44	-1741.75	  461.24
      6.5700	  730.00	  578.60	-1741.75	  461.41
      6.6700	  752.00	  578.76	-1741.75	  461.56
      6.7700	  766.00	  578.91	-1741.75	  461.71
      6.8700	  714.00	  579.05	-1741.75	  461.85
      6.9700	  786.00	  579.18	-1741.75	  461.99
      7.0700	  720.00	  579.31	-1741.75	  462.12
      7.1700	  726.00	  579.43	-1741.75	  462.24
      7.2700	  687.00	  579.55	-1741.75	  462.36
      7.3700	  674.00	  579.66	-1741.75	  462.46
      7.4700	  622.00	  579.76	-1741.75	  462.56
      7.5700	  615.00	  579.85	-1741.75	  462.66
      7.6700	  669.00	  579.94	-1741.75	  462.75
      7.7700	  632.00	  580.02	-1741.75	  462.83
      7.8700	  594.00	  580.10	-1741.75	  462.90
      7.9700	  629.00	  580.17	-1741.75	  462.97
      8.0700	  612.00	  580.23	-1741.75	  463.04
      8.1700	  638.00	  580.29	-1741.75	  463.09
      8.2700	  613.00	  580.34	-1741.75	  463.14
      8.3700	  622.00	  580.38	-1741.75	  463.19
      8.4700	  620.00	  580.42	-1741.75	  463.22
      8.5700	  629.00	  580.45	-1741.75	  463.26
      8.6700	  637.00	  580.48	-1741.75	  463.28
      8.7700	  597.00	  580.50	-1741.75	  463.30
      8.8700	  642.00	  580.51	-1741.75	  463.32
      8.9700	  650.00	  580.52	-1741.75	  463.32
      9.0700	  608.00	  580.52	-1741.75	  463.33
      9.1700	  605.00	  580.52	-1741.75	  463.32
      9.2700	  638.00	  580.51	-1741.75	  463.31
      9.3700	  599.00	  580.49	-1741.75	  463.30
      9.4700	  619.00	  580.47	-1741.75	  463.28
      9.5700	  601.00	  580.45	-1741.75	  463.25
      9.6700	  579.00	  580.42	-1741.75	  463.22
      9.7700	  578.00	  580.38	-1741.75	  463.19
      9.8700	  562.00	  580.34	-1741.75	  463.15
      9.9700	  643.00	  580.29	-1741.75	  463.10
     10.0700	  599.00	  581.07	-1723.82	  463.05
     10.1700	  593.00	  581.10	-1729.85	  462.99
     10.2700	  615.00	  581.14	-1707.89	  462.93
     10.3700	  579.00	  581.22	-1743.97	  462.86
     10.4700	  632.00	  581.35	-1691.10	  462.79
     10.5700	  596.00	  581.58	-1727.33	  462.71
     10.6700	  590.00	  582.02	-1733.77	  462.63
     10.7700	  564.00	  582.76	-1760.51	  462.54
     10.8700	  586.00	  583.87	-1739.62	  462.45
     10.9700	  601.00	  585.35	-1726.10	  462.35
     11.0700	  582.00	  587.16	-1746.91	  462.25
     11.1700	  574.00	  589.31	-1757.06	  462.15
     11.2700	  568.00	  591.82	-1765.57	  462.04
     11.3700	  589.00	  594.77	-1747.52	  461.92
     11.4700	  600.00	  598.28	-1740.03	  461.80
     11.5700	  560.00	  602.57	-1784.32	  461.68
     11.6700	  612.00	  607.95	-1737.70	  461.55
     11.7700	  654.00	  615.01	-1702.76	  461.42
     11.8700	  634.00	  624.60	-1732.35	  461.28
     11.9700	  685.00	  637.22	-1693.97	  461.14
     12.0700	  664.00	  651.29	-1729.04	  461.00
     12.1700	  670.00	  661.07	-1732.82	  460.85
     12.2700	  646.00	  657.68	-1753.43	  460.69
     12.3700	  690.00	  638.48	-1690.23	  460.54
     12.4700	  649.00	  614.99	-1707.74	  460.37
     12.5700	  629.00	  597.59	-1710.34	  460.21
     12.6700	  623.00	  587.89	-1706.64	  460.04
     12.7700	  595.00	  583.34	-1730.09	  459.87
     12.8700	  591.00	  581.21	-1731.96	  459.69
     12.9700	  601.00	  580.01	-1720.76	  459.51
     13.0700	  551.00	  579.18	-1769.93	  459.32
     13.1700	  570.00	  578.53	-1750.28	  459.14
     13.2700	  565.00	  578.00	-1754.75	  458.94
     13.3700	  570.00	  577.54	-1749.29	  458.75
     13.4700	  565.00	  577.14	-1753.89	  458.55
     13.5700	  556.00	  576.77	-1762.52	  458.35
     13.6700	  577.00	  576.43	-1741.18	  458.14
     13.7700	  573.00	  576.11	-1744.86	  457.93
     13.8700	  578.00	  575.81	-1739.56	  457.72
     13.9700	  553.00	  575.51	-1764.26	  457.51
     14.0700	  582.00	  575.23	-1734.98	  457.29
     14.1700	  593.00	  574.95	-1723.70	  457.06
     14.2700	  559.00	  574.68	-1757.43	  456.84
     14.3700	  562.00	  574.41	-1754.16	  456.61
     14.4700	  557.00	  574.14	-1758.89	  456.38
     14.5700	  535.00	  573.87	-1780.62	  456.14
     14.6700	  574.00	  573.61	-1741.36	  455.91
     14.7700	  535.00	  573.34	-1780.09	  455.67
     14.8700	  567.00	  573.07	-1747.82	  455.42
     14.9700	  583.00	  572.81	-1731.56	  455.18
     15.0700	  532.00	  572.54	-1782.29	  454.93
     15.1700	  560.00	  572.27	-1754.02	  454.68
     15.2700	  560.00	  572.00	-1753.75	  454.42
     15.3700	  572.00	  571.73	-1741.48	  454.16
     15.4700	  547.00	  571.46	-1766.21	  453.90
     15.5700	  553.00	  571.19	-1759.94	  453.64
     15.6700	  560.00	  570.91	-1752.66	  453.38
     15.7700	  577.00	  570.63	-1735.38	  453.11
     15.8700	  535.00	  570.35	-1777.10	  452.84
     15.9700	  578.00	  570.10	-1733.85	  452.56
     16.0700	  532.00	  569.82	-1779.57	  452.29
     16.1700	  551.00	  569.53	-1760.28	  452.01
     16.2700	  576.00	  569.25	-1735.00	  451.73
     16.3700	  595.00	  568.96	-1715.71	  451.45
     16.4700	  550.00	  568.67	-1760.42	  451.17
     16.5700	  580.00	  568.38	-1730.13	  450.88
     16.6700	  533.00	  568.09	-1776.84	  450.59
     16.7700	  510.00	  567.79	-1799.54	  450.30
     16.8700	  504.00	  567.49	-1805.24	  450.01
     16.9700	  575.00	  567.20	-1733.95	  449.71
     17.0700	  591.00	  566.90	-1717.65	  449.41
     17.1700	  581.00	  566.59	-1727.34	  449.11
     17.2700	  576.00	  566.29	-1732.04	  448.81
     17.3700	  546.00	  565.99	-1761.74	  448.51
     17.4700	  599.00	  565.68	-1708.43	  448.20
     17.5700	  562.00	  565.37	-1745.12	  447.90
     17.6700	  564.00	  565.06	-1742.81	  447.59
     17.7700	  549.00	  564.75	-1757.50	  447.28
     17.8700	  552.00	  564.44	-1754.19	  446.97
     17.9700	  595.00	  564.22	-1710.97	  446.65
     18.0700	  551.00	  563.91	-1754.66	  446.34
     18.1700	  565.00	  563.59	-1740.34	  446.02
     18.2700	  541.00	  563.28	-1764.03	  445.70
     18.3700	  558.00	  562.96	-1746.71	  445.38
     18.4700	  528.00	  562.64	-1776.39	  445.06
     18.5700	  538.00	  562.32	-1766.07	  444.74
     18.6700	  563.00	  561.99	-1740.74	  444.41
     18.7700	  555.00	  561.67	-1748.42	  444.08
     18.8700	  525.00	  561.43	-1778.18	  443.76
     18.9700	  559.00	  561.11	-1743.86	  443.43
     19.0700	  559.00	  560.78	-1743.53	  443.10
     19.1700	  593.00	  560.46	-1709.21	  442.77
     19.2700	  545.00	  560.13	-1756.88	  442.43
     19.3700	  568.00	  559.80	-1733.55	  442.10
     19.4700	  570.00	  559.47	-1731.22	  441.76
     19.5700	  573.00	  559.14	-1727.89	  441.43
     19.6700	  579.00	  558.81	-1721.56	  441.09
     19.7700	  591.00	  558.48	-1709.23	  440.75
     19.8700	  541.00	  558.15	-1758.90	  440.41
     19.9700	  559.00	  557.82	-1740.57	  440.07
     20.0700	  579.00	  557.49	-1720.24	  439.73
     20.1700	  566.00	  557.15	-1732.90	  439.38
     20.2700	  600.00	  556.82	-1698.57	  439.04
     20.3700	  612.00	  556.49	-1686.24	  438.70
     20.4700	  563.00	  556.15	-1734.90	  438.35
     20.5700	  545.00	  555.82	-1752.57	  438.00
     20.6700	  581.00	  555.48	-1716.23	  437.66
     20.7700	  544.00	  555.15	-1752.90	  437.31
     20.8700	  531.00	  554.82	-1765.57	  436.96
     20.9700	  531.00	  554.49	-1765.24	  436.61
     21.0700	  563.00	  554.16	-1732.91	  436.26
     21.1700	  560.00	  553.82	-1735.57	  435.91
     21.2700	  554.00	  553.49	-1741.24	  435.56
     21.3700	  532.00	  553.16	-1762.91	  435.21
     21.4700	  567.00	  552.83	-1727.58	  434.85
     21.5700	  529.00	  552.50	-1765.25	  434.50
     21.6700	  556.00	  552.17	-1737.92	  434.15
     21.7700	  552.00	  551.85	-1741.60	  433.79
     21.8700	  536.00	  551.52	-1757.27	  433.44
     21.9700	  527.00	  551.20	-1765.95	  433.08
     22.0700	  568.00	  550.88	-1724.63	  432.73
     22.1700	  535.00	  550.56	-1757.31	  432.37
     22.2700	  551.00	  550.24	-1740.99	  432.01
     22.3700	  553.00	  549.93	-1738.68	  431.66
     22.4700	  543.00	  549.62	-1748.37	  431.30
     22.5700	  519.00	  549.32	-1772.07	  430.94
     22.6700	  531.00	  549.02	-1759.77	  430.59
     22.7700	  513.00	  548.73	-1777.48	  430.23
     22.8700	  545.00	  548.45	-1745.20	  429.87
     22.9700	  506.00	  548.18	-1783.93	  429.51
     23.0700	  545.00	  547.92	-1744.67	  429.15
     23.1700	  558.00	  547.68	-1731.43	  428.79
     23.2700	  542.00	  547.46	-1747.21	  428.44
     23.3700	  545.00	  547.26	-1744.01	  428.08
     23.4700	  563.00	  547.10	-1725.85	  427.72
     23.5700	  504.00	  546.99	-1784.74	  427.36
     23.6700	  521.00	  547.07	-1767.82	  427.00
     23.7700	  560.00	  547.14	-1728.89	  426.64
     23.8700	  539.00	  547.42	-1750.17	  426.28
     23.9700	  572.00	  548.13	-1717.88	  425.93
     24.0700	  540.00	  549.66	-1751.41	  425.57
     24.1700	  562.00	  552.62	-1732.37	  425.21
     24.2700	  568.00	  557.79	-1731.54	  424.85
     24.3700	  589.00	  566.05	-1718.80	  424.49
     24.4700	  596.00	  578.26	-1724.01	  424.13
     24.5700	  615.00	  594.48	-1721.23	  423.78
     24.6700	  608.00	  612.02	-1745.77	  423.42
     24.7700	  584.00	  623.82	-1781.57	  423.06
     24.8700	  666.00	  620.64	-1696.39	  422.71
     24.9700	  611.00	  601.61	-1732.36	  422.35
     25.0700	  567.00	  578.72	-1753.47	  421.99
     25.1700	  572.00	  561.46	-1731.21	  421.64
     25.2700	  550.00	  551.51	-1743.26	  421.28
     25.3700	  552.00	  546.69	-1736.44	  420.93
     25.4700	  574.00	  544.42	-1712.17	  420.57
     25.5700	  570.00	  543.19	-1714.94	  420.22
     25.6700	  563.00	  542.38	-1721.13	  419.86
     25.7700	  509.00	  541.79	-1774.54	  419.51
     25.8700	  580.00	  541.33	-1703.08	  419.16
     25.9700	  547.00	  540.97	-1735.72	  418.81
     26.0700	  566.00	  540.71	-1716.46	  418.45
     26.1700	  564.00	  540.52	-1718.27	  418.10
     26.2700	  559.00	  540.41	-1723.16	  417.75
     26.3700	  574.00	  540.37	-1708.12	  417.40
     26.4700	  535.00	  540.42	-1747.17	  417.05
     26.5700	  518.00	  540.57	-1764.32	  416.70
     26.6700	  542.00	  540.82	-1740.57	  416.36
     26.7700	  548.00	  541.22	-1734.97	  416.01
     26.8700	  513.00	  541.79	-1770.54	  415.66
     26.9700	  570.00	  542.59	-1714.34	  415.31
     27.0700	  557.00	  543.68	-1728.43	  414.97
     27.1700	  518.00	  545.22	-1768.97	  414.62
     27.2700	  598.00	  547.43	-1691.18	  414.28
     27.3700	  573.00	  550.82	-1719.57	  413.94
     27.4700	  589.00	  556.35	-1709.10	  413.60
     27.5700	  590.00	  565.76	-1717.51	  413.25
     27.6700	  552.00	  581.77	-1771.52	  412.91
     27.7700	  571.00	  607.90	-1778.65	  412.57
     27.8700	  598.00	  647.22	-1790.97	  412.24
     27.9700	  660.00	  699.88	-1781.63	  411.90
     28.0700	  787.00	  759.94	-1714.69	  411.56
     28.1700	  909.00	  812.60	-1645.35	  411.22
     28.2700	  880.00	  835.46	-1697.21	  410.89
     28.3700	  964.00	  815.01	-1592.76	  410.55
     28.4700	  756.00	  771.94	-1757.69	  410.22
     28.5700	  684.00	  741.36	-1799.11	  409.89
     28.6700	  671.00	  739.60	-1810.35	  409.56
     28.7700	  709.00	  762.25	-1795.00	  409.23
     28.8700	  846.00	  789.87	-1685.62	  408.90
     28.9700	  805.00	  794.85	-1731.60	  408.57
     29.0700	  775.00	  759.25	-1726.00	  408.24
     29.1700	  690.00	  697.77	-1749.52	  407.92
     29.2700	  641.00	  638.62	-1739.37	  407.59
     29.3700	  603.00	  595.59	-1734.34	  407.27
     29.4700	  561.00	  569.33	-1750.08	  406.95
     29.5700	  631.00	  555.01	-1665.76	  406.63
     29.6700	  627.00	  547.40	-1662.15	  406.30
     29.7700	  574.00	  543.09	-1710.84	  405.99
     29.8700	  610.00	  540.41	-1672.16	  405.67
     29.9700	  576.00	  538.70	-1704.45	  405.35
     30.0700	  536.00	  537.82	-1743.57	  405.04
     30.1700	  559.00	  537.91	-1720.66	  404.72
     30.2700	  557.00	  539.50	-1724.25	  404.41
     30.3700	  581.00	  543.60	-1704.35	  404.10
     30.4700	  561.00	  551.77	-1732.52	  403.79
     30.5700	  558.00	  565.61	-1749.36	  403.48
     30.6700	  575.00	  585.53	-1752.28	  403.17
     30.7700	  618.00	  609.08	-1732.83	  402.86
     30.8700	  608.00	  629.63	-1763.38	  402.56
     30.9700	  623.00	  637.09	-1755.84	  402.25
     31.0700	  618.00	  624.35	-1748.10	  401.95
     31.1700	  604.00	  598.01	-1735.76	  401.65
     31.2700	  576.00	  571.30	-1737.05	  401.35
     31.3700	  539.00	  551.38	-1754.13	  401.05
     31.4700	  541.00	  539.12	-1739.87	  400.75
     31.5700	  557.00	  532.47	-1717.22	  400.46
     31.6700	  561.00	  529.01	-1709.76	  400.16
     31.7700	  540.00	  527.08	-1728.83	  399.87
     31.8700	  517.00	  525.87	-1750.62	  399.58
     31.9700	  543.00	  525.03	-1723.78	  399.29
     32.0700	  580.00	  524.43	-1686.18	  399.00
     32.1700	  555.00	  524.01	-1710.76	  398.71
     32.2700	  551.00	  523.76	-1714.51	  398.43
     32.3700	  580.00	  523.66	-1685.41	  398.14
     32.4700	  569.00	  523.72	-1696.47	  397.86
     32.5700	  543.00	  523.95	-1722.70	  397.58
     32.6700	  523.00	  524.39	-1743.14	  397.30
     32.7700	  545.00	  525.07	-1721.82	  397.02
     32.8700	  520.00	  526.06	-1747.81	  396.75
     32.9700	  553.00	  527.49	-1716.24	  396.47
     33.0700	  522.00	  529.57	-1749.32	  396.20
     33.1700	  518.00	  532.76	-1756.51	  395.93
     33.2700	  520.00	  538.11	-1759.86	  395.66
     33.3700	  566.00	  547.87	-1723.62	  395.39
     33.4700	  576.00	  566.29	-1732.04	  395.12
     33.5700	  609.00	  600.05	-1732.80	  394.86
     33.6700	  624.00	  656.70	-1774.45	  394.59
     33.7700	  777.00	  739.44	-1704.19	  394.33
     33.8700	  834.00	  839.29	-1747.04	  394.07
     33.9700	  995.00	  929.80	-1676.55	  393.81
     34.0700	 1024.00	  970.32	-1688.07	  393.56
     34.1700	  972.00	  930.57	-1700.32	  393.30
     34.2700	  934.00	  830.77	-1638.52	  393.05
     34.3700	  727.00	  722.37	-1737.12	  392.79
     34.4700	  627.00	  637.56	-1752.31	  392.54
     34.5700	  583.00	  583.50	-1742.25	  392.29
     34.6700	  577.00	  553.76	-1718.51	  392.05
     34.7700	  550.00	  538.59	-1730.34	  391.80
     34.8700	  536.00	  530.62	-1736.37	  391.56
     34.9700	  557.00	  525.87	-1710.62	  391.32
     35.0700	  475.00	  522.62	-1789.37	  391.08
     35.1700	  541.00	  520.16	-1720.91	  390.84
     35.2700	  494.00	  518.22	-1765.97	  390.60
     35.3700	  577.00	  516.64	-1681.39	  390.37
     35.4700	  535.00	  515.32	-1722.07	  390.13
     35.5700	  473.00	  514.21	-1782.96	  389.90
     35.6700	  552.00	  513.26	-1703.01	  389.67
     35.7700	  528.00	  512.44	-1726.19	  389.44
     35.8700	  513.00	  511.71	-1740.46	  389.22
     35.9700	  508.00	  511.55	-1745.30	  388.99
     36.0700	  499.00	  510.97	-1753.72	  388.77
     36.1700	  547.00	  510.46	-1705.21	  388.55
     36.2700	  479.00	  509.99	-1772.74	  388.33
     36.3700	  519.00	  509.57	-1732.32	  388.11
     36.4700	  467.00	  509.19	-1783.94	  387.90
     36.5700	  523.00	  508.85	-1727.60	  387.69
     36.6700	  482.00	  508.56	-1768.31	  387.47
     36.7700	  526.00	  508.31	-1724.06	  387.26
     36.8700	  532.00	  508.13	-1717.88	  387.06
     36.9700	  512.00	  508.08	-1737.83	  386.85
     37.0700	  499.00	  508.27	-1751.02	  386.65
     37.1700	  531.00	  508.95	-1719.70	  386.44
     37.2700	  520.00	  510.44	-1732.19	  386.24
     37.3700	  547.00	  513.04	-1707.79	  386.04
     37.4700	  521.00	  516.75	-1737.50	  385.85
     37.5700	  515.00	  520.93	-1747.68	  385.65
     37.6700	  483.00	  524.29	-1783.04	  385.46
     37.7700	  542.00	  525.33	-1725.08	  385.27
     37.8700	  507.00	  523.71	-1758.46	  385.08
     37.9700	  488.00	  520.61	-1774.36	  384.89
     38.0700	  496.00	  517.07	-1762.82	  384.70
     38.1700	  510.00	  513.51	-1745.26	  384.52
     38.2700	  506.00	  510.31	-1746.06	  384.34
     38.3700	  513.00	  507.80	-1736.55	  384.16
     38.4700	  562.00	  506.03	-1685.78	  383.98
     38.5700	  507.00	  504.87	-1739.62	  383.80
     38.6700	  508.00	  504.14	-1737.89	  383.63
     38.7700	  497.00	  503.56	-1748.31	  383.46
     38.8700	  491.00	  503.22	-1753.97	  383.29
     38.9700	  464.00	  502.95	-1780.70	  383.12
     39.0700	  494.00	  502.71	-1750.46	  382.95
     39.1700	  516.00	  502.49	-1728.24	  382.79
     39.2700	  481.00	  502.22	-1762.97	  382.62
     39.3700	  467.00	  502.04	-1776.79	  382.46
     39.4700	  534.00	  502.00	-1709.75	  382.30
     39.5700	  491.00	  501.85	-1752.60	  382.14
     39.6700	  498.00	  501.71	-1745.46	  381.99
     39.7700	  545.00	  501.57	-1698.32	  381.84
     39.8700	  526.00	  501.45	-1717.20	  381.68
     39.9700	  513.00	  501.34	-1730.09	  381.53
     40.0700	  450.00	  501.24	-1792.99	  381.39
     40.1700	  485.00	  501.15	-1757.90	  381.24
     40.2700	  502.00	  501.07	-1740.82	  381.10
     40.3700	  524.00	  501.00	-1718.75	  380.95
     40.4700	  485.00	  500.95	-1757.70	  380.81
     40.5700	  445.00	  500.91	-1797.66	  380.68
     40.6700	  496.00	  500.89	-1746.64	  380.54
     40.7700	  505.00	  500.89	-1737.64	  380.41
