MSG Master    CELL:    5.91913   5.91913  23.27138   90.0000   90.0000  120.0000   SPGR: P 63/m m c             TEMP:   1074.85
  1   1280     2.52000     0.00000    -0.12388     0.00000     0.00000    0
    99     0     2
       0.00000      10.00000
     125.00000     130.00000
 2Theta	Yobs	Ycal	Yobs-Ycal	Backg	Posr	(hkl)	K
      0.7700	    0.00	  569.78	-1775.00	  453.32
      0.8700	    0.00	  570.25	-1775.00	  453.79
      0.9700	   45.00	  570.72	-1775.00	  454.25
      1.0700	   48.00	  571.17	-1775.00	  454.71
      1.1700	   43.00	  571.62	-1775.00	  455.15
      1.2700	   40.00	  572.05	-1775.00	  455.59
      1.3700	   39.00	  572.48	-1775.00	  456.02
      1.4700	  110.00	  572.90	-1775.00	  456.43
      1.5700	  318.00	  573.30	-1775.00	  456.84
      1.6700	  450.00	  573.71	-1775.00	  457.24
      1.7700	  587.00	  574.10	-1775.00	  457.63
      1.8700	  650.00	  574.48	-1775.00	  458.02
      1.9700	  752.00	  574.85	-1775.00	  458.39
      2.0700	  773.00	  575.22	-1775.00	  458.76
      2.1700	  845.00	  575.58	-1775.00	  459.12
      2.2700	  765.00	  575.93	-1775.00	  459.47
      2.3700	  696.00	  576.27	-1775.00	  459.81
      2.4700	  690.00	  576.60	-1775.00	  460.14
      2.5700	  714.00	  576.93	-1775.00	  460.47
      2.6700	  691.00	  577.24	-1775.00	  460.78
      2.7700	  668.00	  577.55	-1775.00	  461.09
      2.8700	  664.00	  577.85	-1775.00	  461.39
      2.9700	  601.00	  578.15	-1775.00	  461.69
      3.0700	  577.00	  578.43	-1775.00	  461.97
      3.1700	  617.00	  578.71	-1775.00	  462.25
      3.2700	  599.00	  578.98	-1775.00	  462.52
      3.3700	  662.00	  579.24	-1775.00	  462.78
      3.4700	  757.00	  579.50	-1775.00	  463.03
      3.5700	  788.00	  579.74	-1775.00	  463.28
      3.6700	  853.00	  579.98	-1775.00	  463.52
      3.7700	  915.00	  580.21	-1775.00	  463.75
      3.8700	  981.00	  580.44	-1775.00	  463.98
      3.9700	  985.00	  580.66	-1775.00	  464.19
      4.0700	 1033.00	  580.87	-1775.00	  464.40
      4.1700	 1031.00	  581.07	-1775.00	  464.61
      4.2700	 1088.00	  581.27	-1775.00	  464.80
      4.3700	 1119.00	  581.45	-1775.00	  464.99
      4.4700	 1058.00	  581.64	-1775.00	  465.17
      4.5700	 1044.00	  581.81	-1775.00	  465.35
      4.6700	  987.00	  581.98	-1775.00	  465.52
      4.7700	 1041.00	  582.14	-1775.00	  465.68
      4.8700	  899.00	  582.29	-1775.00	  465.83
      4.9700	  979.00	  582.44	-1775.00	  465.98
      5.0700	  942.00	  582.58	-1775.00	  466.12
      5.1700	  921.00	  582.72	-1775.00	  466.26
      5.2700	  918.00	  582.85	-1775.00	  466.38
      5.3700	  865.00	  582.97	-1775.00	  466.50
      5.4700	  913.00	  583.08	-1775.00	  466.62
      5.5700	  822.00	  583.19	-1775.00	  466.73
      5.6700	  838.00	  583.29	-1775.00	  466.83
      5.7700	  830.00	  583.39	-1775.00	  466.93
      5.8700	  820.00	  583.48	-1775.00	  467.02
      5.9700	  809.00	  583.56	-1775.00	  467.10
      6.0700	  852.00	  583.64	-1775.00	  467.18
      6.1700	  774.00	  583.71	-1775.00	  467.25
      6.2700	  704.00	  583.78	-1775.00	  467.31
      6.3700	  781.00	  583.84	-1775.00	  467.37
      6.4700	  762.00	  583.89	-1775.00	  467.43
      6.5700	  752.00	  583.94	-1775.00	  467.47
      6.6700	  692.00	  583.98	-1775.00	  467.52
      6.7700	  699.00	  584.01	-1775.00	  467.55
      6.8700	  714.00	  584.05	-1775.00	  467.58
      6.9700	  727.00	  584.07	-1775.00	  467.61
      7.0700	  723.00	  584.09	-1775.00	  467.63
      7.1700	  674.00	  584.10	-1775.00	  467.64
      7.2700	  737.00	  584.11	-1775.00	  467.65
      7.3700	  717.00	  584.11	-1775.00	  467.65
      7.4700	  721.00	  584.11	-1775.00	  467.65
      7.5700	  624.00	  584.10	-1775.00	  467.64
      7.6700	  682.00	  584.09	-1775.00	  467.63
      7.7700	  626.00	  584.07	-1775.00	  467.61
      7.8700	  625.00	  584.05	-1775.00	  467.59
      7.9700	  643.00	  584.02	-1775.00	  467.56
      8.0700	  640.00	  583.99	-1775.00	  467.52
      8.1700	  636.00	  583.95	-1775.00	  467.48
      8.2700	  635.00	  583.90	-1775.00	  467.44
      8.3700	  673.00	  583.85	-1775.00	  467.39
      8.4700	  614.00	  583.80	-1775.00	  467.34
      8.5700	  594.00	  583.74	-1775.00	  467.28
      8.6700	  632.00	  583.68	-1775.00	  467.22
      8.7700	  615.00	  583.61	-1775.00	  467.15
      8.8700	  646.00	  583.54	-1775.00	  467.08
      8.9700	  614.00	  583.46	-1775.00	  467.00
      9.0700	  641.00	  583.38	-1775.00	  466.92
      9.1700	  578.00	  583.29	-1775.00	  466.83
      9.2700	  604.00	  583.20	-1775.00	  466.74
      9.3700	  600.00	  583.11	-1775.00	  466.64
      9.4700	  649.00	  583.01	-1775.00	  466.54
      9.5700	  568.00	  582.90	-1775.00	  466.44
      9.6700	  645.00	  582.79	-1775.00	  466.33
      9.7700	  597.00	  582.68	-1775.00	  466.22
      9.8700	  644.00	  582.56	-1775.00	  466.10
      9.9700	  602.00	  582.44	-1775.00	  465.98
     10.0700	  584.00	  583.02	-1774.02	  465.86
     10.1700	  592.00	  582.96	-1765.96	  465.73
     10.2700	  608.00	  582.91	-1749.91	  465.59
     10.3700	  546.00	  582.89	-1811.89	  465.46
     10.4700	  617.00	  582.92	-1740.92	  465.31
     10.5700	  626.00	  583.04	-1732.04	  465.17
     10.6700	  630.00	  583.35	-1728.35	  465.02
     10.7700	  603.00	  583.96	-1755.96	  464.87
     10.8700	  652.00	  584.94	-1707.94	  464.71
     10.9700	  613.00	  586.29	-1748.29	  464.55
     11.0700	  576.00	  587.96	-1786.96	  464.39
     11.1700	  610.00	  589.94	-1754.94	  464.22
     11.2700	  599.00	  592.28	-1768.28	  464.05
     11.3700	  582.00	  595.03	-1788.03	  463.87
     11.4700	  596.00	  598.33	-1777.33	  463.69
     11.5700	  571.00	  602.36	-1806.36	  463.51
     11.6700	  594.00	  607.44	-1788.44	  463.33
     11.7700	  642.00	  614.15	-1747.15	  463.14
     11.8700	  632.00	  623.43	-1766.43	  462.95
     11.9700	  693.00	  636.10	-1718.10	  462.75
     12.0700	  706.00	  650.92	-1719.92	  462.55
     12.1700	  634.00	  661.92	-1802.92	  462.35
     12.2700	  680.00	  659.14	-1754.14	  462.15
     12.3700	  671.00	  639.10	-1743.10	  461.94
     12.4700	  605.00	  614.31	-1784.31	  461.73
     12.5700	  618.00	  596.38	-1753.38	  461.51
     12.6700	  583.00	  586.91	-1778.91	  461.29
     12.7700	  557.00	  582.77	-1800.77	  461.07
     12.8700	  515.00	  580.90	-1840.90	  460.85
     12.9700	  587.00	  579.84	-1767.84	  460.62
     13.0700	  573.00	  579.07	-1781.07	  460.40
     13.1700	  562.00	  578.46	-1791.46	  460.16
     13.2700	  573.00	  577.95	-1779.95	  459.93
     13.3700	  551.00	  577.49	-1801.49	  459.69
     13.4700	  566.00	  577.08	-1786.08	  459.45
     13.5700	  582.00	  576.70	-1769.70	  459.21
     13.6700	  557.00	  576.35	-1794.35	  458.96
     13.7700	  532.00	  576.01	-1819.01	  458.71
     13.8700	  614.00	  575.68	-1736.68	  458.46
     13.9700	  550.00	  575.37	-1800.37	  458.21
     14.0700	  585.00	  575.06	-1765.06	  457.96
     14.1700	  586.00	  574.75	-1763.75	  457.70
     14.2700	  548.00	  574.45	-1801.45	  457.44
     14.3700	  556.00	  574.16	-1793.16	  457.17
     14.4700	  548.00	  573.86	-1800.86	  456.91
     14.5700	  510.00	  573.57	-1838.57	  456.64
     14.6700	  544.00	  573.28	-1804.28	  456.37
     14.7700	  556.00	  572.98	-1791.98	  456.10
     14.8700	  592.00	  572.69	-1755.69	  455.83
     14.9700	  559.00	  572.40	-1788.40	  455.55
     15.0700	  570.00	  572.10	-1777.10	  455.27
     15.1700	  547.00	  571.81	-1799.81	  454.99
     15.2700	  541.00	  571.51	-1805.51	  454.71
     15.3700	  556.00	  571.22	-1790.22	  454.42
     15.4700	  533.00	  570.92	-1812.92	  454.14
     15.5700	  573.00	  570.62	-1772.62	  453.85
     15.6700	  602.00	  570.33	-1743.33	  453.56
     15.7700	  596.00	  570.03	-1749.03	  453.27
     15.8700	  580.00	  569.72	-1764.72	  452.97
     15.9700	  566.00	  569.42	-1778.42	  452.68
     16.0700	  557.00	  569.12	-1787.12	  452.38
     16.1700	  570.00	  568.81	-1773.81	  452.08
     16.2700	  510.00	  568.51	-1833.51	  451.78
     16.3700	  544.00	  568.22	-1799.22	  451.48
     16.4700	  549.00	  567.91	-1793.92	  451.17
     16.5700	  524.00	  567.61	-1818.61	  450.86
     16.6700	  541.00	  567.29	-1801.29	  450.56
     16.7700	  579.00	  566.98	-1762.98	  450.25
     16.8700	  596.00	  566.67	-1745.67	  449.94
     16.9700	  569.00	  566.35	-1772.35	  449.62
     17.0700	  596.00	  566.04	-1745.04	  449.31
     17.1700	  590.00	  565.72	-1750.72	  449.00
     17.2700	  557.00	  565.40	-1783.40	  448.68
     17.3700	  553.00	  565.08	-1787.08	  448.36
     17.4700	  561.00	  564.76	-1778.76	  448.04
     17.5700	  571.00	  564.44	-1768.44	  447.72
     17.6700	  588.00	  564.12	-1751.12	  447.40
     17.7700	  575.00	  563.79	-1763.79	  447.08
     17.8700	  645.00	  563.56	-1693.56	  446.75
     17.9700	  515.00	  563.24	-1823.24	  446.43
     18.0700	  540.00	  562.92	-1797.92	  446.10
     18.1700	  531.00	  562.59	-1806.59	  445.77
     18.2700	  550.00	  562.26	-1787.26	  445.45
     18.3700	  578.00	  561.93	-1758.93	  445.12
     18.4700	  569.00	  561.61	-1767.61	  444.78
     18.5700	  553.00	  561.28	-1783.28	  444.45
     18.6700	  579.00	  560.95	-1756.95	  444.12
     18.7700	  554.00	  560.62	-1781.62	  443.79
     18.8700	  572.00	  560.38	-1763.38	  443.45
     18.9700	  581.00	  560.05	-1754.05	  443.12
     19.0700	  567.00	  559.71	-1767.71	  442.78
     19.1700	  509.00	  559.38	-1825.38	  442.44
     19.2700	  583.00	  559.05	-1751.05	  442.10
     19.3700	  526.00	  558.72	-1807.72	  441.77
     19.4700	  542.00	  558.39	-1791.39	  441.43
     19.5700	  550.00	  558.05	-1783.05	  441.09
     19.6700	  525.00	  557.72	-1807.72	  440.75
     19.7700	  573.00	  557.38	-1759.38	  440.40
     19.8700	  532.00	  557.05	-1800.05	  440.06
     19.9700	  566.00	  556.72	-1765.72	  439.72
     20.0700	  561.00	  556.38	-1770.38	  439.38
     20.1700	  573.00	  556.05	-1758.05	  439.03
     20.2700	  556.00	  555.71	-1774.71	  438.69
     20.3700	  550.00	  555.38	-1780.38	  438.34
     20.4700	  513.00	  555.02	-1817.02	  438.00
     20.5700	  558.00	  554.68	-1771.68	  437.65
     20.6700	  552.00	  554.35	-1777.35	  437.30
     20.7700	  519.00	  554.02	-1810.02	  436.96
     20.8700	  516.00	  553.72	-1812.72	  436.61
     20.9700	  610.00	  553.39	-1718.39	  436.26
     21.0700	  584.00	  553.06	-1744.06	  435.92
     21.1700	  549.00	  552.73	-1778.73	  435.57
     21.2700	  534.00	  552.40	-1793.40	  435.22
     21.3700	  547.00	  552.07	-1780.07	  434.87
     21.4700	  561.00	  551.74	-1765.74	  434.52
     21.5700	  549.00	  551.41	-1777.41	  434.17
     21.6700	  588.00	  551.09	-1738.09	  433.82
     21.7700	  536.00	  550.76	-1789.76	  433.47
     21.8700	  548.00	  550.44	-1777.44	  433.12
     21.9700	  546.00	  550.12	-1779.12	  432.77
     22.0700	  570.00	  549.80	-1754.80	  432.42
     22.1700	  563.00	  549.49	-1761.49	  432.07
     22.2700	  573.00	  549.17	-1751.17	  431.72
     22.3700	  582.00	  548.86	-1741.86	  431.37
     22.4700	  577.00	  548.56	-1746.56	  431.02
     22.5700	  519.00	  548.26	-1804.26	  430.67
     22.6700	  575.00	  547.96	-1747.96	  430.32
     22.7700	  551.00	  547.67	-1771.67	  429.98
     22.8700	  496.00	  547.39	-1826.39	  429.63
     22.9700	  586.00	  547.12	-1736.12	  429.28
     23.0700	  550.00	  546.86	-1771.86	  428.93
     23.1700	  523.00	  546.61	-1798.61	  428.58
     23.2700	  588.00	  546.38	-1733.38	  428.23
     23.3700	  563.00	  546.18	-1758.18	  427.88
     23.4700	  515.00	  546.00	-1806.00	  427.53
     23.5700	  580.00	  545.87	-1740.87	  427.18
     23.6700	  571.00	  545.79	-1749.79	  426.83
     23.7700	  555.00	  545.93	-1765.93	  426.49
     23.8700	  517.00	  546.14	-1804.14	  426.14
     23.9700	  591.00	  546.72	-1730.72	  425.79
     24.0700	  564.00	  548.09	-1759.09	  425.44
     24.1700	  605.00	  550.89	-1720.89	  425.10
     24.2700	  560.00	  555.92	-1770.92	  424.75
     24.3700	  596.00	  564.12	-1743.12	  424.40
     24.4700	  564.00	  576.56	-1787.56	  424.06
     24.5700	  570.00	  593.77	-1798.77	  423.71
     24.6700	  597.00	  613.30	-1791.30	  423.37
     24.7700	  617.00	  627.40	-1785.40	  423.02
     24.8700	  610.00	  625.15	-1790.15	  422.68
     24.9700	  582.00	  604.58	-1797.58	  422.34
     25.0700	  589.00	  579.18	-1765.18	  422.00
     25.1700	  574.00	  560.33	-1761.33	  421.65
     25.2700	  551.00	  549.96	-1773.96	  421.31
     25.3700	  543.00	  545.27	-1777.27	  420.97
     25.4700	  578.00	  543.21	-1740.21	  420.63
     25.5700	  558.00	  542.12	-1759.12	  420.29
     25.6700	  524.00	  541.40	-1792.40	  419.95
     25.7700	  584.00	  540.87	-1731.87	  419.61
     25.8700	  579.00	  540.46	-1736.46	  419.27
     25.9700	  556.00	  540.15	-1759.15	  418.94
     26.0700	  567.00	  539.92	-1747.92	  418.60
     26.1700	  530.00	  539.76	-1784.76	  418.27
     26.2700	  553.00	  539.67	-1761.67	  417.93
     26.3700	  563.00	  539.65	-1751.65	  417.60
     26.4700	  564.00	  539.72	-1750.72	  417.26
     26.5700	  558.00	  539.87	-1756.87	  416.93
     26.6700	  560.00	  540.14	-1755.14	  416.60
     26.7700	  524.00	  540.53	-1791.53	  416.27
     26.8700	  520.00	  541.10	-1796.10	  415.94
     26.9700	  549.00	  541.87	-1767.87	  415.61
     27.0700	  564.00	  542.94	-1753.94	  415.28
     27.1700	  560.00	  544.42	-1759.42	  414.95
     27.2700	  576.00	  546.55	-1745.55	  414.62
     27.3700	  549.00	  549.80	-1775.80	  414.30
     27.4700	  556.00	  555.05	-1774.05	  413.97
     27.5700	  557.00	  563.89	-1781.89	  413.65
     27.6700	  565.00	  578.81	-1788.81	  413.33
     27.7700	  522.00	  602.97	-1855.97	  413.00
     27.8700	  585.00	  639.07	-1829.07	  412.68
     27.9700	  656.00	  687.18	-1806.18	  412.36
     28.0700	  794.00	  741.92	-1722.92	  412.04
     28.1700	  873.00	  790.13	-1692.13	  411.73
     28.2700	  938.00	  812.07	-1649.07	  411.41
     28.3700	  889.00	  796.04	-1682.04	  411.09
     28.4700	  792.00	  760.97	-1743.97	  410.78
     28.5700	  703.00	  738.82	-1810.82	  410.46
     28.6700	  681.00	  744.51	-1838.51	  410.15
     28.7700	  754.00	  773.32	-1794.32	  409.84
     28.8700	  786.00	  805.48	-1794.48	  409.53
     28.9700	  810.00	  812.33	-1777.33	  409.22
     29.0700	  832.00	  775.03	-1718.03	  408.91
     29.1700	  724.00	  709.41	-1760.41	  408.60
     29.2700	  666.00	  646.03	-1755.03	  408.30
     29.3700	  571.00	  599.87	-1803.87	  407.99
     29.4700	  551.00	  571.75	-1795.75	  407.69
     29.5700	  601.00	  556.47	-1730.47	  407.39
     29.6700	  552.00	  548.41	-1771.41	  407.09
     29.7700	  542.00	  543.88	-1776.88	  406.79
     29.8700	  566.00	  541.09	-1750.09	  406.49
     29.9700	  567.00	  539.34	-1747.34	  406.19
     30.0700	  557.00	  538.45	-1756.45	  405.89
     30.1700	  574.00	  538.59	-1739.59	  405.60
     30.2700	  570.00	  540.32	-1745.32	  405.31
     30.3700	  553.00	  544.75	-1766.75	  405.01
     30.4700	  569.00	  553.60	-1759.60	  404.72
     30.5700	  543.00	  568.71	-1800.71	  404.43
     30.6700	  566.00	  590.65	-1799.65	  404.14
     30.7700	  592.00	  616.82	-1799.82	  403.86
     30.8700	  631.00	  639.90	-1783.90	  403.57
     30.9700	  617.00	  648.58	-1806.58	  403.29
     31.0700	  604.00	  634.78	-1805.78	  403.00
     31.1700	  605.00	  605.65	-1775.65	  402.72
     31.2700	  529.00	  576.04	-1822.04	  402.44
     31.3700	  530.00	  554.04	-1799.04	  402.16
     31.4700	  532.00	  540.63	-1783.63	  401.89
     31.5700	  554.00	  533.46	-1754.46	  401.61
     31.6700	  540.00	  529.79	-1764.79	  401.34
     31.7700	  552.00	  527.77	-1750.77	  401.06
     31.8700	  534.00	  526.50	-1767.50	  400.79
     31.9700	  553.00	  525.62	-1747.62	  400.52
     32.0700	  574.00	  524.99	-1725.99	  400.25
     32.1700	  537.00	  524.56	-1762.56	  399.98
     32.2700	  515.00	  524.29	-1784.29	  399.72
     32.3700	  585.00	  524.17	-1714.17	  399.45
     32.4700	  532.00	  524.22	-1767.22	  399.19
     32.5700	  552.00	  524.43	-1747.43	  398.93
     32.6700	  602.00	  524.84	-1697.84	  398.67
     32.7700	  549.00	  525.49	-1751.49	  398.41
     32.8700	  585.00	  526.44	-1716.44	  398.15
     32.9700	  540.00	  527.82	-1762.82	  397.90
     33.0700	  496.00	  529.81	-1808.81	  397.64
     33.1700	  516.00	  532.86	-1791.86	  397.39
     33.2700	  566.00	  538.00	-1747.00	  397.14
     33.3700	  558.00	  547.43	-1764.43	  396.89
     33.4700	  546.00	  565.51	-1794.51	  396.64
     33.5700	  575.00	  599.31	-1799.31	  396.40
     33.6700	  648.00	  657.14	-1784.14	  396.15
     33.7700	  732.00	  743.17	-1786.17	  395.91
     33.8700	  920.00	  848.70	-1703.70	  395.67
     33.9700	 1015.00	  945.94	-1705.94	  395.43
     34.0700	 1058.00	  991.24	-1708.24	  395.19
     34.1700	 1017.00	  950.97	-1708.97	  394.96
     34.2700	  909.00	  845.51	-1711.51	  394.72
     34.3700	  763.00	  730.33	-1742.33	  394.49
     34.4700	  598.00	  640.72	-1817.72	  394.26
     34.5700	  582.00	  584.40	-1777.40	  394.03
     34.6700	  568.00	  554.05	-1761.05	  393.80
     34.7700	  571.00	  538.93	-1742.93	  393.57
     34.8700	  543.00	  531.13	-1763.13	  393.35
     34.9700	  537.00	  526.51	-1764.51	  393.12
     35.0700	  486.00	  523.34	-1812.34	  392.90
     35.1700	  506.00	  520.95	-1789.95	  392.68
     35.2700	  535.00	  519.06	-1759.06	  392.46
     35.3700	  525.00	  517.55	-1767.55	  392.25
     35.4700	  528.00	  516.28	-1763.28	  392.03
     35.5700	  495.00	  515.21	-1795.21	  391.82
     35.6700	  495.00	  514.30	-1794.30	  391.61
     35.7700	  472.00	  513.50	-1816.50	  391.40
     35.8700	  509.00	  513.29	-1779.29	  391.19
     35.9700	  547.00	  512.68	-1740.68	  390.98
     36.0700	  553.00	  512.14	-1734.14	  390.78
     36.1700	  545.00	  511.64	-1741.64	  390.57
     36.2700	  524.00	  511.20	-1762.20	  390.37
     36.3700	  498.00	  510.80	-1787.80	  390.17
     36.4700	  521.00	  510.44	-1764.44	  389.98
     36.5700	  501.00	  510.11	-1784.11	  389.78
     36.6700	  496.00	  509.83	-1788.83	  389.58
     36.7700	  483.00	  509.58	-1801.58	  389.39
     36.8700	  518.00	  509.40	-1766.40	  389.20
     36.9700	  518.00	  509.31	-1766.31	  389.01
     37.0700	  534.00	  509.43	-1750.43	  388.82
     37.1700	  529.00	  509.95	-1755.95	  388.64
     37.2700	  520.00	  511.20	-1766.20	  388.45
     37.3700	  540.00	  513.54	-1748.54	  388.27
     37.4700	  547.00	  517.11	-1745.11	  388.09
     37.5700	  499.00	  521.47	-1797.47	  387.91
     37.6700	  526.00	  525.51	-1774.51	  387.74
     37.7700	  526.00	  527.79	-1776.79	  387.56
     37.8700	  492.00	  527.71	-1810.71	  387.39
     37.9700	  490.00	  525.96	-1810.96	  387.22
     38.0700	  528.00	  523.07	-1770.07	  387.05
     38.1700	  491.00	  519.20	-1803.20	  386.88
     38.2700	  523.00	  515.02	-1767.02	  386.71
     38.3700	  467.00	  511.41	-1819.41	  386.55
     38.4700	  517.00	  508.78	-1766.78	  386.39
     38.5700	  471.00	  507.09	-1811.09	  386.22
     38.6700	  492.00	  506.09	-1789.09	  386.07
     38.7700	  497.00	  505.41	-1783.41	  385.91
     38.8700	  485.00	  505.03	-1795.03	  385.75
     38.9700	  517.00	  504.74	-1762.74	  385.60
     39.0700	  497.00	  504.50	-1782.50	  385.45
     39.1700	  521.00	  504.28	-1758.28	  385.30
     39.2700	  505.00	  504.01	-1774.01	  385.15
     39.3700	  479.00	  503.84	-1799.84	  385.00
     39.4700	  535.00	  503.68	-1743.68	  384.86
     39.5700	  541.00	  503.53	-1737.53	  384.71
     39.6700	  502.00	  503.40	-1776.40	  384.57
     39.7700	  467.00	  503.39	-1811.39	  384.43
     39.8700	  474.00	  503.28	-1804.28	  384.29
     39.9700	  503.00	  503.17	-1775.17	  384.16
     40.0700	  528.00	  503.08	-1750.08	  384.02
     40.1700	  526.00	  503.00	-1752.00	  383.89
     40.2700	  492.00	  502.93	-1785.93	  383.76
     40.3700	  527.00	  502.87	-1750.87	  383.63
     40.4700	  480.00	  502.82	-1797.82	  383.51
     40.5700	  491.00	  502.79	-1786.79	  383.38
     40.6700	  539.00	  502.77	-1738.77	  383.26
     40.7700	  501.00	  502.77	-1776.77	  383.14
