MSG Master    CELL:    5.90690   5.90690  23.21180   90.0000   90.0000  120.0000   SPGR: P 63/m m c             TEMP:    869.85
  1   1280     2.52000     0.00000    -0.12287     0.00000     0.00000    0
    98     0     2
       0.00000      10.00000
     125.00000     130.00000
 2Theta	Yobs	Ycal	Yobs-Ycal	Backg	Posr	(hkl)	K
      0.7700	    0.00	  456.53	-1747.07	  346.26
      0.8700	    0.00	  458.27	-1747.07	  348.00
      0.9700	   42.00	  459.99	-1747.07	  349.73
      1.0700	   44.00	  461.70	-1747.07	  351.43
      1.1700	   45.00	  463.38	-1747.07	  353.12
      1.2700	   42.00	  465.05	-1747.07	  354.78
      1.3700	   33.00	  466.70	-1747.07	  356.43
      1.4700	   88.00	  468.33	-1747.07	  358.06
      1.5700	  277.00	  469.95	-1747.07	  359.68
      1.6700	  442.00	  471.54	-1747.07	  361.27
      1.7700	  586.00	  473.12	-1747.07	  362.85
      1.8700	  653.00	  474.68	-1747.07	  364.41
      1.9700	  674.00	  476.22	-1747.07	  365.95
      2.0700	  765.00	  477.75	-1747.07	  367.48
      2.1700	  779.00	  479.25	-1747.07	  368.98
      2.2700	  744.00	  480.74	-1747.07	  370.47
      2.3700	  718.00	  482.22	-1747.07	  371.95
      2.4700	  702.00	  483.67	-1747.07	  373.40
      2.5700	  692.00	  485.11	-1747.07	  374.84
      2.6700	  673.00	  486.53	-1747.07	  376.26
      2.7700	  641.00	  487.94	-1747.07	  377.67
      2.8700	  657.00	  489.33	-1747.07	  379.06
      2.9700	  683.00	  490.70	-1747.07	  380.43
      3.0700	  627.00	  492.05	-1747.07	  381.78
      3.1700	  574.00	  493.39	-1747.07	  383.12
      3.2700	  657.00	  494.71	-1747.07	  384.45
      3.3700	  753.00	  496.02	-1747.07	  385.75
      3.4700	  861.00	  497.31	-1747.07	  387.04
      3.5700	  975.00	  498.59	-1747.07	  388.32
      3.6700	 1086.00	  499.84	-1747.07	  389.58
      3.7700	 1114.00	  501.09	-1747.07	  390.82
      3.8700	 1182.00	  502.32	-1747.07	  392.05
      3.9700	 1178.00	  503.53	-1747.07	  393.26
      4.0700	 1278.00	  504.72	-1747.07	  394.45
      4.1700	 1240.00	  505.90	-1747.07	  395.64
      4.2700	 1240.00	  507.07	-1747.07	  396.80
      4.3700	 1228.00	  508.22	-1747.07	  397.95
      4.4700	 1243.00	  509.36	-1747.07	  399.09
      4.5700	 1270.00	  510.48	-1747.07	  400.21
      4.6700	 1149.00	  511.58	-1747.07	  401.31
      4.7700	 1109.00	  512.67	-1747.07	  402.41
      4.8700	 1096.00	  513.75	-1747.07	  403.48
      4.9700	 1069.00	  514.81	-1747.07	  404.54
      5.0700	 1022.00	  515.86	-1747.07	  405.59
      5.1700	 1034.00	  516.89	-1747.07	  406.63
      5.2700	 1055.00	  517.91	-1747.07	  407.64
      5.3700	  927.00	  518.92	-1747.07	  408.65
      5.4700	  950.00	  519.91	-1747.07	  409.64
      5.5700	  957.00	  520.88	-1747.07	  410.62
      5.6700	  937.00	  521.85	-1747.07	  411.58
      5.7700	  909.00	  522.80	-1747.07	  412.53
      5.8700	  861.00	  523.73	-1747.07	  413.46
      5.9700	  846.00	  524.65	-1747.07	  414.39
      6.0700	  851.00	  525.56	-1747.07	  415.29
      6.1700	  843.00	  526.46	-1747.07	  416.19
      6.2700	  847.00	  527.34	-1747.07	  417.07
      6.3700	  852.00	  528.21	-1747.07	  417.94
      6.4700	  697.00	  529.06	-1747.07	  418.79
      6.5700	  763.00	  529.91	-1747.07	  419.64
      6.6700	  768.00	  530.73	-1747.07	  420.47
      6.7700	  723.00	  531.55	-1747.07	  421.28
      6.8700	  768.00	  532.35	-1747.07	  422.09
      6.9700	  704.00	  533.15	-1747.07	  422.88
      7.0700	  731.00	  533.92	-1747.07	  423.66
      7.1700	  692.00	  534.69	-1747.07	  424.42
      7.2700	  763.00	  535.44	-1747.07	  425.18
      7.3700	  684.00	  536.18	-1747.07	  425.92
      7.4700	  696.00	  536.91	-1747.07	  426.65
      7.5700	  665.00	  537.63	-1747.07	  427.36
      7.6700	  624.00	  538.34	-1747.07	  428.07
      7.7700	  639.00	  539.03	-1747.07	  428.76
      7.8700	  662.00	  539.71	-1747.07	  429.44
      7.9700	  632.00	  540.38	-1747.07	  430.11
      8.0700	  611.00	  541.04	-1747.07	  430.77
      8.1700	  633.00	  541.68	-1747.07	  431.41
      8.2700	  608.00	  542.32	-1747.07	  432.05
      8.3700	  631.00	  542.94	-1747.07	  432.67
      8.4700	  625.00	  543.55	-1747.07	  433.28
      8.5700	  653.00	  544.15	-1747.07	  433.88
      8.6700	  636.00	  544.74	-1747.07	  434.47
      8.7700	  593.00	  545.32	-1747.07	  435.05
      8.8700	  629.00	  545.89	-1747.07	  435.62
      8.9700	  582.00	  546.44	-1747.07	  436.17
      9.0700	  635.00	  546.99	-1747.07	  436.72
      9.1700	  552.00	  547.52	-1747.07	  437.25
      9.2700	  596.00	  548.05	-1747.07	  437.78
      9.3700	  625.00	  548.56	-1747.07	  438.29
      9.4700	  615.00	  549.06	-1747.07	  438.79
      9.5700	  577.00	  549.56	-1747.07	  439.29
      9.6700	  615.00	  550.04	-1747.07	  439.77
      9.7700	  614.00	  550.51	-1747.07	  440.24
      9.8700	  595.00	  550.97	-1747.07	  440.70
      9.9700	  627.00	  551.42	-1747.07	  441.15
     10.0700	  621.00	  553.48	-1679.55	  441.60
     10.1700	  572.00	  554.07	-1729.14	  442.03
     10.2700	  547.00	  554.69	-1754.76	  442.45
     10.3700	  523.00	  555.35	-1779.42	  442.86
     10.4700	  582.00	  556.08	-1721.15	  443.26
     10.5700	  573.00	  556.94	-1731.00	  443.65
     10.6700	  622.00	  557.99	-1683.05	  444.04
     10.7700	  594.00	  559.32	-1712.39	  444.41
     10.8700	  541.00	  561.02	-1767.09	  444.77
     10.9700	  556.00	  563.12	-1754.19	  445.13
     11.0700	  607.00	  565.62	-1705.68	  445.47
     11.1700	  596.00	  568.51	-1719.58	  445.81
     11.2700	  586.00	  571.83	-1732.90	  446.14
     11.3700	  639.00	  575.65	-1683.72	  446.46
     11.4700	  606.00	  580.09	-1721.16	  446.77
     11.5700	  573.00	  585.34	-1759.41	  447.07
     11.6700	  556.00	  591.70	-1782.76	  447.36
     11.7700	  628.00	  599.57	-1718.64	  447.64
     11.8700	  593.00	  609.36	-1763.43	  447.91
     11.9700	  627.00	  621.01	-1741.07	  448.18
     12.0700	  680.00	  633.17	-1700.23	  448.44
     12.1700	  661.00	  642.41	-1728.47	  448.69
     12.2700	  718.00	  643.16	-1672.22	  448.93
     12.3700	  625.00	  631.57	-1753.63	  449.16
     12.4700	  588.00	  612.55	-1771.61	  449.38
     12.5700	  593.00	  594.80	-1748.86	  449.60
     12.6700	  604.00	  582.14	-1725.21	  449.80
     12.7700	  614.00	  574.42	-1707.49	  450.00
     12.8700	  565.00	  570.14	-1752.21	  450.20
     12.9700	  528.00	  567.82	-1786.88	  450.38
     13.0700	  568.00	  566.48	-1745.54	  450.56
     13.1700	  574.00	  565.64	-1738.70	  450.72
     13.2700	  573.00	  565.06	-1739.13	  450.89
     13.3700	  578.00	  564.66	-1733.73	  451.04
     13.4700	  524.00	  564.37	-1787.44	  451.18
     13.5700	  528.00	  564.16	-1783.23	  451.32
     13.6700	  541.00	  564.01	-1770.08	  451.45
     13.7700	  524.00	  563.91	-1786.97	  451.58
     13.8700	  568.00	  563.83	-1742.90	  451.69
     13.9700	  582.00	  563.78	-1728.84	  451.80
     14.0700	  547.00	  563.74	-1763.81	  451.90
     14.1700	  555.00	  563.72	-1755.79	  452.00
     14.2700	  580.00	  563.74	-1730.80	  452.09
     14.3700	  584.00	  563.73	-1726.80	  452.17
     14.4700	  557.00	  563.73	-1753.80	  452.24
     14.5700	  514.00	  563.73	-1796.80	  452.31
     14.6700	  534.00	  563.74	-1776.80	  452.37
     14.7700	  540.00	  563.74	-1770.80	  452.42
     14.8700	  568.00	  563.74	-1742.80	  452.47
     14.9700	  531.00	  563.74	-1779.80	  452.51
     15.0700	  507.00	  563.74	-1803.80	  452.55
     15.1700	  624.00	  563.73	-1686.80	  452.58
     15.2700	  551.00	  563.72	-1759.79	  452.60
     15.3700	  557.00	  563.71	-1753.78	  452.61
     15.4700	  562.00	  563.70	-1748.76	  452.62
     15.5700	  575.00	  563.68	-1735.74	  452.63
     15.6700	  529.00	  563.66	-1781.72	  452.62
     15.7700	  537.00	  563.63	-1773.69	  452.62
     15.8700	  547.00	  563.60	-1763.66	  452.60
     15.9700	  565.00	  563.56	-1745.63	  452.58
     16.0700	  558.00	  563.52	-1752.59	  452.56
     16.1700	  564.00	  563.48	-1746.54	  452.52
     16.2700	  554.00	  563.43	-1756.49	  452.49
     16.3700	  570.00	  563.37	-1740.44	  452.44
     16.4700	  509.00	  563.31	-1801.38	  452.39
     16.5700	  583.00	  563.25	-1727.31	  452.34
     16.6700	  549.00	  563.18	-1761.25	  452.28
     16.7700	  580.00	  563.11	-1730.17	  452.21
     16.8700	  552.00	  563.03	-1758.09	  452.14
     16.9700	  567.00	  562.95	-1743.01	  452.07
     17.0700	  556.00	  562.86	-1753.92	  451.99
     17.1700	  562.00	  562.77	-1747.83	  451.90
     17.2700	  576.00	  562.67	-1733.74	  451.81
     17.3700	  519.00	  562.57	-1790.64	  451.71
     17.4700	  507.00	  562.46	-1802.53	  451.61
     17.5700	  529.00	  562.47	-1780.53	  451.50
     17.6700	  547.00	  562.35	-1762.42	  451.39
     17.7700	  520.00	  562.24	-1789.30	  451.28
     17.8700	  550.00	  562.12	-1759.18	  451.16
     17.9700	  528.00	  561.99	-1781.06	  451.03
     18.0700	  516.00	  561.86	-1792.93	  450.90
     18.1700	  543.00	  561.82	-1765.89	  450.77
     18.2700	  595.00	  561.69	-1713.75	  450.63
     18.3700	  544.00	  561.55	-1764.61	  450.48
     18.4700	  571.00	  561.40	-1737.47	  450.34
     18.5700	  569.00	  561.25	-1739.32	  450.18
     18.6700	  586.00	  561.10	-1722.17	  450.03
     18.7700	  539.00	  560.94	-1769.01	  449.87
     18.8700	  539.00	  560.78	-1768.85	  449.70
     18.9700	  509.00	  560.62	-1798.69	  449.53
     19.0700	  545.00	  560.45	-1762.52	  449.36
     19.1700	  543.00	  560.28	-1764.35	  449.18
     19.2700	  575.00	  560.11	-1732.17	  449.00
     19.3700	  528.00	  559.93	-1779.00	  448.81
     19.4700	  564.00	  559.75	-1742.81	  448.62
     19.5700	  551.00	  559.57	-1755.63	  448.43
     19.6700	  558.00	  559.38	-1748.44	  448.23
     19.7700	  535.00	  559.19	-1771.25	  448.03
     19.8700	  551.00	  559.03	-1755.09	  447.83
     19.9700	  545.00	  558.83	-1760.90	  447.62
     20.0700	  547.00	  558.63	-1758.70	  447.41
     20.1700	  546.00	  558.43	-1759.49	  447.19
     20.2700	  568.00	  558.22	-1737.29	  446.97
     20.3700	  523.00	  558.02	-1782.08	  446.75
     20.4700	  520.00	  557.81	-1784.87	  446.52
     20.5700	  532.00	  557.60	-1772.66	  446.29
     20.6700	  537.00	  557.38	-1767.45	  446.06
     20.7700	  543.00	  557.16	-1761.23	  445.83
     20.8700	  537.00	  556.95	-1767.01	  445.59
     20.9700	  573.00	  556.72	-1730.79	  445.35
     21.0700	  572.00	  556.50	-1731.57	  445.10
     21.1700	  547.00	  556.28	-1756.34	  444.85
     21.2700	  523.00	  556.05	-1780.12	  444.60
     21.3700	  522.00	  555.83	-1780.89	  444.35
     21.4700	  541.00	  555.60	-1761.66	  444.09
     21.5700	  562.00	  555.37	-1740.44	  443.83
     21.6700	  510.00	  555.14	-1792.21	  443.57
     21.7700	  577.00	  554.91	-1724.98	  443.30
     21.8700	  579.00	  554.68	-1722.75	  443.03
     21.9700	  572.00	  554.46	-1729.52	  442.76
     22.0700	  533.00	  554.23	-1768.29	  442.49
     22.1700	  530.00	  554.00	-1771.07	  442.21
     22.2700	  545.00	  553.78	-1755.84	  441.93
     22.3700	  539.00	  553.56	-1761.62	  441.65
     22.4700	  560.00	  553.50	-1740.56	  441.37
     22.5700	  533.00	  553.29	-1767.36	  441.08
     22.6700	  572.00	  553.04	-1728.11	  440.79
     22.7700	  567.00	  552.85	-1732.92	  440.50
     22.8700	  566.00	  552.67	-1733.73	  440.21
     22.9700	  568.00	  552.49	-1731.56	  439.91
     23.0700	  574.00	  552.34	-1725.40	  439.61
     23.1700	  547.00	  552.20	-1752.26	  439.31
     23.2700	  579.00	  552.08	-1720.15	  439.01
     23.3700	  611.00	  552.00	-1688.07	  438.71
     23.4700	  522.00	  551.97	-1777.03	  438.40
     23.5700	  553.00	  551.98	-1746.05	  438.09
     23.6700	  532.00	  552.08	-1767.15	  437.78
     23.7700	  553.00	  552.31	-1746.37	  437.47
     23.8700	  565.00	  552.73	-1734.80	  437.16
     23.9700	  595.00	  553.50	-1705.56	  436.84
     24.0700	  544.00	  554.86	-1757.92	  436.52
     24.1700	  573.00	  557.19	-1731.25	  436.20
     24.2700	  598.00	  561.02	-1710.09	  435.88
     24.3700	  558.00	  566.94	-1756.00	  435.56
     24.4700	  602.00	  575.37	-1720.44	  435.23
     24.5700	  601.00	  586.29	-1732.35	  434.91
     24.6700	  642.00	  598.61	-1703.68	  434.58
     24.7700	  657.00	  609.53	-1699.60	  434.25
     24.8700	  628.00	  614.30	-1733.36	  433.92
     24.9700	  649.00	  608.57	-1706.63	  433.59
     25.0700	  592.00	  594.44	-1749.51	  433.25
     25.1700	  583.00	  579.08	-1743.15	  432.92
     25.2700	  501.00	  566.96	-1813.02	  432.58
     25.3700	  601.00	  558.90	-1704.97	  432.24
     25.4700	  595.00	  554.11	-1706.17	  431.90
     25.5700	  566.00	  551.36	-1732.42	  431.56
     25.6700	  556.00	  549.73	-1740.80	  431.22
     25.7700	  566.00	  548.68	-1729.74	  430.88
     25.8700	  553.00	  547.94	-1742.00	  430.53
     25.9700	  616.00	  547.39	-1678.46	  430.19
     26.0700	  571.00	  546.99	-1723.06	  429.84
     26.1700	  530.00	  546.71	-1763.78	  429.50
     26.2700	  586.00	  546.53	-1707.60	  429.15
     26.3700	  620.00	  546.46	-1673.52	  428.80
     26.4700	  545.00	  546.49	-1748.55	  428.45
     26.5700	  637.00	  546.63	-1656.69	  428.10
     26.6700	  584.00	  546.89	-1709.96	  427.75
     26.7700	  520.00	  547.31	-1774.37	  427.39
     26.8700	  561.00	  547.90	-1733.97	  427.04
     26.9700	  563.00	  548.72	-1732.79	  426.68
     27.0700	  561.00	  549.84	-1735.91	  426.33
     27.1700	  603.00	  551.38	-1695.44	  425.97
     27.2700	  583.00	  553.51	-1717.58	  425.62
     27.3700	  572.00	  556.63	-1731.70	  425.26
     27.4700	  549.00	  561.45	-1759.51	  424.90
     27.5700	  590.00	  569.25	-1726.32	  424.54
     27.6700	  600.00	  582.19	-1729.26	  424.19
     27.7700	  610.00	  603.29	-1740.36	  423.83
     27.8700	  614.00	  635.84	-1768.90	  423.47
     27.9700	  656.00	  681.55	-1772.62	  423.11
     28.0700	  680.00	  738.11	-1805.18	  422.74
     28.1700	  762.00	  796.53	-1781.59	  422.38
     28.2700	  931.00	  839.62	-1655.69	  422.02
     28.3700	  973.00	  847.08	-1621.15	  421.66
     28.4700	  896.00	  817.31	-1668.37	  421.30
     28.5700	  777.00	  778.76	-1748.82	  420.94
     28.6700	  750.00	  758.68	-1755.74	  420.57
     28.7700	  779.00	  764.12	-1732.19	  420.21
     28.8700	  801.00	  785.73	-1731.80	  419.85
     28.9700	  778.00	  803.08	-1772.14	  419.48
     29.0700	  765.00	  792.75	-1774.82	  419.12
     29.1700	  742.00	  748.22	-1753.28	  418.76
     29.2700	  702.00	  689.39	-1734.45	  418.39
     29.3700	  680.00	  637.37	-1704.43	  418.03
     29.4700	  665.00	  600.01	-1682.07	  417.67
     29.5700	  602.00	  576.54	-1721.60	  417.30
     29.6700	  585.00	  562.90	-1724.96	  416.94
     29.7700	  575.00	  555.10	-1727.17	  416.57
     29.8700	  584.00	  550.44	-1713.51	  416.21
     29.9700	  568.00	  547.50	-1726.56	  415.85
     30.0700	  614.00	  545.67	-1678.74	  415.48
     30.1700	  576.00	  544.84	-1715.90	  415.12
     30.2700	  588.00	  545.20	-1704.26	  414.76
     30.3700	  548.00	  547.29	-1746.35	  414.39
     30.4700	  609.00	  552.00	-1690.07	  414.03
     30.5700	  593.00	  560.42	-1714.48	  413.67
     30.6700	  511.00	  573.22	-1809.28	  413.31
     30.7700	  571.00	  589.75	-1765.81	  412.95
     30.8700	  640.00	  607.12	-1714.18	  412.58
     30.9700	  601.00	  619.77	-1765.83	  412.22
     31.0700	  653.00	  620.71	-1714.77	  411.86
     31.1700	  627.00	  607.49	-1727.55	  411.50
     31.2700	  612.00	  586.87	-1721.94	  411.14
     31.3700	  572.00	  567.28	-1742.35	  410.78
     31.4700	  534.00	  552.52	-1765.58	  410.42
     31.5700	  610.00	  542.88	-1679.94	  410.07
     31.6700	  566.00	  537.15	-1718.21	  409.71
     31.7700	  594.00	  533.86	-1686.92	  409.35
     31.8700	  574.00	  531.91	-1704.97	  408.99
     31.9700	  525.00	  530.67	-1752.73	  408.64
     32.0700	  545.00	  529.83	-1731.90	  408.28
     32.1700	  547.00	  529.28	-1729.34	  407.93
     32.2700	  550.00	  528.95	-1726.01	  407.57
     32.3700	  553.00	  528.82	-1722.88	  407.22
     32.4700	  605.00	  528.89	-1670.96	  406.87
     32.5700	  513.00	  529.18	-1763.25	  406.51
     32.6700	  535.00	  529.72	-1741.78	  406.16
     32.7700	  577.00	  530.55	-1700.61	  405.81
     32.8700	  545.00	  531.74	-1733.81	  405.46
     32.9700	  510.00	  533.42	-1770.49	  405.11
     33.0700	  533.00	  535.79	-1749.86	  404.76
     33.1700	  589.00	  539.24	-1697.30	  404.42
     33.2700	  563.00	  544.54	-1728.60	  404.07
     33.3700	  572.00	  553.22	-1728.28	  403.72
     33.4700	  568.00	  568.04	-1747.10	  403.38
     33.5700	  612.00	  593.36	-1728.42	  403.03
     33.6700	  574.00	  634.65	-1807.71	  402.69
     33.7700	  728.00	  696.17	-1715.24	  402.35
     33.8700	  788.00	  776.66	-1735.72	  402.01
     33.9700	  893.00	  864.49	-1718.55	  401.67
     34.0700	 1010.00	  935.45	-1672.51	  401.33
     34.1700	 1045.00	  957.21	-1659.27	  400.99
     34.2700	  995.00	  912.19	-1664.26	  400.65
     34.3700	  866.00	  823.13	-1704.20	  400.31
     34.4700	  691.00	  729.41	-1785.48	  399.98
     34.5700	  589.00	  653.79	-1811.86	  399.64
     34.6700	  585.00	  601.69	-1763.75	  399.31
     34.7700	  562.00	  569.52	-1754.59	  398.98
     34.8700	  584.00	  550.88	-1713.94	  398.65
     34.9700	  533.00	  540.04	-1754.10	  398.32
     35.0700	  541.00	  533.29	-1739.36	  397.99
     35.1700	  509.00	  528.65	-1766.72	  397.66
     35.2700	  515.00	  525.18	-1757.25	  397.34
     35.3700	  510.00	  522.45	-1759.51	  397.01
     35.4700	  530.00	  520.21	-1737.28	  396.69
     35.5700	  515.00	  518.83	-1750.89	  396.37
     35.6700	  573.00	  517.26	-1691.32	  396.04
     35.7700	  509.00	  515.88	-1753.95	  395.72
     35.8700	  468.00	  514.71	-1793.78	  395.41
     35.9700	  522.00	  513.68	-1738.75	  395.09
     36.0700	  531.00	  512.78	-1728.84	  394.77
     36.1700	  534.00	  511.96	-1725.02	  394.46
     36.2700	  477.00	  511.22	-1781.28	  394.14
     36.3700	  515.00	  510.55	-1742.62	  393.83
     36.4700	  450.00	  509.95	-1807.01	  393.52
     36.5700	  460.00	  509.40	-1796.47	  393.21
     36.6700	  505.00	  508.92	-1750.99	  392.90
     36.7700	  525.00	  508.50	-1730.57	  392.60
     36.8700	  454.00	  508.16	-1801.22	  392.29
     36.9700	  492.00	  507.94	-1763.00	  391.99
     37.0700	  518.00	  507.90	-1736.97	  391.69
     37.1700	  475.00	  508.18	-1780.25	  391.39
     37.2700	  476.00	  508.97	-1780.03	  391.09
     37.3700	  483.00	  510.45	-1774.51	  390.79
     37.4700	  507.00	  512.73	-1752.80	  390.49
     37.5700	  490.00	  515.67	-1772.73	  390.20
     37.6700	  533.00	  518.68	-1732.74	  389.90
     37.7700	  509.00	  520.72	-1758.79	  389.61
     37.8700	  487.00	  520.67	-1780.74	  389.32
     37.9700	  516.00	  518.45	-1749.52	  389.03
     38.0700	  537.00	  514.76	-1724.83	  388.75
     38.1700	  509.00	  511.02	-1749.09	  388.46
     38.2700	  516.00	  507.88	-1738.94	  388.18
     38.3700	  451.00	  505.51	-1801.58	  387.89
     38.4700	  499.00	  503.86	-1751.92	  387.61
     38.5700	  457.00	  502.73	-1792.79	  387.33
     38.6700	  527.00	  501.93	-1722.00	  387.06
     38.7700	  473.00	  501.33	-1775.40	  386.78
     38.8700	  529.00	  500.85	-1718.91	  386.50
     38.9700	  505.00	  500.43	-1742.50	  386.23
     39.0700	  468.00	  500.05	-1779.12	  385.96
     39.1700	  511.00	  499.71	-1735.77	  385.69
     39.2700	  486.00	  499.39	-1760.45	  385.42
     39.3700	  492.00	  498.98	-1754.04	  385.16
     39.4700	  533.00	  498.69	-1712.76	  384.89
     39.5700	  519.00	  498.42	-1726.49	  384.63
     39.6700	  532.00	  498.16	-1713.23	  384.37
     39.7700	  482.00	  497.92	-1762.98	  384.11
     39.8700	  543.00	  497.68	-1701.75	  383.85
     39.9700	  502.00	  497.46	-1742.53	  383.60
     40.0700	  499.00	  497.25	-1745.32	  383.34
     40.1700	  486.00	  496.96	-1758.03	  383.09
     40.2700	  524.00	  496.78	-1719.85	  382.84
     40.3700	  476.00	  496.61	-1767.68	  382.59
     40.4700	  480.00	  496.97	-1764.04	  382.34
     40.5700	  441.00	  496.84	-1802.91	  382.10
     40.6700	  509.00	  496.73	-1734.80	  381.85
     40.7700	  479.00	  496.65	-1764.71	  381.61
