MSG Master    CELL:    5.91800   5.91800  23.27460   90.0000   90.0000  120.0000   SPGR: P 63/m m c             TEMP:   1046.85
  1   1280     2.52000     0.00000    -0.13126     0.00000     0.00000    0
    99     0     2
       0.00000      10.00000
     125.00000     130.00000
 2Theta	Yobs	Ycal	Yobs-Ycal	Backg	Posr	(hkl)	K
      0.7700	    0.00	  480.74	-1716.00	  365.69
      0.8700	    0.00	  482.26	-1716.00	  367.21
      0.9700	   47.00	  483.76	-1716.00	  368.71
      1.0700	   37.00	  485.24	-1716.00	  370.20
      1.1700	   50.00	  486.71	-1716.00	  371.66
      1.2700	   33.00	  488.16	-1716.00	  373.11
      1.3700	   53.00	  489.59	-1716.00	  374.55
      1.4700	   98.00	  491.01	-1716.00	  375.96
      1.5700	  268.00	  492.40	-1716.00	  377.36
      1.6700	  483.00	  493.79	-1716.00	  378.74
      1.7700	  548.00	  495.15	-1716.00	  380.10
      1.8700	  668.00	  496.50	-1716.00	  381.45
      1.9700	  689.00	  497.83	-1716.00	  382.78
      2.0700	  745.00	  499.14	-1716.00	  384.10
      2.1700	  780.00	  500.44	-1716.00	  385.40
      2.2700	  713.00	  501.72	-1716.00	  386.68
      2.3700	  749.00	  502.99	-1716.00	  387.95
      2.4700	  722.00	  504.24	-1716.00	  389.20
      2.5700	  687.00	  505.47	-1716.00	  390.43
      2.6700	  662.00	  506.69	-1716.00	  391.65
      2.7700	  677.00	  507.90	-1716.00	  392.85
      2.8700	  628.00	  509.08	-1716.00	  394.04
      2.9700	  642.00	  510.25	-1716.00	  395.21
      3.0700	  622.00	  511.41	-1716.00	  396.36
      3.1700	  602.00	  512.55	-1716.00	  397.50
      3.2700	  640.00	  513.68	-1716.00	  398.63
      3.3700	  656.00	  514.79	-1716.00	  399.74
      3.4700	  804.00	  515.88	-1716.00	  400.83
      3.5700	  783.00	  516.96	-1716.00	  401.92
      3.6700	  919.00	  518.03	-1716.00	  402.98
      3.7700	  965.00	  519.08	-1716.00	  404.03
      3.8700	 1047.00	  520.11	-1716.00	  405.07
      3.9700	 1061.00	  521.13	-1716.00	  406.09
      4.0700	 1079.00	  522.14	-1716.00	  407.10
      4.1700	 1060.00	  523.13	-1716.00	  408.09
      4.2700	 1166.00	  524.11	-1716.00	  409.07
      4.3700	 1117.00	  525.08	-1716.00	  410.03
      4.4700	 1085.00	  526.03	-1716.00	  410.98
      4.5700	 1036.00	  526.97	-1716.00	  411.92
      4.6700	 1050.00	  527.89	-1716.00	  412.84
      4.7700	 1022.00	  528.80	-1716.00	  413.75
      4.8700	  983.00	  529.69	-1716.00	  414.65
      4.9700	  965.00	  530.57	-1716.00	  415.53
      5.0700	  916.00	  531.44	-1716.00	  416.40
      5.1700	  934.00	  532.30	-1716.00	  417.25
      5.2700	  922.00	  533.14	-1716.00	  418.09
      5.3700	  930.00	  533.97	-1716.00	  418.92
      5.4700	  918.00	  534.78	-1716.00	  419.74
      5.5700	  855.00	  535.59	-1716.00	  420.54
      5.6700	  918.00	  536.38	-1716.00	  421.33
      5.7700	  789.00	  537.15	-1716.00	  422.11
      5.8700	  856.00	  537.92	-1716.00	  422.87
      5.9700	  816.00	  538.67	-1716.00	  423.62
      6.0700	  791.00	  539.41	-1716.00	  424.36
      6.1700	  807.00	  540.14	-1716.00	  425.09
      6.2700	  772.00	  540.85	-1716.00	  425.81
      6.3700	  771.00	  541.55	-1716.00	  426.51
      6.4700	  763.00	  542.24	-1716.00	  427.20
      6.5700	  744.00	  542.92	-1716.00	  427.88
      6.6700	  782.00	  543.59	-1716.00	  428.54
      6.7700	  773.00	  544.24	-1716.00	  429.20
      6.8700	  692.00	  544.89	-1716.00	  429.84
      6.9700	  661.00	  545.52	-1716.00	  430.47
      7.0700	  703.00	  546.14	-1716.00	  431.09
      7.1700	  692.00	  546.74	-1716.00	  431.70
      7.2700	  714.00	  547.34	-1716.00	  432.29
      7.3700	  701.00	  547.92	-1716.00	  432.88
      7.4700	  684.00	  548.50	-1716.00	  433.45
      7.5700	  685.00	  549.06	-1716.00	  434.02
      7.6700	  706.00	  549.61	-1716.00	  434.57
      7.7700	  638.00	  550.15	-1716.00	  435.11
      7.8700	  694.00	  550.68	-1716.00	  435.64
      7.9700	  651.00	  551.20	-1716.00	  436.16
      8.0700	  641.00	  551.71	-1716.00	  436.66
      8.1700	  631.00	  552.21	-1716.00	  437.16
      8.2700	  580.00	  552.69	-1716.00	  437.65
      8.3700	  640.00	  553.17	-1716.00	  438.12
      8.4700	  649.00	  553.64	-1716.00	  438.59
      8.5700	  648.00	  554.09	-1716.00	  439.05
      8.6700	  653.00	  554.54	-1716.00	  439.49
      8.7700	  620.00	  554.97	-1716.00	  439.93
      8.8700	  653.00	  555.40	-1716.00	  440.35
      8.9700	  611.00	  555.81	-1716.00	  440.77
      9.0700	  610.00	  556.22	-1716.00	  441.17
      9.1700	  650.00	  556.61	-1716.00	  441.57
      9.2700	  621.00	  557.00	-1716.00	  441.95
      9.3700	  593.00	  557.38	-1716.00	  442.33
      9.4700	  611.00	  557.74	-1716.00	  442.70
      9.5700	  605.00	  558.10	-1716.00	  443.05
      9.6700	  581.00	  558.45	-1716.00	  443.40
      9.7700	  583.00	  558.79	-1716.00	  443.74
      9.8700	  545.00	  559.12	-1716.00	  444.07
      9.9700	  556.00	  559.44	-1716.00	  444.39
     10.0700	  592.00	  560.93	-1684.94	  444.70
     10.1700	  608.00	  561.37	-1669.37	  445.00
     10.2700	  583.00	  561.83	-1694.83	  445.30
     10.3700	  595.00	  562.33	-1683.33	  445.58
     10.4700	  594.00	  562.90	-1684.90	  445.85
     10.5700	  598.00	  563.62	-1681.62	  446.12
     10.6700	  552.00	  564.57	-1728.57	  446.38
     10.7700	  560.00	  565.85	-1721.85	  446.63
     10.8700	  573.00	  567.54	-1710.54	  446.87
     10.9700	  605.00	  569.62	-1680.62	  447.10
     11.0700	  565.00	  572.08	-1723.08	  447.33
     11.1700	  590.00	  574.93	-1700.93	  447.54
     11.2700	  527.00	  578.21	-1767.21	  447.75
     11.3700	  559.00	  582.01	-1739.01	  447.95
     11.4700	  600.00	  586.48	-1702.48	  448.14
     11.5700	  606.00	  591.84	-1701.84	  448.32
     11.6700	  568.00	  598.48	-1746.48	  448.50
     11.7700	  606.00	  606.99	-1716.99	  448.67
     11.8700	  663.00	  617.99	-1670.99	  448.83
     11.9700	  642.00	  631.42	-1705.42	  448.98
     12.0700	  715.00	  645.06	-1646.06	  449.12
     12.1700	  682.00	  653.38	-1687.38	  449.26
     12.2700	  678.00	  648.73	-1686.73	  449.39
     12.3700	  655.00	  629.86	-1690.86	  449.51
     12.4700	  616.00	  607.30	-1707.30	  449.63
     12.5700	  600.00	  589.96	-1705.96	  449.74
     12.6700	  579.00	  579.49	-1716.49	  449.84
     12.7700	  555.00	  574.06	-1735.06	  449.93
     12.8700	  560.00	  571.38	-1727.38	  450.02
     12.9700	  589.00	  569.95	-1696.95	  450.10
     13.0700	  588.00	  569.07	-1697.07	  450.17
     13.1700	  589.00	  568.47	-1695.47	  450.23
     13.2700	  546.00	  568.03	-1738.03	  450.29
     13.3700	  562.00	  567.70	-1721.70	  450.34
     13.4700	  518.00	  567.44	-1765.44	  450.39
     13.5700	  569.00	  567.24	-1714.24	  450.43
     13.6700	  566.00	  567.07	-1717.07	  450.46
     13.7700	  577.00	  566.94	-1705.94	  450.49
     13.8700	  553.00	  566.82	-1729.82	  450.51
     13.9700	  525.00	  566.72	-1757.72	  450.52
     14.0700	  547.00	  566.63	-1735.63	  450.53
     14.1700	  538.00	  566.55	-1744.55	  450.53
     14.2700	  549.00	  566.47	-1733.47	  450.52
     14.3700	  552.00	  566.40	-1730.40	  450.51
     14.4700	  551.00	  566.33	-1731.33	  450.50
     14.5700	  581.00	  566.25	-1701.25	  450.47
     14.6700	  531.00	  566.18	-1751.18	  450.44
     14.7700	  528.00	  566.11	-1754.11	  450.41
     14.8700	  494.00	  566.03	-1788.03	  450.37
     14.9700	  537.00	  565.96	-1744.96	  450.32
     15.0700	  551.00	  565.88	-1730.88	  450.27
     15.1700	  558.00	  565.83	-1723.83	  450.21
     15.2700	  586.00	  565.74	-1695.74	  450.15
     15.3700	  524.00	  565.65	-1757.65	  450.08
     15.4700	  548.00	  565.56	-1733.56	  450.01
     15.5700	  557.00	  565.47	-1724.47	  449.93
     15.6700	  551.00	  565.37	-1730.37	  449.85
     15.7700	  584.00	  565.26	-1697.26	  449.76
     15.8700	  541.00	  565.16	-1740.16	  449.66
     15.9700	  554.00	  565.05	-1727.05	  449.56
     16.0700	  594.00	  564.93	-1686.93	  449.46
     16.1700	  582.00	  564.81	-1698.81	  449.35
     16.2700	  552.00	  564.69	-1728.69	  449.24
     16.3700	  536.00	  564.56	-1744.56	  449.12
     16.4700	  558.00	  564.43	-1722.43	  448.99
     16.5700	  566.00	  564.30	-1714.30	  448.86
     16.6700	  560.00	  564.16	-1720.16	  448.73
     16.7700	  576.00	  564.01	-1704.01	  448.59
     16.8700	  546.00	  563.87	-1733.87	  448.45
     16.9700	  562.00	  563.72	-1717.72	  448.30
     17.0700	  599.00	  563.56	-1680.56	  448.15
     17.1700	  558.00	  563.40	-1721.40	  448.00
     17.2700	  593.00	  563.24	-1686.24	  447.84
     17.3700	  571.00	  563.07	-1708.07	  447.67
     17.4700	  592.00	  562.90	-1686.90	  447.51
     17.5700	  543.00	  562.72	-1735.72	  447.33
     17.6700	  529.00	  562.54	-1749.54	  447.16
     17.7700	  605.00	  562.36	-1673.36	  446.98
     17.8700	  570.00	  562.17	-1708.17	  446.79
     17.9700	  582.00	  562.10	-1696.10	  446.60
     18.0700	  570.00	  561.91	-1707.91	  446.41
     18.1700	  553.00	  561.71	-1724.71	  446.22
     18.2700	  513.00	  561.51	-1764.51	  446.02
     18.3700	  555.00	  561.31	-1722.31	  445.81
     18.4700	  540.00	  561.11	-1737.11	  445.60
     18.5700	  598.00	  560.90	-1678.90	  445.39
     18.6700	  549.00	  560.77	-1727.77	  445.18
     18.7700	  540.00	  560.55	-1736.55	  444.96
     18.8700	  553.00	  560.34	-1723.34	  444.74
     18.9700	  584.00	  560.12	-1692.12	  444.52
     19.0700	  567.00	  559.89	-1708.89	  444.29
     19.1700	  518.00	  559.67	-1757.67	  444.06
     19.2700	  568.00	  559.44	-1707.44	  443.82
     19.3700	  492.00	  559.21	-1783.21	  443.58
     19.4700	  550.00	  558.98	-1724.98	  443.34
     19.5700	  552.00	  558.74	-1722.74	  443.10
     19.6700	  546.00	  558.50	-1728.50	  442.85
     19.7700	  526.00	  558.26	-1748.26	  442.60
     19.8700	  574.00	  558.02	-1700.02	  442.35
     19.9700	  494.00	  557.77	-1779.77	  442.09
     20.0700	  556.00	  557.52	-1717.52	  441.83
     20.1700	  564.00	  557.27	-1709.27	  441.57
     20.2700	  540.00	  557.02	-1733.02	  441.31
     20.3700	  598.00	  556.76	-1674.76	  441.04
     20.4700	  580.00	  556.54	-1692.54	  440.77
     20.5700	  541.00	  556.28	-1731.28	  440.50
     20.6700	  544.00	  556.02	-1728.02	  440.22
     20.7700	  543.00	  555.76	-1728.76	  439.94
     20.8700	  540.00	  555.50	-1731.50	  439.66
     20.9700	  532.00	  555.24	-1739.24	  439.38
     21.0700	  525.00	  554.97	-1745.97	  439.10
     21.1700	  570.00	  554.71	-1700.71	  438.81
     21.2700	  545.00	  554.44	-1725.44	  438.52
     21.3700	  547.00	  554.17	-1723.17	  438.23
     21.4700	  555.00	  553.90	-1714.90	  437.93
     21.5700	  545.00	  553.59	-1724.59	  437.64
     21.6700	  570.00	  553.33	-1699.33	  437.34
     21.7700	  544.00	  553.06	-1725.06	  437.04
     21.8700	  538.00	  552.79	-1730.79	  436.73
     21.9700	  529.00	  552.53	-1739.53	  436.43
     22.0700	  527.00	  552.26	-1741.26	  436.12
     22.1700	  551.00	  552.00	-1717.00	  435.82
     22.2700	  522.00	  551.74	-1745.74	  435.50
     22.3700	  584.00	  551.48	-1683.48	  435.19
     22.4700	  563.00	  551.23	-1704.23	  434.88
     22.5700	  544.00	  550.98	-1722.98	  434.56
     22.6700	  546.00	  550.74	-1720.74	  434.25
     22.7700	  563.00	  550.51	-1703.51	  433.93
     22.8700	  570.00	  550.28	-1696.28	  433.61
     22.9700	  508.00	  550.07	-1758.07	  433.28
     23.0700	  543.00	  549.88	-1722.88	  432.96
     23.1700	  554.00	  549.84	-1711.84	  432.63
     23.2700	  574.00	  549.69	-1691.69	  432.31
     23.3700	  597.00	  549.58	-1668.58	  431.98
     23.4700	  547.00	  549.51	-1718.51	  431.65
     23.5700	  541.00	  549.50	-1724.50	  431.32
     23.6700	  594.00	  549.59	-1671.59	  430.99
     23.7700	  547.00	  549.82	-1718.82	  430.65
     23.8700	  565.00	  550.33	-1701.33	  430.32
     23.9700	  563.00	  551.35	-1704.35	  429.98
     24.0700	  580.00	  553.26	-1689.26	  429.64
     24.1700	  523.00	  556.65	-1749.65	  429.30
     24.2700	  573.00	  562.25	-1705.25	  428.97
     24.3700	  623.00	  570.80	-1663.80	  428.62
     24.4700	  586.00	  582.77	-1712.77	  428.28
     24.5700	  606.00	  597.65	-1707.65	  427.94
     24.6700	  592.00	  612.63	-1736.63	  427.60
     24.7700	  690.00	  621.77	-1647.77	  427.25
     24.8700	  649.00	  617.96	-1684.96	  426.91
     24.9700	  656.00	  601.31	-1661.31	  426.56
     25.0700	  611.00	  581.50	-1686.50	  426.21
     25.1700	  574.00	  565.91	-1707.91	  425.87
     25.2700	  564.00	  556.12	-1708.12	  425.52
     25.3700	  582.00	  550.78	-1684.78	  425.17
     25.4700	  525.00	  548.00	-1739.00	  424.82
     25.5700	  571.00	  546.45	-1691.45	  424.47
     25.6700	  579.00	  545.45	-1682.45	  424.12
     25.7700	  547.00	  544.74	-1713.74	  423.76
     25.8700	  560.00	  544.19	-1700.19	  423.41
     25.9700	  518.00	  543.78	-1741.78	  423.06
     26.0700	  568.00	  543.47	-1691.47	  422.71
     26.1700	  537.00	  543.25	-1722.25	  422.35
     26.2700	  528.00	  543.12	-1731.12	  422.00
     26.3700	  569.00	  543.09	-1690.09	  421.64
     26.4700	  593.00	  543.14	-1666.14	  421.29
     26.5700	  542.00	  543.30	-1717.30	  420.93
     26.6700	  587.00	  543.58	-1672.58	  420.58
     26.7700	  550.00	  544.02	-1710.02	  420.22
     26.8700	  568.00	  544.64	-1692.64	  419.87
     26.9700	  540.00	  545.51	-1721.51	  419.51
     27.0700	  499.00	  546.71	-1763.71	  419.15
     27.1700	  534.00	  548.38	-1730.38	  418.80
     27.2700	  582.00	  550.79	-1684.79	  418.44
     27.3700	  552.00	  554.51	-1718.51	  418.09
     27.4700	  565.00	  560.58	-1711.58	  417.73
     27.5700	  580.00	  570.91	-1706.91	  417.37
     27.6700	  546.00	  588.46	-1758.46	  417.02
     27.7700	  585.00	  617.07	-1748.07	  416.66
     27.8700	  617.00	  659.99	-1758.99	  416.30
     27.9700	  691.00	  717.27	-1742.27	  415.95
     28.0700	  757.00	  782.29	-1741.29	  415.59
     28.1700	  903.00	  838.72	-1651.72	  415.23
     28.2700	 1007.00	  862.04	-1571.04	  414.88
     28.3700	  894.00	  837.49	-1659.49	  414.52
     28.4700	  764.00	  787.26	-1739.26	  414.17
     28.5700	  740.00	  748.59	-1724.59	  413.81
     28.6700	  750.00	  738.60	-1704.60	  413.46
     28.7700	  747.00	  753.27	-1722.27	  413.10
     28.8700	  761.00	  774.30	-1729.30	  412.75
     28.9700	  803.00	  776.34	-1689.34	  412.39
     29.0700	  701.00	  743.25	-1758.25	  412.04
     29.1700	  709.00	  687.77	-1694.77	  411.69
     29.2700	  621.00	  634.35	-1729.35	  411.34
     29.3700	  591.00	  595.03	-1720.03	  410.98
     29.4700	  577.00	  570.54	-1709.54	  410.63
     29.5700	  593.00	  556.82	-1679.82	  410.28
     29.6700	  580.00	  549.35	-1685.35	  409.93
     29.7700	  626.00	  545.05	-1635.05	  409.58
     29.8700	  565.00	  542.38	-1693.38	  409.23
     29.9700	  562.00	  540.69	-1694.69	  408.88
     30.0700	  599.00	  539.83	-1656.83	  408.53
     30.1700	  549.00	  539.97	-1706.97	  408.19
     30.2700	  533.00	  541.61	-1724.61	  407.84
     30.3700	  555.00	  545.72	-1706.72	  407.49
     30.4700	  509.00	  553.60	-1760.60	  407.15
     30.5700	  623.00	  566.59	-1659.59	  406.80
     30.6700	  602.00	  584.82	-1698.82	  406.46
     30.7700	  562.00	  605.89	-1759.89	  406.12
     30.8700	  633.00	  623.88	-1706.88	  405.77
     30.9700	  605.00	  630.03	-1741.03	  405.43
     31.0700	  611.00	  618.42	-1723.42	  405.09
     31.1700	  576.00	  594.89	-1734.89	  404.75
     31.2700	  543.00	  570.86	-1743.86	  404.41
     31.3700	  547.00	  552.55	-1721.55	  404.07
     31.4700	  591.00	  540.89	-1665.89	  403.74
     31.5700	  541.00	  534.29	-1709.29	  403.40
     31.6700	  527.00	  530.73	-1719.73	  403.07
     31.7700	  528.00	  528.71	-1716.71	  402.73
     31.8700	  572.00	  527.44	-1671.44	  402.40
     31.9700	  543.00	  526.57	-1699.57	  402.07
     32.0700	  551.00	  525.96	-1690.96	  401.74
     32.1700	  521.00	  525.56	-1720.56	  401.41
     32.2700	  587.00	  525.34	-1654.34	  401.08
     32.3700	  556.00	  525.28	-1685.28	  400.75
     32.4700	  565.00	  525.41	-1676.41	  400.42
     32.5700	  585.00	  525.74	-1656.74	  400.10
     32.6700	  554.00	  526.30	-1688.30	  399.78
     32.7700	  494.00	  527.15	-1749.15	  399.45
     32.8700	  519.00	  528.38	-1725.38	  399.13
     32.9700	  532.00	  530.12	-1714.12	  398.81
     33.0700	  568.00	  532.65	-1680.65	  398.49
     33.1700	  586.00	  536.53	-1666.53	  398.17
     33.2700	  512.00	  542.97	-1746.97	  397.86
     33.3700	  561.00	  554.38	-1709.38	  397.54
     33.4700	  572.00	  575.08	-1719.08	  397.23
     33.5700	  568.00	  611.37	-1759.37	  396.91
     33.6700	  646.00	  669.70	-1739.70	  396.60
     33.7700	  820.00	  751.76	-1647.76	  396.29
     33.8700	  865.00	  847.86	-1698.86	  395.98
     33.9700	  983.00	  932.89	-1665.89	  395.68
     34.0700	 1063.00	  969.49	-1622.49	  395.37
     34.1700	  964.00	  930.70	-1682.70	  395.07
     34.2700	  846.00	  835.79	-1705.79	  394.76
     34.3700	  726.00	  731.80	-1721.80	  394.46
     34.4700	  644.00	  648.48	-1720.48	  394.16
     34.5700	  556.00	  593.09	-1753.09	  393.86
     34.6700	  556.00	  560.91	-1720.91	  393.57
     34.7700	  578.00	  543.54	-1681.54	  393.27
     34.8700	  550.00	  534.05	-1700.05	  392.98
     34.9700	  551.00	  528.33	-1693.33	  392.68
     35.0700	  523.00	  524.42	-1717.42	  392.39
     35.1700	  564.00	  521.49	-1673.49	  392.10
     35.2700	  532.00	  519.17	-1703.17	  391.82
     35.3700	  526.00	  517.29	-1707.29	  391.53
     35.4700	  506.00	  515.72	-1725.72	  391.24
     35.5700	  512.00	  514.39	-1718.39	  390.96
     35.6700	  519.00	  513.25	-1710.25	  390.68
     35.7700	  498.00	  512.26	-1730.26	  390.40
     35.8700	  526.00	  511.39	-1701.39	  390.12
     35.9700	  538.00	  511.07	-1689.07	  389.85
     36.0700	  509.00	  510.38	-1717.38	  389.57
     36.1700	  524.00	  509.75	-1701.75	  389.30
     36.2700	  489.00	  509.18	-1736.18	  389.03
     36.3700	  492.00	  508.67	-1732.67	  388.76
     36.4700	  490.00	  508.20	-1734.20	  388.49
     36.5700	  508.00	  507.79	-1715.79	  388.22
     36.6700	  468.00	  507.42	-1755.42	  387.96
     36.7700	  501.00	  507.11	-1722.11	  387.70
     36.8700	  513.00	  506.89	-1709.89	  387.44
     36.9700	  521.00	  506.84	-1701.84	  387.18
     37.0700	  497.00	  507.05	-1726.05	  386.92
     37.1700	  558.00	  507.75	-1665.75	  386.66
     37.2700	  491.00	  509.18	-1734.18	  386.41
     37.3700	  528.00	  511.50	-1699.50	  386.16
     37.4700	  500.00	  514.60	-1730.60	  385.91
     37.5700	  511.00	  517.83	-1722.83	  385.66
     37.6700	  486.00	  520.07	-1750.07	  385.41
     37.7700	  495.00	  520.14	-1741.14	  385.17
     37.8700	  523.00	  517.93	-1710.93	  384.92
     37.9700	  532.00	  514.59	-1698.59	  384.68
     38.0700	  566.00	  511.20	-1661.20	  384.44
     38.1700	  474.00	  508.21	-1750.21	  384.21
     38.2700	  494.00	  505.83	-1727.83	  383.97
     38.3700	  483.00	  504.08	-1737.08	  383.74
     38.4700	  474.00	  502.86	-1744.86	  383.51
     38.5700	  522.00	  502.01	-1696.01	  383.28
     38.6700	  522.00	  501.42	-1695.42	  383.05
     38.7700	  532.00	  501.01	-1685.01	  382.82
     38.8700	  511.00	  500.65	-1705.65	  382.60
     38.9700	  461.00	  500.34	-1755.34	  382.38
     39.0700	  520.00	  500.05	-1696.05	  382.16
     39.1700	  471.00	  499.79	-1744.79	  381.94
     39.2700	  466.00	  499.54	-1749.54	  381.73
     39.3700	  468.00	  499.31	-1747.31	  381.51
     39.4700	  499.00	  499.02	-1716.02	  381.30
     39.5700	  505.00	  498.81	-1709.81	  381.09
     39.6700	  490.00	  498.61	-1724.61	  380.88
     39.7700	  481.00	  498.43	-1733.43	  380.67
     39.8700	  478.00	  498.25	-1736.25	  380.47
     39.9700	  487.00	  498.09	-1727.09	  380.27
     40.0700	  493.00	  497.93	-1720.93	  380.07
     40.1700	  493.00	  497.79	-1720.79	  379.87
     40.2700	  487.00	  497.66	-1726.66	  379.67
     40.3700	  519.00	  497.54	-1694.54	  379.48
     40.4700	  479.00	  497.44	-1734.44	  379.29
     40.5700	  524.00	  497.35	-1689.35	  379.10
     40.6700	  450.00	  497.28	-1763.28	  378.91
     40.7700	  503.00	  497.23	-1710.23	  378.73
