MSG Master    CELL:    5.91922   5.91922  23.27431   90.0000   90.0000  120.0000   SPGR: P 63/m m c             TEMP:   1074.95
  1   1280     2.52000     0.00000    -0.12620     0.00000     0.00000    0
    99     0     2
       0.00000      10.00000
     125.00000     130.00000
 2Theta	Yobs	Ycal	Yobs-Ycal	Backg	Posr	(hkl)	K
      0.7700	    0.00	  532.68	-1766.75	  414.15
      0.8700	    0.00	  533.54	-1766.75	  415.01
      0.9700	   36.00	  534.39	-1766.75	  415.86
      1.0700	   39.00	  535.23	-1766.75	  416.69
      1.1700	   34.00	  536.06	-1766.75	  417.52
      1.2700	   41.00	  536.87	-1766.75	  418.33
      1.3700	   45.00	  537.67	-1766.75	  419.14
      1.4700	   76.00	  538.47	-1766.75	  419.93
      1.5700	  287.00	  539.25	-1766.75	  420.71
      1.6700	  435.00	  540.02	-1766.75	  421.48
      1.7700	  602.00	  540.77	-1766.75	  422.24
      1.8700	  648.00	  541.52	-1766.75	  422.99
      1.9700	  740.00	  542.26	-1766.75	  423.72
      2.0700	  719.00	  542.99	-1766.75	  424.45
      2.1700	  788.00	  543.70	-1766.75	  425.17
      2.2700	  762.00	  544.41	-1766.75	  425.87
      2.3700	  726.00	  545.10	-1766.75	  426.56
      2.4700	  736.00	  545.78	-1766.75	  427.25
      2.5700	  707.00	  546.46	-1766.75	  427.92
      2.6700	  645.00	  547.12	-1766.75	  428.58
      2.7700	  642.00	  547.77	-1766.75	  429.23
      2.8700	  652.00	  548.41	-1766.75	  429.88
      2.9700	  600.00	  549.04	-1766.75	  430.51
      3.0700	  607.00	  549.67	-1766.75	  431.13
      3.1700	  599.00	  550.28	-1766.75	  431.74
      3.2700	  622.00	  550.88	-1766.75	  432.34
      3.3700	  705.00	  551.47	-1766.75	  432.94
      3.4700	  730.00	  552.05	-1766.75	  433.52
      3.5700	  818.00	  552.63	-1766.75	  434.09
      3.6700	  894.00	  553.19	-1766.75	  434.65
      3.7700	  955.00	  553.74	-1766.75	  435.20
      3.8700	  989.00	  554.28	-1766.75	  435.75
      3.9700	 1074.00	  554.82	-1766.75	  436.28
      4.0700	 1024.00	  555.34	-1766.75	  436.81
      4.1700	 1031.00	  555.86	-1766.75	  437.32
      4.2700	 1081.00	  556.36	-1766.75	  437.83
      4.3700	 1120.00	  556.86	-1766.75	  438.32
      4.4700	  967.00	  557.35	-1766.75	  438.81
      4.5700	  993.00	  557.83	-1766.75	  439.29
      4.6700	  992.00	  558.29	-1766.75	  439.76
      4.7700	 1008.00	  558.75	-1766.75	  440.22
      4.8700	 1010.00	  559.21	-1766.75	  440.67
      4.9700	  942.00	  559.65	-1766.75	  441.11
      5.0700	  940.00	  560.08	-1766.75	  441.55
      5.1700	  933.00	  560.51	-1766.75	  441.97
      5.2700	  914.00	  560.92	-1766.75	  442.39
      5.3700	  842.00	  561.33	-1766.75	  442.80
      5.4700	  867.00	  561.73	-1766.75	  443.20
      5.5700	  834.00	  562.12	-1766.75	  443.59
      5.6700	  867.00	  562.51	-1766.75	  443.97
      5.7700	  784.00	  562.88	-1766.75	  444.34
      5.8700	  840.00	  563.25	-1766.75	  444.71
      5.9700	  786.00	  563.61	-1766.75	  445.07
      6.0700	  859.00	  563.96	-1766.75	  445.42
      6.1700	  744.00	  564.30	-1766.75	  445.76
      6.2700	  771.00	  564.63	-1766.75	  446.10
      6.3700	  779.00	  564.96	-1766.75	  446.42
      6.4700	  791.00	  565.28	-1766.75	  446.74
      6.5700	  775.00	  565.59	-1766.75	  447.05
      6.6700	  728.00	  565.89	-1766.75	  447.35
      6.7700	  732.00	  566.18	-1766.75	  447.65
      6.8700	  666.00	  566.47	-1766.75	  447.93
      6.9700	  699.00	  566.75	-1766.75	  448.21
      7.0700	  737.00	  567.02	-1766.75	  448.49
      7.1700	  673.00	  567.29	-1766.75	  448.75
      7.2700	  644.00	  567.54	-1766.75	  449.01
      7.3700	  684.00	  567.79	-1766.75	  449.26
      7.4700	  674.00	  568.04	-1766.75	  449.50
      7.5700	  675.00	  568.27	-1766.75	  449.74
      7.6700	  670.00	  568.50	-1766.75	  449.97
      7.7700	  689.00	  568.72	-1766.75	  450.19
      7.8700	  647.00	  568.94	-1766.75	  450.40
      7.9700	  660.00	  569.15	-1766.75	  450.61
      8.0700	  633.00	  569.35	-1766.75	  450.81
      8.1700	  659.00	  569.54	-1766.75	  451.00
      8.2700	  639.00	  569.73	-1766.75	  451.19
      8.3700	  603.00	  569.91	-1766.75	  451.37
      8.4700	  621.00	  570.08	-1766.75	  451.55
      8.5700	  586.00	  570.25	-1766.75	  451.71
      8.6700	  643.00	  570.41	-1766.75	  451.87
      8.7700	  621.00	  570.56	-1766.75	  452.03
      8.8700	  652.00	  570.71	-1766.75	  452.17
      8.9700	  635.00	  570.85	-1766.75	  452.32
      9.0700	  601.00	  570.99	-1766.75	  452.45
      9.1700	  582.00	  571.11	-1766.75	  452.58
      9.2700	  619.00	  571.24	-1766.75	  452.70
      9.3700	  594.00	  571.35	-1766.75	  452.82
      9.4700	  593.00	  571.46	-1766.75	  452.93
      9.5700	  620.00	  571.57	-1766.75	  453.03
      9.6700	  579.00	  571.67	-1766.75	  453.13
      9.7700	  603.00	  571.76	-1766.75	  453.22
      9.8700	  628.00	  571.84	-1766.75	  453.31
      9.9700	  557.00	  571.92	-1766.75	  453.39
     10.0700	  579.00	  572.72	-1760.47	  453.46
     10.1700	  608.00	  572.87	-1731.62	  453.53
     10.2700	  563.00	  573.03	-1776.78	  453.60
     10.3700	  583.00	  573.21	-1756.96	  453.65
     10.4700	  599.00	  573.44	-1741.19	  453.70
     10.5700	  608.00	  573.77	-1732.52	  453.75
     10.6700	  591.00	  574.31	-1750.06	  453.79
     10.7700	  565.00	  575.16	-1776.91	  453.83
     10.8700	  557.00	  576.41	-1786.16	  453.86
     10.9700	  574.00	  578.03	-1770.78	  453.88
     11.0700	  579.00	  579.99	-1767.74	  453.90
     11.1700	  579.00	  582.28	-1770.03	  453.92
     11.2700	  578.00	  584.93	-1773.68	  453.93
     11.3700	  556.00	  588.04	-1798.79	  453.93
     11.4700	  621.00	  591.71	-1737.46	  453.93
     11.5700	  584.00	  596.16	-1778.91	  453.92
     11.6700	  608.00	  601.74	-1760.49	  453.91
     11.7700	  675.00	  609.05	-1700.80	  453.90
     11.8700	  626.00	  619.09	-1759.84	  453.88
     11.9700	  660.00	  632.68	-1739.43	  453.85
     12.0700	  673.00	  648.39	-1742.14	  453.82
     12.1700	  662.00	  659.73	-1764.48	  453.79
     12.2700	  668.00	  656.28	-1755.03	  453.75
     12.3700	  668.00	  635.00	-1733.75	  453.70
     12.4700	  668.00	  609.32	-1708.07	  453.65
     12.5700	  572.00	  591.03	-1785.78	  453.60
     12.6700	  563.00	  581.51	-1785.26	  453.54
     12.7700	  571.00	  577.44	-1773.19	  453.48
     12.8700	  553.00	  575.69	-1789.44	  453.41
     12.9700	  561.00	  574.75	-1780.50	  453.34
     13.0700	  530.00	  574.11	-1810.86	  453.27
     13.1700	  565.00	  573.64	-1775.39	  453.19
     13.2700	  617.00	  573.26	-1723.01	  453.10
     13.3700	  562.00	  572.94	-1777.69	  453.02
     13.4700	  550.00	  572.67	-1789.42	  452.92
     13.5700	  539.00	  572.43	-1800.19	  452.83
     13.6700	  572.00	  572.22	-1766.97	  452.73
     13.7700	  562.00	  572.02	-1776.77	  452.62
     13.8700	  558.00	  571.83	-1780.58	  452.52
     13.9700	  551.00	  571.66	-1787.41	  452.41
     14.0700	  534.00	  571.48	-1804.23	  452.29
     14.1700	  554.00	  571.32	-1784.07	  452.17
     14.2700	  531.00	  571.15	-1806.90	  452.05
     14.3700	  518.00	  570.99	-1819.74	  451.92
     14.4700	  576.00	  570.83	-1761.58	  451.79
     14.5700	  584.00	  570.66	-1753.42	  451.66
     14.6700	  563.00	  570.50	-1774.25	  451.52
     14.7700	  571.00	  570.34	-1766.09	  451.38
     14.8700	  543.00	  570.18	-1793.93	  451.23
     14.9700	  537.00	  570.01	-1799.76	  451.09
     15.0700	  601.00	  569.84	-1735.59	  450.93
     15.1700	  574.00	  569.67	-1762.42	  450.78
     15.2700	  569.00	  569.50	-1767.25	  450.62
     15.3700	  555.00	  569.33	-1781.08	  450.46
     15.4700	  545.00	  569.15	-1790.91	  450.30
     15.5700	  526.00	  568.98	-1809.73	  450.13
     15.6700	  585.00	  568.80	-1750.55	  449.96
     15.7700	  609.00	  568.62	-1726.37	  449.78
     15.8700	  549.00	  568.43	-1786.18	  449.61
     15.9700	  567.00	  568.24	-1767.99	  449.43
     16.0700	  546.00	  568.05	-1788.80	  449.24
     16.1700	  563.00	  567.86	-1771.61	  449.06
     16.2700	  595.00	  567.67	-1739.42	  448.87
     16.3700	  551.00	  567.50	-1783.25	  448.68
     16.4700	  550.00	  567.30	-1784.05	  448.48
     16.5700	  572.00	  567.10	-1761.85	  448.28
     16.6700	  571.00	  566.89	-1762.64	  448.08
     16.7700	  563.00	  566.69	-1770.44	  447.88
     16.8700	  562.00	  566.48	-1771.23	  447.68
     16.9700	  581.00	  566.27	-1752.02	  447.47
     17.0700	  554.00	  566.06	-1778.81	  447.26
     17.1700	  549.00	  565.84	-1783.59	  447.04
     17.2700	  554.00	  565.62	-1778.37	  446.83
     17.3700	  617.00	  565.40	-1715.15	  446.61
     17.4700	  558.00	  565.18	-1773.93	  446.39
     17.5700	  611.00	  564.96	-1720.71	  446.17
     17.6700	  559.00	  564.73	-1772.48	  445.94
     17.7700	  564.00	  564.50	-1767.25	  445.71
     17.8700	  568.00	  564.27	-1763.02	  445.48
     17.9700	  564.00	  564.04	-1766.79	  445.25
     18.0700	  587.00	  563.91	-1743.66	  445.02
     18.1700	  570.00	  563.68	-1760.43	  444.78
     18.2700	  569.00	  563.44	-1761.19	  444.54
     18.3700	  576.00	  563.20	-1753.95	  444.30
     18.4700	  559.00	  562.96	-1770.71	  444.06
     18.5700	  589.00	  562.72	-1740.47	  443.81
     18.6700	  587.00	  562.47	-1742.22	  443.56
     18.7700	  560.00	  562.23	-1768.98	  443.32
     18.8700	  553.00	  561.98	-1775.73	  443.06
     18.9700	  551.00	  561.81	-1777.56	  442.81
     19.0700	  585.00	  561.56	-1743.31	  442.56
     19.1700	  555.00	  561.31	-1773.06	  442.30
     19.2700	  526.00	  561.06	-1801.81	  442.04
     19.3700	  508.00	  560.80	-1819.55	  441.78
     19.4700	  560.00	  560.55	-1767.30	  441.52
     19.5700	  601.00	  560.29	-1726.04	  441.26
     19.6700	  584.00	  560.04	-1742.79	  440.99
     19.7700	  554.00	  559.78	-1772.53	  440.72
     19.8700	  591.00	  559.52	-1735.27	  440.46
     19.9700	  537.00	  559.25	-1789.00	  440.19
     20.0700	  549.00	  558.99	-1776.74	  439.91
     20.1700	  550.00	  558.73	-1775.48	  439.64
     20.2700	  589.00	  558.46	-1736.21	  439.37
     20.3700	  528.00	  558.17	-1796.92	  439.09
     20.4700	  586.00	  557.90	-1738.65	  438.81
     20.5700	  540.00	  557.64	-1784.39	  438.53
     20.6700	  567.00	  557.37	-1757.12	  438.25
     20.7700	  574.00	  557.10	-1749.85	  437.97
     20.8700	  533.00	  556.84	-1790.59	  437.69
     20.9700	  546.00	  556.60	-1777.35	  437.41
     21.0700	  560.00	  556.33	-1763.08	  437.12
     21.1700	  540.00	  556.06	-1782.81	  436.84
     21.2700	  545.00	  555.80	-1777.55	  436.55
     21.3700	  525.00	  555.53	-1797.28	  436.26
     21.4700	  545.00	  555.26	-1777.01	  435.97
     21.5700	  513.00	  554.99	-1808.74	  435.68
     21.6700	  539.00	  554.72	-1782.47	  435.39
     21.7700	  495.00	  554.46	-1826.21	  435.09
     21.8700	  542.00	  554.19	-1778.94	  434.80
     21.9700	  556.00	  553.93	-1764.68	  434.50
     22.0700	  577.00	  553.67	-1743.42	  434.21
     22.1700	  535.00	  553.40	-1785.15	  433.91
     22.2700	  570.00	  553.15	-1749.90	  433.61
     22.3700	  535.00	  552.89	-1784.64	  433.32
     22.4700	  559.00	  552.64	-1760.39	  433.02
     22.5700	  580.00	  552.39	-1739.14	  432.72
     22.6700	  550.00	  552.15	-1768.90	  432.42
     22.7700	  539.00	  551.91	-1779.66	  432.12
     22.8700	  553.00	  551.68	-1765.43	  431.81
     22.9700	  548.00	  551.46	-1770.21	  431.51
     23.0700	  550.00	  551.25	-1768.00	  431.21
     23.1700	  524.00	  551.06	-1793.81	  430.90
     23.2700	  535.00	  550.88	-1782.63	  430.60
     23.3700	  519.00	  550.73	-1798.48	  430.29
     23.4700	  541.00	  550.61	-1776.36	  429.99
     23.5700	  554.00	  550.54	-1763.29	  429.68
     23.6700	  617.00	  550.53	-1700.28	  429.37
     23.7700	  582.00	  550.62	-1735.37	  429.07
     23.8700	  565.00	  551.04	-1752.79	  428.76
     23.9700	  546.00	  551.78	-1772.53	  428.45
     24.0700	  550.00	  553.39	-1770.14	  428.14
     24.1700	  603.00	  556.57	-1720.32	  427.83
     24.2700	  550.00	  562.21	-1778.96	  427.52
     24.3700	  584.00	  571.32	-1754.07	  427.21
     24.4700	  598.00	  585.06	-1753.81	  426.90
     24.5700	  658.00	  603.88	-1712.63	  426.59
     24.6700	  653.00	  624.91	-1738.66	  426.28
     24.7700	  632.00	  639.51	-1774.26	  425.97
     24.8700	  589.00	  636.06	-1813.81	  425.66
     24.9700	  678.00	  613.32	-1702.07	  425.35
     25.0700	  624.00	  586.19	-1728.94	  425.04
     25.1700	  604.00	  566.39	-1729.14	  424.73
     25.2700	  618.00	  555.63	-1704.38	  424.42
     25.3700	  555.00	  550.80	-1762.55	  424.11
     25.4700	  561.00	  548.69	-1754.44	  423.80
     25.5700	  591.00	  547.58	-1723.33	  423.48
     25.6700	  509.00	  546.86	-1804.61	  423.17
     25.7700	  562.00	  546.34	-1751.09	  422.86
     25.8700	  547.00	  545.94	-1765.69	  422.55
     25.9700	  580.00	  545.65	-1732.40	  422.24
     26.0700	  559.00	  545.44	-1753.19	  421.93
     26.1700	  567.00	  545.30	-1745.05	  421.62
     26.2700	  553.00	  545.24	-1758.99	  421.30
     26.3700	  580.00	  545.26	-1732.01	  420.99
     26.4700	  536.00	  545.37	-1776.12	  420.68
     26.5700	  542.00	  545.57	-1770.32	  420.37
     26.6700	  541.00	  545.88	-1771.63	  420.06
     26.7700	  588.00	  546.34	-1725.09	  419.75
     26.8700	  523.00	  546.98	-1790.73	  419.44
     26.9700	  544.00	  547.85	-1770.60	  419.13
     27.0700	  573.00	  549.03	-1742.78	  418.82
     27.1700	  559.00	  550.67	-1758.42	  418.51
     27.2700	  545.00	  553.02	-1774.77	  418.20
     27.3700	  570.00	  556.63	-1753.38	  417.90
     27.4700	  538.00	  562.54	-1791.29	  417.59
     27.5700	  549.00	  572.63	-1790.38	  417.28
     27.6700	  611.00	  589.88	-1745.63	  416.97
     27.7700	  591.00	  618.15	-1793.90	  416.67
     27.8700	  570.00	  660.79	-1857.54	  416.36
     27.9700	  696.00	  717.98	-1788.73	  416.05
     28.0700	  796.00	  783.06	-1753.81	  415.75
     28.1700	  951.00	  839.49	-1655.24	  415.44
     28.2700	  947.00	  862.37	-1682.12	  415.14
     28.3700	  918.00	  837.02	-1685.77	  414.84
     28.4700	  839.00	  786.63	-1714.38	  414.53
     28.5700	  716.00	  749.36	-1800.11	  414.23
     28.6700	  698.00	  742.68	-1811.43	  413.93
     28.7700	  766.00	  762.07	-1762.82	  413.63
     28.8700	  755.00	  787.57	-1799.32	  413.32
     28.9700	  767.00	  791.21	-1790.96	  413.02
     29.0700	  785.00	  755.32	-1737.07	  412.72
     29.1700	  709.00	  694.91	-1752.66	  412.42
     29.2700	  629.00	  637.65	-1775.40	  412.13
     29.3700	  604.00	  596.60	-1759.35	  411.83
     29.4700	  633.00	  571.98	-1705.73	  411.53
     29.5700	  579.00	  558.78	-1746.53	  411.24
     29.6700	  624.00	  551.82	-1694.57	  410.94
     29.7700	  575.00	  547.86	-1739.61	  410.65
     29.8700	  566.00	  545.36	-1746.11	  410.35
     29.9700	  579.00	  543.76	-1731.51	  410.06
     30.0700	  563.00	  542.90	-1746.65	  409.77
     30.1700	  524.00	  542.94	-1785.69	  409.47
     30.2700	  587.00	  544.40	-1724.15	  409.18
     30.3700	  543.00	  548.27	-1772.02	  408.89
     30.4700	  576.00	  556.11	-1746.86	  408.61
     30.5700	  565.00	  569.58	-1771.33	  408.32
     30.6700	  562.00	  589.21	-1793.96	  408.03
     30.7700	  594.00	  612.60	-1785.35	  407.74
     30.8700	  653.00	  633.04	-1746.79	  407.46
     30.9700	  625.00	  640.24	-1781.99	  407.17
     31.0700	  602.00	  627.19	-1791.94	  406.89
     31.1700	  550.00	  600.79	-1817.54	  406.61
     31.2700	  539.00	  574.48	-1802.23	  406.33
     31.3700	  539.00	  555.20	-1782.95	  406.05
     31.4700	  541.00	  543.63	-1769.38	  405.77
     31.5700	  531.00	  537.53	-1773.28	  405.49
     31.6700	  561.00	  534.43	-1740.18	  405.21
     31.7700	  605.00	  532.71	-1694.46	  404.94
     31.8700	  549.00	  531.62	-1749.37	  404.66
     31.9700	  566.00	  530.86	-1731.61	  404.39
     32.0700	  520.00	  530.32	-1777.07	  404.11
     32.1700	  547.00	  529.94	-1749.69	  403.84
     32.2700	  581.00	  529.72	-1715.47	  403.57
     32.3700	  572.00	  529.63	-1724.38	  403.30
     32.4700	  525.00	  529.70	-1771.45	  403.03
     32.5700	  539.00	  529.92	-1757.67	  402.77
     32.6700	  543.00	  530.34	-1754.09	  402.50
     32.7700	  582.00	  530.98	-1715.73	  402.23
     32.8700	  548.00	  531.92	-1750.67	  401.97
     32.9700	  532.00	  533.28	-1768.03	  401.71
     33.0700	  543.00	  535.24	-1758.99	  401.45
     33.1700	  541.00	  538.26	-1764.01	  401.19
     33.2700	  552.00	  543.36	-1758.11	  400.93
     33.3700	  530.00	  552.79	-1789.54	  400.67
     33.4700	  528.00	  571.05	-1809.80	  400.41
     33.5700	  569.00	  605.32	-1803.07	  400.16
     33.6700	  619.00	  664.10	-1811.85	  399.90
     33.7700	  779.00	  751.50	-1739.25	  399.65
     33.8700	  879.00	  858.25	-1746.00	  399.40
     33.9700	 1063.00	  955.48	-1659.23	  399.15
     34.0700	 1069.00	  998.51	-1696.26	  398.90
     34.1700	 1060.00	  954.49	-1661.24	  398.65
     34.2700	  888.00	  846.42	-1725.17	  398.41
     34.3700	  758.00	  730.75	-1739.50	  398.16
     34.4700	  656.00	  642.01	-1752.76	  397.92
     34.5700	  581.00	  587.03	-1772.78	  397.68
     34.6700	  529.00	  557.81	-1795.56	  397.44
     34.7700	  542.00	  543.41	-1768.16	  397.20
     34.8700	  540.00	  535.99	-1762.74	  396.96
     34.9700	  552.00	  531.56	-1746.31	  396.72
     35.0700	  568.00	  528.50	-1727.25	  396.49
     35.1700	  554.00	  526.18	-1738.93	  396.25
     35.2700	  520.00	  524.34	-1771.09	  396.02
     35.3700	  502.00	  522.86	-1787.61	  395.79
     35.4700	  509.00	  521.62	-1779.37	  395.56
     35.5700	  539.00	  520.56	-1748.31	  395.33
     35.6700	  525.00	  519.66	-1761.41	  395.11
     35.7700	  493.00	  518.87	-1792.62	  394.88
     35.8700	  534.00	  518.18	-1750.93	  394.66
     35.9700	  531.00	  517.56	-1753.31	  394.44
     36.0700	  512.00	  517.49	-1772.24	  394.22
     36.1700	  519.00	  516.99	-1764.74	  394.00
     36.2700	  496.00	  516.55	-1787.30	  393.78
     36.3700	  484.00	  516.14	-1798.89	  393.56
     36.4700	  514.00	  515.78	-1768.53	  393.35
     36.5700	  486.00	  515.45	-1796.20	  393.14
     36.6700	  474.00	  515.16	-1807.91	  392.92
     36.7700	  519.00	  514.92	-1762.67	  392.71
     36.8700	  543.00	  514.76	-1738.51	  392.51
     36.9700	  563.00	  514.72	-1718.47	  392.30
     37.0700	  481.00	  514.97	-1800.72	  392.09
     37.1700	  510.00	  515.80	-1772.55	  391.89
     37.2700	  502.00	  517.65	-1782.40	  391.69
     37.3700	  561.00	  520.98	-1726.73	  391.49
     37.4700	  540.00	  525.81	-1752.56	  391.29
     37.5700	  545.00	  531.27	-1753.02	  391.09
     37.6700	  516.00	  535.51	-1786.26	  390.90
     37.7700	  525.00	  536.48	-1778.23	  390.70
     37.8700	  526.00	  533.77	-1774.52	  390.51
     37.9700	  539.00	  529.17	-1756.92	  390.32
     38.0700	  482.00	  524.39	-1809.14	  390.13
     38.1700	  510.00	  520.13	-1776.88	  389.94
     38.2700	  542.00	  516.67	-1741.42	  389.75
     38.3700	  458.00	  514.14	-1822.89	  389.57
     38.4700	  510.00	  512.43	-1769.18	  389.39
     38.5700	  483.00	  511.34	-1795.09	  389.20
     38.6700	  506.00	  510.56	-1771.31	  389.02
     38.7700	  509.00	  510.11	-1767.86	  388.85
     38.8700	  497.00	  509.78	-1779.53	  388.67
     38.9700	  484.00	  509.51	-1792.26	  388.50
     39.0700	  508.00	  509.19	-1767.94	  388.32
     39.1700	  491.00	  508.98	-1784.73	  388.15
     39.2700	  486.00	  508.78	-1789.53	  387.98
     39.3700	  522.00	  508.59	-1753.34	  387.81
     39.4700	  501.00	  508.42	-1774.17	  387.65
     39.5700	  516.00	  508.26	-1759.01	  387.48
     39.6700	  494.00	  508.10	-1780.85	  387.32
     39.7700	  552.00	  508.08	-1722.83	  387.16
     39.8700	  539.00	  507.94	-1735.69	  387.00
     39.9700	  465.00	  507.82	-1809.57	  386.84
     40.0700	  499.00	  507.70	-1775.45	  386.68
     40.1700	  520.00	  507.60	-1754.35	  386.53
     40.2700	  518.00	  507.50	-1756.25	  386.37
     40.3700	  524.00	  507.42	-1750.17	  386.22
     40.4700	  517.00	  507.35	-1757.10	  386.07
     40.5700	  525.00	  507.29	-1749.04	  385.92
     40.6700	  501.00	  507.25	-1773.00	  385.78
     40.7700	  510.00	  507.23	-1763.98	  385.63
