MSG Master    CELL:    5.91905   5.91905  23.26966   90.0000   90.0000  120.0000   SPGR: P 63/m m c             TEMP:   1074.85
  1   1280     2.52000     0.00000    -0.12765     0.00000     0.00000    0
    99     0     2
       0.00000      10.00000
     125.00000     130.00000
 2Theta	Yobs	Ycal	Yobs-Ycal	Backg	Posr	(hkl)	K
      0.7700	    0.00	  548.81	-1762.75	  430.00
      0.8700	    0.00	  549.51	-1762.75	  430.70
      0.9700	   41.00	  550.20	-1762.75	  431.38
      1.0700	   48.00	  550.88	-1762.75	  432.06
      1.1700	   28.00	  551.54	-1762.75	  432.73
      1.2700	   42.00	  552.20	-1762.75	  433.39
      1.3700	   33.00	  552.85	-1762.75	  434.03
      1.4700	   81.00	  553.48	-1762.75	  434.67
      1.5700	  265.00	  554.11	-1762.75	  435.29
      1.6700	  455.00	  554.72	-1762.75	  435.91
      1.7700	  573.00	  555.33	-1762.75	  436.51
      1.8700	  679.00	  555.92	-1762.75	  437.11
      1.9700	  753.00	  556.51	-1762.75	  437.69
      2.0700	  769.00	  557.08	-1762.75	  438.27
      2.1700	  786.00	  557.65	-1762.75	  438.83
      2.2700	  729.00	  558.20	-1762.75	  439.39
      2.3700	  759.00	  558.75	-1762.75	  439.93
      2.4700	  686.00	  559.28	-1762.75	  440.47
      2.5700	  675.00	  559.81	-1762.75	  440.99
      2.6700	  695.00	  560.32	-1762.75	  441.51
      2.7700	  705.00	  560.83	-1762.75	  442.01
      2.8700	  618.00	  561.33	-1762.75	  442.51
      2.9700	  624.00	  561.81	-1762.75	  443.00
      3.0700	  585.00	  562.29	-1762.75	  443.48
      3.1700	  571.00	  562.76	-1762.75	  443.95
      3.2700	  639.00	  563.22	-1762.75	  444.41
      3.3700	  635.00	  563.67	-1762.75	  444.86
      3.4700	  744.00	  564.12	-1762.75	  445.30
      3.5700	  779.00	  564.55	-1762.75	  445.73
      3.6700	  842.00	  564.97	-1762.75	  446.16
      3.7700	  926.00	  565.39	-1762.75	  446.57
      3.8700	  940.00	  565.79	-1762.75	  446.98
      3.9700	  994.00	  566.19	-1762.75	  447.38
      4.0700	 1052.00	  566.58	-1762.75	  447.77
      4.1700	 1058.00	  566.96	-1762.75	  448.15
      4.2700	 1039.00	  567.33	-1762.75	  448.52
      4.3700	 1082.00	  567.70	-1762.75	  448.88
      4.4700	 1055.00	  568.05	-1762.75	  449.24
      4.5700	 1069.00	  568.40	-1762.75	  449.59
      4.6700	  976.00	  568.74	-1762.75	  449.92
      4.7700	  974.00	  569.07	-1762.75	  450.25
      4.8700	  932.00	  569.39	-1762.75	  450.58
      4.9700	  959.00	  569.71	-1762.75	  450.89
      5.0700	  974.00	  570.01	-1762.75	  451.20
      5.1700	  949.00	  570.31	-1762.75	  451.50
      5.2700	  903.00	  570.60	-1762.75	  451.79
      5.3700	  928.00	  570.88	-1762.75	  452.07
      5.4700	  893.00	  571.16	-1762.75	  452.34
      5.5700	  846.00	  571.43	-1762.75	  452.61
      5.6700	  823.00	  571.69	-1762.75	  452.87
      5.7700	  815.00	  571.94	-1762.75	  453.12
      5.8700	  875.00	  572.18	-1762.75	  453.37
      5.9700	  789.00	  572.42	-1762.75	  453.61
      6.0700	  827.00	  572.65	-1762.75	  453.84
      6.1700	  769.00	  572.87	-1762.75	  454.06
      6.2700	  813.00	  573.09	-1762.75	  454.27
      6.3700	  772.00	  573.30	-1762.75	  454.48
      6.4700	  801.00	  573.50	-1762.75	  454.68
      6.5700	  775.00	  573.69	-1762.75	  454.88
      6.6700	  646.00	  573.88	-1762.75	  455.06
      6.7700	  734.00	  574.06	-1762.75	  455.24
      6.8700	  747.00	  574.23	-1762.75	  455.42
      6.9700	  710.00	  574.40	-1762.75	  455.58
      7.0700	  736.00	  574.56	-1762.75	  455.74
      7.1700	  740.00	  574.71	-1762.75	  455.89
      7.2700	  713.00	  574.85	-1762.75	  456.04
      7.3700	  700.00	  574.99	-1762.75	  456.18
      7.4700	  657.00	  575.13	-1762.75	  456.31
      7.5700	  661.00	  575.25	-1762.75	  456.44
      7.6700	  656.00	  575.37	-1762.75	  456.56
      7.7700	  683.00	  575.49	-1762.75	  456.67
      7.8700	  688.00	  575.59	-1762.75	  456.78
      7.9700	  631.00	  575.69	-1762.75	  456.88
      8.0700	  685.00	  575.79	-1762.75	  456.97
      8.1700	  602.00	  575.88	-1762.75	  457.06
      8.2700	  663.00	  575.96	-1762.75	  457.14
      8.3700	  675.00	  576.04	-1762.75	  457.22
      8.4700	  635.00	  576.11	-1762.75	  457.29
      8.5700	  653.00	  576.17	-1762.75	  457.36
      8.6700	  648.00	  576.23	-1762.75	  457.41
      8.7700	  628.00	  576.28	-1762.75	  457.47
      8.8700	  590.00	  576.33	-1762.75	  457.51
      8.9700	  609.00	  576.37	-1762.75	  457.55
      9.0700	  659.00	  576.40	-1762.75	  457.59
      9.1700	  576.00	  576.43	-1762.75	  457.62
      9.2700	  635.00	  576.46	-1762.75	  457.64
      9.3700	  629.00	  576.48	-1762.75	  457.66
      9.4700	  654.00	  576.49	-1762.75	  457.68
      9.5700	  556.00	  576.50	-1762.75	  457.68
      9.6700	  624.00	  576.50	-1762.75	  457.69
      9.7700	  599.00	  576.50	-1762.75	  457.68
      9.8700	  552.00	  576.49	-1762.75	  457.68
      9.9700	  613.00	  576.48	-1762.75	  457.66
     10.0700	  566.00	  577.12	-1773.87	  457.64
     10.1700	  615.00	  577.16	-1724.91	  457.62
     10.2700	  587.00	  577.22	-1752.97	  457.59
     10.3700	  612.00	  577.29	-1728.04	  457.56
     10.4700	  541.00	  577.41	-1799.16	  457.52
     10.5700	  619.00	  577.62	-1721.37	  457.48
     10.6700	  594.00	  578.01	-1746.76	  457.43
     10.7700	  562.00	  578.70	-1779.45	  457.37
     10.8700	  591.00	  579.75	-1751.50	  457.32
     10.9700	  537.00	  581.14	-1806.89	  457.25
     11.0700	  542.00	  582.85	-1803.60	  457.19
     11.1700	  576.00	  584.85	-1771.60	  457.11
     11.2700	  566.00	  587.19	-1783.94	  457.04
     11.3700	  574.00	  589.94	-1778.69	  456.96
     11.4700	  628.00	  593.21	-1727.96	  456.87
     11.5700	  588.00	  597.19	-1771.94	  456.78
     11.6700	  619.00	  602.19	-1745.94	  456.69
     11.7700	  619.00	  608.78	-1752.53	  456.59
     11.8700	  596.00	  617.89	-1784.64	  456.49
     11.9700	  651.00	  630.36	-1742.11	  456.38
     12.0700	  664.00	  644.96	-1743.71	  456.27
     12.1700	  668.00	  655.68	-1750.43	  456.15
     12.2700	  659.00	  652.63	-1756.38	  456.03
     12.3700	  659.00	  632.74	-1736.49	  455.91
     12.4700	  620.00	  608.65	-1751.40	  455.78
     12.5700	  610.00	  591.55	-1744.30	  455.65
     12.6700	  617.00	  582.74	-1728.49	  455.52
     12.7700	  580.00	  578.99	-1761.74	  455.38
     12.8700	  539.00	  577.36	-1801.11	  455.23
     12.9700	  573.00	  576.45	-1766.20	  455.09
     13.0700	  534.00	  575.81	-1804.56	  454.94
     13.1700	  538.00	  575.31	-1800.06	  454.78
     13.2700	  568.00	  574.89	-1769.64	  454.63
     13.3700	  560.00	  574.53	-1777.28	  454.46
     13.4700	  569.00	  574.21	-1767.96	  454.30
     13.5700	  557.00	  573.91	-1779.66	  454.13
     13.6700	  579.00	  573.64	-1757.39	  453.96
     13.7700	  578.00	  573.38	-1758.13	  453.78
     13.8700	  555.00	  573.13	-1780.88	  453.61
     13.9700	  530.00	  572.89	-1805.64	  453.42
     14.0700	  597.00	  572.66	-1738.41	  453.24
     14.1700	  625.00	  572.43	-1710.18	  453.05
     14.2700	  576.00	  572.20	-1758.95	  452.86
     14.3700	  555.00	  571.97	-1779.72	  452.66
     14.4700	  571.00	  571.75	-1763.50	  452.47
     14.5700	  576.00	  571.52	-1758.27	  452.26
     14.6700	  594.00	  571.30	-1740.05	  452.06
     14.7700	  539.00	  571.07	-1794.82	  451.85
     14.8700	  573.00	  570.84	-1760.59	  451.64
     14.9700	  591.00	  570.62	-1742.37	  451.43
     15.0700	  594.00	  570.39	-1739.14	  451.21
     15.1700	  567.00	  570.15	-1765.90	  451.00
     15.2700	  556.00	  569.92	-1776.67	  450.77
     15.3700	  584.00	  569.69	-1748.44	  450.55
     15.4700	  609.00	  569.45	-1723.20	  450.32
     15.5700	  567.00	  569.21	-1764.96	  450.09
     15.6700	  529.00	  568.97	-1802.72	  449.86
     15.7700	  565.00	  568.73	-1766.48	  449.63
     15.8700	  559.00	  568.49	-1772.24	  449.39
     15.9700	  642.00	  568.24	-1688.99	  449.15
     16.0700	  550.00	  567.99	-1780.74	  448.91
     16.1700	  552.00	  567.74	-1778.49	  448.66
     16.2700	  534.00	  567.49	-1796.24	  448.41
     16.3700	  582.00	  567.24	-1747.99	  448.16
     16.4700	  597.00	  567.01	-1732.76	  447.91
     16.5700	  537.00	  566.75	-1792.50	  447.66
     16.6700	  560.00	  566.49	-1769.24	  447.40
     16.7700	  570.00	  566.23	-1758.98	  447.14
     16.8700	  574.00	  565.96	-1754.71	  446.88
     16.9700	  556.00	  565.70	-1772.45	  446.62
     17.0700	  556.00	  565.43	-1772.18	  446.35
     17.1700	  528.00	  565.16	-1799.91	  446.09
     17.2700	  474.00	  564.89	-1853.64	  445.82
     17.3700	  559.00	  564.62	-1768.37	  445.54
     17.4700	  535.00	  564.34	-1792.09	  445.27
     17.5700	  576.00	  564.07	-1750.82	  445.00
     17.6700	  609.00	  563.79	-1717.54	  444.72
     17.7700	  555.00	  563.51	-1771.26	  444.44
     17.8700	  539.00	  563.33	-1787.08	  444.16
     17.9700	  609.00	  563.05	-1716.80	  443.88
     18.0700	  532.00	  562.77	-1793.52	  443.59
     18.1700	  590.00	  562.49	-1735.24	  443.31
     18.2700	  570.00	  562.20	-1754.95	  443.02
     18.3700	  565.00	  561.91	-1759.66	  442.73
     18.4700	  553.00	  561.62	-1771.37	  442.44
     18.5700	  566.00	  561.33	-1758.08	  442.14
     18.6700	  563.00	  561.04	-1760.79	  441.85
     18.7700	  584.00	  560.75	-1739.50	  441.55
     18.8700	  576.00	  560.54	-1747.29	  441.26
     18.9700	  549.00	  560.25	-1774.00	  440.96
     19.0700	  545.00	  559.95	-1777.70	  440.66
     19.1700	  578.00	  559.66	-1744.41	  440.36
     19.2700	  514.00	  559.36	-1808.11	  440.05
     19.3700	  565.00	  559.06	-1756.81	  439.75
     19.4700	  600.00	  558.76	-1721.51	  439.44
     19.5700	  556.00	  558.46	-1765.21	  439.14
     19.6700	  567.00	  558.16	-1753.91	  438.83
     19.7700	  566.00	  557.86	-1754.61	  438.52
     19.8700	  549.00	  557.56	-1771.31	  438.21
     19.9700	  594.00	  557.26	-1726.01	  437.90
     20.0700	  563.00	  556.95	-1756.70	  437.58
     20.1700	  549.00	  556.65	-1770.40	  437.27
     20.2700	  564.00	  556.34	-1755.09	  436.95
     20.3700	  565.00	  556.01	-1753.76	  436.64
     20.4700	  588.00	  555.71	-1730.46	  436.32
     20.5700	  543.00	  555.40	-1775.15	  436.00
     20.6700	  517.00	  555.10	-1800.85	  435.68
     20.7700	  575.00	  554.79	-1742.54	  435.36
     20.8700	  541.00	  554.48	-1776.23	  435.04
     20.9700	  545.00	  554.21	-1771.96	  434.72
     21.0700	  543.00	  553.91	-1773.66	  434.40
     21.1700	  556.00	  553.60	-1760.35	  434.08
     21.2700	  542.00	  553.30	-1774.05	  433.75
     21.3700	  522.00	  552.99	-1793.74	  433.43
     21.4700	  536.00	  552.69	-1779.44	  433.10
     21.5700	  554.00	  552.39	-1761.14	  432.78
     21.6700	  565.00	  552.09	-1749.84	  432.45
     21.7700	  569.00	  551.78	-1745.53	  432.12
     21.8700	  524.00	  551.48	-1790.23	  431.79
     21.9700	  601.00	  551.19	-1712.94	  431.47
     22.0700	  554.00	  550.89	-1759.64	  431.14
     22.1700	  543.00	  550.60	-1770.35	  430.81
     22.2700	  587.00	  550.30	-1726.05	  430.48
     22.3700	  538.00	  550.02	-1774.77	  430.15
     22.4700	  579.00	  549.73	-1733.48	  429.82
     22.5700	  549.00	  549.45	-1763.20	  429.48
     22.6700	  569.00	  549.18	-1742.93	  429.15
     22.7700	  535.00	  548.91	-1776.66	  428.82
     22.8700	  530.00	  548.65	-1781.40	  428.49
     22.9700	  550.00	  548.39	-1761.14	  428.15
     23.0700	  567.00	  548.15	-1743.90	  427.82
     23.1700	  558.00	  547.93	-1752.68	  427.49
     23.2700	  562.00	  547.72	-1748.47	  427.15
     23.3700	  509.00	  547.54	-1801.29	  426.82
     23.4700	  547.00	  547.38	-1763.13	  426.49
     23.5700	  535.00	  547.27	-1775.02	  426.15
     23.6700	  518.00	  547.22	-1791.97	  425.82
     23.7700	  531.00	  547.27	-1779.02	  425.48
     23.8700	  504.00	  547.64	-1806.39	  425.15
     23.9700	  532.00	  548.30	-1779.05	  424.82
     24.0700	  531.00	  549.82	-1781.57	  424.48
     24.1700	  556.00	  552.91	-1759.66	  424.15
     24.2700	  527.00	  558.45	-1794.20	  423.81
     24.3700	  597.00	  567.47	-1733.22	  423.48
     24.4700	  616.00	  581.19	-1727.94	  423.14
     24.5700	  577.00	  600.19	-1785.94	  422.81
     24.6700	  603.00	  621.76	-1781.51	  422.47
     24.7700	  599.00	  637.18	-1800.93	  422.14
     24.8700	  644.00	  634.31	-1753.06	  421.80
     24.9700	  589.00	  611.32	-1785.07	  421.47
     25.0700	  598.00	  583.40	-1748.15	  421.14
     25.1700	  567.00	  562.96	-1758.71	  420.80
     25.2700	  586.00	  551.93	-1728.68	  420.47
     25.3700	  552.00	  547.04	-1757.79	  420.14
     25.4700	  550.00	  544.93	-1757.68	  419.80
     25.5700	  588.00	  543.83	-1718.58	  419.47
     25.6700	  549.00	  543.11	-1756.86	  419.14
     25.7700	  542.00	  542.58	-1763.32	  418.81
     25.8700	  605.00	  542.17	-1699.92	  418.48
     25.9700	  584.00	  541.87	-1720.62	  418.14
     26.0700	  590.00	  541.65	-1714.40	  417.81
     26.1700	  590.00	  541.51	-1714.26	  417.48
     26.2700	  533.00	  541.44	-1771.19	  417.15
     26.3700	  519.00	  541.45	-1785.20	  416.82
     26.4700	  552.00	  541.55	-1752.30	  416.49
     26.5700	  578.00	  541.74	-1726.49	  416.17
     26.6700	  515.00	  542.05	-1789.80	  415.84
     26.7700	  535.00	  542.50	-1770.25	  415.51
     26.8700	  536.00	  543.13	-1769.88	  415.18
     26.9700	  525.00	  544.00	-1781.75	  414.86
     27.0700	  570.00	  545.19	-1737.94	  414.53
     27.1700	  551.00	  546.83	-1758.58	  414.20
     27.2700	  609.00	  549.19	-1702.94	  413.88
     27.3700	  558.00	  552.81	-1757.56	  413.56
     27.4700	  598.00	  558.70	-1723.45	  413.23
     27.5700	  528.00	  568.68	-1803.43	  412.91
     27.6700	  575.00	  585.59	-1773.34	  412.59
     27.7700	  533.00	  613.04	-1842.79	  412.27
     27.8700	  624.00	  654.05	-1792.80	  411.95
     27.9700	  672.00	  708.58	-1799.33	  411.63
     28.0700	  769.00	  770.20	-1763.95	  411.31
     28.1700	  922.00	  823.42	-1664.17	  410.99
     28.2700	  938.00	  845.24	-1669.99	  410.67
     28.3700	  889.00	  822.52	-1696.27	  410.35
     28.4700	  829.00	  777.28	-1711.03	  410.04
     28.5700	  702.00	  745.11	-1805.86	  409.72
     28.6700	  695.00	  742.20	-1809.95	  409.41
     28.7700	  744.00	  763.90	-1782.65	  409.10
     28.8700	  760.00	  790.49	-1793.24	  408.78
     28.9700	  803.00	  794.19	-1753.94	  408.47
     29.0700	  812.00	  757.53	-1708.28	  408.16
     29.1700	  702.00	  695.91	-1756.66	  407.85
     29.2700	  695.00	  637.36	-1705.11	  407.54
     29.3700	  597.00	  595.18	-1760.93	  407.23
     29.4700	  581.00	  569.68	-1751.43	  406.93
     29.5700	  554.00	  555.88	-1764.63	  406.62
     29.6700	  600.00	  548.58	-1711.33	  406.32
     29.7700	  587.00	  544.43	-1720.18	  406.01
     29.8700	  588.00	  541.84	-1716.59	  405.71
     29.9700	  601.00	  540.21	-1701.96	  405.41
     30.0700	  594.00	  539.38	-1708.13	  405.11
     30.1700	  556.00	  539.53	-1746.28	  404.81
     30.2700	  602.00	  541.23	-1701.98	  404.51
     30.3700	  566.00	  545.58	-1742.33	  404.21
     30.4700	  570.00	  554.29	-1747.04	  403.92
     30.5700	  519.00	  569.16	-1812.91	  403.62
     30.6700	  556.00	  590.74	-1797.49	  403.33
     30.7700	  603.00	  616.40	-1776.15	  403.03
     30.8700	  657.00	  638.82	-1744.57	  402.74
     30.9700	  589.00	  646.77	-1820.52	  402.45
     31.0700	  619.00	  632.58	-1776.33	  402.16
     31.1700	  654.00	  603.74	-1712.49	  401.88
     31.2700	  564.00	  574.90	-1773.65	  401.59
     31.3700	  547.00	  553.70	-1769.45	  401.30
     31.4700	  517.00	  540.90	-1786.65	  401.02
     31.5700	  537.00	  534.13	-1759.88	  400.74
     31.6700	  558.00	  530.66	-1735.41	  400.45
     31.7700	  514.00	  528.74	-1777.49	  400.17
     31.8700	  564.00	  527.52	-1726.27	  399.89
     31.9700	  555.00	  526.67	-1734.42	  399.62
     32.0700	  546.00	  526.05	-1742.80	  399.34
     32.1700	  556.00	  525.61	-1732.36	  399.06
     32.2700	  512.00	  525.32	-1776.07	  398.79
     32.3700	  545.00	  525.18	-1742.93	  398.52
     32.4700	  550.00	  525.19	-1737.94	  398.25
     32.5700	  537.00	  525.37	-1751.12	  397.98
     32.6700	  562.00	  525.72	-1726.47	  397.71
     32.7700	  553.00	  526.30	-1736.05	  397.44
     32.8700	  555.00	  527.17	-1734.92	  397.18
     32.9700	  537.00	  528.44	-1754.19	  396.91
     33.0700	  556.00	  530.29	-1737.04	  396.65
     33.1700	  547.00	  533.14	-1748.89	  396.39
     33.2700	  515.00	  537.98	-1785.73	  396.13
     33.3700	  590.00	  546.93	-1719.68	  395.87
     33.4700	  567.00	  564.28	-1760.03	  395.61
     33.5700	  593.00	  596.85	-1766.60	  395.36
     33.6700	  631.00	  652.79	-1784.54	  395.10
     33.7700	  770.00	  736.11	-1728.86	  394.85
     33.8700	  926.00	  838.15	-1674.90	  394.60
     33.9700	  965.00	  931.54	-1729.29	  394.35
     34.0700	 1021.00	  973.65	-1715.40	  394.10
     34.1700	  999.00	  932.61	-1696.36	  393.85
     34.2700	  874.00	  829.65	-1718.40	  393.61
     34.3700	  748.00	  718.75	-1733.50	  393.36
     34.4700	  669.00	  633.35	-1727.10	  393.12
     34.5700	  594.00	  580.27	-1749.02	  392.88
     34.6700	  570.00	  551.99	-1744.74	  392.64
     34.7700	  551.00	  538.02	-1749.77	  392.41
     34.8700	  515.00	  530.83	-1778.58	  392.17
     34.9700	  524.00	  526.54	-1765.29	  391.94
     35.0700	  499.00	  523.58	-1787.33	  391.70
     35.1700	  493.00	  521.34	-1791.09	  391.47
     35.2700	  494.00	  519.56	-1788.31	  391.24
     35.3700	  522.00	  518.11	-1758.86	  391.02
     35.4700	  534.00	  516.92	-1745.67	  390.79
     35.5700	  543.00	  515.90	-1735.65	  390.56
     35.6700	  553.00	  515.02	-1724.77	  390.34
     35.7700	  532.00	  514.26	-1745.01	  390.12
     35.8700	  535.00	  514.07	-1741.82	  389.90
     35.9700	  507.00	  513.48	-1769.23	  389.68
     36.0700	  548.00	  512.95	-1727.70	  389.47
     36.1700	  479.00	  512.47	-1796.22	  389.25
     36.2700	  519.00	  512.04	-1755.79	  389.04
     36.3700	  529.00	  511.64	-1745.39	  388.83
     36.4700	  507.00	  511.29	-1767.04	  388.62
     36.5700	  514.00	  510.97	-1759.72	  388.41
     36.6700	  488.00	  510.68	-1785.43	  388.20
     36.7700	  466.00	  510.44	-1807.19	  388.00
     36.8700	  501.00	  510.27	-1772.02	  387.80
     36.9700	  472.00	  510.20	-1800.95	  387.60
     37.0700	  522.00	  510.37	-1751.12	  387.40
     37.1700	  522.00	  511.01	-1751.76	  387.20
     37.2700	  491.00	  512.51	-1784.26	  387.00
     37.3700	  543.00	  515.32	-1735.07	  386.81
     37.4700	  530.00	  519.55	-1752.30	  386.62
     37.5700	  516.00	  524.63	-1771.38	  386.43
     37.6700	  559.00	  529.11	-1732.86	  386.24
     37.7700	  512.00	  531.22	-1781.97	  386.05
     37.8700	  506.00	  530.31	-1787.06	  385.86
     37.9700	  540.00	  527.49	-1750.24	  385.68
     38.0700	  484.00	  523.74	-1802.49	  385.50
     38.1700	  501.00	  519.43	-1781.18	  385.32
     38.2700	  510.00	  515.19	-1767.94	  385.14
     38.3700	  484.00	  511.69	-1790.44	  384.96
     38.4700	  532.00	  509.21	-1739.96	  384.79
     38.5700	  528.00	  507.64	-1742.39	  384.61
     38.6700	  507.00	  506.70	-1762.45	  384.44
     38.7700	  466.00	  506.14	-1802.89	  384.27
     38.8700	  510.00	  505.66	-1758.41	  384.11
     38.9700	  493.00	  505.37	-1775.12	  383.94
     39.0700	  525.00	  505.12	-1742.87	  383.78
     39.1700	  504.00	  504.90	-1763.65	  383.61
     39.2700	  521.00	  504.62	-1746.37	  383.45
     39.3700	  514.00	  504.44	-1753.19	  383.29
     39.4700	  506.00	  504.27	-1761.02	  383.14
     39.5700	  505.00	  504.12	-1761.87	  382.98
     39.6700	  495.00	  503.97	-1771.72	  382.83
     39.7700	  463.00	  503.95	-1803.70	  382.68
     39.8700	  535.00	  503.83	-1731.58	  382.53
     39.9700	  506.00	  503.71	-1760.46	  382.38
     40.0700	  475.00	  503.61	-1791.36	  382.23
     40.1700	  481.00	  503.52	-1785.27	  382.09
     40.2700	  525.00	  503.43	-1741.18	  381.94
     40.3700	  472.00	  503.36	-1794.11	  381.80
     40.4700	  525.00	  503.30	-1741.05	  381.67
     40.5700	  490.00	  503.26	-1776.01	  381.53
     40.6700	  476.00	  503.23	-1789.98	  381.39
     40.7700	  486.00	  503.23	-1779.98	  381.26
