MSG Master    CELL:    5.89269   5.89269  23.15770   90.0000   90.0000  120.0000   SPGR: P 63/m m c             TEMP:    683.95
  2   1280     2.52000     0.00000    -0.10589     0.00000     0.00000    0
    96    96     0     0     2
       0.00000      10.00000
     125.00000     130.00000
 2Theta	Yobs	Ycal	Yobs-Ycal	Backg	Posr	(hkl)	K
      0.7700	    0.00	  690.22	-1832.84	  570.32
      0.8700	    0.00	  689.96	-1832.84	  570.06
      0.9700	   42.00	  689.69	-1832.84	  569.79
      1.0700	   39.00	  689.42	-1832.84	  569.52
      1.1700	   52.00	  689.15	-1832.84	  569.25
      1.2700	   43.00	  688.87	-1832.84	  568.97
      1.3700	   49.00	  688.59	-1832.84	  568.69
      1.4700	   97.00	  688.31	-1832.84	  568.40
      1.5700	  299.00	  688.02	-1832.84	  568.11
      1.6700	  415.00	  687.73	-1832.84	  567.82
      1.7700	  603.00	  687.43	-1832.84	  567.53
      1.8700	  673.00	  687.13	-1832.84	  567.23
      1.9700	  716.00	  686.83	-1832.84	  566.92
      2.0700	  759.00	  686.52	-1832.84	  566.62
      2.1700	  778.00	  686.21	-1832.84	  566.31
      2.2700	  827.00	  685.90	-1832.84	  565.99
      2.3700	  734.00	  685.58	-1832.84	  565.68
      2.4700	  736.00	  685.26	-1832.84	  565.36
      2.5700	  709.00	  684.94	-1832.84	  565.03
      2.6700	  684.00	  684.61	-1832.84	  564.71
      2.7700	  628.00	  684.28	-1832.84	  564.38
      2.8700	  660.00	  683.95	-1832.84	  564.04
      2.9700	  690.00	  683.61	-1832.84	  563.71
      3.0700	  595.00	  683.27	-1832.84	  563.37
      3.1700	  617.00	  682.93	-1832.84	  563.02
      3.2700	  759.00	  682.58	-1832.84	  562.68
      3.3700	  882.00	  682.23	-1832.84	  562.33
      3.4700	 1065.00	  681.88	-1832.84	  561.98
      3.5700	 1107.00	  681.53	-1832.84	  561.62
      3.6700	 1239.00	  681.17	-1832.84	  561.26
      3.7700	 1306.00	  680.81	-1832.84	  560.90
      3.8700	 1413.00	  680.44	-1832.84	  560.54
      3.9700	 1444.00	  680.08	-1832.84	  560.17
      4.0700	 1530.00	  679.71	-1832.84	  559.81
      4.1700	 1543.00	  679.34	-1832.84	  559.43
      4.2700	 1612.00	  678.96	-1832.84	  559.06
      4.3700	 1614.00	  678.59	-1832.84	  558.68
      4.4700	 1461.00	  678.21	-1832.84	  558.30
      4.5700	 1413.00	  677.82	-1832.84	  557.92
      4.6700	 1381.00	  677.44	-1832.84	  557.53
      4.7700	 1401.00	  677.05	-1832.84	  557.15
      4.8700	 1351.00	  676.66	-1832.84	  556.76
      4.9700	 1246.00	  676.27	-1832.84	  556.36
      5.0700	 1274.00	  675.87	-1832.84	  555.97
      5.1700	 1194.00	  675.48	-1832.84	  555.57
      5.2700	 1151.00	  675.08	-1832.84	  555.17
      5.3700	 1173.00	  674.67	-1832.84	  554.77
      5.4700	 1148.00	  674.27	-1832.84	  554.37
      5.5700	 1120.00	  673.86	-1832.84	  553.96
      5.6700	 1140.00	  673.45	-1832.84	  553.55
      5.7700	 1073.00	  673.04	-1832.84	  553.14
      5.8700	 1044.00	  672.63	-1832.84	  552.73
      5.9700	  998.00	  672.21	-1832.84	  552.31
      6.0700	 1022.00	  671.80	-1832.84	  551.89
      6.1700	  984.00	  671.38	-1832.84	  551.47
      6.2700	  975.00	  670.96	-1832.84	  551.05
      6.3700	  942.00	  670.53	-1832.84	  550.63
      6.4700	  931.00	  670.11	-1832.84	  550.20
      6.5700	  914.00	  669.68	-1832.84	  549.77
      6.6700	  906.00	  669.25	-1832.84	  549.34
      6.7700	  904.00	  668.82	-1832.84	  548.91
      6.8700	  830.00	  668.38	-1832.84	  548.48
      6.9700	  894.00	  667.95	-1832.84	  548.04
      7.0700	  839.00	  667.51	-1832.84	  547.61
      7.1700	  815.00	  667.07	-1832.84	  547.17
      7.2700	  826.00	  666.63	-1832.84	  546.73
      7.3700	  814.00	  666.19	-1832.84	  546.29
      7.4700	  729.00	  665.75	-1832.84	  545.84
      7.5700	  769.00	  665.30	-1832.84	  545.40
      7.6700	  777.00	  664.85	-1832.84	  544.95
      7.7700	  778.00	  664.40	-1832.84	  544.50
      7.8700	  746.00	  663.95	-1832.84	  544.05
      7.9700	  741.00	  663.50	-1832.84	  543.60
      8.0700	  746.00	  663.05	-1832.84	  543.14
      8.1700	  749.00	  662.59	-1832.84	  542.69
      8.2700	  755.00	  662.14	-1832.84	  542.23
      8.3700	  692.00	  661.68	-1832.84	  541.77
      8.4700	  745.00	  661.22	-1832.84	  541.31
      8.5700	  733.00	  660.76	-1832.84	  540.85
      8.6700	  656.00	  660.30	-1832.84	  540.39
      8.7700	  735.00	  659.83	-1832.84	  539.93
      8.8700	  673.00	  659.37	-1832.84	  539.46
      8.9700	  740.00	  658.90	-1832.84	  539.00
      9.0700	  700.00	  658.44	-1832.84	  538.53
      9.1700	  728.00	  657.97	-1832.84	  538.06
      9.2700	  686.00	  657.50	-1832.84	  537.59
      9.3700	  695.00	  657.03	-1832.84	  537.12
      9.4700	  718.00	  656.55	-1832.84	  536.65
      9.5700	  722.00	  656.08	-1832.84	  536.18
      9.6700	  667.00	  655.61	-1832.84	  535.70
      9.7700	  681.00	  655.13	-1832.84	  535.23
      9.8700	  654.00	  654.66	-1832.84	  534.75
      9.9700	  622.00	  654.18	-1832.84	  534.28
     10.0700	  685.00	  655.77	-1803.61	  533.80
     10.1700	  729.00	  655.53	-1759.37	  533.32
     10.2700	  654.00	  655.33	-1834.17	  532.84
     10.3700	  703.00	  655.20	-1785.04	  532.36
     10.4700	  614.00	  655.17	-1874.01	  531.88
     10.5700	  669.00	  655.29	-1819.13	  531.39
     10.6700	  635.00	  655.64	-1853.48	  530.91
     10.7700	  686.00	  656.31	-1803.15	  530.43
     10.8700	  671.00	  657.40	-1819.24	  529.94
     10.9700	  693.00	  658.99	-1798.83	  529.45
     11.0700	  682.00	  661.11	-1811.95	  528.97
     11.1700	  680.00	  663.75	-1816.59	  528.48
     11.2700	  697.00	  666.95	-1802.79	  527.99
     11.3700	  663.00	  670.78	-1840.62	  527.51
     11.4700	  720.00	  675.37	-1788.21	  527.02
     11.5700	  708.00	  680.89	-1805.73	  526.53
     11.6700	  680.00	  687.65	-1840.49	  526.04
     11.7700	  695.00	  696.00	-1833.84	  525.55
     11.8700	  714.00	  706.26	-1825.10	  525.05
     11.9700	  810.00	  718.37	-1741.21	  524.56
     12.0700	  806.00	  731.29	-1758.13	  524.07
     12.1700	  780.00	  742.32	-1795.16	  523.58
     12.2700	  828.00	  746.63	-1751.47	  523.08
     12.3700	  762.00	  739.00	-1809.84	  522.59
     12.4700	  762.00	  720.12	-1790.96	  522.10
     12.5700	  699.00	  698.10	-1831.94	  521.60
     12.6700	  643.00	  679.58	-1869.42	  521.11
     12.7700	  644.00	  666.35	-1855.19	  520.61
     12.8700	  631.00	  657.71	-1859.55	  520.12
     12.9700	  626.00	  652.24	-1859.08	  519.62
     13.0700	  620.00	  648.70	-1861.54	  519.12
     13.1700	  614.00	  646.27	-1865.11	  518.63
     13.2700	  587.00	  644.41	-1890.25	  518.13
     13.3700	  640.00	  642.91	-1835.75	  517.63
     13.4700	  588.00	  641.63	-1886.47	  517.14
     13.5700	  636.00	  640.52	-1837.36	  516.64
     13.6700	  595.00	  639.52	-1877.36	  516.14
     13.7700	  646.00	  638.62	-1825.46	  515.65
     13.8700	  641.00	  637.79	-1829.63	  515.15
     13.9700	  630.00	  637.01	-1839.85	  514.65
     14.0700	  666.00	  636.27	-1803.11	  514.15
     14.1700	  633.00	  635.57	-1835.41	  513.66
     14.2700	  629.00	  634.90	-1838.74	  513.16
     14.3700	  598.00	  634.25	-1869.09	  512.66
     14.4700	  618.00	  633.62	-1848.46	  512.16
     14.5700	  593.00	  633.01	-1872.85	  511.67
     14.6700	  592.00	  632.41	-1873.25	  511.17
     14.7700	  645.00	  631.83	-1819.67	  510.67
     14.8700	  624.00	  631.25	-1840.09	  510.17
     14.9700	  658.00	  630.68	-1805.52	  509.68
     15.0700	  626.00	  630.12	-1836.96	  509.18
     15.1700	  558.00	  629.56	-1904.40	  508.68
     15.2700	  607.00	  629.01	-1854.85	  508.19
     15.3700	  659.00	  628.47	-1802.31	  507.69
     15.4700	  581.00	  627.93	-1879.77	  507.19
     15.5700	  649.00	  627.40	-1811.24	  506.70
     15.6700	  623.00	  626.87	-1836.71	  506.20
     15.7700	  612.00	  626.34	-1847.18	  505.71
     15.8700	  626.00	  625.81	-1832.65	  505.21
     15.9700	  613.00	  625.29	-1845.13	  504.71
     16.0700	  636.00	  624.77	-1821.61	  504.22
     16.1700	  604.00	  624.25	-1853.09	  503.73
     16.2700	  594.00	  623.74	-1862.58	  503.23
     16.3700	  599.00	  623.22	-1857.06	  502.74
     16.4700	  645.00	  622.71	-1810.55	  502.24
     16.5700	  631.00	  622.20	-1824.04	  501.75
     16.6700	  606.00	  621.70	-1848.54	  501.26
     16.7700	  588.00	  621.19	-1866.03	  500.77
     16.8700	  587.00	  620.68	-1866.52	  500.28
     16.9700	  545.00	  620.18	-1908.02	  499.79
     17.0700	  630.00	  619.68	-1822.52	  499.29
     17.1700	  673.00	  619.18	-1779.02	  498.80
     17.2700	  614.00	  618.68	-1837.52	  498.32
     17.3700	  566.00	  618.18	-1885.02	  497.83
     17.4700	  551.00	  617.68	-1899.52	  497.34
     17.5700	  584.00	  617.19	-1866.03	  496.85
     17.6700	  652.00	  616.69	-1797.53	  496.36
     17.7700	  617.00	  616.20	-1832.04	  495.88
     17.8700	  607.00	  615.71	-1841.55	  495.39
     17.9700	  611.00	  615.22	-1837.06	  494.90
     18.0700	  603.00	  615.56	-1845.40	  494.42
     18.1700	  620.00	  615.09	-1827.93	  493.94
     18.2700	  559.00	  614.62	-1888.46	  493.45
     18.3700	  610.00	  614.68	-1837.52	  492.97
     18.4700	  613.00	  614.22	-1834.06	  492.49
     18.5700	  600.00	  613.77	-1846.61	  492.01
     18.6700	  611.00	  613.31	-1835.15	  491.53
     18.7700	  641.00	  612.86	-1804.70	  491.05
     18.8700	  601.00	  612.41	-1844.25	  490.57
     18.9700	  596.00	  611.97	-1848.81	  490.09
     19.0700	  591.00	  611.52	-1853.36	  489.61
     19.1700	  577.00	  611.08	-1866.92	  489.13
     19.2700	  609.00	  610.64	-1834.48	  488.66
     19.3700	  528.00	  610.20	-1915.04	  488.18
     19.4700	  581.00	  609.77	-1861.61	  487.71
     19.5700	  592.00	  609.34	-1850.18	  487.24
     19.6700	  630.00	  608.91	-1811.75	  486.76
     19.7700	  641.00	  608.54	-1800.38	  486.29
     19.8700	  577.00	  608.11	-1863.96	  485.82
     19.9700	  603.00	  607.69	-1837.53	  485.35
     20.0700	  580.00	  607.28	-1860.12	  484.88
     20.1700	  633.00	  606.86	-1806.70	  484.41
     20.2700	  652.00	  606.45	-1787.29	  483.95
     20.3700	  620.00	  606.05	-1818.89	  483.48
     20.4700	  592.00	  605.64	-1846.48	  483.02
     20.5700	  613.00	  605.24	-1825.08	  482.55
     20.6700	  598.00	  604.85	-1839.69	  482.09
     20.7700	  600.00	  604.46	-1837.30	  481.63
     20.8700	  610.00	  604.07	-1826.91	  481.17
     20.9700	  608.00	  603.68	-1828.52	  480.71
     21.0700	  555.00	  603.31	-1881.15	  480.25
     21.1700	  598.00	  602.93	-1837.77	  479.79
     21.2700	  619.00	  602.57	-1816.41	  479.33
     21.3700	  617.00	  602.20	-1818.04	  478.88
     21.4700	  618.00	  601.85	-1816.69	  478.42
     21.5700	  599.00	  601.50	-1835.34	  477.97
     21.6700	  608.00	  601.16	-1826.00	  477.52
     21.7700	  627.00	  600.82	-1806.66	  477.07
     21.8700	  581.00	  600.49	-1852.33	  476.62
     21.9700	  566.00	  600.17	-1867.01	  476.17
     22.0700	  618.00	  599.86	-1814.70	  475.72
     22.1700	  652.00	  599.73	-1780.57	  475.27
     22.2700	  623.00	  599.44	-1809.28	  474.83
     22.3700	  592.00	  599.17	-1840.01	  474.38
     22.4700	  575.00	  598.91	-1856.75	  473.94
     22.5700	  598.00	  598.66	-1833.50	  473.50
     22.6700	  603.00	  598.43	-1828.27	  473.06
     22.7700	  598.00	  598.21	-1833.05	  472.62
     22.8700	  603.00	  598.02	-1827.86	  472.18
     22.9700	  596.00	  597.85	-1834.69	  471.74
     23.0700	  589.00	  597.71	-1841.55	  471.31
     23.1700	  619.00	  597.60	-1811.44	  470.87
     23.2700	  576.00	  597.52	-1854.36	  470.44
     23.3700	  587.00	  597.50	-1843.34	  470.01
     23.4700	  621.00	  597.53	-1809.37	  469.58
     23.5700	  614.00	  597.62	-1816.46	  469.15
     23.6700	  645.00	  597.81	-1785.65	  468.72
     23.7700	  575.00	  598.13	-1855.97	  468.29
     23.8700	  572.00	  598.58	-1859.42	  467.87
     23.9700	  655.00	  599.37	-1777.21	  467.44
     24.0700	  614.00	  600.61	-1819.45	  467.02
     24.1700	  617.00	  602.58	-1818.42	  466.60
     24.2700	  645.00	  605.65	-1793.49	  466.18
     24.3700	  604.00	  610.31	-1839.15	  465.76
     24.4700	  642.00	  616.96	-1807.80	  465.35
     24.5700	  624.00	  625.74	-1834.58	  464.93
     24.6700	  655.00	  636.24	-1814.08	  464.52
     24.7700	  708.00	  647.11	-1771.95	  464.10
     24.8700	  776.00	  655.63	-1712.47	  463.69
     24.9700	  738.00	  657.92	-1752.76	  463.28
     25.0700	  641.00	  651.58	-1843.42	  462.87
     25.1700	  648.00	  639.56	-1824.40	  462.47
     25.2700	  656.00	  627.24	-1804.08	  462.06
     25.3700	  619.00	  617.61	-1831.45	  461.66
     25.4700	  651.00	  611.15	-1792.99	  461.25
     25.5700	  666.00	  607.33	-1774.17	  460.85
     25.6700	  600.00	  605.36	-1838.20	  460.45
     25.7700	  681.00	  604.57	-1756.41	  460.06
     25.8700	  639.00	  604.51	-1798.35	  459.66
     25.9700	  651.00	  604.94	-1786.78	  459.26
     26.0700	  620.00	  605.77	-1818.61	  458.87
     26.1700	  642.00	  606.96	-1797.80	  458.48
     26.2700	  616.00	  608.51	-1825.35	  458.09
     26.3700	  601.00	  610.46	-1842.30	  457.70
     26.4700	  603.00	  612.84	-1842.68	  457.31
     26.5700	  617.00	  615.75	-1831.59	  456.92
     26.6700	  652.00	  619.27	-1800.11	  456.54
     26.7700	  583.00	  623.53	-1873.37	  456.16
     26.8700	  654.00	  628.73	-1807.57	  455.77
     26.9700	  689.00	  635.10	-1778.94	  455.39
     27.0700	  623.00	  643.00	-1852.84	  455.02
     27.1700	  641.00	  652.93	-1844.77	  454.64
     27.2700	  726.00	  665.71	-1772.55	  454.26
     27.3700	  653.00	  682.79	-1862.63	  453.89
     27.4700	  727.00	  707.02	-1812.86	  453.52
     27.5700	  764.00	  744.09	-1812.93	  453.15
     27.6700	  760.00	  804.69	-1877.53	  452.78
     27.7700	  789.00	  906.93	-1950.77	  452.41
     27.8700	  897.00	 1077.10	-2012.94	  452.05
     27.9700	 1034.00	 1344.12	-2142.96	  451.68
     28.0700	 1462.00	 1723.82	-2094.66	  451.32
     28.1700	 2150.00	 2194.93	-1877.77	  450.96
     28.2700	 2868.00	 2672.52	-1637.36	  450.60
     28.3700	 3448.00	 2995.65	-1380.49	  450.24
     28.4700	 3466.00	 2984.92	-1351.76	  449.89
     28.5700	 2839.00	 2652.25	-1646.09	  449.53
     28.6700	 2094.00	 2259.66	-1998.50	  449.18
     28.7700	 1721.00	 2021.90	-2133.74	  448.83
     28.8700	 1781.00	 1984.34	-2036.18	  448.48
     28.9700	 2149.00	 2072.95	-1756.79	  448.13
     29.0700	 2283.00	 2145.70	-1695.54	  447.79
     29.1700	 2125.00	 2056.94	-1764.78	  447.44
     29.2700	 1905.00	 1780.19	-1708.03	  447.10
     29.3700	 1429.00	 1439.25	-1843.09	  446.76
     29.4700	 1098.00	 1148.38	-1883.22	  446.42
     29.5700	  902.00	  944.70	-1875.54	  446.08
     29.6700	  896.00	  819.25	-1756.09	  445.74
     29.7700	  800.00	  747.32	-1780.16	  445.41
     29.8700	  777.00	  706.00	-1761.84	  445.08
     29.9700	  706.00	  680.52	-1807.36	  444.75
     30.0700	  723.00	  663.37	-1773.21	  444.42
     30.1700	  772.00	  651.25	-1712.09	  444.09
     30.2700	  685.00	  642.88	-1790.72	  443.76
     30.3700	  667.00	  638.06	-1803.90	  443.44
     30.4700	  691.00	  637.37	-1779.21	  443.12
     30.5700	  649.00	  642.05	-1825.89	  442.80
     30.6700	  690.00	  653.69	-1796.53	  442.48
     30.7700	  689.00	  673.11	-1816.95	  442.16
     30.8700	  646.00	  698.83	-1885.67	  441.84
     30.9700	  740.00	  725.68	-1818.52	  441.53
     31.0700	  731.00	  744.15	-1845.99	  441.22
     31.1700	  783.00	  742.82	-1792.66	  440.91
     31.2700	  719.00	  718.54	-1832.38	  440.60
     31.3700	  687.00	  683.01	-1828.85	  440.29
     31.4700	  637.00	  649.70	-1845.54	  439.99
     31.5700	  637.00	  624.49	-1820.33	  439.68
     31.6700	  637.00	  607.74	-1803.58	  439.38
     31.7700	  663.00	  597.46	-1767.30	  439.08
     31.8700	  628.00	  591.28	-1796.12	  438.78
     31.9700	  586.00	  587.39	-1834.23	  438.49
     32.0700	  607.00	  584.74	-1810.58	  438.19
     32.1700	  607.00	  582.82	-1808.66	  437.90
     32.2700	  594.00	  581.38	-1820.22	  437.61
     32.3700	  611.00	  580.33	-1802.17	  437.32
     32.4700	  588.00	  579.60	-1824.44	  437.03
     32.5700	  608.00	  579.18	-1804.02	  436.74
     32.6700	  599.00	  579.08	-1812.92	  436.46
     32.7700	  603.00	  579.31	-1809.15	  436.18
     32.8700	  602.00	  579.92	-1810.76	  435.90
     32.9700	  643.00	  581.01	-1770.85	  435.62
     33.0700	  582.00	  582.67	-1833.51	  435.34
     33.1700	  603.00	  585.14	-1814.98	  435.06
     33.2700	  579.00	  588.87	-1842.71	  434.79
     33.3700	  641.00	  594.71	-1786.55	  434.52
     33.4700	  619.00	  604.29	-1818.13	  434.25
     33.5700	  645.00	  620.44	-1808.28	  433.98
     33.6700	  581.00	  647.43	-1899.27	  433.71
     33.7700	  702.00	  690.37	-1821.21	  433.45
     33.8700	  740.00	  752.93	-1845.77	  433.18
     33.9700	  868.00	  833.39	-1798.23	  432.92
     34.0700	  981.00	  920.22	-1772.06	  432.66
     34.1700	 1075.00	  990.10	-1747.94	  432.40
     34.2700	 1091.00	 1012.09	-1753.93	  432.15
     34.3700	 1052.00	  969.20	-1750.04	  431.89
     34.4700	  873.00	  882.32	-1842.16	  431.64
     34.5700	  796.00	  789.12	-1825.96	  431.39
     34.6700	  673.00	  712.22	-1872.06	  431.14
     34.7700	  632.00	  657.68	-1858.52	  430.89
     34.8700	  628.00	  622.83	-1827.67	  430.65
     34.9700	  564.00	  601.93	-1870.77	  430.40
     35.0700	  564.00	  589.52	-1858.36	  430.16
     35.1700	  593.00	  581.75	-1821.59	  429.92
     35.2700	  601.00	  576.46	-1808.30	  429.68
     35.3700	  550.00	  572.55	-1855.39	  429.44
     35.4700	  545.00	  569.50	-1857.34	  429.21
     35.5700	  552.00	  567.05	-1847.89	  428.97
     35.6700	  577.00	  565.03	-1820.87	  428.74
     35.7700	  565.00	  563.34	-1831.18	  428.51
     35.8700	  527.00	  561.92	-1867.76	  428.28
     35.9700	  584.00	  560.71	-1809.55	  428.06
     36.0700	  574.00	  559.67	-1818.51	  427.83
     36.1700	  578.00	  559.28	-1814.12	  427.61
     36.2700	  578.00	  558.52	-1813.36	  427.39
     36.3700	  519.00	  557.88	-1871.72	  427.17
     36.4700	  556.00	  557.34	-1834.18	  426.95
     36.5700	  601.00	  556.90	-1788.74	  426.73
     36.6700	  563.00	  556.56	-1826.40	  426.52
     36.7700	  553.00	  556.34	-1836.18	  426.31
     36.8700	  571.00	  556.24	-1818.08	  426.09
     36.9700	  579.00	  556.27	-1810.11	  425.89
     37.0700	  539.00	  556.56	-1850.40	  425.68
     37.1700	  581.00	  557.37	-1809.21	  425.47
     37.2700	  548.00	  558.50	-1843.34	  425.27
     37.3700	  550.00	  560.44	-1843.28	  425.06
     37.4700	  566.00	  563.61	-1830.45	  424.86
     37.5700	  549.00	  568.54	-1852.38	  424.66
     37.6700	  573.00	  575.82	-1835.66	  424.47
     37.7700	  568.00	  585.82	-1850.66	  424.27
     37.8700	  561.00	  598.31	-1870.16	  424.08
     37.9700	  580.00	  612.15	-1864.99	  423.88
     38.0700	  638.00	  625.16	-1820.00	  423.69
     38.1700	  633.00	  634.26	-1834.10	  423.51
     38.2700	  613.00	  635.47	-1855.31	  423.32
     38.3700	  603.00	  626.67	-1856.52	  423.13
     38.4700	  603.00	  610.97	-1840.81	  422.95
     38.5700	  588.00	  594.02	-1838.86	  422.77
     38.6700	  557.00	  579.53	-1855.37	  422.59
     38.7700	  538.00	  568.71	-1863.55	  422.41
     38.8700	  558.00	  561.43	-1836.27	  422.23
     38.9700	  499.00	  555.97	-1889.81	  422.05
     39.0700	  547.00	  553.06	-1838.90	  421.88
     39.1700	  543.00	  551.19	-1841.03	  421.71
     39.2700	  556.00	  549.91	-1826.75	  421.54
     39.3700	  572.00	  548.95	-1809.79	  421.37
     39.4700	  583.00	  548.19	-1798.03	  421.20
     39.5700	  553.00	  547.57	-1827.41	  421.04
     39.6700	  551.00	  547.05	-1828.89	  420.87
     39.7700	  544.00	  546.60	-1835.44	  420.71
     39.8700	  545.00	  546.21	-1834.05	  420.55
     39.9700	  575.00	  545.88	-1803.72	  420.39
     40.0700	  578.00	  545.59	-1800.43	  420.23
     40.1700	  539.00	  544.84	-1838.68	  420.08
     40.2700	  498.00	  544.62	-1879.46	  419.92
     40.3700	  550.00	  544.98	-1827.82	  419.77
     40.4700	  555.00	  544.83	-1822.67	  419.62
     40.5700	  506.00	  544.71	-1871.55	  419.47
     40.6700	  549.00	  544.62	-1828.46	  419.32
     40.7700	  537.00	  544.56	-1840.40	  419.17
