MSG Master    CELL:    5.91923   5.91923  23.27372   90.0000   90.0000  120.0000   SPGR: P 63/m m c             TEMP:   1074.85
  1   1280     2.52000     0.00000    -0.12677     0.00000     0.00000    0
    99     0     2
       0.00000      10.00000
     125.00000     130.00000
 2Theta	Yobs	Ycal	Yobs-Ycal	Backg	Posr	(hkl)	K
      0.7700	    0.00	  566.25	-1733.75	  448.14
      0.8700	    0.00	  566.73	-1733.75	  448.62
      0.9700	   48.00	  567.21	-1733.75	  449.10
      1.0700	   51.00	  567.67	-1733.75	  449.56
      1.1700	   39.00	  568.12	-1733.75	  450.01
      1.2700	   39.00	  568.57	-1733.75	  450.46
      1.3700	   45.00	  569.00	-1733.75	  450.89
      1.4700	   91.00	  569.43	-1733.75	  451.32
      1.5700	  270.00	  569.85	-1733.75	  451.74
      1.6700	  499.00	  570.26	-1733.75	  452.15
      1.7700	  618.00	  570.66	-1733.75	  452.56
      1.8700	  638.00	  571.06	-1733.75	  452.95
      1.9700	  714.00	  571.45	-1733.75	  453.34
      2.0700	  781.00	  571.82	-1733.75	  453.71
      2.1700	  826.00	  572.19	-1733.75	  454.08
      2.2700	  752.00	  572.55	-1733.75	  454.45
      2.3700	  748.00	  572.91	-1733.75	  454.80
      2.4700	  718.00	  573.25	-1733.75	  455.15
      2.5700	  671.00	  573.59	-1733.75	  455.48
      2.6700	  678.00	  573.92	-1733.75	  455.81
      2.7700	  596.00	  574.25	-1733.75	  456.14
      2.8700	  626.00	  574.56	-1733.75	  456.45
      2.9700	  621.00	  574.87	-1733.75	  456.76
      3.0700	  563.00	  575.17	-1733.75	  457.06
      3.1700	  585.00	  575.46	-1733.75	  457.35
      3.2700	  627.00	  575.74	-1733.75	  457.63
      3.3700	  680.00	  576.02	-1733.75	  457.91
      3.4700	  763.00	  576.29	-1733.75	  458.18
      3.5700	  805.00	  576.55	-1733.75	  458.44
      3.6700	  879.00	  576.81	-1733.75	  458.70
      3.7700	  907.00	  577.06	-1733.75	  458.95
      3.8700	  971.00	  577.30	-1733.75	  459.19
      3.9700	 1020.00	  577.53	-1733.75	  459.42
      4.0700	 1032.00	  577.76	-1733.75	  459.65
      4.1700	 1078.00	  577.98	-1733.75	  459.87
      4.2700	 1045.00	  578.19	-1733.75	  460.08
      4.3700	 1043.00	  578.39	-1733.75	  460.29
      4.4700	 1075.00	  578.59	-1733.75	  460.49
      4.5700	 1022.00	  578.79	-1733.75	  460.68
      4.6700	 1031.00	  578.97	-1733.75	  460.86
      4.7700	 1024.00	  579.15	-1733.75	  461.04
      4.8700	 1015.00	  579.32	-1733.75	  461.21
      4.9700	  990.00	  579.49	-1733.75	  461.38
      5.0700	  868.00	  579.65	-1733.75	  461.54
      5.1700	  899.00	  579.80	-1733.75	  461.69
      5.2700	  840.00	  579.95	-1733.75	  461.84
      5.3700	  892.00	  580.09	-1733.75	  461.98
      5.4700	  860.00	  580.22	-1733.75	  462.11
      5.5700	  828.00	  580.35	-1733.75	  462.24
      5.6700	  810.00	  580.47	-1733.75	  462.36
      5.7700	  851.00	  580.59	-1733.75	  462.48
      5.8700	  801.00	  580.70	-1733.75	  462.59
      5.9700	  795.00	  580.80	-1733.75	  462.69
      6.0700	  803.00	  580.90	-1733.75	  462.79
      6.1700	  766.00	  580.99	-1733.75	  462.88
      6.2700	  791.00	  581.08	-1733.75	  462.97
      6.3700	  771.00	  581.16	-1733.75	  463.05
      6.4700	  831.00	  581.23	-1733.75	  463.12
      6.5700	  766.00	  581.30	-1733.75	  463.19
      6.6700	  756.00	  581.36	-1733.75	  463.25
      6.7700	  732.00	  581.42	-1733.75	  463.31
      6.8700	  703.00	  581.47	-1733.75	  463.36
      6.9700	  711.00	  581.52	-1733.75	  463.41
      7.0700	  695.00	  581.56	-1733.75	  463.45
      7.1700	  665.00	  581.59	-1733.75	  463.48
      7.2700	  666.00	  581.62	-1733.75	  463.51
      7.3700	  674.00	  581.65	-1733.75	  463.54
      7.4700	  670.00	  581.67	-1733.75	  463.56
      7.5700	  663.00	  581.68	-1733.75	  463.57
      7.6700	  669.00	  581.69	-1733.75	  463.58
      7.7700	  653.00	  581.69	-1733.75	  463.59
      7.8700	  672.00	  581.69	-1733.75	  463.58
      7.9700	  641.00	  581.69	-1733.75	  463.58
      8.0700	  666.00	  581.68	-1733.75	  463.57
      8.1700	  686.00	  581.66	-1733.75	  463.55
      8.2700	  662.00	  581.64	-1733.75	  463.53
      8.3700	  626.00	  581.61	-1733.75	  463.50
      8.4700	  565.00	  581.58	-1733.75	  463.47
      8.5700	  653.00	  581.55	-1733.75	  463.44
      8.6700	  613.00	  581.51	-1733.75	  463.40
      8.7700	  621.00	  581.46	-1733.75	  463.35
      8.8700	  653.00	  581.41	-1733.75	  463.30
      8.9700	  606.00	  581.36	-1733.75	  463.25
      9.0700	  636.00	  581.30	-1733.75	  463.19
      9.1700	  604.00	  581.24	-1733.75	  463.13
      9.2700	  646.00	  581.17	-1733.75	  463.06
      9.3700	  574.00	  581.10	-1733.75	  462.99
      9.4700	  614.00	  581.02	-1733.75	  462.91
      9.5700	  624.00	  580.94	-1733.75	  462.83
      9.6700	  586.00	  580.86	-1733.75	  462.75
      9.7700	  565.00	  580.77	-1733.75	  462.66
      9.8700	  599.00	  580.68	-1733.75	  462.57
      9.9700	  619.00	  580.58	-1733.75	  462.47
     10.0700	  588.00	  581.20	-1726.95	  462.37
     10.1700	  600.00	  581.17	-1714.92	  462.27
     10.2700	  624.00	  581.16	-1690.91	  462.16
     10.3700	  588.00	  581.17	-1726.92	  462.04
     10.4700	  602.00	  581.23	-1712.98	  461.93
     10.5700	  583.00	  581.40	-1732.15	  461.81
     10.6700	  611.00	  581.78	-1704.53	  461.68
     10.7700	  574.00	  582.48	-1742.23	  461.55
     10.8700	  573.00	  583.57	-1744.32	  461.42
     10.9700	  582.00	  585.05	-1736.80	  461.28
     11.0700	  635.00	  586.87	-1685.62	  461.15
     11.1700	  574.00	  589.02	-1748.77	  461.00
     11.2700	  581.00	  591.55	-1744.30	  460.86
     11.3700	  590.00	  594.53	-1738.28	  460.71
     11.4700	  578.00	  598.09	-1753.84	  460.55
     11.5700	  598.00	  602.43	-1738.18	  460.39
     11.6700	  628.00	  607.91	-1713.67	  460.23
     11.7700	  648.00	  615.16	-1700.91	  460.07
     11.8700	  651.00	  625.17	-1707.92	  459.90
     11.9700	  659.00	  638.79	-1713.54	  459.73
     12.0700	  666.00	  654.55	-1722.30	  459.56
     12.1700	  730.00	  665.87	-1669.62	  459.38
     12.2700	  682.00	  662.16	-1713.91	  459.20
     12.3700	  683.00	  640.40	-1691.15	  459.02
     12.4700	  646.00	  614.28	-1702.03	  458.83
     12.5700	  599.00	  595.68	-1730.43	  458.64
     12.6700	  612.00	  585.99	-1707.74	  458.45
     12.7700	  590.00	  581.78	-1725.53	  458.25
     12.8700	  578.00	  579.90	-1735.65	  458.06
     12.9700	  556.00	  578.83	-1756.58	  457.86
     13.0700	  560.00	  578.07	-1751.82	  457.65
     13.1700	  533.00	  577.47	-1778.22	  457.44
     13.2700	  558.00	  576.96	-1752.71	  457.23
     13.3700	  536.00	  576.52	-1774.27	  457.02
     13.4700	  550.00	  576.13	-1759.88	  456.81
     13.5700	  548.00	  575.77	-1761.52	  456.59
     13.6700	  589.00	  575.43	-1720.18	  456.37
     13.7700	  569.00	  575.11	-1739.86	  456.14
     13.8700	  495.00	  574.81	-1813.56	  455.92
     13.9700	  573.00	  574.51	-1735.26	  455.69
     14.0700	  548.00	  574.22	-1759.97	  455.46
     14.1700	  597.00	  573.94	-1710.69	  455.23
     14.2700	  520.00	  573.67	-1787.42	  454.99
     14.3700	  552.00	  573.39	-1755.14	  454.75
     14.4700	  583.00	  573.12	-1723.87	  454.51
     14.5700	  536.00	  572.85	-1770.60	  454.27
     14.6700	  577.00	  572.58	-1729.33	  454.02
     14.7700	  564.00	  572.31	-1742.06	  453.78
     14.8700	  509.00	  572.04	-1796.79	  453.53
     14.9700	  569.00	  571.77	-1736.52	  453.28
     15.0700	  575.00	  571.50	-1730.25	  453.02
     15.1700	  551.00	  571.23	-1753.98	  452.77
     15.2700	  606.00	  570.96	-1698.71	  452.51
     15.3700	  543.00	  570.69	-1761.44	  452.25
     15.4700	  575.00	  570.42	-1729.17	  451.99
     15.5700	  609.00	  570.14	-1694.89	  451.72
     15.6700	  573.00	  569.87	-1730.62	  451.46
     15.7700	  560.00	  569.59	-1743.34	  451.19
     15.8700	  570.00	  569.31	-1733.06	  450.92
     15.9700	  597.00	  569.03	-1705.78	  450.65
     16.0700	  580.00	  568.75	-1722.50	  450.37
     16.1700	  592.00	  568.47	-1710.22	  450.10
     16.2700	  538.00	  568.19	-1763.94	  449.82
     16.3700	  597.00	  567.93	-1704.68	  449.54
     16.4700	  561.00	  567.65	-1740.40	  449.26
     16.5700	  547.00	  567.36	-1754.11	  448.98
     16.6700	  546.00	  567.07	-1754.82	  448.69
     16.7700	  554.00	  566.78	-1746.53	  448.41
     16.8700	  562.00	  566.49	-1738.24	  448.12
     16.9700	  614.00	  566.20	-1685.95	  447.83
     17.0700	  513.00	  565.91	-1786.66	  447.54
     17.1700	  576.00	  565.62	-1723.37	  447.25
     17.2700	  523.00	  565.32	-1776.07	  446.96
     17.3700	  596.00	  565.02	-1702.77	  446.66
     17.4700	  578.00	  564.73	-1720.48	  446.37
     17.5700	  559.00	  564.43	-1739.18	  446.07
     17.6700	  540.00	  564.13	-1757.88	  445.77
     17.7700	  551.00	  563.83	-1746.58	  445.47
     17.8700	  565.00	  563.53	-1732.28	  445.17
     17.9700	  540.00	  563.32	-1757.07	  444.87
     18.0700	  567.00	  563.02	-1729.77	  444.56
     18.1700	  523.00	  562.72	-1773.47	  444.26
     18.2700	  562.00	  562.41	-1734.16	  443.95
     18.3700	  576.00	  562.11	-1719.86	  443.65
     18.4700	  606.00	  561.80	-1689.55	  443.34
     18.5700	  558.00	  561.50	-1737.25	  443.03
     18.6700	  583.00	  561.19	-1711.94	  442.72
     18.7700	  573.00	  560.88	-1721.63	  442.41
     18.8700	  526.00	  560.66	-1768.41	  442.10
     18.9700	  555.00	  560.35	-1739.10	  441.78
     19.0700	  551.00	  560.04	-1742.79	  441.47
     19.1700	  588.00	  559.73	-1705.48	  441.15
     19.2700	  565.00	  559.42	-1728.17	  440.84
     19.3700	  574.00	  559.11	-1718.86	  440.52
     19.4700	  545.00	  558.80	-1747.55	  440.20
     19.5700	  532.00	  558.49	-1760.24	  439.88
     19.6700	  627.00	  558.18	-1664.93	  439.56
     19.7700	  553.00	  557.87	-1738.62	  439.24
     19.8700	  573.00	  557.55	-1718.30	  438.92
     19.9700	  570.00	  557.24	-1720.99	  438.60
     20.0700	  520.00	  556.93	-1770.68	  438.28
     20.1700	  569.00	  556.61	-1721.36	  437.96
     20.2700	  519.00	  556.30	-1771.05	  437.63
     20.3700	  548.00	  555.99	-1741.74	  437.31
     20.4700	  569.00	  555.64	-1720.39	  436.98
     20.5700	  553.00	  555.33	-1736.08	  436.66
     20.6700	  562.00	  555.02	-1726.77	  436.33
     20.7700	  546.00	  554.71	-1742.46	  436.01
     20.8700	  517.00	  554.39	-1771.14	  435.68
     20.9700	  538.00	  554.12	-1749.87	  435.35
     21.0700	  549.00	  553.81	-1738.56	  435.02
     21.1700	  574.00	  553.50	-1713.25	  434.70
     21.2700	  560.00	  553.19	-1726.94	  434.37
     21.3700	  518.00	  552.88	-1768.63	  434.04
     21.4700	  617.00	  552.57	-1669.32	  433.71
     21.5700	  537.00	  552.26	-1749.01	  433.38
     21.6700	  541.00	  551.96	-1744.71	  433.05
     21.7700	  530.00	  551.65	-1755.40	  432.72
     21.8700	  600.00	  551.35	-1685.10	  432.39
     21.9700	  580.00	  551.05	-1704.80	  432.06
     22.0700	  542.00	  550.75	-1742.50	  431.73
     22.1700	  514.00	  550.45	-1770.20	  431.40
     22.2700	  535.00	  550.16	-1748.91	  431.07
     22.3700	  585.00	  549.87	-1698.62	  430.73
     22.4700	  513.00	  549.59	-1770.34	  430.40
     22.5700	  509.00	  549.31	-1774.06	  430.07
     22.6700	  542.00	  549.03	-1740.78	  429.74
     22.7700	  526.00	  548.76	-1756.51	  429.41
     22.8700	  573.00	  548.50	-1709.25	  429.08
     22.9700	  561.00	  548.25	-1721.00	  428.74
     23.0700	  530.00	  548.01	-1751.76	  428.41
     23.1700	  544.00	  547.78	-1737.53	  428.08
     23.2700	  581.00	  547.58	-1700.33	  427.75
     23.3700	  590.00	  547.39	-1691.14	  427.42
     23.4700	  549.00	  547.24	-1731.99	  427.09
     23.5700	  528.00	  547.13	-1752.88	  426.76
     23.6700	  567.00	  547.08	-1713.83	  426.42
     23.7700	  551.00	  547.13	-1729.88	  426.09
     23.8700	  568.00	  547.51	-1713.26	  425.76
     23.9700	  504.00	  548.17	-1777.92	  425.43
     24.0700	  585.00	  549.67	-1698.42	  425.10
     24.1700	  570.00	  552.68	-1716.43	  424.77
     24.2700	  583.00	  558.05	-1708.80	  424.44
     24.3700	  560.00	  566.74	-1740.49	  424.11
     24.4700	  540.00	  579.86	-1773.61	  423.78
     24.5700	  560.00	  597.84	-1771.59	  423.45
     24.6700	  616.00	  617.89	-1735.64	  423.12
     24.7700	  634.00	  631.72	-1731.47	  422.79
     24.8700	  644.00	  628.22	-1717.97	  422.47
     24.9700	  552.00	  606.35	-1788.10	  422.14
     25.0700	  619.00	  580.43	-1695.18	  421.81
     25.1700	  601.00	  561.57	-1694.32	  421.48
     25.2700	  541.00	  551.36	-1744.11	  421.16
     25.3700	  562.00	  546.79	-1718.54	  420.83
     25.4700	  559.00	  544.78	-1719.53	  420.51
     25.5700	  558.00	  543.71	-1719.46	  420.18
     25.6700	  599.00	  543.01	-1677.76	  419.86
     25.7700	  541.00	  542.50	-1735.25	  419.53
     25.8700	  548.00	  542.11	-1727.86	  419.21
     25.9700	  591.00	  541.81	-1684.56	  418.89
     26.0700	  565.00	  541.60	-1710.35	  418.56
     26.1700	  546.00	  541.46	-1729.21	  418.24
     26.2700	  562.00	  541.39	-1713.14	  417.92
     26.3700	  546.00	  541.40	-1729.15	  417.60
     26.4700	  548.00	  541.49	-1727.24	  417.28
     26.5700	  486.00	  541.68	-1789.43	  416.96
     26.6700	  530.00	  541.98	-1745.73	  416.64
     26.7700	  609.00	  542.41	-1667.16	  416.32
     26.8700	  553.00	  543.02	-1723.77	  416.01
     26.9700	  553.00	  543.86	-1724.61	  415.69
     27.0700	  557.00	  544.99	-1721.74	  415.37
     27.1700	  532.00	  546.56	-1748.31	  415.06
     27.2700	  571.00	  548.81	-1711.56	  414.74
     27.3700	  533.00	  552.26	-1753.01	  414.43
     27.4700	  542.00	  557.85	-1749.60	  414.12
     27.5700	  546.00	  567.31	-1755.06	  413.81
     27.6700	  580.00	  583.34	-1737.09	  413.49
     27.7700	  597.00	  609.40	-1746.15	  413.18
     27.8700	  593.00	  648.41	-1789.16	  412.87
     27.9700	  666.00	  700.41	-1768.16	  412.57
     28.0700	  815.00	  759.39	-1678.14	  412.26
     28.1700	  863.00	  810.72	-1681.47	  411.95
     28.2700	  966.00	  832.64	-1600.39	  411.64
     28.3700	  891.00	  812.92	-1655.67	  411.34
     28.4700	  755.00	  773.07	-1751.82	  411.03
     28.5700	  764.00	  747.53	-1717.28	  410.73
     28.6700	  716.00	  751.77	-1769.52	  410.43
     28.7700	  750.00	  780.42	-1764.17	  410.13
     28.8700	  785.00	  812.39	-1761.14	  409.83
     28.9700	  836.00	  817.88	-1715.63	  409.53
     29.0700	  799.00	  778.22	-1712.97	  409.23
     29.1700	  719.00	  710.80	-1725.55	  408.93
     29.2700	  647.00	  646.70	-1733.45	  408.64
     29.3700	  624.00	  600.58	-1710.33	  408.34
     29.4700	  605.00	  572.81	-1701.56	  408.05
     29.5700	  587.00	  557.86	-1704.61	  407.75
     29.6700	  622.00	  549.99	-1661.74	  407.46
     29.7700	  580.00	  545.54	-1699.29	  407.17
     29.8700	  583.00	  542.76	-1693.51	  406.88
     29.9700	  528.00	  540.97	-1746.72	  406.59
     30.0700	  547.00	  540.02	-1726.77	  406.30
     30.1700	  563.00	  540.03	-1710.78	  406.02
     30.2700	  526.00	  541.54	-1749.29	  405.73
     30.3700	  580.00	  545.60	-1699.35	  405.45
     30.4700	  571.00	  553.78	-1716.53	  405.16
     30.5700	  554.00	  567.80	-1747.55	  404.88
     30.6700	  545.00	  588.13	-1776.88	  404.60
     30.7700	  608.00	  612.26	-1738.01	  404.32
     30.8700	  595.00	  633.26	-1772.01	  404.04
     30.9700	  585.00	  640.55	-1789.30	  403.76
     31.0700	  625.00	  627.00	-1735.75	  403.49
     31.1700	  600.00	  599.78	-1733.53	  403.21
     31.2700	  545.00	  572.67	-1761.42	  402.94
     31.3700	  547.00	  552.75	-1739.50	  402.67
     31.4700	  550.00	  540.74	-1724.49	  402.39
     31.5700	  545.00	  534.38	-1723.13	  402.13
     31.6700	  537.00	  531.12	-1727.87	  401.86
     31.7700	  544.00	  529.33	-1719.08	  401.59
     31.8700	  548.00	  528.19	-1713.94	  401.32
     31.9700	  555.00	  527.40	-1706.15	  401.06
     32.0700	  528.00	  526.83	-1732.58	  400.80
     32.1700	  512.00	  526.45	-1748.20	  400.53
     32.2700	  513.00	  526.22	-1746.97	  400.27
     32.3700	  571.00	  526.13	-1688.88	  400.01
     32.4700	  541.00	  526.20	-1718.95	  399.76
     32.5700	  512.00	  526.43	-1748.18	  399.50
     32.6700	  571.00	  526.86	-1689.61	  399.24
     32.7700	  572.00	  527.52	-1689.27	  398.99
     32.8700	  572.00	  528.49	-1690.24	  398.74
     32.9700	  502.00	  529.86	-1761.61	  398.49
     33.0700	  513.00	  531.87	-1752.62	  398.24
     33.1700	  555.00	  534.94	-1713.69	  397.99
     33.2700	  547.00	  540.13	-1726.88	  397.74
     33.3700	  536.00	  549.72	-1747.47	  397.49
     33.4700	  571.00	  568.15	-1730.90	  397.25
     33.5700	  582.00	  602.65	-1754.40	  397.01
     33.6700	  644.00	  661.59	-1751.34	  396.77
     33.7700	  743.00	  748.90	-1739.65	  396.53
     33.8700	  896.00	  855.22	-1692.97	  396.29
     33.9700	 1053.00	  951.71	-1632.46	  396.05
     34.0700	 1044.00	  994.06	-1683.81	  395.82
     34.1700	 1064.00	  949.87	-1619.62	  395.58
     34.2700	  874.00	  842.29	-1702.04	  395.35
     34.3700	  765.00	  727.24	-1695.99	  395.12
     34.4700	  625.00	  638.93	-1747.68	  394.89
     34.5700	  548.00	  584.06	-1769.81	  394.66
     34.6700	  552.00	  554.81	-1736.56	  394.44
     34.7700	  527.00	  540.32	-1747.07	  394.21
     34.8700	  512.00	  532.84	-1754.59	  393.99
     34.9700	  519.00	  528.38	-1743.13	  393.77
     35.0700	  531.00	  525.30	-1728.05	  393.54
     35.1700	  499.00	  522.97	-1757.72	  393.33
     35.2700	  562.00	  521.13	-1692.88	  393.11
     35.3700	  534.00	  519.64	-1719.39	  392.89
     35.4700	  539.00	  518.40	-1713.15	  392.68
     35.5700	  519.00	  517.36	-1732.11	  392.47
     35.6700	  522.00	  516.46	-1728.21	  392.26
     35.7700	  535.00	  515.68	-1714.43	  392.05
     35.8700	  519.00	  514.99	-1729.74	  391.84
     35.9700	  533.00	  514.87	-1715.62	  391.63
     36.0700	  511.00	  514.33	-1737.08	  391.43
     36.1700	  505.00	  513.85	-1742.60	  391.22
     36.2700	  536.00	  513.41	-1711.16	  391.02
     36.3700	  531.00	  513.02	-1715.77	  390.82
     36.4700	  509.00	  512.66	-1737.41	  390.62
     36.5700	  523.00	  512.35	-1723.10	  390.43
     36.6700	  467.00	  512.07	-1778.82	  390.23
     36.7700	  521.00	  511.84	-1724.59	  390.04
     36.8700	  497.00	  511.68	-1748.43	  389.85
     36.9700	  503.00	  511.64	-1742.39	  389.65
     37.0700	  522.00	  511.87	-1723.62	  389.47
     37.1700	  529.00	  512.64	-1717.39	  389.28
     37.2700	  544.00	  514.36	-1704.11	  389.09
     37.3700	  540.00	  517.46	-1711.21	  388.91
     37.4700	  519.00	  521.99	-1736.74	  388.73
     37.5700	  558.00	  527.16	-1702.91	  388.55
     37.6700	  504.00	  531.29	-1761.04	  388.37
     37.7700	  556.00	  532.46	-1710.21	  388.19
     37.8700	  594.00	  530.27	-1670.02	  388.01
     37.9700	  514.00	  526.28	-1746.03	  387.84
     38.0700	  546.00	  521.95	-1709.70	  387.67
     38.1700	  484.00	  517.84	-1767.59	  387.50
     38.2700	  531.00	  514.33	-1717.08	  387.33
     38.3700	  514.00	  511.66	-1731.41	  387.16
     38.4700	  570.00	  509.83	-1673.58	  386.99
     38.5700	  552.00	  508.67	-1690.42	  386.83
     38.6700	  534.00	  507.96	-1707.71	  386.67
     38.7700	  526.00	  507.41	-1715.16	  386.51
     38.8700	  540.00	  507.08	-1700.83	  386.35
     38.9700	  507.00	  506.83	-1733.58	  386.19
     39.0700	  498.00	  506.60	-1742.35	  386.03
     39.1700	  494.00	  506.40	-1746.15	  385.88
     39.2700	  521.00	  506.13	-1718.88	  385.73
     39.3700	  468.00	  505.96	-1771.71	  385.58
     39.4700	  529.00	  505.81	-1710.56	  385.43
     39.5700	  522.00	  505.66	-1717.41	  385.28
     39.6700	  486.00	  505.53	-1753.28	  385.13
     39.7700	  496.00	  505.52	-1743.27	  384.99
     39.8700	  496.00	  505.40	-1743.15	  384.85
     39.9700	  529.00	  505.30	-1710.05	  384.71
     40.0700	  487.00	  505.20	-1751.95	  384.57
     40.1700	  481.00	  505.12	-1757.87	  384.43
     40.2700	  532.00	  505.04	-1706.79	  384.29
     40.3700	  497.00	  504.98	-1741.73	  384.16
     40.4700	  511.00	  504.93	-1727.68	  384.03
     40.5700	  483.00	  504.89	-1755.64	  383.90
     40.6700	  538.00	  504.87	-1700.62	  383.77
     40.7700	  533.00	  504.87	-1705.62	  383.64
