MSG Master    CELL:    5.91367   5.91367  23.25331   90.0000   90.0000  120.0000   SPGR: P 63/m m c             TEMP:    978.25
  1   1280     2.52000     0.00000    -0.13060     0.00000     0.00000    0
    99     0     2
       0.00000      10.00000
     125.00000     130.00000
 2Theta	Yobs	Ycal	Yobs-Ycal	Backg	Posr	(hkl)	K
      0.7700	    0.00	  493.47	-1724.50	  377.41
      0.8700	    0.00	  494.72	-1724.50	  378.66
      0.9700	   35.00	  495.95	-1724.50	  379.89
      1.0700	   24.00	  497.17	-1724.50	  381.10
      1.1700	   49.00	  498.37	-1724.50	  382.31
      1.2700	   33.00	  499.56	-1724.50	  383.50
      1.3700	   53.00	  500.73	-1724.50	  384.67
      1.4700	   78.00	  501.89	-1724.50	  385.83
      1.5700	  303.00	  503.04	-1724.50	  386.98
      1.6700	  420.00	  504.17	-1724.50	  388.11
      1.7700	  558.00	  505.29	-1724.50	  389.23
      1.8700	  683.00	  506.40	-1724.50	  390.33
      1.9700	  722.00	  507.49	-1724.50	  391.42
      2.0700	  720.00	  508.56	-1724.50	  392.50
      2.1700	  790.00	  509.63	-1724.50	  393.56
      2.2700	  802.00	  510.68	-1724.50	  394.62
      2.3700	  772.00	  511.72	-1724.50	  395.65
      2.4700	  718.00	  512.74	-1724.50	  396.68
      2.5700	  699.00	  513.75	-1724.50	  397.69
      2.6700	  687.00	  514.75	-1724.50	  398.69
      2.7700	  679.00	  515.74	-1724.50	  399.67
      2.8700	  648.00	  516.71	-1724.50	  400.64
      2.9700	  589.00	  517.67	-1724.50	  401.60
      3.0700	  590.00	  518.62	-1724.50	  402.55
      3.1700	  586.00	  519.55	-1724.50	  403.49
      3.2700	  656.00	  520.47	-1724.50	  404.41
      3.3700	  687.00	  521.38	-1724.50	  405.32
      3.4700	  842.00	  522.28	-1724.50	  406.21
      3.5700	  897.00	  523.16	-1724.50	  407.10
      3.6700	  967.00	  524.03	-1724.50	  407.97
      3.7700	  986.00	  524.90	-1724.50	  408.83
      3.8700	 1022.00	  525.74	-1724.50	  409.68
      3.9700	 1107.00	  526.58	-1724.50	  410.52
      4.0700	 1143.00	  527.40	-1724.50	  411.34
      4.1700	 1199.00	  528.22	-1724.50	  412.15
      4.2700	 1168.00	  529.02	-1724.50	  412.95
      4.3700	 1125.00	  529.81	-1724.50	  413.74
      4.4700	 1090.00	  530.58	-1724.50	  414.52
      4.5700	 1102.00	  531.35	-1724.50	  415.29
      4.6700	 1077.00	  532.11	-1724.50	  416.04
      4.7700	 1083.00	  532.85	-1724.50	  416.78
      4.8700	  978.00	  533.58	-1724.50	  417.52
      4.9700	 1032.00	  534.30	-1724.50	  418.24
      5.0700	  961.00	  535.01	-1724.50	  418.95
      5.1700	  937.00	  535.71	-1724.50	  419.65
      5.2700	  998.00	  536.40	-1724.50	  420.33
      5.3700	  960.00	  537.08	-1724.50	  421.01
      5.4700	  918.00	  537.74	-1724.50	  421.68
      5.5700	  868.00	  538.40	-1724.50	  422.33
      5.6700	  857.00	  539.04	-1724.50	  422.98
      5.7700	  829.00	  539.68	-1724.50	  423.61
      5.8700	  797.00	  540.30	-1724.50	  424.24
      5.9700	  820.00	  540.91	-1724.50	  424.85
      6.0700	  787.00	  541.52	-1724.50	  425.45
      6.1700	  798.00	  542.11	-1724.50	  426.04
      6.2700	  754.00	  542.69	-1724.50	  426.63
      6.3700	  779.00	  543.26	-1724.50	  427.20
      6.4700	  805.00	  543.83	-1724.50	  427.76
      6.5700	  810.00	  544.38	-1724.50	  428.31
      6.6700	  722.00	  544.92	-1724.50	  428.86
      6.7700	  769.00	  545.45	-1724.50	  429.39
      6.8700	  714.00	  545.98	-1724.50	  429.91
      6.9700	  700.00	  546.49	-1724.50	  430.42
      7.0700	  732.00	  546.99	-1724.50	  430.93
      7.1700	  652.00	  547.49	-1724.50	  431.42
      7.2700	  722.00	  547.97	-1724.50	  431.91
      7.3700	  669.00	  548.44	-1724.50	  432.38
      7.4700	  688.00	  548.91	-1724.50	  432.85
      7.5700	  644.00	  549.37	-1724.50	  433.30
      7.6700	  643.00	  549.81	-1724.50	  433.75
      7.7700	  607.00	  550.25	-1724.50	  434.19
      7.8700	  615.00	  550.68	-1724.50	  434.62
      7.9700	  645.00	  551.10	-1724.50	  435.04
      8.0700	  620.00	  551.51	-1724.50	  435.45
      8.1700	  641.00	  551.91	-1724.50	  435.85
      8.2700	  641.00	  552.31	-1724.50	  436.24
      8.3700	  648.00	  552.69	-1724.50	  436.63
      8.4700	  622.00	  553.07	-1724.50	  437.00
      8.5700	  568.00	  553.43	-1724.50	  437.37
      8.6700	  628.00	  553.79	-1724.50	  437.73
      8.7700	  591.00	  554.14	-1724.50	  438.08
      8.8700	  645.00	  554.48	-1724.50	  438.42
      8.9700	  628.00	  554.82	-1724.50	  438.75
      9.0700	  612.00	  555.14	-1724.50	  439.08
      9.1700	  600.00	  555.46	-1724.50	  439.39
      9.2700	  635.00	  555.77	-1724.50	  439.70
      9.3700	  600.00	  556.07	-1724.50	  440.00
      9.4700	  566.00	  556.36	-1724.50	  440.30
      9.5700	  603.00	  556.65	-1724.50	  440.58
      9.6700	  586.00	  556.92	-1724.50	  440.86
      9.7700	  584.00	  557.19	-1724.50	  441.13
      9.8700	  629.00	  557.45	-1724.50	  441.39
      9.9700	  586.00	  557.71	-1724.50	  441.64
     10.0700	  601.00	  559.58	-1683.08	  441.89
     10.1700	  587.00	  559.99	-1697.49	  442.13
     10.2700	  578.00	  560.45	-1706.95	  442.36
     10.3700	  592.00	  560.96	-1693.46	  442.58
     10.4700	  596.00	  561.57	-1690.07	  442.80
     10.5700	  587.00	  562.34	-1699.84	  443.01
     10.6700	  561.00	  563.38	-1726.88	  443.21
     10.7700	  533.00	  564.80	-1756.30	  443.40
     10.8700	  603.00	  566.67	-1688.17	  443.59
     10.9700	  555.00	  569.02	-1738.52	  443.77
     11.0700	  621.00	  571.83	-1675.33	  443.94
     11.1700	  564.00	  575.11	-1735.61	  444.11
     11.2700	  566.00	  578.90	-1737.40	  444.27
     11.3700	  576.00	  583.30	-1731.80	  444.42
     11.4700	  592.00	  588.48	-1720.98	  444.57
     11.5700	  550.00	  594.70	-1769.20	  444.71
     11.6700	  651.00	  602.36	-1675.86	  444.84
     11.7700	  602.00	  612.04	-1734.54	  444.96
     11.8700	  614.00	  624.28	-1734.78	  445.08
     11.9700	  662.00	  638.83	-1701.33	  445.20
     12.0700	  708.00	  653.46	-1669.96	  445.30
     12.1700	  672.00	  662.83	-1715.33	  445.40
     12.2700	  677.00	  659.36	-1706.86	  445.50
     12.3700	  672.00	  640.60	-1693.10	  445.58
     12.4700	  637.00	  616.15	-1703.65	  445.66
     12.5700	  594.00	  595.92	-1726.42	  445.74
     12.6700	  596.00	  582.67	-1711.17	  445.81
     12.7700	  607.00	  575.13	-1692.63	  445.87
     12.8700	  555.00	  571.13	-1740.63	  445.93
     12.9700	  569.00	  568.92	-1724.42	  445.98
     13.0700	  507.00	  567.57	-1785.07	  446.03
     13.1700	  614.00	  566.65	-1677.15	  446.07
     13.2700	  545.00	  565.97	-1745.47	  446.10
     13.3700	  522.00	  565.45	-1767.95	  446.13
     13.4700	  558.00	  565.04	-1731.54	  446.15
     13.5700	  565.00	  564.71	-1724.21	  446.17
     13.6700	  543.00	  564.44	-1745.94	  446.18
     13.7700	  553.00	  564.22	-1735.72	  446.18
     13.8700	  560.00	  564.02	-1728.52	  446.18
     13.9700	  552.00	  563.86	-1736.36	  446.18
     14.0700	  544.00	  563.71	-1744.21	  446.17
     14.1700	  574.00	  563.58	-1714.08	  446.15
     14.2700	  566.00	  563.45	-1721.95	  446.13
     14.3700	  554.00	  563.34	-1733.84	  446.11
     14.4700	  565.00	  563.23	-1722.73	  446.08
     14.5700	  533.00	  563.12	-1754.62	  446.04
     14.6700	  550.00	  563.05	-1737.55	  446.00
     14.7700	  640.00	  562.95	-1647.45	  445.95
     14.8700	  560.00	  562.86	-1727.36	  445.90
     14.9700	  532.00	  562.76	-1755.26	  445.85
     15.0700	  538.00	  562.66	-1749.16	  445.79
     15.1700	  553.00	  562.56	-1734.06	  445.72
     15.2700	  569.00	  562.46	-1717.96	  445.65
     15.3700	  533.00	  562.36	-1753.86	  445.58
     15.4700	  573.00	  562.25	-1713.75	  445.50
     15.5700	  511.00	  562.14	-1775.64	  445.41
     15.6700	  529.00	  562.03	-1757.53	  445.33
     15.7700	  561.00	  561.92	-1725.42	  445.23
     15.8700	  598.00	  561.81	-1688.31	  445.14
     15.9700	  529.00	  561.69	-1757.19	  445.04
     16.0700	  556.00	  561.57	-1730.07	  444.93
     16.1700	  577.00	  561.45	-1708.95	  444.82
     16.2700	  530.00	  561.32	-1755.82	  444.71
     16.3700	  533.00	  561.19	-1752.69	  444.59
     16.4700	  558.00	  561.06	-1727.56	  444.47
     16.5700	  572.00	  560.92	-1713.42	  444.34
     16.6700	  560.00	  560.78	-1725.28	  444.21
     16.7700	  554.00	  560.64	-1731.14	  444.07
     16.8700	  552.00	  560.49	-1732.99	  443.94
     16.9700	  577.00	  560.34	-1707.84	  443.79
     17.0700	  578.00	  560.19	-1706.69	  443.65
     17.1700	  550.00	  560.03	-1734.53	  443.50
     17.2700	  544.00	  559.87	-1740.37	  443.34
     17.3700	  540.00	  559.71	-1744.21	  443.19
     17.4700	  587.00	  559.55	-1697.05	  443.03
     17.5700	  568.00	  559.38	-1715.88	  442.86
     17.6700	  531.00	  559.21	-1752.71	  442.69
     17.7700	  532.00	  559.03	-1751.53	  442.52
     17.8700	  514.00	  558.96	-1769.46	  442.35
     17.9700	  512.00	  558.78	-1771.28	  442.17
     18.0700	  564.00	  558.60	-1719.10	  441.99
     18.1700	  547.00	  558.41	-1735.91	  441.80
     18.2700	  531.00	  558.22	-1751.72	  441.61
     18.3700	  574.00	  558.03	-1708.53	  441.42
     18.4700	  579.00	  557.93	-1703.43	  441.23
     18.5700	  530.00	  557.73	-1752.23	  441.03
     18.6700	  562.00	  557.53	-1720.03	  440.83
     18.7700	  547.00	  557.33	-1734.83	  440.62
     18.8700	  560.00	  557.13	-1721.63	  440.42
     18.9700	  556.00	  556.92	-1725.42	  440.21
     19.0700	  563.00	  556.72	-1718.22	  439.99
     19.1700	  569.00	  556.51	-1712.01	  439.78
     19.2700	  527.00	  556.29	-1753.79	  439.56
     19.3700	  537.00	  556.08	-1743.58	  439.34
     19.4700	  569.00	  555.86	-1711.36	  439.11
     19.5700	  589.00	  555.64	-1691.14	  438.88
     19.6700	  570.00	  555.42	-1709.92	  438.65
     19.7700	  522.00	  555.20	-1757.70	  438.42
     19.8700	  514.00	  554.97	-1765.47	  438.18
     19.9700	  535.00	  554.74	-1744.24	  437.95
     20.0700	  531.00	  554.51	-1748.01	  437.71
     20.1700	  521.00	  554.31	-1757.81	  437.46
     20.2700	  539.00	  554.08	-1739.58	  437.22
     20.3700	  618.00	  553.85	-1660.35	  436.97
     20.4700	  555.00	  553.61	-1723.11	  436.72
     20.5700	  562.00	  553.37	-1715.87	  436.47
     20.6700	  566.00	  553.13	-1711.63	  436.21
     20.7700	  547.00	  552.89	-1730.39	  435.95
     20.8700	  589.00	  552.65	-1688.15	  435.69
     20.9700	  536.00	  552.41	-1740.91	  435.43
     21.0700	  583.00	  552.17	-1693.67	  435.17
     21.1700	  547.00	  551.92	-1729.42	  434.90
     21.2700	  558.00	  551.68	-1718.18	  434.63
     21.3700	  530.00	  551.43	-1745.94	  434.36
     21.4700	  525.00	  551.19	-1750.69	  434.09
     21.5700	  539.00	  550.95	-1736.45	  433.82
     21.6700	  541.00	  550.70	-1734.20	  433.54
     21.7700	  523.00	  550.46	-1751.96	  433.26
     21.8700	  510.00	  550.21	-1764.71	  432.98
     21.9700	  552.00	  549.97	-1722.47	  432.70
     22.0700	  513.00	  549.73	-1761.23	  432.42
     22.1700	  571.00	  549.45	-1702.95	  432.13
     22.2700	  560.00	  549.21	-1713.71	  431.84
     22.3700	  516.00	  548.99	-1757.49	  431.56
     22.4700	  535.00	  548.76	-1738.26	  431.26
     22.5700	  586.00	  548.54	-1687.04	  430.97
     22.6700	  540.00	  548.33	-1732.83	  430.68
     22.7700	  534.00	  548.13	-1738.63	  430.38
     22.8700	  559.00	  548.09	-1713.59	  430.09
     22.9700	  538.00	  547.91	-1734.41	  429.79
     23.0700	  550.00	  547.75	-1722.25	  429.49
     23.1700	  563.00	  547.62	-1709.12	  429.19
     23.2700	  545.00	  547.51	-1727.01	  428.88
     23.3700	  535.00	  547.43	-1736.93	  428.58
     23.4700	  584.00	  547.40	-1687.90	  428.27
     23.5700	  541.00	  547.44	-1730.94	  427.97
     23.6700	  593.00	  547.57	-1679.07	  427.66
     23.7700	  575.00	  547.86	-1697.36	  427.35
     23.8700	  580.00	  548.40	-1692.90	  427.04
     23.9700	  549.00	  549.40	-1724.90	  426.73
     24.0700	  521.00	  551.19	-1754.69	  426.42
     24.1700	  557.00	  554.28	-1721.78	  426.10
     24.2700	  573.00	  559.29	-1710.79	  425.79
     24.3700	  598.00	  566.85	-1693.35	  425.47
     24.4700	  549.00	  577.35	-1752.85	  425.15
     24.5700	  658.00	  590.38	-1656.88	  424.84
     24.6700	  624.00	  603.89	-1704.39	  424.52
     24.7700	  572.00	  613.45	-1765.95	  424.20
     24.8700	  585.00	  613.02	-1752.52	  423.88
     24.9700	  582.00	  600.67	-1743.17	  423.55
     25.0700	  604.00	  583.19	-1703.69	  423.23
     25.1700	  569.00	  567.91	-1723.41	  422.91
     25.2700	  547.00	  557.35	-1734.85	  422.58
     25.3700	  594.00	  551.03	-1681.53	  422.26
     25.4700	  526.00	  547.53	-1746.03	  421.93
     25.5700	  562.00	  545.56	-1708.06	  421.61
     25.6700	  571.00	  544.34	-1697.84	  421.28
     25.7700	  545.00	  543.51	-1723.01	  420.95
     25.8700	  560.00	  542.89	-1707.39	  420.62
     25.9700	  545.00	  542.42	-1721.92	  420.29
     26.0700	  535.00	  542.08	-1731.58	  419.96
     26.1700	  592.00	  541.83	-1674.33	  419.63
     26.2700	  590.00	  541.68	-1676.18	  419.30
     26.3700	  534.00	  541.62	-1732.12	  418.97
     26.4700	  540.00	  541.65	-1726.15	  418.64
     26.5700	  541.00	  541.79	-1725.29	  418.31
     26.6700	  568.00	  542.04	-1698.54	  417.98
     26.7700	  521.00	  542.44	-1745.94	  417.64
     26.8700	  593.00	  543.01	-1674.51	  417.31
     26.9700	  526.00	  543.81	-1742.31	  416.98
     27.0700	  598.00	  544.91	-1671.41	  416.64
     27.1700	  571.00	  546.42	-1699.92	  416.31
     27.2700	  581.00	  548.59	-1692.09	  415.98
     27.3700	  527.00	  551.84	-1749.34	  415.64
     27.4700	  547.00	  557.05	-1734.55	  415.31
     27.5700	  568.00	  565.79	-1722.29	  414.97
     27.6700	  542.00	  580.58	-1763.08	  414.64
     27.7700	  581.00	  604.84	-1748.34	  414.30
     27.8700	  599.00	  641.79	-1767.29	  413.97
     27.9700	  647.00	  692.32	-1769.82	  413.63
     28.0700	  726.00	  751.90	-1750.40	  413.29
     28.1700	  841.00	  807.77	-1691.27	  412.96
     28.2700	  945.00	  838.75	-1618.25	  412.62
     28.3700	  903.00	  827.27	-1648.77	  412.29
     28.4700	  831.00	  786.12	-1679.62	  411.95
     28.5700	  763.00	  750.07	-1711.57	  411.62
     28.6700	  692.00	  739.56	-1772.06	  411.28
     28.7700	  733.00	  754.10	-1745.60	  410.95
     28.8700	  792.00	  778.27	-1710.77	  410.61
     28.9700	  795.00	  787.76	-1717.26	  410.28
     29.0700	  818.00	  762.46	-1668.96	  409.94
     29.1700	  715.00	  708.71	-1718.21	  409.61
     29.2700	  659.00	  651.66	-1717.16	  409.27
     29.3700	  589.00	  607.06	-1742.56	  408.94
     29.4700	  609.00	  577.91	-1693.41	  408.61
     29.5700	  551.00	  560.99	-1734.49	  408.27
     29.6700	  565.00	  551.66	-1711.16	  407.94
     29.7700	  592.00	  546.39	-1678.89	  407.61
     29.8700	  590.00	  543.22	-1677.72	  407.27
     29.9700	  593.00	  541.20	-1672.70	  406.94
     30.0700	  563.00	  540.08	-1701.58	  406.61
     30.1700	  575.00	  539.94	-1689.44	  406.28
     30.2700	  543.00	  541.16	-1722.66	  405.95
     30.3700	  568.00	  544.53	-1701.03	  405.62
     30.4700	  560.00	  551.20	-1715.70	  405.29
     30.5700	  572.00	  562.41	-1714.91	  404.96
     30.6700	  594.00	  578.53	-1709.03	  404.63
     30.7700	  588.00	  597.89	-1734.39	  404.30
     30.8700	  572.00	  615.87	-1768.37	  403.97
     30.9700	  598.00	  624.92	-1751.42	  403.64
     31.0700	  623.00	  618.25	-1719.75	  403.31
     31.1700	  600.00	  598.27	-1722.77	  402.99
     31.2700	  565.00	  575.25	-1734.75	  402.66
     31.3700	  538.00	  556.38	-1742.88	  402.34
     31.4700	  556.00	  543.59	-1712.09	  402.01
     31.5700	  566.00	  535.97	-1694.47	  401.69
     31.6700	  528.00	  531.73	-1728.23	  401.37
     31.7700	  534.00	  529.35	-1719.85	  401.04
     31.8700	  579.00	  527.91	-1673.41	  400.72
     31.9700	  612.00	  526.98	-1639.48	  400.40
     32.0700	  536.00	  526.35	-1714.85	  400.08
     32.1700	  572.00	  525.95	-1678.45	  399.76
     32.2700	  509.00	  525.75	-1741.25	  399.44
     32.3700	  564.00	  525.74	-1686.24	  399.12
     32.4700	  557.00	  525.92	-1693.42	  398.81
     32.5700	  556.00	  526.33	-1694.83	  398.49
     32.6700	  511.00	  526.98	-1740.48	  398.17
     32.7700	  550.00	  527.95	-1702.45	  397.86
     32.8700	  509.00	  529.31	-1744.81	  397.54
     32.9700	  581.00	  531.21	-1674.71	  397.23
     33.0700	  534.00	  533.92	-1724.42	  396.92
     33.1700	  535.00	  537.96	-1727.46	  396.61
     33.2700	  572.00	  544.43	-1696.93	  396.30
     33.3700	  557.00	  555.49	-1722.99	  395.99
     33.4700	  561.00	  574.99	-1738.49	  395.68
     33.5700	  577.00	  608.62	-1756.12	  395.37
     33.6700	  649.00	  662.65	-1738.15	  395.07
     33.7700	  751.00	  739.95	-1713.45	  394.76
     33.8700	  817.00	  834.02	-1741.52	  394.46
     33.9700	 1004.00	  924.54	-1645.04	  394.16
     34.0700	 1043.00	  977.64	-1659.14	  393.85
     34.1700	 1055.00	  960.94	-1630.44	  393.55
     34.2700	  929.00	  878.86	-1674.36	  393.25
     34.3700	  839.00	  774.17	-1659.67	  392.95
     34.4700	  710.00	  682.60	-1697.10	  392.66
     34.5700	  668.00	  617.13	-1673.63	  392.36
     34.6700	  537.00	  576.37	-1763.87	  392.06
     34.7700	  528.00	  553.18	-1749.68	  391.77
     34.8700	  526.00	  540.29	-1738.79	  391.48
     34.9700	  533.00	  532.69	-1724.19	  391.18
     35.0700	  557.00	  527.70	-1695.20	  390.89
     35.1700	  527.00	  524.05	-1721.55	  390.60
     35.2700	  515.00	  521.24	-1730.74	  390.31
     35.3700	  481.00	  518.98	-1762.48	  390.03
     35.4700	  525.00	  517.12	-1716.62	  389.74
     35.5700	  555.00	  515.55	-1685.05	  389.46
     35.6700	  549.00	  514.22	-1689.72	  389.17
     35.7700	  480.00	  513.07	-1757.57	  388.89
     35.8700	  525.00	  512.52	-1712.02	  388.61
     35.9700	  477.00	  511.64	-1759.14	  388.33
     36.0700	  556.00	  510.85	-1679.35	  388.05
     36.1700	  517.00	  510.14	-1717.64	  387.77
     36.2700	  495.00	  509.51	-1739.01	  387.50
     36.3700	  485.00	  508.94	-1748.44	  387.22
     36.4700	  524.00	  508.43	-1708.93	  386.95
     36.5700	  475.00	  507.97	-1757.47	  386.68
     36.6700	  498.00	  507.57	-1734.07	  386.41
     36.7700	  550.00	  507.23	-1681.73	  386.14
     36.8700	  466.00	  506.99	-1765.49	  385.87
     36.9700	  501.00	  506.90	-1730.40	  385.61
     37.0700	  512.00	  507.06	-1719.56	  385.34
     37.1700	  512.00	  507.67	-1720.17	  385.08
     37.2700	  500.00	  508.93	-1733.43	  384.81
     37.3700	  496.00	  511.02	-1739.52	  384.55
     37.4700	  532.00	  513.88	-1706.38	  384.29
     37.5700	  492.00	  517.04	-1749.54	  384.04
     37.6700	  533.00	  519.51	-1711.01	  383.78
     37.7700	  510.00	  520.07	-1734.57	  383.53
     37.8700	  529.00	  518.16	-1713.66	  383.27
     37.9700	  506.00	  514.64	-1733.14	  383.02
     38.0700	  530.00	  510.87	-1705.37	  382.77
     38.1700	  536.00	  507.65	-1696.15	  382.52
     38.2700	  512.00	  505.39	-1717.89	  382.27
     38.3700	  489.00	  503.69	-1739.19	  382.03
     38.4700	  474.00	  502.56	-1753.06	  381.78
     38.5700	  509.00	  501.78	-1717.28	  381.54
     38.6700	  501.00	  501.21	-1724.71	  381.30
     38.7700	  471.00	  500.77	-1754.27	  381.06
     38.8700	  495.00	  500.39	-1729.89	  380.82
     38.9700	  473.00	  499.95	-1751.45	  380.58
     39.0700	  472.00	  499.65	-1752.15	  380.35
     39.1700	  500.00	  499.36	-1723.86	  380.12
     39.2700	  482.00	  499.10	-1741.60	  379.88
     39.3700	  509.00	  498.85	-1714.35	  379.65
     39.4700	  462.00	  498.61	-1761.11	  379.42
     39.5700	  529.00	  498.39	-1693.89	  379.20
     39.6700	  507.00	  498.17	-1715.67	  378.97
     39.7700	  475.00	  497.89	-1747.39	  378.75
     39.8700	  504.00	  497.70	-1718.20	  378.53
     39.9700	  467.00	  497.53	-1755.03	  378.30
     40.0700	  532.00	  497.36	-1689.86	  378.09
     40.1700	  476.00	  497.21	-1745.71	  377.87
     40.2700	  460.00	  497.07	-1761.57	  377.65
     40.3700	  489.00	  496.94	-1732.44	  377.44
     40.4700	  475.00	  496.83	-1746.33	  377.23
     40.5700	  508.00	  496.74	-1713.24	  377.01
     40.6700	  523.00	  496.67	-1698.17	  376.80
     40.7700	  499.00	  497.10	-1722.60	  376.60
