MSG Master    CELL:    5.87795   5.87795  23.08852   90.0000   90.0000  120.0000   SPGR: P 63/m m c             TEMP:    483.05
  2   1280     2.52000     0.00000    -0.08546     0.00000     0.00000    0
    96    96     0     0     2
       0.00000      10.00000
     125.00000     130.00000
 2Theta	Yobs	Ycal	Yobs-Ycal	Backg	Posr	(hkl)	K
      0.7700	    0.00	  963.12	-2205.50	  826.08
      0.8700	    0.00	  959.95	-2205.50	  822.91
      0.9700	   45.00	  956.80	-2205.50	  819.76
      1.0700	   40.00	  953.67	-2205.50	  816.63
      1.1700	   41.00	  950.56	-2205.50	  813.52
      1.2700	   47.00	  947.47	-2205.50	  810.43
      1.3700	   56.00	  944.39	-2205.50	  807.35
      1.4700	   99.00	  941.34	-2205.50	  804.30
      1.5700	  279.00	  938.30	-2205.50	  801.26
      1.6700	  470.00	  935.28	-2205.50	  798.24
      1.7700	  575.00	  932.28	-2205.50	  795.24
      1.8700	  626.00	  929.30	-2205.50	  792.26
      1.9700	  701.00	  926.34	-2205.50	  789.30
      2.0700	  785.00	  923.40	-2205.50	  786.36
      2.1700	  817.00	  920.48	-2205.50	  783.44
      2.2700	  729.00	  917.57	-2205.50	  780.53
      2.3700	  721.00	  914.68	-2205.50	  777.64
      2.4700	  693.00	  911.81	-2205.50	  774.77
      2.5700	  693.00	  908.96	-2205.50	  771.92
      2.6700	  713.00	  906.13	-2205.50	  769.09
      2.7700	  684.00	  903.31	-2205.50	  766.27
      2.8700	  622.00	  900.52	-2205.50	  763.48
      2.9700	  636.00	  897.74	-2205.50	  760.70
      3.0700	  635.00	  894.97	-2205.50	  757.93
      3.1700	  616.00	  892.23	-2205.50	  755.19
      3.2700	  759.00	  889.50	-2205.50	  752.46
      3.3700	  872.00	  886.80	-2205.50	  749.76
      3.4700	 1059.00	  884.10	-2205.50	  747.06
      3.5700	 1192.00	  881.43	-2205.50	  744.39
      3.6700	 1342.00	  878.77	-2205.50	  741.73
      3.7700	 1391.00	  876.13	-2205.50	  739.09
      3.8700	 1451.00	  873.51	-2205.50	  736.47
      3.9700	 1540.00	  870.91	-2205.50	  733.87
      4.0700	 1672.00	  868.32	-2205.50	  731.28
      4.1700	 1679.00	  865.75	-2205.50	  728.71
      4.2700	 1755.00	  863.19	-2205.50	  726.15
      4.3700	 1703.00	  860.65	-2205.50	  723.61
      4.4700	 1571.00	  858.13	-2205.50	  721.09
      4.5700	 1571.00	  855.63	-2205.50	  718.59
      4.6700	 1497.00	  853.14	-2205.50	  716.10
      4.7700	 1483.00	  850.67	-2205.50	  713.63
      4.8700	 1393.00	  848.22	-2205.50	  711.18
      4.9700	 1388.00	  845.78	-2205.50	  708.74
      5.0700	 1342.00	  843.36	-2205.50	  706.32
      5.1700	 1269.00	  840.95	-2205.50	  703.91
      5.2700	 1216.00	  838.56	-2205.50	  701.52
      5.3700	 1266.00	  836.19	-2205.50	  699.15
      5.4700	 1225.00	  833.83	-2205.50	  696.79
      5.5700	 1242.00	  831.49	-2205.50	  694.45
      5.6700	 1130.00	  829.16	-2205.50	  692.12
      5.7700	 1166.00	  826.85	-2205.50	  689.81
      5.8700	 1073.00	  824.56	-2205.50	  687.52
      5.9700	 1101.00	  822.28	-2205.50	  685.24
      6.0700	 1094.00	  820.02	-2205.50	  682.98
      6.1700	 1124.00	  817.77	-2205.50	  680.73
      6.2700	 1118.00	  815.54	-2205.50	  678.50
      6.3700	 1034.00	  813.32	-2205.50	  676.28
      6.4700	  992.00	  811.12	-2205.50	  674.08
      6.5700	  968.00	  808.93	-2205.50	  671.89
      6.6700	  969.00	  806.76	-2205.50	  669.72
      6.7700	  991.00	  804.61	-2205.50	  667.57
      6.8700	  916.00	  802.47	-2205.50	  665.43
      6.9700	  951.00	  800.34	-2205.50	  663.30
      7.0700	  910.00	  798.23	-2205.50	  661.19
      7.1700	  885.00	  796.14	-2205.50	  659.10
      7.2700	  992.00	  794.06	-2205.50	  657.02
      7.3700	  894.00	  791.99	-2205.50	  654.95
      7.4700	  892.00	  789.94	-2205.50	  652.90
      7.5700	  854.00	  787.90	-2205.50	  650.86
      7.6700	  869.00	  785.88	-2205.50	  648.84
      7.7700	  834.00	  783.87	-2205.50	  646.83
      7.8700	  791.00	  781.88	-2205.50	  644.84
      7.9700	  851.00	  779.90	-2205.50	  642.86
      8.0700	  791.00	  777.93	-2205.50	  640.89
      8.1700	  813.00	  775.98	-2205.50	  638.94
      8.2700	  816.00	  774.04	-2205.50	  637.00
      8.3700	  834.00	  772.12	-2205.50	  635.08
      8.4700	  811.00	  770.21	-2205.50	  633.17
      8.5700	  813.00	  768.32	-2205.50	  631.28
      8.6700	  815.00	  766.44	-2205.50	  629.40
      8.7700	  817.00	  764.57	-2205.50	  627.53
      8.8700	  812.00	  762.71	-2205.50	  625.67
      8.9700	  794.00	  760.87	-2205.50	  623.83
      9.0700	  757.00	  759.05	-2205.50	  622.01
      9.1700	  739.00	  757.24	-2205.50	  620.20
      9.2700	  751.00	  755.44	-2205.50	  618.40
      9.3700	  740.00	  753.65	-2205.50	  616.61
      9.4700	  780.00	  751.88	-2205.50	  614.84
      9.5700	  726.00	  750.12	-2205.50	  613.08
      9.6700	  765.00	  748.37	-2205.50	  611.33
      9.7700	  774.00	  746.64	-2205.50	  609.60
      9.8700	  790.00	  744.92	-2205.50	  607.88
      9.9700	  774.00	  743.21	-2205.50	  606.17
     10.0700	  766.00	  743.81	-2183.31	  604.48
     10.1700	  770.00	  742.37	-2177.87	  602.80
     10.2700	  759.00	  741.00	-2187.50	  601.13
     10.3700	  727.00	  739.70	-2218.20	  599.47
     10.4700	  733.00	  738.50	-2211.00	  597.83
     10.5700	  750.00	  737.44	-2192.94	  596.20
     10.6700	  702.00	  736.58	-2240.08	  594.59
     10.7700	  727.00	  736.00	-2214.50	  592.98
     10.8700	  717.00	  735.79	-2224.29	  591.39
     10.9700	  740.00	  736.03	-2201.53	  589.81
     11.0700	  783.00	  736.79	-2159.29	  588.24
     11.1700	  732.00	  738.09	-2211.59	  586.68
     11.2700	  726.00	  739.95	-2219.45	  585.14
     11.3700	  726.00	  742.41	-2221.91	  583.61
     11.4700	  705.00	  745.57	-2246.07	  582.09
     11.5700	  761.00	  749.56	-2194.06	  580.59
     11.6700	  748.00	  754.61	-2212.11	  579.09
     11.7700	  764.00	  760.96	-2202.46	  577.61
     11.8700	  822.00	  768.85	-2152.35	  576.14
     11.9700	  809.00	  778.32	-2174.82	  574.68
     12.0700	  825.00	  788.80	-2169.30	  573.23
     12.1700	  914.00	  798.73	-2090.23	  571.79
     12.2700	  882.00	  805.07	-2128.57	  570.37
     12.3700	  824.00	  803.37	-2184.87	  568.96
     12.4700	  812.00	  791.00	-2184.50	  567.56
     12.5700	  753.00	  771.51	-2224.01	  566.17
     12.6700	  733.00	  751.73	-2224.23	  564.79
     12.7700	  685.00	  735.58	-2256.08	  563.42
     12.8700	  720.00	  723.70	-2209.20	  562.07
     12.9700	  714.00	  715.38	-2206.88	  560.72
     13.0700	  686.00	  709.57	-2229.07	  559.39
     13.1700	  676.00	  705.35	-2234.85	  558.07
     13.2700	  651.00	  702.08	-2256.58	  556.76
     13.3700	  680.00	  699.39	-2224.89	  555.46
     13.4700	  627.00	  697.06	-2275.56	  554.17
     13.5700	  689.00	  694.97	-2211.47	  552.89
     13.6700	  645.00	  693.05	-2253.55	  551.62
     13.7700	  679.00	  691.27	-2217.77	  550.36
     13.8700	  696.00	  689.59	-2199.09	  549.12
     13.9700	  715.00	  687.99	-2178.49	  547.88
     14.0700	  742.00	  686.46	-2149.96	  546.66
     14.1700	  686.00	  684.99	-2204.49	  545.44
     14.2700	  625.00	  683.56	-2264.06	  544.24
     14.3700	  668.00	  682.18	-2219.68	  543.05
     14.4700	  697.00	  680.83	-2189.33	  541.86
     14.5700	  651.00	  679.51	-2234.01	  540.69
     14.6700	  720.00	  678.22	-2163.72	  539.53
     14.7700	  655.00	  676.96	-2227.46	  538.38
     14.8700	  709.00	  675.71	-2172.21	  537.24
     14.9700	  731.00	  674.49	-2148.99	  536.10
     15.0700	  605.00	  673.29	-2273.79	  534.98
     15.1700	  676.00	  672.11	-2201.61	  533.87
     15.2700	  684.00	  670.94	-2192.44	  532.77
     15.3700	  694.00	  669.79	-2181.29	  531.68
     15.4700	  698.00	  668.66	-2176.16	  530.59
     15.5700	  658.00	  667.54	-2215.04	  529.52
     15.6700	  622.00	  666.43	-2249.93	  528.46
     15.7700	  677.00	  665.34	-2193.84	  527.41
     15.8700	  682.00	  664.26	-2187.76	  526.36
     15.9700	  691.00	  663.19	-2177.69	  525.33
     16.0700	  656.00	  662.14	-2211.64	  524.31
     16.1700	  631.00	  661.09	-2235.59	  523.29
     16.2700	  658.00	  660.06	-2207.56	  522.29
     16.3700	  671.00	  659.04	-2193.54	  521.29
     16.4700	  668.00	  658.03	-2195.53	  520.30
     16.5700	  687.00	  657.03	-2175.53	  519.33
     16.6700	  616.00	  656.05	-2245.55	  518.36
     16.7700	  631.00	  655.07	-2229.57	  517.40
     16.8700	  642.00	  654.10	-2217.60	  516.45
     16.9700	  716.00	  653.15	-2142.65	  515.51
     17.0700	  666.00	  652.20	-2191.70	  514.57
     17.1700	  649.00	  651.27	-2207.77	  513.65
     17.2700	  651.00	  650.34	-2204.84	  512.74
     17.3700	  639.00	  649.42	-2215.92	  511.83
     17.4700	  655.00	  648.52	-2199.02	  510.94
     17.5700	  630.00	  647.62	-2223.12	  510.05
     17.6700	  655.00	  646.73	-2197.23	  509.17
     17.7700	  601.00	  645.85	-2250.35	  508.30
     17.8700	  643.00	  644.98	-2207.48	  507.44
     17.9700	  613.00	  644.12	-2236.62	  506.58
     18.0700	  625.00	  643.27	-2223.77	  505.74
     18.1700	  634.00	  642.43	-2213.93	  504.90
     18.2700	  657.00	  641.60	-2190.10	  504.08
     18.3700	  678.00	  640.77	-2168.27	  503.26
     18.4700	  635.00	  639.96	-2210.46	  502.44
     18.5700	  611.00	  639.15	-2233.65	  501.64
     18.6700	  610.00	  638.35	-2233.85	  500.85
     18.7700	  632.00	  637.57	-2211.07	  500.06
     18.8700	  630.00	  636.78	-2212.28	  499.28
     18.9700	  658.00	  636.01	-2183.51	  498.51
     19.0700	  635.00	  636.48	-2206.98	  497.75
     19.1700	  655.00	  637.83	-2188.33	  496.99
     19.2700	  623.00	  637.15	-2219.65	  496.25
     19.3700	  636.00	  636.48	-2205.98	  495.51
     19.4700	  671.00	  635.83	-2170.33	  494.78
     19.5700	  617.00	  635.19	-2223.69	  494.05
     19.6700	  641.00	  634.55	-2199.05	  493.34
     19.7700	  678.00	  633.93	-2161.43	  492.63
     19.8700	  618.00	  633.32	-2220.82	  491.93
     19.9700	  628.00	  632.72	-2210.22	  491.24
     20.0700	  662.00	  632.19	-2175.69	  490.55
     20.1700	  658.00	  631.61	-2179.11	  489.88
     20.2700	  626.00	  631.05	-2210.55	  489.21
     20.3700	  612.00	  630.50	-2224.00	  488.54
     20.4700	  609.00	  629.95	-2226.46	  487.89
     20.5700	  673.00	  629.43	-2161.93	  487.24
     20.6700	  617.00	  628.91	-2217.41	  486.60
     20.7700	  562.00	  628.40	-2271.90	  485.96
     20.8700	  622.00	  627.91	-2211.41	  485.34
     20.9700	  614.00	  627.43	-2218.93	  484.72
     21.0700	  599.00	  626.97	-2233.47	  484.11
     21.1700	  651.00	  626.52	-2181.02	  483.50
     21.2700	  614.00	  626.08	-2217.58	  482.90
     21.3700	  605.00	  625.66	-2226.16	  482.31
     21.4700	  629.00	  625.25	-2201.75	  481.73
     21.5700	  607.00	  624.86	-2223.36	  481.15
     21.6700	  666.00	  624.48	-2163.98	  480.58
     21.7700	  621.00	  624.12	-2208.62	  480.02
     21.8700	  599.00	  623.78	-2230.28	  479.46
     21.9700	  641.00	  623.45	-2187.95	  478.91
     22.0700	  614.00	  623.15	-2214.65	  478.36
     22.1700	  611.00	  622.86	-2217.36	  477.83
     22.2700	  612.00	  622.82	-2216.32	  477.30
     22.3700	  637.00	  622.58	-2191.08	  476.77
     22.4700	  676.00	  622.36	-2151.86	  476.25
     22.5700	  667.00	  622.17	-2160.67	  475.74
     22.6700	  662.00	  622.01	-2165.51	  475.24
     22.7700	  645.00	  621.88	-2182.38	  474.74
     22.8700	  635.00	  621.78	-2192.28	  474.25
     22.9700	  668.00	  621.71	-2159.21	  473.76
     23.0700	  640.00	  621.69	-2187.19	  473.28
     23.1700	  618.00	  621.71	-2209.21	  472.81
     23.2700	  646.00	  621.77	-2181.27	  472.34
     23.3700	  638.00	  621.90	-2189.40	  471.88
     23.4700	  605.00	  622.09	-2222.59	  471.42
     23.5700	  632.00	  622.37	-2195.87	  470.97
     23.6700	  638.00	  622.74	-2190.24	  470.53
     23.7700	  655.00	  623.24	-2173.74	  470.09
     23.8700	  606.00	  623.90	-2223.40	  469.66
     23.9700	  684.00	  624.79	-2146.29	  469.23
     24.0700	  638.00	  626.03	-2193.53	  468.81
     24.1700	  641.00	  627.78	-2192.28	  468.40
     24.2700	  672.00	  630.30	-2163.80	  467.99
     24.3700	  661.00	  633.90	-2178.40	  467.59
     24.4700	  648.00	  639.07	-2196.57	  467.19
     24.5700	  703.00	  646.05	-2148.55	  466.80
     24.6700	  659.00	  654.85	-2201.35	  466.41
     24.7700	  703.00	  664.96	-2167.46	  466.03
     24.8700	  698.00	  675.09	-2182.59	  465.66
     24.9700	  719.00	  682.87	-2169.37	  465.29
     25.0700	  681.00	  685.16	-2209.66	  464.92
     25.1700	  688.00	  680.35	-2197.85	  464.56
     25.2700	  731.00	  670.76	-2145.26	  464.21
     25.3700	  642.00	  660.76	-2224.26	  463.86
     25.4700	  676.00	  652.87	-2182.37	  463.52
     25.5700	  641.00	  647.69	-2212.19	  463.18
     25.6700	  641.00	  644.91	-2209.41	  462.85
     25.7700	  659.00	  643.98	-2190.48	  462.52
     25.8700	  641.00	  644.36	-2208.86	  462.20
     25.9700	  633.00	  645.69	-2218.19	  461.88
     26.0700	  669.00	  647.75	-2184.25	  461.57
     26.1700	  664.00	  650.45	-2191.95	  461.26
     26.2700	  649.00	  653.78	-2210.28	  460.96
     26.3700	  686.00	  657.78	-2177.28	  460.66
     26.4700	  654.00	  662.54	-2214.04	  460.37
     26.5700	  692.00	  668.17	-2181.67	  460.08
     26.6700	  610.00	  674.84	-2270.34	  459.80
     26.7700	  666.00	  682.76	-2222.26	  459.52
     26.8700	  685.00	  692.22	-2212.72	  459.24
     26.9700	  670.00	  703.61	-2239.11	  458.98
     27.0700	  707.00	  717.46	-2215.96	  458.71
     27.1700	  690.00	  734.51	-2250.01	  458.45
     27.2700	  781.00	  755.81	-2180.31	  458.20
     27.3700	  730.00	  783.06	-2258.56	  457.94
     27.4700	  729.00	  819.29	-2295.79	  457.70
     27.5700	  803.00	  870.96	-2273.46	  457.46
     27.6700	  846.00	  952.37	-2311.87	  457.22
     27.7700	  918.00	 1093.30	-2380.80	  456.99
     27.8700	 1053.00	 1348.42	-2500.92	  456.76
     27.9700	 1332.00	 1803.33	-2676.83	  456.53
     28.0700	 1970.00	 2564.16	-2799.66	  456.31
     28.1700	 3264.00	 3712.97	-2654.47	  456.10
     28.2700	 5370.00	 5213.96	-2049.46	  455.89
     28.3700	 7577.00	 6780.27	-1408.77	  455.68
     28.4700	 8822.00	 7810.14	-1193.64	  455.48
     28.5700	 8261.00	 7635.11	-1579.61	  455.28
     28.6700	 6473.00	 6340.28	-2072.78	  455.08
     28.7700	 4657.00	 4908.42	-2456.92	  454.89
     28.8700	 3713.00	 4070.33	-2562.83	  454.70
     28.9700	 3875.00	 3939.58	-2270.08	  454.52
     29.0700	 4602.00	 4229.92	-1833.42	  454.34
     29.1700	 4943.00	 4478.98	-1741.48	  454.17
     29.2700	 4531.00	 4259.36	-1933.86	  454.00
     29.3700	 3452.00	 3516.39	-2269.89	  453.83
     29.4700	 2427.00	 2618.95	-2397.45	  453.66
     29.5700	 1673.00	 1880.58	-2413.08	  453.50
     29.6700	 1261.00	 1389.87	-2334.37	  453.35
     29.7700	 1137.00	 1106.98	-2175.48	  453.20
     29.8700	  934.00	  954.95	-2226.45	  453.05
     29.9700	  877.00	  870.95	-2199.45	  452.90
     30.0700	  834.00	  819.25	-2190.75	  452.76
     30.1700	  804.00	  783.65	-2185.15	  452.62
     30.2700	  797.00	  757.54	-2166.04	  452.49
     30.3700	  702.00	  738.17	-2241.67	  452.36
     30.4700	  709.00	  724.49	-2220.99	  452.23
     30.5700	  730.00	  716.52	-2192.02	  452.11
     30.6700	  717.00	  715.23	-2203.73	  451.99
     30.7700	  717.00	  722.08	-2210.58	  451.87
     30.8700	  720.00	  737.97	-2223.47	  451.75
     30.9700	  776.00	  761.48	-2190.98	  451.64
     31.0700	  806.00	  787.25	-2186.75	  451.54
     31.1700	  788.00	  805.20	-2222.70	  451.43
     31.2700	  835.00	  802.87	-2173.37	  451.33
     31.3700	  761.00	  776.21	-2220.71	  451.24
     31.4700	  740.00	  737.37	-2202.87	  451.14
     31.5700	  745.00	  700.99	-2161.49	  451.05
     31.6700	  692.00	  673.52	-2187.02	  450.96
     31.7700	  711.00	  655.29	-2149.79	  450.88
     31.8700	  671.00	  644.05	-2178.55	  450.79
     31.9700	  663.00	  637.19	-2179.69	  450.72
     32.0700	  631.00	  632.75	-2207.25	  450.64
     32.1700	  651.00	  629.64	-2184.14	  450.57
     32.2700	  660.00	  627.33	-2172.83	  450.50
     32.3700	  694.00	  625.59	-2137.09	  450.43
     32.4700	  656.00	  624.31	-2173.81	  450.37
     32.5700	  629.00	  623.48	-2199.98	  450.30
     32.6700	  639.00	  623.01	-2189.51	  450.25
     32.7700	  647.00	  622.94	-2181.44	  450.19
     32.8700	  655.00	  623.31	-2173.81	  450.14
     32.9700	  615.00	  624.16	-2214.66	  450.09
     33.0700	  644.00	  625.61	-2187.11	  450.04
     33.1700	  625.00	  627.80	-2208.30	  449.99
     33.2700	  685.00	  631.02	-2151.52	  449.95
     33.3700	  702.00	  635.79	-2139.29	  449.91
     33.4700	  665.00	  643.13	-2183.63	  449.87
     33.5700	  680.00	  654.99	-2180.49	  449.84
     33.6700	  703.00	  674.80	-2177.30	  449.81
     33.7700	  692.00	  707.82	-2221.32	  449.78
     33.8700	  769.00	  760.62	-2197.12	  449.75
     33.9700	  901.00	  838.49	-2142.99	  449.73
     34.0700	  983.00	  940.53	-2163.03	  449.70
     34.1700	 1142.00	 1053.92	-2117.42	  449.68
     34.2700	 1292.00	 1150.69	-2064.19	  449.67
     34.3700	 1301.00	 1191.15	-2095.65	  449.65
     34.4700	 1225.00	 1148.00	-2128.50	  449.64
     34.5700	 1185.00	 1040.97	-2061.47	  449.63
     34.6700	  873.00	  918.88	-2251.38	  449.62
     34.7700	  808.00	  814.88	-2212.38	  449.61
     34.8700	  768.00	  739.53	-2177.03	  449.61
     34.9700	  726.00	  690.63	-2170.13	  449.61
     35.0700	  703.00	  661.11	-2163.61	  449.61
     35.1700	  658.00	  643.66	-2191.16	  449.61
     35.2700	  675.00	  632.97	-2163.47	  449.62
     35.3700	  599.00	  625.88	-2232.38	  449.62
     35.4700	  671.00	  620.79	-2155.29	  449.63
     35.5700	  614.00	  616.93	-2208.43	  449.64
     35.6700	  638.00	  613.90	-2181.40	  449.65
     35.7700	  607.00	  611.48	-2209.98	  449.67
     35.8700	  578.00	  609.58	-2237.08	  449.69
     35.9700	  604.00	  607.99	-2209.49	  449.70
     36.0700	  607.00	  606.70	-2205.20	  449.73
     36.1700	  616.00	  605.66	-2195.16	  449.75
     36.2700	  646.00	  604.83	-2164.33	  449.77
     36.3700	  601.00	  604.19	-2208.69	  449.80
     36.4700	  652.00	  603.71	-2157.21	  449.83
     36.5700	  647.00	  603.40	-2161.90	  449.86
     36.6700	  593.00	  603.45	-2215.95	  449.89
     36.7700	  638.00	  603.47	-2170.97	  449.92
     36.8700	  578.00	  603.67	-2231.17	  449.95
     36.9700	  583.00	  604.08	-2226.58	  449.99
     37.0700	  573.00	  604.76	-2237.26	  450.03
     37.1700	  596.00	  605.78	-2215.28	  450.07
     37.2700	  618.00	  607.83	-2195.33	  450.11
     37.3700	  629.00	  610.11	-2186.61	  450.15
     37.4700	  599.00	  613.56	-2220.06	  450.20
     37.5700	  597.00	  618.93	-2227.43	  450.24
     37.6700	  640.00	  627.31	-2192.81	  450.29
     37.7700	  672.00	  640.13	-2173.63	  450.34
     37.8700	  619.00	  658.90	-2245.40	  450.39
     37.9700	  711.00	  684.54	-2179.04	  450.44
     38.0700	  706.00	  714.21	-2213.71	  450.50
     38.1700	  741.00	  748.14	-2212.64	  450.55
     38.2700	  792.00	  777.09	-2190.59	  450.61
     38.3700	  733.00	  790.82	-2263.32	  450.66
     38.4700	  723.00	  781.24	-2263.74	  450.72
     38.5700	  709.00	  751.48	-2247.98	  450.78
     38.6700	  695.00	  714.02	-2224.52	  450.84
     38.7700	  648.00	  679.40	-2236.90	  450.91
     38.8700	  646.00	  652.24	-2211.74	  450.97
     38.9700	  615.00	  633.14	-2223.64	  451.04
     39.0700	  604.00	  620.74	-2222.24	  451.10
     39.1700	  592.00	  613.06	-2226.56	  451.17
     39.2700	  587.00	  608.32	-2226.82	  451.24
     39.3700	  582.00	  605.29	-2228.79	  451.31
     39.4700	  594.00	  603.22	-2214.72	  451.38
     39.5700	  599.00	  600.56	-2207.06	  451.45
     39.6700	  605.00	  599.43	-2199.93	  451.52
     39.7700	  635.00	  598.56	-2169.06	  451.60
     39.8700	  592.00	  597.87	-2211.37	  451.67
     39.9700	  579.00	  597.33	-2223.83	  451.75
     40.0700	  613.00	  596.91	-2189.41	  451.83
     40.1700	  619.00	  596.58	-2183.08	  451.90
     40.2700	  593.00	  596.33	-2208.83	  451.98
     40.3700	  607.00	  596.15	-2194.65	  452.06
     40.4700	  599.00	  596.02	-2202.52	  452.14
     40.5700	  634.00	  595.95	-2167.45	  452.23
     40.6700	  621.00	  596.47	-2180.97	  452.31
     40.7700	  599.00	  596.49	-2202.99	  452.39
