MSG Master    CELL:    5.88641   5.88641  23.13661   90.0000   90.0000  120.0000   SPGR: P 63/m m c             TEMP:    610.05
  2   1280     2.52000     0.00000    -0.09344     0.00000     0.00000    0
    96    96     0     0     2
       0.00000      10.00000
     125.00000     130.00000
 2Theta	Yobs	Ycal	Yobs-Ycal	Backg	Posr	(hkl)	K
      0.7700	    0.00	  793.81	-1910.87	  666.08
      0.8700	    0.00	  792.42	-1910.87	  664.68
      0.9700	   46.00	  791.03	-1910.87	  663.29
      1.0700	   53.00	  789.64	-1910.87	  661.91
      1.1700	   49.00	  788.26	-1910.87	  660.53
      1.2700	   54.00	  786.89	-1910.87	  659.15
      1.3700	   45.00	  785.52	-1910.87	  657.79
      1.4700	  114.00	  784.16	-1910.87	  656.42
      1.5700	  268.00	  782.80	-1910.87	  655.06
      1.6700	  436.00	  781.44	-1910.87	  653.71
      1.7700	  572.00	  780.09	-1910.87	  652.36
      1.8700	  661.00	  778.75	-1910.87	  651.01
      1.9700	  750.00	  777.41	-1910.87	  649.67
      2.0700	  774.00	  776.07	-1910.87	  648.34
      2.1700	  753.00	  774.74	-1910.87	  647.01
      2.2700	  793.00	  773.42	-1910.87	  645.68
      2.3700	  718.00	  772.09	-1910.87	  644.36
      2.4700	  726.00	  770.78	-1910.87	  643.04
      2.5700	  671.00	  769.47	-1910.87	  641.73
      2.6700	  691.00	  768.16	-1910.87	  640.43
      2.7700	  673.00	  766.86	-1910.87	  639.13
      2.8700	  676.00	  765.56	-1910.87	  637.83
      2.9700	  587.00	  764.27	-1910.87	  636.54
      3.0700	  571.00	  762.99	-1910.87	  635.25
      3.1700	  643.00	  761.70	-1910.87	  633.97
      3.2700	  784.00	  760.43	-1910.87	  632.69
      3.3700	  918.00	  759.15	-1910.87	  631.42
      3.4700	 1061.00	  757.89	-1910.87	  630.15
      3.5700	 1235.00	  756.62	-1910.87	  628.89
      3.6700	 1314.00	  755.37	-1910.87	  627.63
      3.7700	 1387.00	  754.11	-1910.87	  626.38
      3.8700	 1471.00	  752.87	-1910.87	  625.13
      3.9700	 1669.00	  751.62	-1910.87	  623.89
      4.0700	 1604.00	  750.38	-1910.87	  622.65
      4.1700	 1718.00	  749.15	-1910.87	  621.41
      4.2700	 1740.00	  747.92	-1910.87	  620.18
      4.3700	 1619.00	  746.70	-1910.87	  618.96
      4.4700	 1641.00	  745.48	-1910.87	  617.74
      4.5700	 1498.00	  744.26	-1910.87	  616.53
      4.6700	 1527.00	  743.05	-1910.87	  615.32
      4.7700	 1466.00	  741.85	-1910.87	  614.11
      4.8700	 1394.00	  740.65	-1910.87	  612.91
      4.9700	 1324.00	  739.45	-1910.87	  611.71
      5.0700	 1344.00	  738.26	-1910.87	  610.52
      5.1700	 1286.00	  737.07	-1910.87	  609.34
      5.2700	 1218.00	  735.89	-1910.87	  608.16
      5.3700	 1269.00	  734.71	-1910.87	  606.98
      5.4700	 1176.00	  733.54	-1910.87	  605.81
      5.5700	 1144.00	  732.37	-1910.87	  604.64
      5.6700	 1129.00	  731.21	-1910.87	  603.48
      5.7700	 1154.00	  730.05	-1910.87	  602.32
      5.8700	 1062.00	  728.90	-1910.87	  601.16
      5.9700	 1053.00	  727.75	-1910.87	  600.02
      6.0700	 1089.00	  726.61	-1910.87	  598.87
      6.1700	 1040.00	  725.47	-1910.87	  597.73
      6.2700	 1006.00	  724.33	-1910.87	  596.60
      6.3700	 1030.00	  723.20	-1910.87	  595.47
      6.4700	  966.00	  722.08	-1910.87	  594.34
      6.5700	  947.00	  720.96	-1910.87	  593.22
      6.6700	  882.00	  719.84	-1910.87	  592.11
      6.7700	  906.00	  718.73	-1910.87	  591.00
      6.8700	  879.00	  717.62	-1910.87	  589.89
      6.9700	  894.00	  716.52	-1910.87	  588.79
      7.0700	  846.00	  715.42	-1910.87	  587.69
      7.1700	  862.00	  714.33	-1910.87	  586.60
      7.2700	  859.00	  713.24	-1910.87	  585.51
      7.3700	  858.00	  712.16	-1910.87	  584.43
      7.4700	  855.00	  711.08	-1910.87	  583.35
      7.5700	  838.00	  710.01	-1910.87	  582.27
      7.6700	  799.00	  708.94	-1910.87	  581.20
      7.7700	  826.00	  707.87	-1910.87	  580.14
      7.8700	  825.00	  706.81	-1910.87	  579.08
      7.9700	  766.00	  705.76	-1910.87	  578.02
      8.0700	  757.00	  704.71	-1910.87	  576.97
      8.1700	  795.00	  703.66	-1910.87	  575.92
      8.2700	  789.00	  702.62	-1910.87	  574.88
      8.3700	  742.00	  701.58	-1910.87	  573.84
      8.4700	  749.00	  700.55	-1910.87	  572.81
      8.5700	  719.00	  699.52	-1910.87	  571.78
      8.6700	  750.00	  698.49	-1910.87	  570.76
      8.7700	  760.00	  697.47	-1910.87	  569.74
      8.8700	  768.00	  696.46	-1910.87	  568.72
      8.9700	  784.00	  695.45	-1910.87	  567.71
      9.0700	  751.00	  694.44	-1910.87	  566.71
      9.1700	  692.00	  693.44	-1910.87	  565.71
      9.2700	  759.00	  692.44	-1910.87	  564.71
      9.3700	  679.00	  691.45	-1910.87	  563.72
      9.4700	  749.00	  690.46	-1910.87	  562.73
      9.5700	  763.00	  689.48	-1910.87	  561.75
      9.6700	  703.00	  688.50	-1910.87	  560.77
      9.7700	  701.00	  687.53	-1910.87	  559.79
      9.8700	  724.00	  686.56	-1910.87	  558.82
      9.9700	  721.00	  685.59	-1910.87	  557.86
     10.0700	  695.00	  686.86	-1902.73	  556.90
     10.1700	  727.00	  686.15	-1870.02	  555.94
     10.2700	  710.00	  685.49	-1886.37	  554.99
     10.3700	  660.00	  684.91	-1935.79	  554.04
     10.4700	  676.00	  684.43	-1919.31	  553.10
     10.5700	  703.00	  684.10	-1891.97	  552.16
     10.6700	  685.00	  683.98	-1909.86	  551.22
     10.7700	  752.00	  684.17	-1843.04	  550.29
     10.8700	  657.00	  684.76	-1938.63	  549.37
     10.9700	  735.00	  685.83	-1861.70	  548.44
     11.0700	  639.00	  687.42	-1959.29	  547.53
     11.1700	  691.00	  689.54	-1909.42	  546.62
     11.2700	  695.00	  692.23	-1908.11	  545.71
     11.3700	  735.00	  695.55	-1871.42	  544.80
     11.4700	  659.00	  699.59	-1951.46	  543.90
     11.5700	  737.00	  704.52	-1878.40	  543.01
     11.6700	  706.00	  710.61	-1915.48	  542.12
     11.7700	  715.00	  718.15	-1914.02	  541.23
     11.8700	  722.00	  727.38	-1916.26	  540.35
     11.9700	  770.00	  738.26	-1879.14	  539.47
     12.0700	  831.00	  749.97	-1829.84	  538.60
     12.1700	  804.00	  760.37	-1867.25	  537.73
     12.2700	  849.00	  765.56	-1827.43	  536.86
     12.3700	  780.00	  760.72	-1891.59	  536.00
     12.4700	  769.00	  744.83	-1886.71	  535.15
     12.5700	  727.00	  723.97	-1907.85	  534.29
     12.6700	  705.00	  704.99	-1910.87	  533.45
     12.7700	  690.00	  690.51	-1911.39	  532.60
     12.8700	  672.00	  680.45	-1919.32	  531.76
     12.9700	  670.00	  673.72	-1914.60	  530.93
     13.0700	  638.00	  669.19	-1942.07	  530.10
     13.1700	  646.00	  665.98	-1930.85	  529.27
     13.2700	  623.00	  663.52	-1951.40	  528.45
     13.3700	  652.00	  661.51	-1920.39	  527.63
     13.4700	  664.00	  659.79	-1906.67	  526.81
     13.5700	  667.00	  658.27	-1902.14	  526.00
     13.6700	  659.00	  656.89	-1908.76	  525.20
     13.7700	  641.00	  655.62	-1925.50	  524.40
     13.8700	  631.00	  654.44	-1934.31	  523.60
     13.9700	  666.00	  653.32	-1898.19	  522.81
     14.0700	  647.00	  652.26	-1916.13	  522.02
     14.1700	  652.00	  651.24	-1910.12	  521.23
     14.2700	  637.00	  650.26	-1924.14	  520.45
     14.3700	  615.00	  649.31	-1945.19	  519.67
     14.4700	  646.00	  648.39	-1913.26	  518.90
     14.5700	  604.00	  647.49	-1954.36	  518.13
     14.6700	  602.00	  646.61	-1955.48	  517.37
     14.7700	  643.00	  645.75	-1913.62	  516.61
     14.8700	  625.00	  644.90	-1930.77	  515.85
     14.9700	  580.00	  644.07	-1974.94	  515.10
     15.0700	  654.00	  643.25	-1900.12	  514.35
     15.1700	  658.00	  642.44	-1895.31	  513.61
     15.2700	  696.00	  641.64	-1856.51	  512.87
     15.3700	  618.00	  640.85	-1933.72	  512.13
     15.4700	  666.00	  640.07	-1884.94	  511.40
     15.5700	  634.00	  639.30	-1916.17	  510.67
     15.6700	  602.00	  638.53	-1947.41	  509.95
     15.7700	  655.00	  637.78	-1893.65	  509.23
     15.8700	  628.00	  637.03	-1919.90	  508.51
     15.9700	  585.00	  636.28	-1962.16	  507.80
     16.0700	  641.00	  635.55	-1905.42	  507.09
     16.1700	  608.00	  634.82	-1937.69	  506.39
     16.2700	  673.00	  634.09	-1871.97	  505.69
     16.3700	  618.00	  633.38	-1926.25	  504.99
     16.4700	  610.00	  632.66	-1933.54	  504.30
     16.5700	  680.00	  631.96	-1862.83	  503.61
     16.6700	  611.00	  631.25	-1931.13	  502.93
     16.7700	  626.00	  630.56	-1915.43	  502.25
     16.8700	  618.00	  629.87	-1922.74	  501.57
     16.9700	  595.00	  629.18	-1945.05	  500.90
     17.0700	  650.00	  628.50	-1889.37	  500.23
     17.1700	  610.00	  627.82	-1928.70	  499.57
     17.2700	  616.00	  627.15	-1922.02	  498.91
     17.3700	  619.00	  626.48	-1918.36	  498.25
     17.4700	  641.00	  625.82	-1895.69	  497.60
     17.5700	  639.00	  625.16	-1897.04	  496.95
     17.6700	  671.00	  624.51	-1864.38	  496.30
     17.7700	  633.00	  623.86	-1901.73	  495.66
     17.8700	  604.00	  623.22	-1930.09	  495.02
     17.9700	  637.00	  622.58	-1896.45	  494.39
     18.0700	  584.00	  621.94	-1948.81	  493.76
     18.1700	  603.00	  621.31	-1929.18	  493.13
     18.2700	  612.00	  620.68	-1919.55	  492.51
     18.3700	  637.00	  620.06	-1893.93	  491.89
     18.4700	  645.00	  619.44	-1885.31	  491.28
     18.5700	  618.00	  618.83	-1911.70	  490.67
     18.6700	  642.00	  618.22	-1887.09	  490.06
     18.7700	  627.00	  619.89	-1903.76	  489.45
     18.8700	  575.00	  619.33	-1955.20	  488.85
     18.9700	  606.00	  618.78	-1923.65	  488.26
     19.0700	  607.00	  618.24	-1922.11	  487.67
     19.1700	  637.00	  617.70	-1891.57	  487.08
     19.2700	  644.00	  617.17	-1884.04	  486.49
     19.3700	  634.00	  616.64	-1893.51	  485.91
     19.4700	  659.00	  616.12	-1867.99	  485.33
     19.5700	  621.00	  615.61	-1905.48	  484.76
     19.6700	  581.00	  615.10	-1944.97	  484.19
     19.7700	  604.00	  614.60	-1921.47	  483.62
     19.8700	  629.00	  614.10	-1895.97	  483.06
     19.9700	  607.00	  613.64	-1917.52	  482.50
     20.0700	  548.00	  613.16	-1976.03	  481.94
     20.1700	  599.00	  612.68	-1924.56	  481.39
     20.2700	  593.00	  612.22	-1930.09	  480.84
     20.3700	  601.00	  611.75	-1921.63	  480.30
     20.4700	  662.00	  611.30	-1860.17	  479.75
     20.5700	  605.00	  610.85	-1916.73	  479.22
     20.6700	  568.00	  610.41	-1953.29	  478.68
     20.7700	  560.00	  609.98	-1960.85	  478.15
     20.8700	  576.00	  609.56	-1944.43	  477.62
     20.9700	  578.00	  609.14	-1942.01	  477.10
     21.0700	  628.00	  608.73	-1891.61	  476.58
     21.1700	  595.00	  608.33	-1924.21	  476.06
     21.2700	  606.00	  607.94	-1912.82	  475.55
     21.3700	  586.00	  607.56	-1932.44	  475.04
     21.4700	  602.00	  607.19	-1916.07	  474.53
     21.5700	  633.00	  606.83	-1884.71	  474.03
     21.6700	  602.00	  606.49	-1915.36	  473.53
     21.7700	  572.00	  606.15	-1945.02	  473.03
     21.8700	  595.00	  605.82	-1921.70	  472.54
     21.9700	  578.00	  605.51	-1938.39	  472.05
     22.0700	  634.00	  605.21	-1882.09	  471.57
     22.1700	  649.00	  604.93	-1866.80	  471.08
     22.2700	  615.00	  604.85	-1900.72	  470.61
     22.3700	  611.00	  604.60	-1904.47	  470.13
     22.4700	  647.00	  604.37	-1868.24	  469.66
     22.5700	  589.00	  604.16	-1926.03	  469.19
     22.6700	  646.00	  603.97	-1868.84	  468.72
     22.7700	  559.00	  603.80	-1955.68	  468.26
     22.8700	  601.00	  603.66	-1913.54	  467.80
     22.9700	  578.00	  603.55	-1936.43	  467.35
     23.0700	  628.00	  603.48	-1886.35	  466.90
     23.1700	  586.00	  603.44	-1928.31	  466.45
     23.2700	  638.00	  603.45	-1876.32	  466.00
     23.3700	  610.00	  603.51	-1904.38	  465.56
     23.4700	  616.00	  603.63	-1898.50	  465.12
     23.5700	  605.00	  603.83	-1909.70	  464.68
     23.6700	  599.00	  604.13	-1916.00	  464.25
     23.7700	  647.00	  604.56	-1868.43	  463.82
     23.8700	  628.00	  605.18	-1888.05	  463.40
     23.9700	  630.00	  606.06	-1886.94	  462.97
     24.0700	  588.00	  607.37	-1930.24	  462.56
     24.1700	  620.00	  609.32	-1900.19	  462.14
     24.2700	  601.00	  612.24	-1922.12	  461.73
     24.3700	  602.00	  616.56	-1925.43	  461.32
     24.4700	  633.00	  622.60	-1900.47	  460.91
     24.5700	  623.00	  630.66	-1918.54	  460.51
     24.6700	  684.00	  640.45	-1867.32	  460.11
     24.7700	  683.00	  650.98	-1878.85	  459.71
     24.8700	  711.00	  660.22	-1860.09	  459.31
     24.9700	  695.00	  664.94	-1880.81	  458.92
     25.0700	  679.00	  662.19	-1894.06	  458.54
     25.1700	  695.00	  652.83	-1868.71	  458.15
     25.2700	  663.00	  641.49	-1889.36	  457.77
     25.3700	  650.00	  631.73	-1892.60	  457.39
     25.4700	  623.00	  624.80	-1912.67	  457.02
     25.5700	  599.00	  620.56	-1932.43	  456.64
     25.6700	  619.00	  618.41	-1910.28	  456.27
     25.7700	  660.00	  617.70	-1868.58	  455.91
     25.8700	  679.00	  617.97	-1849.85	  455.54
     25.9700	  591.00	  618.92	-1938.80	  455.18
     26.0700	  607.00	  620.41	-1924.28	  454.83
     26.1700	  639.00	  622.38	-1894.26	  454.47
     26.2700	  660.00	  624.85	-1875.73	  454.12
     26.3700	  599.00	  627.86	-1939.73	  453.77
     26.4700	  649.00	  631.47	-1893.34	  453.43
     26.5700	  601.00	  635.78	-1945.66	  453.08
     26.6700	  670.00	  640.94	-1881.81	  452.74
     26.7700	  665.00	  647.12	-1892.99	  452.41
     26.8700	  620.00	  654.56	-1945.43	  452.07
     26.9700	  633.00	  663.59	-1941.47	  451.74
     27.0700	  662.00	  674.68	-1923.55	  451.42
     27.1700	  695.00	  688.45	-1904.33	  451.09
     27.2700	  731.00	  705.89	-1885.77	  450.77
     27.3700	  730.00	  728.64	-1909.51	  450.45
     27.4700	  691.00	  759.90	-1979.77	  450.13
     27.5700	  765.00	  806.50	-1952.38	  449.82
     27.6700	  810.00	  882.68	-1983.56	  449.51
     27.7700	  880.00	 1015.44	-2046.32	  449.20
     27.8700	  965.00	 1249.54	-2195.41	  448.90
     27.9700	 1290.00	 1646.22	-2267.09	  448.59
     28.0700	 1806.00	 2264.77	-2369.64	  448.29
     28.1700	 2870.00	 3119.42	-2160.29	  448.00
     28.2700	 4367.00	 4111.74	-1655.61	  447.70
     28.3700	 5594.00	 4968.29	-1285.17	  447.41
     28.4700	 6069.00	 5271.62	-1113.50	  447.12
     28.5700	 5061.00	 4783.59	-1633.47	  446.84
     28.6700	 3904.00	 3891.80	-1898.67	  446.56
     28.7700	 2874.00	 3186.25	-2223.13	  446.28
     28.8700	 2653.00	 2913.95	-2171.83	  446.00
     28.9700	 2999.00	 3006.15	-1918.02	  445.72
     29.0700	 3397.00	 3214.90	-1728.77	  445.45
     29.1700	 3391.00	 3232.79	-1752.67	  445.18
     29.2700	 3067.00	 2876.38	-1720.25	  444.92
     29.3700	 2275.00	 2282.55	-1918.42	  444.65
     29.4700	 1537.00	 1711.93	-2085.80	  444.39
     29.5700	 1171.00	 1291.81	-2031.68	  444.13
     29.6700	 1022.00	 1029.80	-1918.68	  443.87
     29.7700	  872.00	  882.60	-1921.47	  443.62
     29.8700	  794.00	  801.84	-1918.72	  443.37
     29.9700	  772.00	  754.43	-1893.30	  443.12
     30.0700	  719.00	  723.24	-1915.11	  442.88
     30.1700	  772.00	  700.79	-1839.66	  442.63
     30.2700	  732.00	  683.94	-1862.82	  442.39
     30.3700	  694.00	  671.33	-1888.21	  442.15
     30.4700	  667.00	  662.47	-1906.34	  441.92
     30.5700	  680.00	  657.48	-1888.35	  441.68
     30.6700	  739.00	  656.93	-1828.80	  441.45
     30.7700	  691.00	  661.42	-1881.29	  441.23
     30.8700	  708.00	  670.73	-1873.61	  441.00
     30.9700	  726.00	  682.93	-1867.81	  440.78
     31.0700	  736.00	  693.70	-1868.57	  440.56
     31.1700	  727.00	  696.56	-1880.44	  440.34
     31.2700	  717.00	  686.54	-1880.41	  440.12
     31.3700	  726.00	  666.69	-1851.57	  439.91
     31.4700	  705.00	  645.38	-1851.25	  439.70
     31.5700	  669.00	  627.92	-1869.79	  439.49
     31.6700	  650.00	  615.60	-1876.48	  439.28
     31.7700	  675.00	  607.65	-1843.52	  439.08
     31.8700	  689.00	  602.65	-1824.52	  438.88
     31.9700	  613.00	  599.39	-1897.26	  438.68
     32.0700	  604.00	  597.10	-1903.98	  438.48
     32.1700	  621.00	  595.40	-1885.28	  438.29
     32.2700	  606.00	  594.11	-1898.98	  438.09
     32.3700	  560.00	  593.14	-1944.02	  437.90
     32.4700	  567.00	  592.47	-1936.35	  437.72
     32.5700	  604.00	  592.09	-1898.96	  437.53
     32.6700	  592.00	  592.03	-1910.90	  437.35
     32.7700	  589.00	  592.26	-1914.13	  437.17
     32.8700	  630.00	  592.86	-1873.73	  436.99
     32.9700	  632.00	  593.90	-1872.77	  436.81
     33.0700	  618.00	  595.49	-1888.37	  436.64
     33.1700	  625.00	  597.84	-1883.71	  436.47
     33.2700	  593.00	  601.28	-1919.16	  436.30
     33.3700	  627.00	  606.51	-1890.38	  436.13
     33.4700	  620.00	  614.84	-1905.71	  435.97
     33.5700	  662.00	  628.69	-1877.56	  435.80
     33.6700	  638.00	  652.01	-1924.88	  435.64
     33.7700	  715.00	  690.15	-1886.02	  435.48
     33.8700	  761.00	  748.41	-1898.29	  435.33
     33.9700	  871.00	  828.46	-1868.33	  435.17
     34.0700	  985.00	  923.32	-1849.19	  435.02
     34.1700	 1139.00	 1013.65	-1785.52	  434.87
     34.2700	 1250.00	 1067.89	-1728.77	  434.72
     34.3700	 1238.00	 1055.42	-1728.30	  434.58
     34.4700	 1064.00	  978.11	-1824.99	  434.43
     34.5700	  874.00	  874.33	-1911.20	  434.29
     34.6700	  752.00	  779.12	-1937.99	  434.15
     34.7700	  697.00	  707.05	-1920.92	  434.01
     34.8700	  683.00	  658.88	-1886.75	  433.88
     34.9700	  631.00	  629.32	-1909.20	  433.75
     35.0700	  691.00	  611.88	-1831.75	  433.61
     35.1700	  677.00	  601.35	-1835.23	  433.48
     35.2700	  611.00	  594.53	-1894.41	  433.36
     35.3700	  612.00	  589.72	-1888.59	  433.23
     35.4700	  542.00	  586.09	-1954.96	  433.11
     35.5700	  592.00	  583.23	-1902.10	  432.99
     35.6700	  595.00	  580.93	-1896.81	  432.87
     35.7700	  558.00	  579.05	-1931.93	  432.75
     35.8700	  593.00	  577.50	-1895.38	  432.63
     35.9700	  587.00	  576.22	-1900.09	  432.52
     36.0700	  573.00	  575.15	-1913.02	  432.41
     36.1700	  544.00	  574.26	-1941.13	  432.30
     36.2700	  548.00	  573.53	-1936.40	  432.19
     36.3700	  560.00	  572.94	-1923.81	  432.08
     36.4700	  539.00	  572.48	-1944.35	  431.98
     36.5700	  617.00	  572.14	-1866.02	  431.88
     36.6700	  601.00	  571.94	-1881.81	  431.78
     36.7700	  571.00	  571.87	-1911.74	  431.68
     36.8700	  576.00	  572.65	-1907.52	  431.58
     36.9700	  574.00	  572.93	-1909.81	  431.48
     37.0700	  559.00	  573.48	-1925.35	  431.39
     37.1700	  581.00	  574.38	-1904.25	  431.30
     37.2700	  563.00	  575.82	-1923.70	  431.21
     37.3700	  594.00	  578.10	-1894.98	  431.12
     37.4700	  585.00	  581.71	-1907.59	  431.03
     37.5700	  567.00	  587.31	-1931.19	  430.95
     37.6700	  633.00	  595.90	-1873.77	  430.87
     37.7700	  615.00	  608.44	-1904.31	  430.78
     37.8700	  623.00	  625.59	-1913.46	  430.70
     37.9700	  621.00	  646.76	-1936.63	  430.63
     38.0700	  649.00	  669.80	-1931.67	  430.55
     38.1700	  687.00	  690.39	-1914.26	  430.48
     38.2700	  676.00	  700.65	-1935.52	  430.40
     38.3700	  686.00	  696.91	-1921.79	  430.33
     38.4700	  636.00	  677.94	-1952.81	  430.26
     38.5700	  596.00	  651.71	-1966.59	  430.19
     38.6700	  591.00	  626.43	-1946.30	  430.13
     38.7700	  596.00	  606.13	-1921.01	  430.06
     38.8700	  599.00	  591.64	-1903.52	  430.00
     38.9700	  570.00	  582.14	-1923.01	  429.94
     39.0700	  542.00	  576.22	-1945.09	  429.88
     39.1700	  573.00	  572.56	-1910.44	  429.82
     39.2700	  607.00	  570.22	-1874.10	  429.76
     39.3700	  568.00	  568.61	-1911.49	  429.71
     39.4700	  552.00	  567.43	-1926.30	  429.65
     39.5700	  581.00	  566.51	-1896.38	  429.60
     39.6700	  555.00	  564.95	-1920.82	  429.55
     39.7700	  605.00	  564.37	-1870.25	  429.50
     39.8700	  557.00	  563.90	-1917.77	  429.45
     39.9700	  591.00	  563.51	-1883.39	  429.41
     40.0700	  591.00	  563.20	-1883.07	  429.36
     40.1700	  580.00	  562.94	-1893.81	  429.32
     40.2700	  565.00	  562.73	-1908.60	  429.27
     40.3700	  572.00	  562.57	-1901.44	  429.23
     40.4700	  538.00	  562.45	-1935.32	  429.19
     40.5700	  552.00	  562.90	-1921.78	  429.16
     40.6700	  565.00	  562.86	-1908.73	  429.12
     40.7700	  582.00	  562.85	-1891.73	  429.09
