MSG Master    CELL:    5.87573   5.87573  23.06818   90.0000   90.0000  120.0000   SPGR: P 63/m m c             TEMP:    442.65
  2   1280     2.52000     0.00000    -0.08618     0.00000     0.00000    0
    95    95     0     0     2
       0.00000      10.00000
     125.00000     130.00000
 2Theta	Yobs	Ycal	Yobs-Ycal	Backg	Posr	(hkl)	K
      0.7700	    0.00	  979.81	-2339.00	  835.34
      0.8700	    0.00	  976.63	-2339.00	  832.16
      0.9700	   50.00	  973.48	-2339.00	  829.01
      1.0700	   45.00	  970.34	-2339.00	  825.87
      1.1700	   50.00	  967.22	-2339.00	  822.75
      1.2700	   49.00	  964.13	-2339.00	  819.66
      1.3700	   46.00	  961.05	-2339.00	  816.58
      1.4700	  104.00	  957.99	-2339.00	  813.52
      1.5700	  323.00	  954.95	-2339.00	  810.48
      1.6700	  483.00	  951.94	-2339.00	  807.47
      1.7700	  583.00	  948.94	-2339.00	  804.47
      1.8700	  638.00	  945.96	-2339.00	  801.49
      1.9700	  706.00	  942.99	-2339.00	  798.52
      2.0700	  783.00	  940.05	-2339.00	  795.58
      2.1700	  782.00	  937.13	-2339.00	  792.66
      2.2700	  835.00	  934.22	-2339.00	  789.75
      2.3700	  710.00	  931.34	-2339.00	  786.87
      2.4700	  688.00	  928.47	-2339.00	  784.00
      2.5700	  718.00	  925.62	-2339.00	  781.15
      2.6700	  684.00	  922.79	-2339.00	  778.32
      2.7700	  642.00	  919.98	-2339.00	  775.51
      2.8700	  652.00	  917.19	-2339.00	  772.72
      2.9700	  655.00	  914.41	-2339.00	  769.94
      3.0700	  624.00	  911.65	-2339.00	  767.18
      3.1700	  630.00	  908.92	-2339.00	  764.45
      3.2700	  752.00	  906.19	-2339.00	  761.72
      3.3700	  948.00	  903.49	-2339.00	  759.02
      3.4700	 1042.00	  900.81	-2339.00	  756.34
      3.5700	 1173.00	  898.14	-2339.00	  753.67
      3.6700	 1294.00	  895.49	-2339.00	  751.02
      3.7700	 1442.00	  892.86	-2339.00	  748.39
      3.8700	 1447.00	  890.25	-2339.00	  745.78
      3.9700	 1605.00	  887.65	-2339.00	  743.18
      4.0700	 1618.00	  885.07	-2339.00	  740.60
      4.1700	 1734.00	  882.51	-2339.00	  738.04
      4.2700	 1777.00	  879.96	-2339.00	  735.49
      4.3700	 1717.00	  877.44	-2339.00	  732.97
      4.4700	 1586.00	  874.93	-2339.00	  730.46
      4.5700	 1538.00	  872.43	-2339.00	  727.96
      4.6700	 1526.00	  869.96	-2339.00	  725.49
      4.7700	 1609.00	  867.50	-2339.00	  723.03
      4.8700	 1456.00	  865.06	-2339.00	  720.59
      4.9700	 1382.00	  862.63	-2339.00	  718.16
      5.0700	 1329.00	  860.22	-2339.00	  715.75
      5.1700	 1293.00	  857.83	-2339.00	  713.36
      5.2700	 1269.00	  855.45	-2339.00	  710.98
      5.3700	 1280.00	  853.09	-2339.00	  708.62
      5.4700	 1253.00	  850.75	-2339.00	  706.28
      5.5700	 1246.00	  848.42	-2339.00	  703.95
      5.6700	 1208.00	  846.11	-2339.00	  701.64
      5.7700	 1167.00	  843.82	-2339.00	  699.35
      5.8700	 1143.00	  841.54	-2339.00	  697.07
      5.9700	 1203.00	  839.28	-2339.00	  694.81
      6.0700	 1095.00	  837.03	-2339.00	  692.56
      6.1700	 1038.00	  834.80	-2339.00	  690.33
      6.2700	 1043.00	  832.59	-2339.00	  688.12
      6.3700	 1052.00	  830.39	-2339.00	  685.92
      6.4700	 1088.00	  828.20	-2339.00	  683.73
      6.5700	 1045.00	  826.04	-2339.00	  681.57
      6.6700	  985.00	  823.88	-2339.00	  679.41
      6.7700	  972.00	  821.75	-2339.00	  677.28
      6.8700	  959.00	  819.63	-2339.00	  675.16
      6.9700	  962.00	  817.52	-2339.00	  673.05
      7.0700	  956.00	  815.43	-2339.00	  670.96
      7.1700	  880.00	  813.35	-2339.00	  668.88
      7.2700	  937.00	  811.29	-2339.00	  666.82
      7.3700	  988.00	  809.25	-2339.00	  664.78
      7.4700	  903.00	  807.22	-2339.00	  662.75
      7.5700	  938.00	  805.20	-2339.00	  660.73
      7.6700	  865.00	  803.20	-2339.00	  658.73
      7.7700	  841.00	  801.21	-2339.00	  656.74
      7.8700	  873.00	  799.24	-2339.00	  654.77
      7.9700	  861.00	  797.28	-2339.00	  652.81
      8.0700	  833.00	  795.34	-2339.00	  650.87
      8.1700	  885.00	  793.41	-2339.00	  648.94
      8.2700	  790.00	  791.50	-2339.00	  647.03
      8.3700	  780.00	  789.60	-2339.00	  645.13
      8.4700	  799.00	  787.71	-2339.00	  643.24
      8.5700	  791.00	  785.84	-2339.00	  641.37
      8.6700	  840.00	  783.98	-2339.00	  639.51
      8.7700	  803.00	  782.14	-2339.00	  637.67
      8.8700	  855.00	  780.31	-2339.00	  635.84
      8.9700	  804.00	  778.49	-2339.00	  634.02
      9.0700	  766.00	  776.69	-2339.00	  632.22
      9.1700	  740.00	  774.91	-2339.00	  630.44
      9.2700	  823.00	  773.13	-2339.00	  628.66
      9.3700	  774.00	  771.37	-2339.00	  626.90
      9.4700	  805.00	  769.62	-2339.00	  625.15
      9.5700	  801.00	  767.89	-2339.00	  623.42
      9.6700	  763.00	  766.17	-2339.00	  621.70
      9.7700	  775.00	  764.46	-2339.00	  619.99
      9.8700	  757.00	  762.77	-2339.00	  618.30
      9.9700	  763.00	  761.09	-2339.00	  616.62
     10.0700	  774.00	  761.46	-2326.46	  614.95
     10.1700	  767.00	  760.03	-2332.03	  613.30
     10.2700	  752.00	  758.65	-2345.65	  611.66
     10.3700	  769.00	  757.34	-2327.34	  610.03
     10.4700	  762.00	  756.12	-2333.12	  608.41
     10.5700	  737.00	  755.04	-2357.04	  606.81
     10.6700	  789.00	  754.14	-2304.14	  605.22
     10.7700	  777.00	  753.49	-2315.49	  603.65
     10.8700	  749.00	  753.21	-2343.21	  602.08
     10.9700	  765.00	  753.38	-2327.38	  600.53
     11.0700	  747.00	  754.06	-2346.06	  598.99
     11.1700	  760.00	  755.28	-2334.28	  597.46
     11.2700	  743.00	  757.05	-2353.05	  595.95
     11.3700	  786.00	  759.41	-2312.41	  594.45
     11.4700	  741.00	  762.44	-2360.44	  592.96
     11.5700	  726.00	  766.29	-2379.29	  591.48
     11.6700	  756.00	  771.16	-2354.16	  590.02
     11.7700	  783.00	  777.34	-2333.34	  588.56
     11.8700	  794.00	  785.13	-2330.13	  587.12
     11.9700	  857.00	  794.67	-2276.67	  585.69
     12.0700	  861.00	  805.57	-2283.57	  584.27
     12.1700	  851.00	  816.38	-2304.38	  582.87
     12.2700	  906.00	  824.00	-2257.00	  581.48
     12.3700	  862.00	  823.68	-2300.68	  580.09
     12.4700	  802.00	  811.88	-2348.88	  578.72
     12.5700	  752.00	  791.76	-2378.76	  577.36
     12.6700	  766.00	  770.93	-2343.93	  576.02
     12.7700	  741.00	  754.01	-2352.01	  574.68
     12.8700	  713.00	  741.75	-2367.75	  573.36
     12.9700	  670.00	  733.35	-2402.35	  572.04
     13.0700	  687.00	  727.61	-2379.61	  570.74
     13.1700	  701.00	  723.52	-2361.52	  569.45
     13.2700	  694.00	  720.38	-2365.38	  568.17
     13.3700	  717.00	  717.79	-2339.79	  566.90
     13.4700	  674.00	  715.54	-2380.54	  565.64
     13.5700	  698.00	  713.53	-2354.53	  564.40
     13.6700	  742.00	  711.68	-2308.68	  563.16
     13.7700	  722.00	  709.96	-2326.96	  561.94
     13.8700	  714.00	  708.34	-2333.34	  560.72
     13.9700	  730.00	  706.79	-2315.79	  559.52
     14.0700	  697.00	  705.32	-2347.32	  558.33
     14.1700	  669.00	  703.89	-2373.89	  557.15
     14.2700	  724.00	  702.51	-2317.51	  555.98
     14.3700	  693.00	  701.17	-2347.17	  554.81
     14.4700	  699.00	  699.87	-2339.87	  553.66
     14.5700	  686.00	  698.59	-2351.59	  552.52
     14.6700	  691.00	  697.35	-2345.35	  551.40
     14.7700	  647.00	  696.12	-2388.12	  550.28
     14.8700	  674.00	  694.92	-2359.92	  549.17
     14.9700	  665.00	  693.74	-2367.74	  548.07
     15.0700	  693.00	  692.58	-2338.58	  546.98
     15.1700	  680.00	  691.43	-2350.43	  545.90
     15.2700	  691.00	  690.30	-2338.30	  544.83
     15.3700	  672.00	  689.19	-2356.19	  543.77
     15.4700	  660.00	  688.09	-2367.09	  542.72
     15.5700	  638.00	  687.01	-2388.01	  541.69
     15.6700	  745.00	  685.94	-2279.94	  540.66
     15.7700	  706.00	  684.88	-2317.88	  539.64
     15.8700	  671.00	  683.84	-2351.84	  538.63
     15.9700	  733.00	  682.81	-2288.81	  537.63
     16.0700	  712.00	  681.79	-2308.79	  536.64
     16.1700	  650.00	  680.78	-2369.78	  535.65
     16.2700	  699.00	  679.78	-2319.78	  534.68
     16.3700	  668.00	  678.80	-2349.80	  533.72
     16.4700	  687.00	  677.82	-2329.82	  532.77
     16.5700	  694.00	  676.86	-2321.86	  531.82
     16.6700	  672.00	  675.91	-2342.91	  530.89
     16.7700	  693.00	  674.97	-2320.97	  529.96
     16.8700	  654.00	  674.04	-2359.04	  529.05
     16.9700	  661.00	  673.12	-2351.12	  528.14
     17.0700	  641.00	  672.20	-2370.20	  527.24
     17.1700	  696.00	  671.30	-2314.30	  526.35
     17.2700	  655.00	  670.41	-2354.41	  525.47
     17.3700	  686.00	  669.53	-2322.53	  524.60
     17.4700	  671.00	  668.66	-2336.66	  523.74
     17.5700	  681.00	  667.80	-2325.80	  522.88
     17.6700	  722.00	  666.94	-2283.94	  522.04
     17.7700	  654.00	  666.10	-2351.10	  521.20
     17.8700	  673.00	  665.26	-2331.26	  520.38
     17.9700	  633.00	  664.44	-2370.44	  519.56
     18.0700	  654.00	  663.62	-2348.62	  518.75
     18.1700	  644.00	  662.81	-2357.81	  517.94
     18.2700	  657.00	  662.01	-2344.01	  517.15
     18.3700	  686.00	  661.22	-2314.23	  516.36
     18.4700	  720.00	  660.44	-2279.44	  515.59
     18.5700	  712.00	  659.67	-2286.67	  514.82
     18.6700	  665.00	  658.91	-2332.91	  514.06
     18.7700	  685.00	  658.15	-2312.15	  513.30
     18.8700	  665.00	  657.41	-2331.41	  512.56
     18.9700	  647.00	  656.67	-2348.67	  511.82
     19.0700	  634.00	  655.94	-2360.94	  511.09
     19.1700	  622.00	  656.51	-2373.51	  510.37
     19.2700	  705.00	  658.01	-2292.01	  509.66
     19.3700	  651.00	  657.38	-2345.38	  508.95
     19.4700	  631.00	  656.76	-2364.76	  508.26
     19.5700	  708.00	  656.15	-2287.15	  507.57
     19.6700	  659.00	  655.55	-2335.55	  506.89
     19.7700	  623.00	  654.97	-2370.97	  506.21
     19.8700	  653.00	  654.39	-2340.39	  505.55
     19.9700	  621.00	  653.83	-2371.83	  504.89
     20.0700	  641.00	  653.27	-2351.27	  504.23
     20.1700	  692.00	  652.73	-2299.73	  503.59
     20.2700	  660.00	  652.20	-2331.20	  502.95
     20.3700	  693.00	  651.73	-2297.73	  502.33
     20.4700	  648.00	  651.23	-2342.23	  501.70
     20.5700	  673.00	  650.73	-2316.73	  501.09
     20.6700	  631.00	  650.25	-2358.25	  500.48
     20.7700	  645.00	  649.78	-2343.78	  499.88
     20.8700	  697.00	  649.33	-2291.33	  499.29
     20.9700	  637.00	  648.88	-2350.88	  498.70
     21.0700	  682.00	  648.45	-2305.45	  498.12
     21.1700	  651.00	  648.04	-2336.04	  497.55
     21.2700	  618.00	  647.64	-2368.64	  496.99
     21.3700	  623.00	  647.25	-2363.25	  496.43
     21.4700	  694.00	  646.88	-2291.88	  495.88
     21.5700	  659.00	  646.52	-2326.52	  495.33
     21.6700	  631.00	  646.18	-2354.18	  494.79
     21.7700	  645.00	  645.85	-2339.85	  494.26
     21.8700	  651.00	  645.54	-2333.54	  493.74
     21.9700	  583.00	  645.25	-2401.25	  493.22
     22.0700	  660.00	  644.98	-2323.98	  492.71
     22.1700	  655.00	  644.73	-2328.73	  492.20
     22.2700	  664.00	  644.50	-2319.50	  491.71
     22.3700	  651.00	  644.29	-2332.29	  491.21
     22.4700	  622.00	  644.10	-2361.10	  490.73
     22.5700	  698.00	  644.15	-2285.15	  490.25
     22.6700	  640.00	  644.02	-2343.02	  489.78
     22.7700	  651.00	  643.92	-2331.92	  489.31
     22.8700	  643.00	  643.85	-2339.85	  488.85
     22.9700	  694.00	  643.81	-2288.81	  488.40
     23.0700	  658.00	  643.81	-2324.81	  487.95
     23.1700	  652.00	  643.86	-2330.86	  487.51
     23.2700	  647.00	  643.95	-2335.95	  487.07
     23.3700	  699.00	  644.09	-2284.09	  486.64
     23.4700	  694.00	  644.30	-2289.30	  486.22
     23.5700	  646.00	  644.58	-2337.58	  485.80
     23.6700	  628.00	  644.95	-2355.95	  485.39
     23.7700	  622.00	  645.44	-2362.44	  484.98
     23.8700	  636.00	  646.07	-2349.07	  484.58
     23.9700	  629.00	  646.90	-2356.90	  484.19
     24.0700	  697.00	  648.04	-2290.04	  483.80
     24.1700	  622.00	  649.63	-2366.63	  483.41
     24.2700	  675.00	  651.91	-2315.91	  483.04
     24.3700	  694.00	  655.18	-2300.19	  482.66
     24.4700	  671.00	  659.99	-2327.99	  482.30
     24.5700	  638.00	  666.64	-2367.64	  481.94
     24.6700	  657.00	  675.29	-2357.29	  481.58
     24.7700	  666.00	  685.61	-2358.61	  481.23
     24.8700	  712.00	  696.47	-2323.47	  480.89
     24.9700	  727.00	  705.63	-2317.63	  480.55
     25.0700	  713.00	  709.71	-2335.71	  480.21
     25.1700	  725.00	  706.12	-2320.12	  479.88
     25.2700	  785.00	  696.57	-2250.57	  479.56
     25.3700	  706.00	  685.84	-2318.84	  479.24
     25.4700	  710.00	  677.18	-2306.18	  478.93
     25.5700	  658.00	  671.53	-2352.53	  478.62
     25.6700	  705.00	  668.49	-2302.49	  478.32
     25.7700	  692.00	  667.49	-2314.49	  478.02
     25.8700	  696.00	  667.91	-2310.91	  477.73
     25.9700	  675.00	  669.32	-2333.32	  477.44
     26.0700	  661.00	  671.48	-2349.48	  477.16
     26.1700	  658.00	  674.29	-2355.29	  476.88
     26.2700	  680.00	  677.74	-2336.74	  476.60
     26.3700	  641.00	  681.87	-2379.87	  476.34
     26.4700	  687.00	  686.76	-2338.76	  476.07
     26.5700	  710.00	  692.53	-2321.53	  475.81
     26.6700	  697.00	  699.35	-2341.35	  475.56
     26.7700	  696.00	  707.43	-2350.43	  475.31
     26.8700	  703.00	  717.07	-2353.07	  475.06
     26.9700	  732.00	  728.65	-2335.65	  474.82
     27.0700	  711.00	  742.70	-2370.70	  474.59
     27.1700	  746.00	  759.96	-2352.96	  474.35
     27.2700	  709.00	  781.49	-2411.49	  474.13
     27.3700	  732.00	  808.92	-2415.92	  473.90
     27.4700	  774.00	  845.20	-2410.20	  473.68
     27.5700	  852.00	  896.47	-2383.47	  473.47
     27.6700	  878.00	  976.53	-2437.53	  473.26
     27.7700	  903.00	 1114.77	-2550.77	  473.06
     27.8700	 1120.00	 1366.26	-2585.26	  472.85
     27.9700	 1342.00	 1819.37	-2816.37	  472.66
     28.0700	 2023.00	 2588.09	-2904.09	  472.46
     28.1700	 3230.00	 3769.68	-2878.68	  472.28
     28.2700	 5350.00	 5349.64	-2338.64	  472.09
     28.3700	 7958.00	 7054.66	-1435.66	  471.91
     28.4700	 9356.00	 8263.30	-1246.30	  471.73
     28.5700	 8972.00	 8223.77	-1590.77	  471.56
     28.6700	 7079.00	 6903.21	-2163.21	  471.39
     28.7700	 5042.00	 5325.23	-2622.23	  471.23
     28.8700	 4124.00	 4354.40	-2569.40	  471.07
     28.9700	 4018.00	 4174.17	-2495.17	  470.91
     29.0700	 4841.00	 4500.40	-1998.40	  470.76
     29.1700	 5249.00	 4830.93	-1920.93	  470.61
     29.2700	 4960.00	 4670.48	-2049.48	  470.46
     29.3700	 3820.00	 3896.61	-2415.61	  470.32
     29.4700	 2721.00	 2899.11	-2517.11	  470.18
     29.5700	 1824.00	 2058.50	-2573.50	  470.05
     29.6700	 1390.00	 1496.09	-2445.09	  469.91
     29.7700	 1116.00	 1173.54	-2396.54	  469.79
     29.8700	 1038.00	 1002.81	-2303.81	  469.66
     29.9700	  937.00	  910.33	-2312.33	  469.54
     30.0700	  893.00	  854.25	-2300.25	  469.43
     30.1700	  844.00	  815.85	-2310.85	  469.31
     30.2700	  782.00	  787.58	-2344.58	  469.20
     30.3700	  783.00	  766.30	-2322.30	  469.10
     30.4700	  725.00	  750.64	-2364.64	  468.99
     30.5700	  746.00	  740.31	-2333.31	  468.89
     30.6700	  738.00	  735.89	-2336.89	  468.80
     30.7700	  713.00	  738.57	-2364.56	  468.70
     30.8700	  752.00	  749.32	-2336.32	  468.61
     30.9700	  801.00	  767.40	-2305.40	  468.53
     31.0700	  733.00	  788.74	-2394.74	  468.44
     31.1700	  806.00	  805.08	-2338.08	  468.36
     31.2700	  799.00	  805.39	-2345.39	  468.28
     31.3700	  806.00	  784.19	-2317.19	  468.21
     31.4700	  745.00	  750.60	-2344.60	  468.14
     31.5700	  734.00	  718.08	-2323.08	  468.07
     31.6700	  729.00	  693.17	-2303.17	  468.00
     31.7700	  725.00	  676.58	-2290.58	  467.94
     31.8700	  682.00	  666.34	-2323.34	  467.88
     31.9700	  736.00	  660.08	-2263.08	  467.82
     32.0700	  660.00	  655.99	-2334.99	  467.77
     32.1700	  702.00	  653.10	-2290.10	  467.72
     32.2700	  686.00	  650.91	-2303.91	  467.67
     32.3700	  667.00	  649.24	-2321.24	  467.62
     32.4700	  674.00	  647.98	-2312.98	  467.58
     32.5700	  686.00	  647.09	-2300.09	  467.54
     32.6700	  698.00	  646.56	-2287.56	  467.50
     32.7700	  686.00	  646.39	-2299.39	  467.47
     32.8700	  674.00	  646.62	-2311.62	  467.44
     32.9700	  660.00	  647.31	-2326.31	  467.41
     33.0700	  697.00	  648.50	-2290.50	  467.38
     33.1700	  707.00	  650.34	-2282.34	  467.36
     33.2700	  672.00	  653.07	-2320.07	  467.33
     33.3700	  698.00	  657.11	-2298.11	  467.31
     33.4700	  716.00	  663.29	-2286.29	  467.30
     33.5700	  707.00	  673.27	-2305.27	  467.28
     33.6700	  693.00	  690.10	-2336.10	  467.27
     33.7700	  713.00	  718.79	-2344.79	  467.26
     33.8700	  780.00	  766.08	-2325.08	  467.25
     33.9700	  904.00	  838.42	-2273.42	  467.25
     34.0700	  923.00	  937.10	-2353.10	  467.24
     34.1700	 1131.00	 1051.95	-2259.95	  467.24
     34.2700	 1247.00	 1157.07	-2249.07	  467.24
     34.3700	 1355.00	 1212.40	-2196.40	  467.25
     34.4700	 1332.00	 1183.73	-2190.73	  467.25
     34.5700	 1150.00	 1081.94	-2270.94	  467.26
     34.6700	  963.00	  956.86	-2332.86	  467.27
     34.7700	  878.00	  847.37	-2308.37	  467.28
     34.8700	  791.00	  767.39	-2315.39	  467.30
     34.9700	  760.00	  715.73	-2294.73	  467.31
     35.0700	  748.00	  684.99	-2275.99	  467.33
     35.1700	  729.00	  667.23	-2277.23	  467.35
     35.2700	  681.00	  656.58	-2314.58	  467.37
     35.3700	  646.00	  649.64	-2342.64	  467.40
     35.4700	  636.00	  644.71	-2347.71	  467.42
     35.5700	  684.00	  640.99	-2295.99	  467.45
     35.6700	  663.00	  638.08	-2314.08	  467.48
     35.7700	  618.00	  635.76	-2356.76	  467.51
     35.8700	  693.00	  633.95	-2279.95	  467.55
     35.9700	  633.00	  632.44	-2338.44	  467.58
     36.0700	  653.00	  631.21	-2317.21	  467.62
     36.1700	  645.00	  630.23	-2324.23	  467.66
     36.2700	  629.00	  629.44	-2339.44	  467.70
     36.3700	  681.00	  628.83	-2286.83	  467.74
     36.4700	  635.00	  628.38	-2332.38	  467.78
     36.5700	  605.00	  628.08	-2362.08	  467.83
     36.6700	  580.00	  627.93	-2386.93	  467.87
     36.7700	  627.00	  627.94	-2339.94	  467.92
     36.8700	  623.00	  628.11	-2344.11	  467.97
     36.9700	  598.00	  628.47	-2369.47	  468.02
     37.0700	  688.00	  629.06	-2280.06	  468.08
     37.1700	  630.00	  630.16	-2339.16	  468.13
     37.2700	  626.00	  631.49	-2344.49	  468.19
     37.3700	  653.00	  633.98	-2319.98	  468.24
     37.4700	  664.00	  636.98	-2311.98	  468.30
     37.5700	  616.00	  641.63	-2364.63	  468.36
     37.6700	  632.00	  649.04	-2356.04	  468.43
     37.7700	  680.00	  660.69	-2319.69	  468.49
     37.8700	  662.00	  678.34	-2355.34	  468.55
     37.9700	  709.00	  703.40	-2333.40	  468.62
     38.0700	  762.00	  733.66	-2310.66	  468.69
     38.1700	  766.00	  770.06	-2343.06	  468.75
     38.2700	  738.00	  803.52	-2404.52	  468.82
     38.3700	  830.00	  823.32	-2332.32	  468.89
     38.4700	  801.00	  819.11	-2357.11	  468.96
     38.5700	  789.00	  790.95	-2340.96	  469.04
     38.6700	  717.00	  751.40	-2373.40	  469.11
     38.7700	  683.00	  713.25	-2369.25	  469.19
     38.8700	  663.00	  682.81	-2358.81	  469.26
     38.9700	  643.00	  661.34	-2357.34	  469.34
     39.0700	  583.00	  647.49	-2403.49	  469.42
     39.1700	  614.00	  639.06	-2364.06	  469.50
     39.2700	  656.00	  633.99	-2316.99	  469.58
     39.3700	  604.00	  630.82	-2365.82	  469.66
     39.4700	  623.00	  627.47	-2343.47	  469.74
     39.5700	  584.00	  625.97	-2380.97	  469.83
     39.6700	  620.00	  624.84	-2343.84	  469.91
     39.7700	  599.00	  623.97	-2363.97	  470.00
     39.8700	  643.00	  623.28	-2319.28	  470.08
     39.9700	  647.00	  622.75	-2314.75	  470.17
     40.0700	  649.00	  622.33	-2312.33	  470.26
     40.1700	  652.00	  622.01	-2309.01	  470.35
     40.2700	  599.00	  621.76	-2361.76	  470.44
     40.3700	  581.00	  621.59	-2379.59	  470.53
     40.4700	  656.00	  621.47	-2304.47	  470.62
     40.5700	  619.00	  621.39	-2341.39	  470.71
     40.6700	  634.00	  621.37	-2326.37	  470.80
     40.7700	  621.00	  621.39	-2339.39	  470.90
