MSG Master    CELL:    5.90528   5.90528  23.19456   90.0000   90.0000  120.0000   SPGR: P 63/m m c             TEMP:    850.65
  1   1280     2.52000     0.00000    -0.13087     0.00000     0.00000    0
    98     0     2
       0.00000      10.00000
     125.00000     130.00000
 2Theta	Yobs	Ycal	Yobs-Ycal	Backg	Posr	(hkl)	K
      0.7700	    0.00	  438.80	-1742.93	  331.39
      0.8700	    0.00	  440.82	-1742.93	  333.41
      0.9700	   35.00	  442.83	-1742.93	  335.41
      1.0700	   39.00	  444.81	-1742.93	  337.40
      1.1700	   41.00	  446.77	-1742.93	  339.36
      1.2700	   49.00	  448.71	-1742.93	  341.30
      1.3700	   59.00	  450.63	-1742.93	  343.22
      1.4700	   97.00	  452.53	-1742.93	  345.12
      1.5700	  288.00	  454.41	-1742.93	  346.99
      1.6700	  479.00	  456.26	-1742.93	  348.85
      1.7700	  556.00	  458.10	-1742.93	  350.69
      1.8700	  645.00	  459.92	-1742.93	  352.50
      1.9700	  703.00	  461.71	-1742.93	  354.30
      2.0700	  783.00	  463.49	-1742.93	  356.08
      2.1700	  778.00	  465.25	-1742.93	  357.83
      2.2700	  721.00	  466.98	-1742.93	  359.57
      2.3700	  742.00	  468.70	-1742.93	  361.29
      2.4700	  679.00	  470.40	-1742.93	  362.99
      2.5700	  717.00	  472.08	-1742.93	  364.67
      2.6700	  704.00	  473.74	-1742.93	  366.32
      2.7700	  625.00	  475.38	-1742.93	  367.96
      2.8700	  606.00	  477.00	-1742.93	  369.59
      2.9700	  642.00	  478.60	-1742.93	  371.19
      3.0700	  588.00	  480.18	-1742.93	  372.77
      3.1700	  571.00	  481.75	-1742.93	  374.34
      3.2700	  655.00	  483.29	-1742.93	  375.88
      3.3700	  728.00	  484.82	-1742.93	  377.41
      3.4700	  887.00	  486.33	-1742.93	  378.92
      3.5700	  973.00	  487.82	-1742.93	  380.41
      3.6700	 1089.00	  489.30	-1742.93	  381.88
      3.7700	 1115.00	  490.75	-1742.93	  383.34
      3.8700	 1164.00	  492.19	-1742.93	  384.78
      3.9700	 1307.00	  493.61	-1742.93	  386.20
      4.0700	 1342.00	  495.01	-1742.93	  387.60
      4.1700	 1270.00	  496.39	-1742.93	  388.98
      4.2700	 1336.00	  497.76	-1742.93	  390.35
      4.3700	 1288.00	  499.11	-1742.93	  391.70
      4.4700	 1293.00	  500.44	-1742.93	  393.03
      4.5700	 1194.00	  501.76	-1742.93	  394.35
      4.6700	 1182.00	  503.06	-1742.93	  395.64
      4.7700	 1059.00	  504.34	-1742.93	  396.93
      4.8700	 1122.00	  505.60	-1742.93	  398.19
      4.9700	 1088.00	  506.85	-1742.93	  399.44
      5.0700	 1102.00	  508.08	-1742.93	  400.67
      5.1700	 1085.00	  509.30	-1742.93	  401.89
      5.2700	 1005.00	  510.50	-1742.93	  403.09
      5.3700	 1025.00	  511.68	-1742.93	  404.27
      5.4700	  953.00	  512.85	-1742.93	  405.44
      5.5700	  963.00	  514.00	-1742.93	  406.59
      5.6700	  884.00	  515.14	-1742.93	  407.72
      5.7700	  901.00	  516.25	-1742.93	  408.84
      5.8700	  857.00	  517.36	-1742.93	  409.95
      5.9700	  860.00	  518.45	-1742.93	  411.03
      6.0700	  806.00	  519.52	-1742.93	  412.11
      6.1700	  836.00	  520.58	-1742.93	  413.16
      6.2700	  879.00	  521.62	-1742.93	  414.21
      6.3700	  779.00	  522.65	-1742.93	  415.23
      6.4700	  789.00	  523.66	-1742.93	  416.25
      6.5700	  786.00	  524.66	-1742.93	  417.24
      6.6700	  785.00	  525.64	-1742.93	  418.23
      6.7700	  806.00	  526.61	-1742.93	  419.19
      6.8700	  757.00	  527.56	-1742.93	  420.15
      6.9700	  756.00	  528.50	-1742.93	  421.09
      7.0700	  695.00	  529.42	-1742.93	  422.01
      7.1700	  642.00	  530.33	-1742.93	  422.92
      7.2700	  693.00	  531.23	-1742.93	  423.82
      7.3700	  694.00	  532.11	-1742.93	  424.70
      7.4700	  680.00	  532.98	-1742.93	  425.57
      7.5700	  677.00	  533.83	-1742.93	  426.42
      7.6700	  668.00	  534.67	-1742.93	  427.26
      7.7700	  639.00	  535.50	-1742.93	  428.09
      7.8700	  657.00	  536.31	-1742.93	  428.90
      7.9700	  717.00	  537.11	-1742.93	  429.70
      8.0700	  662.00	  537.90	-1742.93	  430.48
      8.1700	  690.00	  538.67	-1742.93	  431.26
      8.2700	  623.00	  539.43	-1742.93	  432.02
      8.3700	  663.00	  540.18	-1742.93	  432.76
      8.4700	  640.00	  540.91	-1742.93	  433.50
      8.5700	  603.00	  541.63	-1742.93	  434.22
      8.6700	  639.00	  542.34	-1742.93	  434.93
      8.7700	  612.00	  543.03	-1742.93	  435.62
      8.8700	  615.00	  543.72	-1742.93	  436.30
      8.9700	  622.00	  544.39	-1742.93	  436.97
      9.0700	  553.00	  545.04	-1742.93	  437.63
      9.1700	  592.00	  545.69	-1742.93	  438.28
      9.2700	  638.00	  546.32	-1742.93	  438.91
      9.3700	  596.00	  546.94	-1742.93	  439.53
      9.4700	  610.00	  547.55	-1742.93	  440.14
      9.5700	  578.00	  548.15	-1742.93	  440.74
      9.6700	  625.00	  548.73	-1742.93	  441.32
      9.7700	  627.00	  549.31	-1742.93	  441.89
      9.8700	  614.00	  549.87	-1742.93	  442.46
      9.9700	  634.00	  550.42	-1742.93	  443.01
     10.0700	  617.00	  552.84	-1678.77	  443.54
     10.1700	  634.00	  553.54	-1662.47	  444.07
     10.2700	  572.00	  554.27	-1725.20	  444.59
     10.3700	  563.00	  555.04	-1734.97	  445.09
     10.4700	  589.00	  555.90	-1709.82	  445.59
     10.5700	  583.00	  556.87	-1716.80	  446.07
     10.6700	  606.00	  558.04	-1694.97	  446.54
     10.7700	  545.00	  559.48	-1757.41	  447.00
     10.8700	  584.00	  561.27	-1720.20	  447.45
     10.9700	  579.00	  563.45	-1727.38	  447.89
     11.0700	  554.00	  566.02	-1754.95	  448.32
     11.1700	  593.00	  568.98	-1718.91	  448.74
     11.2700	  585.00	  572.36	-1730.29	  449.14
     11.3700	  612.00	  576.25	-1707.17	  449.54
     11.4700	  603.00	  580.74	-1720.67	  449.93
     11.5700	  556.00	  586.03	-1772.96	  450.31
     11.6700	  623.00	  592.39	-1712.31	  450.67
     11.7700	  641.00	  600.17	-1702.10	  451.03
     11.8700	  671.00	  609.64	-1681.57	  451.38
     11.9700	  663.00	  620.61	-1700.54	  451.71
     12.0700	  681.00	  631.76	-1693.69	  452.04
     12.1700	  680.00	  640.04	-1702.97	  452.36
     12.2700	  707.00	  640.61	-1676.54	  452.67
     12.3700	  665.00	  630.26	-1708.19	  452.96
     12.4700	  622.00	  613.12	-1734.05	  453.25
     12.5700	  602.00	  596.72	-1737.65	  453.53
     12.6700	  573.00	  584.64	-1754.57	  453.80
     12.7700	  540.00	  576.95	-1779.87	  454.07
     12.8700	  515.00	  572.48	-1800.41	  454.32
     12.9700	  595.00	  569.98	-1717.91	  454.56
     13.0700	  555.00	  568.53	-1756.46	  454.80
     13.1700	  543.00	  567.64	-1767.57	  455.02
     13.2700	  550.00	  567.05	-1759.98	  455.24
     13.3700	  518.00	  566.65	-1791.58	  455.45
     13.4700	  521.00	  566.37	-1788.30	  455.64
     13.5700	  560.00	  566.18	-1749.11	  455.84
     13.6700	  536.00	  566.06	-1772.99	  456.02
     13.7700	  572.00	  566.01	-1736.94	  456.19
     13.8700	  521.00	  565.96	-1787.89	  456.36
     13.9700	  562.00	  565.94	-1746.87	  456.51
     14.0700	  523.00	  565.94	-1785.87	  456.66
     14.1700	  507.00	  565.96	-1801.89	  456.81
     14.2700	  536.00	  565.98	-1772.91	  456.94
     14.3700	  512.00	  566.01	-1796.94	  457.06
     14.4700	  536.00	  566.05	-1772.97	  457.18
     14.5700	  578.00	  566.08	-1731.01	  457.29
     14.6700	  553.00	  566.12	-1756.05	  457.39
     14.7700	  574.00	  566.16	-1735.09	  457.49
     14.8700	  567.00	  566.19	-1742.12	  457.57
     14.9700	  573.00	  566.23	-1736.16	  457.65
     15.0700	  536.00	  566.26	-1773.19	  457.73
     15.1700	  531.00	  566.29	-1778.21	  457.79
     15.2700	  569.00	  566.31	-1740.24	  457.85
     15.3700	  549.00	  566.33	-1760.26	  457.90
     15.4700	  571.00	  566.35	-1738.27	  457.94
     15.5700	  533.00	  566.36	-1776.29	  457.98
     15.6700	  560.00	  566.36	-1749.29	  458.00
     15.7700	  542.00	  566.37	-1767.29	  458.03
     15.8700	  565.00	  566.36	-1744.29	  458.04
     15.9700	  528.00	  566.35	-1781.28	  458.05
     16.0700	  546.00	  566.34	-1763.27	  458.05
     16.1700	  571.00	  566.32	-1738.25	  458.05
     16.2700	  546.00	  566.30	-1763.22	  458.04
     16.3700	  533.00	  566.27	-1776.19	  458.02
     16.4700	  549.00	  566.23	-1760.16	  457.99
     16.5700	  507.00	  566.19	-1802.12	  457.96
     16.6700	  555.00	  566.14	-1754.07	  457.93
     16.7700	  546.00	  566.09	-1763.02	  457.88
     16.8700	  555.00	  566.03	-1753.96	  457.83
     16.9700	  532.00	  565.97	-1776.90	  457.78
     17.0700	  515.00	  565.90	-1793.83	  457.72
     17.1700	  550.00	  565.83	-1758.76	  457.65
     17.2700	  579.00	  565.75	-1729.68	  457.58
     17.3700	  585.00	  565.67	-1723.60	  457.50
     17.4700	  578.00	  565.69	-1730.62	  457.41
     17.5700	  560.00	  565.60	-1748.53	  457.32
     17.6700	  549.00	  565.50	-1759.43	  457.22
     17.7700	  574.00	  565.40	-1734.33	  457.12
     17.8700	  564.00	  565.29	-1744.22	  457.02
     17.9700	  611.00	  565.27	-1697.20	  456.90
     18.0700	  542.00	  565.16	-1766.09	  456.78
     18.1700	  554.00	  565.04	-1753.97	  456.66
     18.2700	  599.00	  564.91	-1708.84	  456.53
     18.3700	  545.00	  564.78	-1762.71	  456.40
     18.4700	  550.00	  564.65	-1757.58	  456.26
     18.5700	  583.00	  564.51	-1724.44	  456.12
     18.6700	  567.00	  564.36	-1740.29	  455.97
     18.7700	  563.00	  564.21	-1744.14	  455.81
     18.8700	  559.00	  564.06	-1747.99	  455.65
     18.9700	  521.00	  563.90	-1785.83	  455.49
     19.0700	  559.00	  563.74	-1747.67	  455.32
     19.1700	  581.00	  563.58	-1725.51	  455.15
     19.2700	  524.00	  563.41	-1782.34	  454.97
     19.3700	  550.00	  563.23	-1756.16	  454.79
     19.4700	  550.00	  563.05	-1755.98	  454.60
     19.5700	  535.00	  562.91	-1770.84	  454.41
     19.6700	  567.00	  562.73	-1738.66	  454.21
     19.7700	  530.00	  562.54	-1775.47	  454.01
     19.8700	  564.00	  562.35	-1741.28	  453.81
     19.9700	  516.00	  562.15	-1789.08	  453.60
     20.0700	  565.00	  561.95	-1739.88	  453.39
     20.1700	  520.00	  561.75	-1784.68	  453.17
     20.2700	  550.00	  561.54	-1754.47	  452.95
     20.3700	  585.00	  561.33	-1719.26	  452.73
     20.4700	  573.00	  561.12	-1731.05	  452.50
     20.5700	  500.00	  560.91	-1803.84	  452.26
     20.6700	  531.00	  560.69	-1772.62	  452.03
     20.7700	  572.00	  560.47	-1731.40	  451.79
     20.8700	  568.00	  560.25	-1735.18	  451.54
     20.9700	  564.00	  560.02	-1738.95	  451.30
     21.0700	  533.00	  559.80	-1769.72	  451.04
     21.1700	  605.00	  559.57	-1697.50	  450.79
     21.2700	  573.00	  559.34	-1729.26	  450.53
     21.3700	  545.00	  559.10	-1757.03	  450.27
     21.4700	  554.00	  558.87	-1747.80	  450.00
     21.5700	  570.00	  558.64	-1731.56	  449.73
     21.6700	  548.00	  558.40	-1753.33	  449.46
     21.7700	  538.00	  558.16	-1763.09	  449.19
     21.8700	  501.00	  557.93	-1799.86	  448.91
     21.9700	  515.00	  557.69	-1785.62	  448.63
     22.0700	  581.00	  557.46	-1719.39	  448.34
     22.1700	  530.00	  557.38	-1770.31	  448.05
     22.2700	  564.00	  557.16	-1736.08	  447.76
     22.3700	  545.00	  556.93	-1754.86	  447.47
     22.4700	  543.00	  556.71	-1756.64	  447.17
     22.5700	  581.00	  556.49	-1718.42	  446.87
     22.6700	  525.00	  556.28	-1774.21	  446.57
     22.7700	  538.00	  556.08	-1761.01	  446.26
     22.8700	  544.00	  555.89	-1754.82	  445.96
     22.9700	  537.00	  555.71	-1761.64	  445.65
     23.0700	  591.00	  555.54	-1707.47	  445.33
     23.1700	  538.00	  555.36	-1760.29	  445.02
     23.2700	  592.00	  555.24	-1706.17	  444.70
     23.3700	  566.00	  555.16	-1732.09	  444.38
     23.4700	  552.00	  555.13	-1746.05	  444.06
     23.5700	  550.00	  555.15	-1748.08	  443.73
     23.6700	  537.00	  555.26	-1761.19	  443.40
     23.7700	  572.00	  555.50	-1726.42	  443.07
     23.8700	  544.00	  555.94	-1754.87	  442.74
     23.9700	  569.00	  556.72	-1730.65	  442.41
     24.0700	  519.00	  558.07	-1782.00	  442.07
     24.1700	  584.00	  560.35	-1719.27	  441.73
     24.2700	  571.00	  564.02	-1735.95	  441.39
     24.3700	  630.00	  569.61	-1682.54	  441.05
     24.4700	  606.00	  577.47	-1714.40	  440.70
     24.5700	  613.00	  587.53	-1717.46	  440.35
     24.6700	  650.00	  598.84	-1691.77	  440.01
     24.7700	  637.00	  609.02	-1714.95	  439.66
     24.8700	  685.00	  614.03	-1671.96	  439.30
     24.9700	  637.00	  609.90	-1715.83	  438.95
     25.0700	  609.00	  597.67	-1731.60	  438.59
     25.1700	  617.00	  583.41	-1709.34	  438.24
     25.2700	  645.00	  571.56	-1669.48	  437.88
     25.3700	  577.00	  563.26	-1729.19	  437.52
     25.4700	  611.00	  558.03	-1689.96	  437.15
     25.5700	  586.00	  554.90	-1711.83	  436.79
     25.6700	  599.00	  553.00	-1696.93	  436.43
     25.7700	  546.00	  551.78	-1748.71	  436.06
     25.8700	  612.00	  550.93	-1681.86	  435.69
     25.9700	  555.00	  550.31	-1738.24	  435.32
     26.0700	  547.00	  549.85	-1745.78	  434.95
     26.1700	  606.00	  549.52	-1686.45	  434.58
     26.2700	  529.00	  549.31	-1763.23	  434.21
     26.3700	  582.00	  549.20	-1710.13	  433.83
     26.4700	  565.00	  549.20	-1727.13	  433.46
     26.5700	  580.00	  549.32	-1712.25	  433.08
     26.6700	  526.00	  549.57	-1766.50	  432.70
     26.7700	  549.00	  549.98	-1743.90	  432.32
     26.8700	  543.00	  550.57	-1750.50	  431.94
     26.9700	  589.00	  551.40	-1705.33	  431.56
     27.0700	  589.00	  552.53	-1706.46	  431.18
     27.1700	  582.00	  554.09	-1715.02	  430.80
     27.2700	  586.00	  556.28	-1713.21	  430.42
     27.3700	  565.00	  559.47	-1737.40	  430.03
     27.4700	  618.00	  564.39	-1689.32	  429.65
     27.5700	  575.00	  572.36	-1740.29	  429.26
     27.6700	  604.00	  585.52	-1724.45	  428.88
     27.7700	  564.00	  606.91	-1785.84	  428.49
     27.8700	  630.00	  639.75	-1752.68	  428.10
     27.9700	  627.00	  685.71	-1801.63	  427.71
     28.0700	  779.00	  742.38	-1706.31	  427.32
     28.1700	  829.00	  800.79	-1714.72	  426.93
     28.2700	  945.00	  843.88	-1641.81	  426.54
     28.3700	  890.00	  851.56	-1704.49	  426.15
     28.4700	  921.00	  822.24	-1644.17	  425.76
     28.5700	  759.00	  784.02	-1767.95	  425.37
     28.6700	  773.00	  763.78	-1733.71	  424.98
     28.7700	  760.00	  768.51	-1751.44	  424.59
     28.8700	  740.00	  789.11	-1792.04	  424.20
     28.9700	  817.00	  805.68	-1731.61	  423.81
     29.0700	  792.00	  795.43	-1746.36	  423.41
     29.1700	  799.00	  751.82	-1695.75	  423.02
     29.2700	  654.00	  693.82	-1782.75	  422.63
     29.3700	  673.00	  642.09	-1712.02	  422.23
     29.4700	  655.00	  604.50	-1692.43	  421.84
     29.5700	  600.00	  580.50	-1723.43	  421.45
     29.6700	  611.00	  566.38	-1698.31	  421.05
     29.7700	  587.00	  558.24	-1714.17	  420.66
     29.8700	  572.00	  553.39	-1724.31	  420.27
     29.9700	  615.00	  550.36	-1678.29	  419.87
     30.0700	  622.00	  548.56	-1669.49	  419.48
     30.1700	  608.00	  547.85	-1682.78	  419.09
     30.2700	  620.00	  548.47	-1671.40	  418.69
     30.3700	  590.00	  551.02	-1703.95	  418.30
     30.4700	  572.00	  556.45	-1727.38	  417.91
     30.5700	  564.00	  565.91	-1744.84	  417.52
     30.6700	  579.00	  580.07	-1744.00	  417.12
     30.7700	  598.00	  598.19	-1743.12	  416.73
     30.8700	  640.00	  617.18	-1720.10	  416.34
     30.9700	  609.00	  631.13	-1765.06	  415.95
     31.0700	  638.00	  632.61	-1737.54	  415.56
     31.1700	  606.00	  618.75	-1755.68	  415.17
     31.2700	  597.00	  596.49	-1742.42	  414.78
     31.3700	  602.00	  574.91	-1715.84	  414.39
     31.4700	  593.00	  558.32	-1708.25	  414.00
     31.5700	  569.00	  547.25	-1721.18	  413.61
     31.6700	  551.00	  540.51	-1732.44	  413.22
     31.7700	  519.00	  536.57	-1760.49	  412.83
     31.8700	  580.00	  534.21	-1697.14	  412.45
     31.9700	  586.00	  532.71	-1689.64	  412.06
     32.0700	  596.00	  531.70	-1678.63	  411.67
     32.1700	  515.00	  531.02	-1758.95	  411.29
     32.2700	  535.00	  530.59	-1738.52	  410.90
     32.3700	  577.00	  530.40	-1696.32	  410.52
     32.4700	  549.00	  530.42	-1724.35	  410.14
     32.5700	  554.00	  530.68	-1719.61	  409.75
     32.6700	  538.00	  531.20	-1736.13	  409.37
     32.7700	  563.00	  532.04	-1711.97	  408.99
     32.8700	  559.00	  533.26	-1717.19	  408.61
     32.9700	  514.00	  534.99	-1763.92	  408.23
     33.0700	  533.00	  537.45	-1747.38	  407.85
     33.1700	  521.00	  541.02	-1762.95	  407.47
     33.2700	  539.00	  546.52	-1750.45	  407.10
     33.3700	  557.00	  555.40	-1741.32	  406.72
     33.4700	  627.00	  570.30	-1686.23	  406.35
     33.5700	  613.00	  595.27	-1725.20	  405.97
     33.6700	  594.00	  635.28	-1784.21	  405.60
     33.7700	  677.00	  694.13	-1760.06	  405.23
     33.8700	  807.00	  770.63	-1706.56	  404.86
     33.9700	  907.00	  854.30	-1690.23	  404.49
     34.0700	  954.00	  923.20	-1712.13	  404.12
     34.1700	 1034.00	  947.44	-1656.37	  403.75
     34.2700	 1000.00	  909.03	-1651.96	  403.38
     34.3700	  852.00	  826.47	-1717.40	  403.02
     34.4700	  727.00	  736.45	-1752.38	  402.65
     34.5700	  638.00	  661.74	-1766.67	  402.29
     34.6700	  603.00	  608.70	-1748.63	  401.93
     34.7700	  562.00	  574.87	-1755.80	  401.56
     34.8700	  569.00	  554.65	-1728.58	  401.20
     34.9700	  520.00	  542.68	-1765.61	  400.85
     35.0700	  548.00	  535.20	-1730.13	  400.49
     35.1700	  532.00	  530.10	-1741.03	  400.13
     35.2700	  525.00	  526.32	-1744.24	  399.78
     35.3700	  521.00	  523.34	-1745.27	  399.42
     35.4700	  527.00	  521.40	-1737.32	  399.07
     35.5700	  525.00	  519.40	-1737.33	  398.72
     35.6700	  521.00	  517.70	-1739.63	  398.37
     35.7700	  532.00	  516.24	-1727.17	  398.02
     35.8700	  515.00	  514.96	-1742.89	  397.68
     35.9700	  511.00	  513.84	-1745.77	  397.33
     36.0700	  541.00	  512.84	-1714.77	  396.99
     36.1700	  491.00	  511.92	-1763.85	  396.64
     36.2700	  517.00	  511.11	-1737.04	  396.30
     36.3700	  536.00	  510.38	-1717.31	  395.96
     36.4700	  493.00	  509.72	-1759.65	  395.63
     36.5700	  535.00	  509.11	-1717.04	  395.29
     36.6700	  509.00	  508.57	-1742.50	  394.95
     36.7700	  555.00	  508.08	-1696.01	  394.62
     36.8700	  485.00	  507.67	-1765.60	  394.29
     36.9700	  509.00	  507.36	-1741.29	  393.96
     37.0700	  479.00	  507.21	-1771.14	  393.63
     37.1700	  459.00	  507.29	-1791.22	  393.30
     37.2700	  489.00	  507.75	-1761.68	  392.98
     37.3700	  466.00	  508.71	-1785.64	  392.65
     37.4700	  454.00	  510.45	-1799.38	  392.33
     37.5700	  462.00	  512.55	-1793.48	  392.01
     37.6700	  476.00	  514.83	-1781.76	  391.69
     37.7700	  541.00	  516.62	-1718.55	  391.37
     37.8700	  523.00	  517.08	-1737.00	  391.05
     37.9700	  533.00	  515.79	-1725.72	  390.74
     38.0700	  504.00	  513.28	-1752.21	  390.43
     38.1700	  529.00	  510.39	-1724.32	  390.12
     38.2700	  457.00	  507.66	-1793.58	  389.81
     38.3700	  487.00	  505.33	-1761.26	  389.50
     38.4700	  513.00	  503.53	-1733.46	  389.20
     38.5700	  488.00	  502.20	-1757.13	  388.89
     38.6700	  469.00	  501.23	-1775.16	  388.59
     38.7700	  503.00	  500.50	-1740.43	  388.29
     38.8700	  517.00	  499.93	-1725.86	  387.99
     38.9700	  477.00	  499.45	-1765.38	  387.69
     39.0700	  504.00	  499.03	-1737.96	  387.40
     39.1700	  492.00	  498.65	-1749.58	  387.11
     39.2700	  480.00	  498.30	-1761.23	  386.81
     39.3700	  490.00	  497.86	-1750.79	  386.53
     39.4700	  453.00	  497.55	-1787.48	  386.24
     39.5700	  499.00	  497.25	-1741.18	  385.95
     39.6700	  461.00	  496.97	-1778.90	  385.67
     39.7700	  462.00	  496.70	-1777.63	  385.39
     39.8700	  500.00	  496.45	-1739.37	  385.11
     39.9700	  506.00	  496.20	-1733.13	  384.83
     40.0700	  467.00	  495.97	-1771.90	  384.55
     40.1700	  498.00	  495.76	-1740.69	  384.28
     40.2700	  496.00	  495.99	-1742.92	  384.01
     40.3700	  480.00	  495.81	-1758.74	  383.74
     40.4700	  465.00	  495.65	-1773.58	  383.47
     40.5700	  491.00	  495.51	-1747.44	  383.20
     40.6700	  494.00	  495.38	-1744.31	  382.94
     40.7700	  447.00	  495.28	-1791.21	  382.67
