MSG Master    CELL:    5.91701   5.91701  23.26052   90.0000   90.0000  120.0000   SPGR: P 63/m m c             TEMP:   1031.75
  1   1280     2.52000     0.00000    -0.12576     0.00000     0.00000    0
    99     0     2
       0.00000      10.00000
     125.00000     130.00000
 2Theta	Yobs	Ycal	Yobs-Ycal	Backg	Posr	(hkl)	K
      0.7700	    0.00	  527.95	-1795.25	  410.57
      0.8700	    0.00	  528.88	-1795.25	  411.49
      0.9700	   39.00	  529.79	-1795.25	  412.41
      1.0700	   46.00	  530.69	-1795.25	  413.31
      1.1700	   45.00	  531.58	-1795.25	  414.20
      1.2700	   42.00	  532.46	-1795.25	  415.07
      1.3700	   45.00	  533.32	-1795.25	  415.94
      1.4700	   87.00	  534.18	-1795.25	  416.79
      1.5700	  281.00	  535.02	-1795.25	  417.63
      1.6700	  460.00	  535.85	-1795.25	  418.46
      1.7700	  555.00	  536.67	-1795.25	  419.28
      1.8700	  653.00	  537.47	-1795.25	  420.09
      1.9700	  788.00	  538.27	-1795.25	  420.88
      2.0700	  770.00	  539.05	-1795.25	  421.66
      2.1700	  808.00	  539.82	-1795.25	  422.44
      2.2700	  732.00	  540.58	-1795.25	  423.20
      2.3700	  781.00	  541.33	-1795.25	  423.95
      2.4700	  708.00	  542.07	-1795.25	  424.68
      2.5700	  686.00	  542.80	-1795.25	  425.41
      2.6700	  675.00	  543.51	-1795.25	  426.13
      2.7700	  656.00	  544.22	-1795.25	  426.83
      2.8700	  665.00	  544.91	-1795.25	  427.53
      2.9700	  630.00	  545.60	-1795.25	  428.21
      3.0700	  635.00	  546.27	-1795.25	  428.88
      3.1700	  575.00	  546.93	-1795.25	  429.54
      3.2700	  616.00	  547.58	-1795.25	  430.20
      3.3700	  653.00	  548.22	-1795.25	  430.84
      3.4700	  779.00	  548.85	-1795.25	  431.47
      3.5700	  777.00	  549.48	-1795.25	  432.09
      3.6700	  850.00	  550.09	-1795.25	  432.70
      3.7700	  886.00	  550.69	-1795.25	  433.30
      3.8700	  932.00	  551.28	-1795.25	  433.89
      3.9700	  987.00	  551.86	-1795.25	  434.47
      4.0700	 1062.00	  552.43	-1795.25	  435.04
      4.1700	 1032.00	  552.98	-1795.25	  435.60
      4.2700	 1080.00	  553.54	-1795.25	  436.15
      4.3700	 1070.00	  554.08	-1795.25	  436.69
      4.4700	 1039.00	  554.61	-1795.25	  437.22
      4.5700	 1043.00	  555.13	-1795.25	  437.74
      4.6700	  995.00	  555.64	-1795.25	  438.25
      4.7700	 1020.00	  556.14	-1795.25	  438.75
      4.8700	  974.00	  556.63	-1795.25	  439.25
      4.9700	  948.00	  557.12	-1795.25	  439.73
      5.0700	  948.00	  557.59	-1795.25	  440.20
      5.1700	  931.00	  558.05	-1795.25	  440.67
      5.2700	  862.00	  558.51	-1795.25	  441.12
      5.3700	  886.00	  558.96	-1795.25	  441.57
      5.4700	  848.00	  559.39	-1795.25	  442.01
      5.5700	  852.00	  559.82	-1795.25	  442.44
      5.6700	  850.00	  560.24	-1795.25	  442.86
      5.7700	  832.00	  560.65	-1795.25	  443.27
      5.8700	  819.00	  561.06	-1795.25	  443.67
      5.9700	  813.00	  561.45	-1795.25	  444.06
      6.0700	  758.00	  561.83	-1795.25	  444.45
      6.1700	  756.00	  562.21	-1795.25	  444.82
      6.2700	  770.00	  562.58	-1795.25	  445.19
      6.3700	  775.00	  562.94	-1795.25	  445.55
      6.4700	  739.00	  563.29	-1795.25	  445.90
      6.5700	  781.00	  563.63	-1795.25	  446.24
      6.6700	  746.00	  563.96	-1795.25	  446.58
      6.7700	  708.00	  564.29	-1795.25	  446.90
      6.8700	  701.00	  564.61	-1795.25	  447.22
      6.9700	  684.00	  564.92	-1795.25	  447.53
      7.0700	  675.00	  565.22	-1795.25	  447.83
      7.1700	  714.00	  565.52	-1795.25	  448.13
      7.2700	  638.00	  565.80	-1795.25	  448.42
      7.3700	  685.00	  566.08	-1795.25	  448.69
      7.4700	  690.00	  566.35	-1795.25	  448.96
      7.5700	  630.00	  566.61	-1795.25	  449.23
      7.6700	  666.00	  566.87	-1795.25	  449.48
      7.7700	  646.00	  567.12	-1795.25	  449.73
      7.8700	  704.00	  567.36	-1795.25	  449.97
      7.9700	  650.00	  567.59	-1795.25	  450.21
      8.0700	  610.00	  567.82	-1795.25	  450.43
      8.1700	  641.00	  568.04	-1795.25	  450.65
      8.2700	  635.00	  568.25	-1795.25	  450.86
      8.3700	  650.00	  568.45	-1795.25	  451.06
      8.4700	  645.00	  568.65	-1795.25	  451.26
      8.5700	  651.00	  568.84	-1795.25	  451.45
      8.6700	  590.00	  569.02	-1795.25	  451.63
      8.7700	  626.00	  569.20	-1795.25	  451.81
      8.8700	  596.00	  569.37	-1795.25	  451.98
      8.9700	  602.00	  569.53	-1795.25	  452.14
      9.0700	  603.00	  569.68	-1795.25	  452.30
      9.1700	  626.00	  569.83	-1795.25	  452.45
      9.2700	  564.00	  569.97	-1795.25	  452.59
      9.3700	  613.00	  570.11	-1795.25	  452.72
      9.4700	  636.00	  570.24	-1795.25	  452.85
      9.5700	  572.00	  570.36	-1795.25	  452.98
      9.6700	  563.00	  570.48	-1795.25	  453.09
      9.7700	  594.00	  570.59	-1795.25	  453.20
      9.8700	  570.00	  570.69	-1795.25	  453.30
      9.9700	  632.00	  570.79	-1795.25	  453.40
     10.0700	  610.00	  571.73	-1756.98	  453.49
     10.1700	  599.00	  571.90	-1768.15	  453.58
     10.2700	  623.00	  572.08	-1744.33	  453.66
     10.3700	  594.00	  572.30	-1773.55	  453.73
     10.4700	  593.00	  572.56	-1774.81	  453.80
     10.5700	  566.00	  572.93	-1802.18	  453.86
     10.6700	  567.00	  573.51	-1801.76	  453.91
     10.7700	  584.00	  574.42	-1785.67	  453.96
     10.8700	  583.00	  575.73	-1787.98	  454.00
     10.9700	  588.00	  577.44	-1784.69	  454.04
     11.0700	  582.00	  579.52	-1792.77	  454.07
     11.1700	  600.00	  581.96	-1777.21	  454.10
     11.2700	  586.00	  584.78	-1794.03	  454.12
     11.3700	  614.00	  588.08	-1769.33	  454.14
     11.4700	  557.00	  591.97	-1830.22	  454.15
     11.5700	  593.00	  596.68	-1798.93	  454.15
     11.6700	  623.00	  602.55	-1774.80	  454.15
     11.7700	  591.00	  610.20	-1814.45	  454.14
     11.8700	  622.00	  620.60	-1793.85	  454.13
     11.9700	  647.00	  634.54	-1782.79	  454.12
     12.0700	  700.00	  650.65	-1745.90	  454.09
     12.1700	  686.00	  662.73	-1771.98	  454.07
     12.2700	  642.00	  660.50	-1813.75	  454.04
     12.3700	  621.00	  639.80	-1814.05	  454.00
     12.4700	  601.00	  613.24	-1807.49	  453.96
     12.5700	  630.00	  593.42	-1758.67	  453.91
     12.6700	  574.00	  582.58	-1803.83	  453.86
     12.7700	  575.00	  577.72	-1797.97	  453.80
     12.8700	  577.00	  575.58	-1793.83	  453.74
     12.9700	  548.00	  574.46	-1821.71	  453.68
     13.0700	  584.00	  573.72	-1784.97	  453.61
     13.1700	  581.00	  573.18	-1787.43	  453.53
     13.2700	  607.00	  572.75	-1761.00	  453.45
     13.3700	  533.00	  572.40	-1834.65	  453.37
     13.4700	  512.00	  572.10	-1855.35	  453.28
     13.5700	  538.00	  571.84	-1829.09	  453.19
     13.6700	  581.00	  571.61	-1785.86	  453.09
     13.7700	  562.00	  571.39	-1804.64	  452.99
     13.8700	  588.00	  571.20	-1778.45	  452.88
     13.9700	  522.00	  571.01	-1844.26	  452.77
     14.0700	  571.00	  570.83	-1795.08	  452.66
     14.1700	  550.00	  570.65	-1815.90	  452.54
     14.2700	  577.00	  570.48	-1788.73	  452.42
     14.3700	  561.00	  570.31	-1804.56	  452.29
     14.4700	  512.00	  570.15	-1853.40	  452.16
     14.5700	  533.00	  569.98	-1832.23	  452.03
     14.6700	  592.00	  569.81	-1773.06	  451.89
     14.7700	  543.00	  569.65	-1821.90	  451.75
     14.8700	  532.00	  569.48	-1832.73	  451.60
     14.9700	  527.00	  569.31	-1837.56	  451.46
     15.0700	  561.00	  569.14	-1803.39	  451.30
     15.1700	  603.00	  568.96	-1761.21	  451.15
     15.2700	  574.00	  568.79	-1790.04	  450.99
     15.3700	  601.00	  568.61	-1762.86	  450.82
     15.4700	  607.00	  568.43	-1756.68	  450.65
     15.5700	  564.00	  568.25	-1799.50	  450.48
     15.6700	  505.00	  568.06	-1858.31	  450.31
     15.7700	  562.00	  567.88	-1801.13	  450.13
     15.8700	  537.00	  567.69	-1825.94	  449.95
     15.9700	  507.00	  567.49	-1855.74	  449.77
     16.0700	  550.00	  567.30	-1812.55	  449.58
     16.1700	  572.00	  567.13	-1790.38	  449.39
     16.2700	  593.00	  566.93	-1769.18	  449.19
     16.3700	  577.00	  566.72	-1784.97	  449.00
     16.4700	  589.00	  566.52	-1772.77	  448.80
     16.5700	  538.00	  566.31	-1823.56	  448.59
     16.6700	  569.00	  566.10	-1792.35	  448.39
     16.7700	  526.00	  565.89	-1835.14	  448.18
     16.8700	  557.00	  565.67	-1803.92	  447.97
     16.9700	  539.00	  565.45	-1821.70	  447.75
     17.0700	  517.00	  565.23	-1843.48	  447.53
     17.1700	  562.00	  565.01	-1798.26	  447.31
     17.2700	  540.00	  564.78	-1820.03	  447.09
     17.3700	  547.00	  564.56	-1812.81	  446.86
     17.4700	  499.00	  564.32	-1860.57	  446.63
     17.5700	  552.00	  564.09	-1807.34	  446.40
     17.6700	  576.00	  563.86	-1783.11	  446.17
     17.7700	  602.00	  563.62	-1756.87	  445.93
     17.8700	  504.00	  563.38	-1854.63	  445.69
     17.9700	  592.00	  563.24	-1766.49	  445.45
     18.0700	  575.00	  562.99	-1783.24	  445.20
     18.1700	  577.00	  562.75	-1781.00	  444.96
     18.2700	  520.00	  562.50	-1837.75	  444.71
     18.3700	  541.00	  562.25	-1816.50	  444.46
     18.4700	  587.00	  562.00	-1770.25	  444.20
     18.5700	  556.00	  561.75	-1801.00	  443.95
     18.6700	  547.00	  561.49	-1809.74	  443.69
     18.7700	  555.00	  561.23	-1801.48	  443.43
     18.8700	  559.00	  561.06	-1797.31	  443.17
     18.9700	  561.00	  560.80	-1795.05	  442.90
     19.0700	  578.00	  560.53	-1777.78	  442.63
     19.1700	  585.00	  560.27	-1770.52	  442.36
     19.2700	  597.00	  560.01	-1758.26	  442.09
     19.3700	  592.00	  559.74	-1762.99	  441.82
     19.4700	  545.00	  559.47	-1809.72	  441.55
     19.5700	  603.00	  559.20	-1751.45	  441.27
     19.6700	  566.00	  558.93	-1788.18	  440.99
     19.7700	  533.00	  558.66	-1820.91	  440.71
     19.8700	  533.00	  558.38	-1820.63	  440.43
     19.9700	  573.00	  558.11	-1780.36	  440.14
     20.0700	  566.00	  557.83	-1787.08	  439.86
     20.1700	  534.00	  557.55	-1818.80	  439.57
     20.2700	  544.00	  557.27	-1808.52	  439.28
     20.3700	  590.00	  556.99	-1762.24	  438.99
     20.4700	  582.00	  556.71	-1769.96	  438.70
     20.5700	  544.00	  556.40	-1807.65	  438.40
     20.6700	  574.00	  556.11	-1777.36	  438.11
     20.7700	  529.00	  555.83	-1822.08	  437.81
     20.8700	  541.00	  555.58	-1809.83	  437.51
     20.9700	  557.00	  555.30	-1793.55	  437.21
     21.0700	  571.00	  555.01	-1779.26	  436.91
     21.1700	  595.00	  554.73	-1754.98	  436.60
     21.2700	  528.00	  554.44	-1821.69	  436.30
     21.3700	  560.00	  554.16	-1789.41	  435.99
     21.4700	  561.00	  553.87	-1788.12	  435.69
     21.5700	  578.00	  553.59	-1770.84	  435.38
     21.6700	  581.00	  553.30	-1767.55	  435.07
     21.7700	  579.00	  553.02	-1769.27	  434.76
     21.8700	  578.00	  552.74	-1769.99	  434.45
     21.9700	  543.00	  552.45	-1804.70	  434.13
     22.0700	  552.00	  552.17	-1795.42	  433.82
     22.1700	  579.00	  551.89	-1768.14	  433.51
     22.2700	  563.00	  551.62	-1783.87	  433.19
     22.3700	  569.00	  551.34	-1777.59	  432.87
     22.4700	  607.00	  551.07	-1739.32	  432.55
     22.5700	  557.00	  550.80	-1789.05	  432.23
     22.6700	  581.00	  550.54	-1764.79	  431.91
     22.7700	  554.00	  550.29	-1791.54	  431.59
     22.8700	  555.00	  550.04	-1790.29	  431.27
     22.9700	  498.00	  549.80	-1847.05	  430.95
     23.0700	  583.00	  549.57	-1761.82	  430.63
     23.1700	  484.00	  549.35	-1860.60	  430.30
     23.2700	  594.00	  549.15	-1750.40	  429.98
     23.3700	  537.00	  548.98	-1807.23	  429.65
     23.4700	  550.00	  548.84	-1794.09	  429.32
     23.5700	  567.00	  548.74	-1776.99	  429.00
     23.6700	  538.00	  548.70	-1805.95	  428.67
     23.7700	  574.00	  548.88	-1770.13	  428.34
     23.8700	  544.00	  549.13	-1800.38	  428.01
     23.9700	  512.00	  549.74	-1832.99	  427.68
     24.0700	  587.00	  551.11	-1759.36	  427.35
     24.1700	  568.00	  553.84	-1781.09	  427.02
     24.2700	  593.00	  558.73	-1760.98	  426.69
     24.3700	  572.00	  566.67	-1789.92	  426.36
     24.4700	  572.00	  578.66	-1801.91	  426.03
     24.5700	  618.00	  595.17	-1772.42	  425.70
     24.6700	  650.00	  614.05	-1759.30	  425.36
     24.7700	  580.00	  628.41	-1843.66	  425.03
     24.8700	  634.00	  628.02	-1789.27	  424.70
     24.9700	  643.00	  609.58	-1761.83	  424.36
     25.0700	  593.00	  584.95	-1787.20	  424.03
     25.1700	  579.00	  565.66	-1781.91	  423.70
     25.2700	  549.00	  554.47	-1800.72	  423.36
     25.3700	  558.00	  549.14	-1786.39	  423.03
     25.4700	  564.00	  546.74	-1777.99	  422.69
     25.5700	  552.00	  545.49	-1788.74	  422.36
     25.6700	  529.00	  544.70	-1810.95	  422.02
     25.7700	  553.00	  544.12	-1786.37	  421.69
     25.8700	  545.00	  543.68	-1793.93	  421.35
     25.9700	  617.00	  543.35	-1721.60	  421.02
     26.0700	  574.00	  543.10	-1764.35	  420.68
     26.1700	  536.00	  542.93	-1802.18	  420.35
     26.2700	  567.00	  542.83	-1771.08	  420.01
     26.3700	  553.00	  542.81	-1785.06	  419.68
     26.4700	  530.00	  542.87	-1808.12	  419.34
     26.5700	  587.00	  543.02	-1751.27	  419.01
     26.6700	  556.00	  543.29	-1782.54	  418.67
     26.7700	  564.00	  543.69	-1774.94	  418.34
     26.8700	  576.00	  544.26	-1763.51	  418.00
     26.9700	  553.00	  545.05	-1787.30	  417.67
     27.0700	  553.00	  546.14	-1788.39	  417.33
     27.1700	  537.00	  547.64	-1805.89	  417.00
     27.2700	  575.00	  549.81	-1770.06	  416.66
     27.3700	  535.00	  553.11	-1813.36	  416.33
     27.4700	  595.00	  558.45	-1758.70	  416.00
     27.5700	  548.00	  567.50	-1814.75	  415.66
     27.6700	  578.00	  582.94	-1800.19	  415.33
     27.7700	  580.00	  608.29	-1823.54	  415.00
     27.8700	  595.00	  646.77	-1847.02	  414.67
     27.9700	  680.00	  698.94	-1814.19	  414.33
     28.0700	  783.00	  759.47	-1771.72	  414.00
     28.1700	  882.00	  814.22	-1727.47	  413.67
     28.2700	  969.00	  840.83	-1667.08	  413.34
     28.3700	  929.00	  823.46	-1689.71	  413.01
     28.4700	  825.00	  779.79	-1750.04	  412.68
     28.5700	  680.00	  745.87	-1861.12	  412.35
     28.6700	  695.00	  740.48	-1840.73	  412.02
     28.7700	  722.00	  760.98	-1834.23	  411.70
     28.8700	  813.00	  789.11	-1771.36	  411.37
     28.9700	  828.00	  797.44	-1764.69	  411.04
     29.0700	  790.00	  765.73	-1770.98	  410.71
     29.1700	  681.00	  705.47	-1819.72	  410.39
     29.2700	  639.00	  645.34	-1801.59	  410.06
     29.3700	  633.00	  600.78	-1763.03	  409.74
     29.4700	  649.00	  573.32	-1719.57	  409.41
     29.5700	  569.00	  558.29	-1784.54	  409.09
     29.6700	  620.00	  550.36	-1725.61	  408.77
     29.7700	  599.00	  545.91	-1742.16	  408.45
     29.8700	  539.00	  543.16	-1799.41	  408.13
     29.9700	  604.00	  541.42	-1732.67	  407.81
     30.0700	  558.00	  540.49	-1777.74	  407.49
     30.1700	  556.00	  540.52	-1779.77	  407.17
     30.2700	  561.00	  542.00	-1776.25	  406.85
     30.3700	  582.00	  545.96	-1759.21	  406.53
     30.4700	  522.00	  554.01	-1827.26	  406.22
     30.5700	  584.00	  567.93	-1779.18	  405.90
     30.6700	  557.00	  588.49	-1826.74	  405.59
     30.7700	  594.00	  613.54	-1814.79	  405.27
     30.8700	  615.00	  636.53	-1816.78	  404.96
     30.9700	  634.00	  646.79	-1808.04	  404.65
     31.0700	  607.00	  635.67	-1823.92	  404.34
     31.1700	  590.00	  608.35	-1813.60	  404.03
     31.2700	  548.00	  579.28	-1826.53	  403.72
     31.3700	  499.00	  557.10	-1853.35	  403.41
     31.4700	  544.00	  543.30	-1794.55	  403.10
     31.5700	  586.00	  535.81	-1745.06	  402.79
     31.6700	  559.00	  531.95	-1768.20	  402.49
     31.7700	  550.00	  529.84	-1775.09	  402.18
     31.8700	  559.00	  528.51	-1764.76	  401.88
     31.9700	  535.00	  527.60	-1787.85	  401.58
     32.0700	  518.00	  526.93	-1804.18	  401.28
     32.1700	  552.00	  526.46	-1769.71	  400.98
     32.2700	  535.00	  526.16	-1786.41	  400.68
     32.3700	  552.00	  526.01	-1769.26	  400.38
     32.4700	  563.00	  526.01	-1758.26	  400.08
     32.5700	  550.00	  526.18	-1771.43	  399.79
     32.6700	  569.00	  526.54	-1752.79	  399.49
     32.7700	  498.00	  527.14	-1824.39	  399.20
     32.8700	  563.00	  528.04	-1760.29	  398.91
     32.9700	  553.00	  529.33	-1771.58	  398.62
     33.0700	  548.00	  531.22	-1778.47	  398.33
     33.1700	  564.00	  534.10	-1765.35	  398.04
     33.2700	  522.00	  538.90	-1812.15	  397.75
     33.3700	  589.00	  547.62	-1753.87	  397.47
     33.4700	  565.00	  564.25	-1794.50	  397.18
     33.5700	  624.00	  595.30	-1766.55	  396.90
     33.6700	  663.00	  648.89	-1781.14	  396.62
     33.7700	  709.00	  729.80	-1816.05	  396.33
     33.8700	  810.00	  831.41	-1816.66	  396.06
     33.9700	 1026.00	  929.08	-1698.33	  395.78
     34.0700	 1121.00	  981.77	-1656.02	  395.50
     34.1700	 1057.00	  953.22	-1691.47	  395.22
     34.2700	  899.00	  855.68	-1751.93	  394.95
     34.3700	  708.00	  742.09	-1829.34	  394.68
     34.4700	  643.00	  650.41	-1802.66	  394.40
     34.5700	  568.00	  591.00	-1818.25	  394.13
     34.6700	  540.00	  558.16	-1813.41	  393.86
     34.7700	  582.00	  541.56	-1754.81	  393.60
     34.8700	  519.00	  533.01	-1809.26	  393.33
     34.9700	  523.00	  528.03	-1800.28	  393.07
     35.0700	  528.00	  524.65	-1791.90	  392.80
     35.1700	  525.00	  522.12	-1792.37	  392.54
     35.2700	  502.00	  520.15	-1813.40	  392.28
     35.3700	  529.00	  518.52	-1784.77	  392.02
     35.4700	  500.00	  517.18	-1812.43	  391.76
     35.5700	  474.00	  516.04	-1837.29	  391.51
     35.6700	  501.00	  515.06	-1809.31	  391.25
     35.7700	  509.00	  514.20	-1800.45	  391.00
     35.8700	  534.00	  513.45	-1774.70	  390.75
     35.9700	  508.00	  513.27	-1800.52	  390.50
     36.0700	  503.00	  512.67	-1804.92	  390.25
     36.1700	  536.00	  512.13	-1771.38	  390.00
     36.2700	  496.00	  511.64	-1810.89	  389.75
     36.3700	  535.00	  511.20	-1771.45	  389.51
     36.4700	  537.00	  510.79	-1769.04	  389.27
     36.5700	  547.00	  510.43	-1758.68	  389.03
     36.6700	  533.00	  510.10	-1772.35	  388.79
     36.7700	  531.00	  509.82	-1774.07	  388.55
     36.8700	  495.00	  509.61	-1809.86	  388.31
     36.9700	  496.00	  509.51	-1808.76	  388.08
     37.0700	  477.00	  509.64	-1827.89	  387.84
     37.1700	  495.00	  510.21	-1810.46	  387.61
     37.2700	  506.00	  511.59	-1800.84	  387.38
     37.3700	  508.00	  514.19	-1801.44	  387.15
     37.4700	  542.00	  518.18	-1771.43	  386.93
     37.5700	  534.00	  523.10	-1784.35	  386.70
     37.6700	  514.00	  527.65	-1808.90	  386.48
     37.7700	  529.00	  530.10	-1796.35	  386.25
     37.8700	  504.00	  529.52	-1820.77	  386.03
     37.9700	  525.00	  526.80	-1797.05	  385.81
     38.0700	  531.00	  523.07	-1787.32	  385.60
     38.1700	  501.00	  518.78	-1813.03	  385.38
     38.2700	  502.00	  514.48	-1807.73	  385.17
     38.3700	  502.00	  510.87	-1804.12	  384.96
     38.4700	  517.00	  508.24	-1786.49	  384.75
     38.5700	  508.00	  506.51	-1793.76	  384.54
     38.6700	  478.00	  505.45	-1822.70	  384.33
     38.7700	  492.00	  504.69	-1807.94	  384.12
     38.8700	  521.00	  504.23	-1778.48	  383.92
     38.9700	  502.00	  503.88	-1797.14	  383.72
     39.0700	  515.00	  503.59	-1783.84	  383.52
     39.1700	  481.00	  503.32	-1817.57	  383.32
     39.2700	  468.00	  503.00	-1830.25	  383.12
     39.3700	  518.00	  502.77	-1780.02	  382.93
     39.4700	  436.00	  502.56	-1861.81	  382.73
     39.5700	  518.00	  502.49	-1779.74	  382.54
     39.6700	  470.00	  502.31	-1827.56	  382.35
     39.7700	  472.00	  502.13	-1825.38	  382.16
     39.8700	  525.00	  501.97	-1772.22	  381.97
     39.9700	  491.00	  501.82	-1806.07	  381.79
     40.0700	  488.00	  501.68	-1808.93	  381.61
     40.1700	  514.00	  501.54	-1782.79	  381.42
     40.2700	  523.00	  501.42	-1773.67	  381.24
     40.3700	  466.00	  501.32	-1830.57	  381.07
     40.4700	  488.00	  501.22	-1808.47	  380.89
     40.5700	  512.00	  501.14	-1784.39	  380.72
     40.6700	  527.00	  501.08	-1769.33	  380.54
     40.7700	  465.00	  501.03	-1831.28	  380.37
