MSG Master    CELL:    5.91413   5.91413  23.25435   90.0000   90.0000  120.0000   SPGR: P 63/m m c             TEMP:    983.25
  1   1280     2.52000     0.00000    -0.12743     0.00000     0.00000    0
    99     0     2
       0.00000      10.00000
     125.00000     130.00000
 2Theta	Yobs	Ycal	Yobs-Ycal	Backg	Posr	(hkl)	K
      0.7700	    0.00	  520.77	-1725.93	  405.82
      0.8700	    0.00	  521.67	-1725.93	  406.72
      0.9700	   47.00	  522.55	-1725.93	  407.61
      1.0700	   53.00	  523.43	-1725.93	  408.48
      1.1700	   40.00	  524.29	-1725.93	  409.34
      1.2700	   51.00	  525.14	-1725.93	  410.20
      1.3700	   42.00	  525.98	-1725.93	  411.04
      1.4700	  110.00	  526.81	-1725.93	  411.87
      1.5700	  297.00	  527.63	-1725.93	  412.68
      1.6700	  439.00	  528.44	-1725.93	  413.49
      1.7700	  576.00	  529.23	-1725.93	  414.29
      1.8700	  661.00	  530.02	-1725.93	  415.07
      1.9700	  660.00	  530.79	-1725.93	  415.84
      2.0700	  790.00	  531.55	-1725.93	  416.61
      2.1700	  795.00	  532.30	-1725.93	  417.36
      2.2700	  781.00	  533.04	-1725.93	  418.10
      2.3700	  748.00	  533.77	-1725.93	  418.83
      2.4700	  668.00	  534.49	-1725.93	  419.55
      2.5700	  683.00	  535.20	-1725.93	  420.26
      2.6700	  678.00	  535.90	-1725.93	  420.95
      2.7700	  659.00	  536.59	-1725.93	  421.64
      2.8700	  630.00	  537.27	-1725.93	  422.32
      2.9700	  637.00	  537.93	-1725.93	  422.99
      3.0700	  568.00	  538.59	-1725.93	  423.64
      3.1700	  608.00	  539.24	-1725.93	  424.29
      3.2700	  658.00	  539.87	-1725.93	  424.93
      3.3700	  737.00	  540.50	-1725.93	  425.55
      3.4700	  813.00	  541.12	-1725.93	  426.17
      3.5700	  873.00	  541.72	-1725.93	  426.78
      3.6700	  910.00	  542.32	-1725.93	  427.37
      3.7700	  999.00	  542.91	-1725.93	  427.96
      3.8700	 1024.00	  543.49	-1725.93	  428.54
      3.9700	 1140.00	  544.05	-1725.93	  429.11
      4.0700	 1149.00	  544.61	-1725.93	  429.67
      4.1700	 1148.00	  545.16	-1725.93	  430.22
      4.2700	 1177.00	  545.70	-1725.93	  430.75
      4.3700	 1220.00	  546.23	-1725.93	  431.29
      4.4700	 1107.00	  546.75	-1725.93	  431.81
      4.5700	 1121.00	  547.27	-1725.93	  432.32
      4.6700	 1100.00	  547.77	-1725.93	  432.82
      4.7700	 1030.00	  548.26	-1725.93	  433.31
      4.8700	 1009.00	  548.75	-1725.93	  433.80
      4.9700	  997.00	  549.22	-1725.93	  434.27
      5.0700	  964.00	  549.69	-1725.93	  434.74
      5.1700	  970.00	  550.15	-1725.93	  435.20
      5.2700	  940.00	  550.60	-1725.93	  435.65
      5.3700	  920.00	  551.04	-1725.93	  436.09
      5.4700	  907.00	  551.47	-1725.93	  436.52
      5.5700	  878.00	  551.89	-1725.93	  436.94
      5.6700	  938.00	  552.31	-1725.93	  437.36
      5.7700	  838.00	  552.71	-1725.93	  437.77
      5.8700	  906.00	  553.11	-1725.93	  438.16
      5.9700	  858.00	  553.50	-1725.93	  438.55
      6.0700	  788.00	  553.88	-1725.93	  438.94
      6.1700	  766.00	  554.26	-1725.93	  439.31
      6.2700	  766.00	  554.62	-1725.93	  439.67
      6.3700	  791.00	  554.98	-1725.93	  440.03
      6.4700	  784.00	  555.33	-1725.93	  440.38
      6.5700	  816.00	  555.67	-1725.93	  440.72
      6.6700	  707.00	  556.00	-1725.93	  441.05
      6.7700	  760.00	  556.33	-1725.93	  441.38
      6.8700	  741.00	  556.65	-1725.93	  441.70
      6.9700	  762.00	  556.96	-1725.93	  442.01
      7.0700	  706.00	  557.26	-1725.93	  442.31
      7.1700	  697.00	  557.55	-1725.93	  442.61
      7.2700	  673.00	  557.84	-1725.93	  442.89
      7.3700	  697.00	  558.12	-1725.93	  443.17
      7.4700	  676.00	  558.39	-1725.93	  443.45
      7.5700	  687.00	  558.66	-1725.93	  443.71
      7.6700	  643.00	  558.92	-1725.93	  443.97
      7.7700	  706.00	  559.17	-1725.93	  444.22
      7.8700	  637.00	  559.41	-1725.93	  444.46
      7.9700	  659.00	  559.65	-1725.93	  444.70
      8.0700	  624.00	  559.88	-1725.93	  444.93
      8.1700	  583.00	  560.10	-1725.93	  445.15
      8.2700	  665.00	  560.31	-1725.93	  445.37
      8.3700	  602.00	  560.52	-1725.93	  445.58
      8.4700	  601.00	  560.72	-1725.93	  445.78
      8.5700	  663.00	  560.92	-1725.93	  445.97
      8.6700	  625.00	  561.11	-1725.93	  446.16
      8.7700	  602.00	  561.29	-1725.93	  446.34
      8.8700	  634.00	  561.46	-1725.93	  446.52
      8.9700	  613.00	  561.63	-1725.93	  446.69
      9.0700	  646.00	  561.80	-1725.93	  446.85
      9.1700	  599.00	  561.95	-1725.93	  447.00
      9.2700	  576.00	  562.10	-1725.93	  447.15
      9.3700	  606.00	  562.24	-1725.93	  447.30
      9.4700	  645.00	  562.38	-1725.93	  447.43
      9.5700	  633.00	  562.51	-1725.93	  447.56
      9.6700	  536.00	  562.64	-1725.93	  447.69
      9.7700	  593.00	  562.75	-1725.93	  447.81
      9.8700	  617.00	  562.87	-1725.93	  447.92
      9.9700	  624.00	  562.97	-1725.93	  448.02
     10.0700	  585.00	  564.60	-1705.53	  448.12
     10.1700	  557.00	  564.87	-1733.80	  448.22
     10.2700	  587.00	  565.16	-1704.10	  448.31
     10.3700	  576.00	  565.52	-1715.45	  448.39
     10.4700	  619.00	  565.96	-1672.89	  448.47
     10.5700	  614.00	  566.56	-1678.49	  448.54
     10.6700	  608.00	  567.40	-1685.33	  448.60
     10.7700	  588.00	  568.58	-1706.51	  448.66
     10.8700	  557.00	  570.18	-1739.11	  448.72
     10.9700	  600.00	  572.21	-1698.14	  448.77
     11.0700	  575.00	  574.66	-1725.59	  448.81
     11.1700	  580.00	  577.55	-1723.48	  448.85
     11.2700	  593.00	  580.91	-1713.84	  448.88
     11.3700	  615.00	  584.83	-1695.76	  448.91
     11.4700	  600.00	  589.46	-1715.39	  448.93
     11.5700	  566.00	  595.03	-1754.96	  448.95
     11.6700	  636.00	  601.92	-1691.85	  448.96
     11.7700	  630.00	  610.62	-1706.55	  448.97
     11.8700	  621.00	  621.57	-1726.51	  448.97
     11.9700	  668.00	  634.54	-1692.47	  448.97
     12.0700	  645.00	  647.54	-1728.47	  448.96
     12.1700	  647.00	  655.91	-1734.84	  448.95
     12.2700	  676.00	  652.97	-1702.90	  448.93
     12.3700	  648.00	  636.39	-1714.32	  448.91
     12.4700	  628.00	  614.39	-1712.32	  448.88
     12.5700	  625.00	  595.90	-1696.83	  448.85
     12.6700	  619.00	  583.54	-1690.47	  448.82
     12.7700	  520.00	  576.35	-1782.28	  448.77
     12.8700	  582.00	  572.41	-1716.34	  448.73
     12.9700	  586.00	  570.19	-1710.12	  448.68
     13.0700	  555.00	  568.80	-1739.73	  448.63
     13.1700	  534.00	  567.81	-1759.74	  448.57
     13.2700	  554.00	  567.07	-1739.00	  448.50
     13.3700	  566.00	  566.48	-1726.41	  448.44
     13.4700	  535.00	  566.00	-1756.93	  448.36
     13.5700	  564.00	  565.59	-1727.52	  448.29
     13.6700	  581.00	  565.24	-1710.17	  448.21
     13.7700	  546.00	  564.94	-1744.87	  448.12
     13.8700	  539.00	  564.67	-1751.60	  448.04
     13.9700	  538.00	  564.42	-1752.35	  447.94
     14.0700	  591.00	  564.19	-1699.12	  447.85
     14.1700	  617.00	  563.98	-1672.91	  447.75
     14.2700	  534.00	  563.78	-1755.71	  447.64
     14.3700	  564.00	  563.58	-1725.52	  447.53
     14.4700	  529.00	  563.43	-1760.36	  447.42
     14.5700	  532.00	  563.25	-1757.18	  447.31
     14.6700	  557.00	  563.07	-1732.00	  447.19
     14.7700	  500.00	  562.90	-1788.83	  447.06
     14.8700	  574.00	  562.73	-1714.66	  446.94
     14.9700	  570.00	  562.55	-1718.49	  446.81
     15.0700	  545.00	  562.38	-1743.32	  446.67
     15.1700	  542.00	  562.21	-1746.15	  446.53
     15.2700	  551.00	  562.04	-1736.97	  446.39
     15.3700	  571.00	  561.87	-1716.80	  446.25
     15.4700	  519.00	  561.70	-1768.63	  446.10
     15.5700	  543.00	  561.53	-1744.46	  445.95
     15.6700	  548.00	  561.35	-1739.28	  445.80
     15.7700	  536.00	  561.18	-1751.11	  445.64
     15.8700	  569.00	  561.00	-1717.93	  445.48
     15.9700	  571.00	  560.82	-1715.75	  445.31
     16.0700	  565.00	  560.64	-1721.57	  445.15
     16.1700	  548.00	  560.45	-1738.38	  444.97
     16.2700	  588.00	  560.27	-1698.20	  444.80
     16.3700	  550.00	  560.08	-1736.01	  444.62
     16.4700	  543.00	  559.89	-1742.82	  444.44
     16.5700	  543.00	  559.70	-1742.63	  444.26
     16.6700	  542.00	  559.50	-1743.44	  444.08
     16.7700	  543.00	  559.31	-1742.24	  443.89
     16.8700	  567.00	  559.11	-1718.04	  443.70
     16.9700	  562.00	  558.91	-1722.84	  443.50
     17.0700	  535.00	  558.71	-1749.64	  443.31
     17.1700	  549.00	  558.50	-1735.43	  443.11
     17.2700	  477.00	  558.29	-1807.22	  442.90
     17.3700	  567.00	  558.08	-1717.01	  442.70
     17.4700	  553.00	  557.87	-1730.80	  442.49
     17.5700	  552.00	  557.66	-1731.59	  442.28
     17.6700	  569.00	  557.44	-1714.37	  442.07
     17.7700	  527.00	  557.22	-1756.15	  441.85
     17.8700	  552.00	  557.00	-1730.93	  441.64
     17.9700	  551.00	  556.89	-1731.82	  441.42
     18.0700	  556.00	  556.67	-1726.60	  441.19
     18.1700	  585.00	  556.44	-1697.37	  440.97
     18.2700	  596.00	  556.21	-1686.15	  440.74
     18.3700	  513.00	  555.99	-1768.92	  440.51
     18.4700	  567.00	  555.84	-1714.77	  440.28
     18.5700	  544.00	  555.61	-1737.54	  440.05
     18.6700	  552.00	  555.38	-1729.31	  439.81
     18.7700	  535.00	  555.15	-1746.08	  439.57
     18.8700	  584.00	  554.91	-1696.84	  439.33
     18.9700	  565.00	  554.67	-1715.60	  439.09
     19.0700	  552.00	  554.44	-1728.37	  438.84
     19.1700	  525.00	  554.19	-1755.13	  438.60
     19.2700	  549.00	  553.95	-1730.88	  438.35
     19.3700	  563.00	  553.71	-1716.64	  438.10
     19.4700	  558.00	  553.46	-1721.40	  437.85
     19.5700	  564.00	  553.22	-1715.15	  437.59
     19.6700	  539.00	  552.97	-1739.90	  437.34
     19.7700	  528.00	  552.72	-1750.65	  437.08
     19.8700	  562.00	  552.47	-1716.40	  436.82
     19.9700	  559.00	  552.22	-1719.15	  436.56
     20.0700	  551.00	  551.97	-1726.90	  436.29
     20.1700	  546.00	  551.75	-1731.68	  436.03
     20.2700	  529.00	  551.50	-1748.43	  435.76
     20.3700	  552.00	  551.24	-1725.17	  435.49
     20.4700	  526.00	  550.99	-1750.92	  435.22
     20.5700	  524.00	  550.73	-1752.66	  434.95
     20.6700	  516.00	  550.48	-1760.41	  434.68
     20.7700	  543.00	  550.22	-1733.15	  434.41
     20.8700	  543.00	  549.96	-1732.89	  434.13
     20.9700	  529.00	  549.71	-1746.64	  433.85
     21.0700	  538.00	  549.45	-1737.38	  433.57
     21.1700	  564.00	  549.19	-1711.12	  433.29
     21.2700	  550.00	  548.94	-1724.87	  433.01
     21.3700	  511.00	  548.68	-1763.61	  432.73
     21.4700	  542.00	  548.42	-1732.35	  432.45
     21.5700	  586.00	  548.17	-1688.10	  432.16
     21.6700	  547.00	  547.92	-1726.85	  431.88
     21.7700	  551.00	  547.66	-1722.60	  431.59
     21.8700	  528.00	  547.41	-1745.34	  431.30
     21.9700	  523.00	  547.17	-1750.10	  431.01
     22.0700	  549.00	  546.92	-1723.85	  430.72
     22.1700	  556.00	  546.68	-1716.61	  430.43
     22.2700	  495.00	  546.40	-1777.33	  430.13
     22.3700	  549.00	  546.16	-1723.09	  429.84
     22.4700	  568.00	  545.94	-1703.87	  429.54
     22.5700	  521.00	  545.72	-1750.65	  429.25
     22.6700	  572.00	  545.50	-1699.43	  428.95
     22.7700	  508.00	  545.46	-1763.39	  428.65
     22.8700	  567.00	  545.27	-1704.20	  428.35
     22.9700	  526.00	  545.10	-1745.03	  428.05
     23.0700	  539.00	  544.94	-1731.87	  427.75
     23.1700	  546.00	  544.81	-1724.74	  427.45
     23.2700	  550.00	  544.71	-1720.64	  427.15
     23.3700	  520.00	  544.64	-1750.57	  426.85
     23.4700	  570.00	  544.63	-1700.56	  426.54
     23.5700	  587.00	  544.68	-1683.62	  426.24
     23.6700	  543.00	  544.84	-1727.77	  425.94
     23.7700	  532.00	  545.15	-1739.08	  425.63
     23.8700	  546.00	  545.73	-1725.66	  425.32
     23.9700	  567.00	  546.78	-1705.71	  425.02
     24.0700	  546.00	  548.64	-1728.57	  424.71
     24.1700	  511.00	  551.80	-1766.73	  424.40
     24.2700	  593.00	  556.90	-1689.83	  424.09
     24.3700	  542.00	  564.56	-1748.49	  423.78
     24.4700	  592.00	  575.10	-1709.03	  423.48
     24.5700	  609.00	  588.10	-1705.03	  423.17
     24.6700	  575.00	  601.53	-1752.46	  422.85
     24.7700	  610.00	  611.05	-1726.98	  422.54
     24.8700	  637.00	  610.77	-1699.70	  422.23
     24.9700	  603.00	  598.73	-1721.66	  421.92
     25.0700	  565.00	  581.42	-1742.35	  421.61
     25.1700	  569.00	  566.12	-1723.05	  421.30
     25.2700	  575.00	  555.40	-1706.33	  420.99
     25.3700	  553.00	  548.88	-1721.82	  420.67
     25.4700	  573.00	  545.23	-1698.16	  420.36
     25.5700	  579.00	  543.16	-1690.09	  420.05
     25.6700	  567.00	  541.89	-1700.83	  419.73
     25.7700	  559.00	  541.03	-1707.96	  419.42
     25.8700	  584.00	  540.40	-1682.33	  419.11
     25.9700	  546.00	  539.93	-1719.86	  418.79
     26.0700	  563.00	  539.59	-1702.52	  418.48
     26.1700	  584.00	  539.35	-1681.28	  418.17
     26.2700	  540.00	  539.20	-1725.13	  417.85
     26.3700	  541.00	  539.15	-1724.08	  417.54
     26.4700	  558.00	  539.20	-1707.13	  417.23
     26.5700	  558.00	  539.35	-1707.28	  416.91
     26.6700	  563.00	  539.63	-1702.56	  416.60
     26.7700	  525.00	  540.05	-1740.98	  416.28
     26.8700	  551.00	  540.65	-1715.58	  415.97
     26.9700	  548.00	  541.48	-1719.41	  415.66
     27.0700	  542.00	  542.61	-1726.54	  415.34
     27.1700	  542.00	  544.16	-1728.09	  415.03
     27.2700	  535.00	  546.37	-1737.30	  414.72
     27.3700	  570.00	  549.68	-1705.61	  414.40
     27.4700	  569.00	  554.99	-1711.92	  414.09
     27.5700	  572.00	  563.89	-1717.82	  413.78
     27.6700	  545.00	  579.03	-1759.96	  413.46
     27.7700	  592.00	  603.96	-1737.89	  413.15
     27.8700	  623.00	  642.13	-1745.06	  412.84
     27.9700	  658.00	  694.59	-1762.52	  412.53
     28.0700	  752.00	  756.77	-1730.70	  412.22
     28.1700	  892.00	  815.32	-1649.25	  411.91
     28.2700	  954.00	  847.98	-1619.91	  411.60
     28.3700	  909.00	  835.89	-1652.82	  411.29
     28.4700	  776.00	  792.09	-1742.02	  410.98
     28.5700	  720.00	  753.15	-1759.09	  410.67
     28.6700	  684.00	  740.77	-1782.70	  410.36
     28.7700	  730.00	  754.65	-1750.58	  410.05
     28.8700	  797.00	  778.99	-1707.92	  409.74
     28.9700	  819.00	  788.86	-1695.79	  409.43
     29.0700	  787.00	  763.56	-1702.49	  409.12
     29.1700	  738.00	  709.20	-1697.13	  408.82
     29.2700	  640.00	  651.32	-1737.25	  408.51
     29.3700	  557.00	  606.07	-1775.00	  408.21
     29.4700	  608.00	  576.52	-1694.45	  407.90
     29.5700	  554.00	  559.41	-1731.34	  407.60
     29.6700	  580.00	  550.01	-1695.94	  407.29
     29.7700	  541.00	  544.70	-1729.64	  406.99
     29.8700	  588.00	  541.52	-1679.45	  406.69
     29.9700	  565.00	  539.49	-1700.42	  406.38
     30.0700	  593.00	  538.36	-1671.29	  406.08
     30.1700	  575.00	  538.18	-1689.12	  405.78
     30.2700	  604.00	  539.34	-1661.27	  405.48
     30.3700	  551.00	  542.58	-1717.51	  405.18
     30.4700	  565.00	  549.02	-1709.95	  404.88
     30.5700	  516.00	  559.85	-1769.78	  404.58
     30.6700	  610.00	  575.42	-1691.35	  404.29
     30.7700	  523.00	  594.15	-1797.08	  403.99
     30.8700	  619.00	  611.59	-1718.52	  403.69
     30.9700	  593.00	  620.45	-1753.38	  403.40
     31.0700	  627.00	  614.14	-1713.07	  403.11
     31.1700	  603.00	  594.90	-1717.83	  402.81
     31.2700	  614.00	  572.63	-1684.56	  402.52
     31.3700	  540.00	  554.33	-1740.27	  402.23
     31.4700	  544.00	  541.91	-1723.84	  401.94
     31.5700	  536.00	  534.50	-1724.43	  401.65
     31.6700	  538.00	  530.38	-1718.31	  401.36
     31.7700	  545.00	  528.08	-1709.01	  401.07
     31.8700	  540.00	  526.71	-1712.64	  400.78
     31.9700	  565.00	  525.82	-1686.75	  400.49
     32.0700	  536.00	  525.23	-1715.16	  400.21
     32.1700	  546.00	  524.88	-1704.81	  399.92
     32.2700	  552.00	  524.71	-1698.65	  399.64
     32.3700	  565.00	  524.74	-1685.67	  399.36
     32.4700	  542.00	  524.96	-1708.89	  399.08
     32.5700	  569.00	  525.39	-1682.32	  398.80
     32.6700	  504.00	  526.08	-1748.01	  398.52
     32.7700	  531.00	  527.06	-1721.99	  398.24
     32.8700	  533.00	  528.44	-1721.37	  397.96
     32.9700	  548.00	  530.36	-1708.29	  397.68
     33.0700	  534.00	  533.07	-1725.00	  397.41
     33.1700	  559.00	  537.10	-1704.03	  397.13
     33.2700	  520.00	  543.52	-1749.45	  396.86
     33.3700	  561.00	  554.45	-1719.38	  396.59
     33.4700	  561.00	  573.62	-1738.55	  396.32
     33.5700	  602.00	  606.55	-1730.48	  396.05
     33.6700	  650.00	  659.28	-1735.21	  395.78
     33.7700	  734.00	  734.55	-1726.48	  395.51
     33.8700	  835.00	  826.07	-1717.00	  395.24
     33.9700	  988.00	  914.14	-1652.07	  394.98
     34.0700	  999.00	  966.08	-1693.01	  394.71
     34.1700	 1107.00	  950.42	-1569.35	  394.45
     34.2700	  871.00	  871.10	-1726.03	  394.19
     34.3700	  794.00	  769.39	-1701.32	  393.93
     34.4700	  653.00	  680.08	-1753.01	  393.67
     34.5700	  604.00	  615.96	-1737.89	  393.41
     34.6700	  594.00	  575.85	-1707.78	  393.15
     34.7700	  592.00	  552.92	-1686.85	  392.90
     34.8700	  514.00	  540.14	-1752.07	  392.64
     34.9700	  563.00	  532.62	-1695.55	  392.39
     35.0700	  537.00	  527.69	-1716.62	  392.14
     35.1700	  493.00	  524.13	-1757.06	  391.88
     35.2700	  515.00	  521.35	-1732.28	  391.64
     35.3700	  485.00	  519.15	-1760.08	  391.39
     35.4700	  552.00	  517.34	-1691.27	  391.14
     35.5700	  490.00	  515.83	-1751.76	  390.89
     35.6700	  554.00	  514.55	-1686.48	  390.65
     35.7700	  483.00	  513.45	-1756.38	  390.41
     35.8700	  549.00	  512.49	-1689.42	  390.16
     35.9700	  532.00	  512.11	-1706.04	  389.92
     36.0700	  527.00	  511.38	-1710.31	  389.68
     36.1700	  532.00	  510.72	-1704.65	  389.45
     36.2700	  552.00	  510.15	-1684.09	  389.21
     36.3700	  517.00	  509.64	-1718.57	  388.98
     36.4700	  512.00	  509.18	-1723.11	  388.74
     36.5700	  504.00	  508.78	-1730.72	  388.51
     36.6700	  531.00	  508.45	-1703.38	  388.28
     36.7700	  502.00	  508.19	-1732.12	  388.05
     36.8700	  521.00	  508.05	-1712.98	  387.82
     36.9700	  533.00	  508.09	-1701.02	  387.59
     37.0700	  499.00	  508.45	-1735.38	  387.37
     37.1700	  509.00	  509.35	-1726.28	  387.14
     37.2700	  512.00	  511.03	-1724.97	  386.92
     37.3700	  532.00	  513.71	-1707.64	  386.70
     37.4700	  476.00	  517.30	-1767.23	  386.48
     37.5700	  566.00	  521.23	-1681.17	  386.26
     37.6700	  514.00	  524.34	-1736.27	  386.05
     37.7700	  500.00	  525.15	-1751.08	  385.83
     37.8700	  555.00	  522.96	-1693.90	  385.62
     37.9700	  523.00	  518.81	-1721.74	  385.41
     38.0700	  503.00	  514.33	-1737.26	  385.19
     38.1700	  529.00	  510.65	-1707.58	  384.99
     38.2700	  501.00	  507.76	-1732.69	  384.78
     38.3700	  529.00	  505.76	-1702.69	  384.57
     38.4700	  528.00	  504.45	-1702.38	  384.37
     38.5700	  511.00	  503.58	-1718.51	  384.16
     38.6700	  519.00	  502.98	-1709.91	  383.96
     38.7700	  510.00	  502.51	-1718.45	  383.76
     38.8700	  501.00	  502.04	-1726.97	  383.56
     38.9700	  488.00	  501.72	-1739.65	  383.36
     39.0700	  495.00	  501.43	-1732.36	  383.17
     39.1700	  514.00	  501.17	-1713.10	  382.97
     39.2700	  525.00	  500.93	-1701.86	  382.78
     39.3700	  502.00	  500.71	-1724.64	  382.59
     39.4700	  514.00	  500.50	-1712.43	  382.40
     39.5700	  529.00	  500.30	-1697.23	  382.21
     39.6700	  534.00	  500.04	-1691.97	  382.03
     39.7700	  516.00	  499.87	-1709.80	  381.84
     39.8700	  508.00	  499.72	-1717.65	  381.66
     39.9700	  491.00	  499.57	-1734.50	  381.47
     40.0700	  511.00	  499.44	-1714.37	  381.29
     40.1700	  530.00	  499.32	-1695.25	  381.12
     40.2700	  490.00	  499.21	-1735.14	  380.94
     40.3700	  498.00	  499.12	-1727.05	  380.76
     40.4700	  514.00	  499.05	-1710.98	  380.59
     40.5700	  467.00	  498.99	-1757.92	  380.42
     40.6700	  497.00	  498.95	-1727.88	  380.24
     40.7700	  501.00	  499.43	-1724.36	  380.08
