MSG Master    CELL:    5.91909   5.91909  23.27271   90.0000   90.0000  120.0000   SPGR: P 63/m m c             TEMP:   1074.85
  1   1280     2.52000     0.00000    -0.12904     0.00000     0.00000    0
    99     0     2
       0.00000      10.00000
     125.00000     130.00000
 2Theta	Yobs	Ycal	Yobs-Ycal	Backg	Posr	(hkl)	K
      0.7700	    0.00	  548.47	-1740.50	  429.89
      0.8700	    0.00	  549.16	-1740.50	  430.57
      0.9700	   35.00	  549.84	-1740.50	  431.25
      1.0700	   52.00	  550.50	-1740.50	  431.92
      1.1700	   32.00	  551.16	-1740.50	  432.57
      1.2700	   43.00	  551.80	-1740.50	  433.22
      1.3700	   40.00	  552.44	-1740.50	  433.85
      1.4700	   88.00	  553.06	-1740.50	  434.48
      1.5700	  280.00	  553.68	-1740.50	  435.09
      1.6700	  451.00	  554.28	-1740.50	  435.70
      1.7700	  574.00	  554.88	-1740.50	  436.29
      1.8700	  633.00	  555.46	-1740.50	  436.88
      1.9700	  751.00	  556.04	-1740.50	  437.45
      2.0700	  759.00	  556.60	-1740.50	  438.02
      2.1700	  841.00	  557.16	-1740.50	  438.57
      2.2700	  784.00	  557.70	-1740.50	  439.12
      2.3700	  763.00	  558.24	-1740.50	  439.66
      2.4700	  684.00	  558.77	-1740.50	  440.18
      2.5700	  678.00	  559.28	-1740.50	  440.70
      2.6700	  684.00	  559.79	-1740.50	  441.21
      2.7700	  628.00	  560.29	-1740.50	  441.71
      2.8700	  667.00	  560.78	-1740.50	  442.19
      2.9700	  664.00	  561.26	-1740.50	  442.67
      3.0700	  625.00	  561.73	-1740.50	  443.15
      3.1700	  608.00	  562.19	-1740.50	  443.61
      3.2700	  614.00	  562.64	-1740.50	  444.06
      3.3700	  626.00	  563.09	-1740.50	  444.50
      3.4700	  811.00	  563.52	-1740.50	  444.94
      3.5700	  780.00	  563.95	-1740.50	  445.36
      3.6700	  885.00	  564.36	-1740.50	  445.78
      3.7700	  877.00	  564.77	-1740.50	  446.19
      3.8700	  943.00	  565.17	-1740.50	  446.59
      3.9700	 1032.00	  565.56	-1740.50	  446.98
      4.0700	 1065.00	  565.95	-1740.50	  447.36
      4.1700	 1055.00	  566.32	-1740.50	  447.74
      4.2700	 1061.00	  566.69	-1740.50	  448.10
      4.3700	 1093.00	  567.05	-1740.50	  448.46
      4.4700	 1056.00	  567.40	-1740.50	  448.81
      4.5700	 1014.00	  567.74	-1740.50	  449.15
      4.6700	 1054.00	  568.07	-1740.50	  449.49
      4.7700	 1002.00	  568.39	-1740.50	  449.81
      4.8700	  954.00	  568.71	-1740.50	  450.13
      4.9700	 1005.00	  569.02	-1740.50	  450.44
      5.0700	  938.00	  569.32	-1740.50	  450.74
      5.1700	  986.00	  569.62	-1740.50	  451.03
      5.2700	  899.00	  569.90	-1740.50	  451.32
      5.3700	  916.00	  570.18	-1740.50	  451.60
      5.4700	  887.00	  570.45	-1740.50	  451.87
      5.5700	  854.00	  570.71	-1740.50	  452.13
      5.6700	  867.00	  570.97	-1740.50	  452.39
      5.7700	  824.00	  571.22	-1740.50	  452.63
      5.8700	  843.00	  571.46	-1740.50	  452.87
      5.9700	  821.00	  571.69	-1740.50	  453.11
      6.0700	  785.00	  571.92	-1740.50	  453.33
      6.1700	  777.00	  572.14	-1740.50	  453.55
      6.2700	  735.00	  572.35	-1740.50	  453.77
      6.3700	  808.00	  572.55	-1740.50	  453.97
      6.4700	  770.00	  572.75	-1740.50	  454.17
      6.5700	  729.00	  572.94	-1740.50	  454.36
      6.6700	  726.00	  573.13	-1740.50	  454.54
      6.7700	  714.00	  573.30	-1740.50	  454.72
      6.8700	  680.00	  573.47	-1740.50	  454.89
      6.9700	  670.00	  573.64	-1740.50	  455.05
      7.0700	  690.00	  573.79	-1740.50	  455.21
      7.1700	  691.00	  573.95	-1740.50	  455.36
      7.2700	  644.00	  574.09	-1740.50	  455.50
      7.3700	  656.00	  574.23	-1740.50	  455.64
      7.4700	  633.00	  574.36	-1740.50	  455.77
      7.5700	  661.00	  574.48	-1740.50	  455.90
      7.6700	  659.00	  574.60	-1740.50	  456.02
      7.7700	  725.00	  574.71	-1740.50	  456.13
      7.8700	  610.00	  574.82	-1740.50	  456.23
      7.9700	  661.00	  574.92	-1740.50	  456.33
      8.0700	  641.00	  575.01	-1740.50	  456.43
      8.1700	  623.00	  575.10	-1740.50	  456.51
      8.2700	  668.00	  575.18	-1740.50	  456.59
      8.3700	  647.00	  575.25	-1740.50	  456.67
      8.4700	  632.00	  575.32	-1740.50	  456.74
      8.5700	  622.00	  575.39	-1740.50	  456.80
      8.6700	  627.00	  575.44	-1740.50	  456.86
      8.7700	  607.00	  575.50	-1740.50	  456.91
      8.8700	  589.00	  575.54	-1740.50	  456.96
      8.9700	  594.00	  575.58	-1740.50	  457.00
      9.0700	  643.00	  575.62	-1740.50	  457.03
      9.1700	  603.00	  575.65	-1740.50	  457.06
      9.2700	  589.00	  575.67	-1740.50	  457.09
      9.3700	  605.00	  575.69	-1740.50	  457.11
      9.4700	  625.00	  575.70	-1740.50	  457.12
      9.5700	  589.00	  575.71	-1740.50	  457.13
      9.6700	  638.00	  575.71	-1740.50	  457.13
      9.7700	  619.00	  575.71	-1740.50	  457.13
      9.8700	  587.00	  575.70	-1740.50	  457.12
      9.9700	  589.00	  575.69	-1740.50	  457.11
     10.0700	  604.00	  576.49	-1712.99	  457.09
     10.1700	  607.00	  576.55	-1710.05	  457.07
     10.2700	  578.00	  576.63	-1739.13	  457.04
     10.3700	  634.00	  576.74	-1683.24	  457.01
     10.4700	  543.00	  576.91	-1774.41	  456.97
     10.5700	  600.00	  577.19	-1717.69	  456.93
     10.6700	  567.00	  577.70	-1751.20	  456.88
     10.7700	  628.00	  578.55	-1691.05	  456.83
     10.8700	  580.00	  579.80	-1740.30	  456.77
     10.9700	  610.00	  581.46	-1711.96	  456.71
     11.0700	  593.00	  583.48	-1730.98	  456.64
     11.1700	  585.00	  585.87	-1741.37	  456.57
     11.2700	  564.00	  588.64	-1765.14	  456.50
     11.3700	  555.00	  591.90	-1777.40	  456.42
     11.4700	  574.00	  595.78	-1762.28	  456.34
     11.5700	  610.00	  600.50	-1731.00	  456.25
     11.6700	  625.00	  606.43	-1721.93	  456.16
     11.7700	  627.00	  614.23	-1727.73	  456.06
     11.8700	  643.00	  624.91	-1722.41	  455.96
     11.9700	  682.00	  639.18	-1697.68	  455.85
     12.0700	  676.00	  655.31	-1719.81	  455.75
     12.1700	  697.00	  666.53	-1710.03	  455.63
     12.2700	  685.00	  662.33	-1717.83	  455.52
     12.3700	  677.00	  640.02	-1703.52	  455.39
     12.4700	  614.00	  613.43	-1739.93	  455.27
     12.5700	  588.00	  594.33	-1746.83	  455.14
     12.6700	  581.00	  584.14	-1743.64	  455.01
     12.7700	  564.00	  579.61	-1756.11	  454.87
     12.8700	  607.00	  577.56	-1711.06	  454.73
     12.9700	  555.00	  576.43	-1761.93	  454.59
     13.0700	  592.00	  575.64	-1724.14	  454.44
     13.1700	  603.00	  575.04	-1712.54	  454.29
     13.2700	  560.00	  574.55	-1755.05	  454.13
     13.3700	  537.00	  574.13	-1777.63	  453.98
     13.4700	  549.00	  573.76	-1765.26	  453.81
     13.5700	  533.00	  573.44	-1780.94	  453.65
     13.6700	  566.00	  573.14	-1747.64	  453.48
     13.7700	  554.00	  572.86	-1759.36	  453.31
     13.8700	  593.00	  572.59	-1720.09	  453.13
     13.9700	  557.00	  572.34	-1755.84	  452.96
     14.0700	  578.00	  572.09	-1734.59	  452.77
     14.1700	  579.00	  571.85	-1733.35	  452.59
     14.2700	  546.00	  571.61	-1766.11	  452.40
     14.3700	  579.00	  571.38	-1732.88	  452.21
     14.4700	  560.00	  571.15	-1751.65	  452.02
     14.5700	  548.00	  570.92	-1763.42	  451.82
     14.6700	  569.00	  570.69	-1742.19	  451.62
     14.7700	  557.00	  570.46	-1753.96	  451.41
     14.8700	  575.00	  570.23	-1735.73	  451.21
     14.9700	  580.00	  570.01	-1730.51	  451.00
     15.0700	  525.00	  569.78	-1785.28	  450.79
     15.1700	  540.00	  569.54	-1770.04	  450.57
     15.2700	  542.00	  569.31	-1767.81	  450.36
     15.3700	  543.00	  569.08	-1766.58	  450.14
     15.4700	  589.00	  568.84	-1720.34	  449.91
     15.5700	  595.00	  568.61	-1714.11	  449.69
     15.6700	  559.00	  568.37	-1749.87	  449.46
     15.7700	  603.00	  568.13	-1705.63	  449.23
     15.8700	  563.00	  567.89	-1745.39	  449.00
     15.9700	  598.00	  567.64	-1710.14	  448.76
     16.0700	  542.00	  567.40	-1765.90	  448.52
     16.1700	  570.00	  567.15	-1737.65	  448.28
     16.2700	  553.00	  566.93	-1754.43	  448.04
     16.3700	  581.00	  566.68	-1726.18	  447.79
     16.4700	  525.00	  566.43	-1781.93	  447.55
     16.5700	  536.00	  566.17	-1770.67	  447.30
     16.6700	  566.00	  565.92	-1740.42	  447.04
     16.7700	  588.00	  565.66	-1718.16	  446.79
     16.8700	  561.00	  565.40	-1744.90	  446.53
     16.9700	  541.00	  565.14	-1764.64	  446.28
     17.0700	  538.00	  564.87	-1767.37	  446.01
     17.1700	  547.00	  564.61	-1758.11	  445.75
     17.2700	  542.00	  564.34	-1762.84	  445.49
     17.3700	  587.00	  564.07	-1717.57	  445.22
     17.4700	  566.00	  563.80	-1738.30	  444.95
     17.5700	  581.00	  563.53	-1723.03	  444.68
     17.6700	  569.00	  563.26	-1734.76	  444.41
     17.7700	  574.00	  562.98	-1729.48	  444.14
     17.8700	  574.00	  562.70	-1729.20	  443.86
     17.9700	  509.00	  562.43	-1793.93	  443.58
     18.0700	  551.00	  562.25	-1751.75	  443.30
     18.1700	  557.00	  561.97	-1745.47	  443.02
     18.2700	  557.00	  561.69	-1745.19	  442.74
     18.3700	  531.00	  561.40	-1770.90	  442.45
     18.4700	  553.00	  561.12	-1748.62	  442.17
     18.5700	  543.00	  560.83	-1758.33	  441.88
     18.6700	  566.00	  560.55	-1735.05	  441.59
     18.7700	  551.00	  560.26	-1749.76	  441.30
     18.8700	  521.00	  559.97	-1779.47	  441.01
     18.9700	  576.00	  559.77	-1724.27	  440.72
     19.0700	  589.00	  559.48	-1710.98	  440.42
     19.1700	  554.00	  559.19	-1745.69	  440.12
     19.2700	  601.00	  558.90	-1698.40	  439.83
     19.3700	  554.00	  558.60	-1745.10	  439.53
     19.4700	  539.00	  558.31	-1759.81	  439.23
     19.5700	  550.00	  558.01	-1748.51	  438.93
     19.6700	  551.00	  557.72	-1747.22	  438.62
     19.7700	  544.00	  557.42	-1753.92	  438.32
     19.8700	  585.00	  557.13	-1712.63	  438.01
     19.9700	  552.00	  556.83	-1745.33	  437.71
     20.0700	  573.00	  556.53	-1724.03	  437.40
     20.1700	  553.00	  556.23	-1743.73	  437.09
     20.2700	  571.00	  555.93	-1725.43	  436.78
     20.3700	  574.00	  555.63	-1722.13	  436.47
     20.4700	  543.00	  555.33	-1752.83	  436.16
     20.5700	  590.00	  555.00	-1705.50	  435.85
     20.6700	  520.00	  554.70	-1775.20	  435.53
     20.7700	  555.00	  554.40	-1739.90	  435.22
     20.8700	  570.00	  554.10	-1724.60	  434.90
     20.9700	  539.00	  553.83	-1755.33	  434.59
     21.0700	  537.00	  553.53	-1757.03	  434.27
     21.1700	  538.00	  553.23	-1755.73	  433.95
     21.2700	  555.00	  552.93	-1738.43	  433.63
     21.3700	  504.00	  552.64	-1789.14	  433.32
     21.4700	  528.00	  552.34	-1764.84	  433.00
     21.5700	  523.00	  552.04	-1769.54	  432.68
     21.6700	  542.00	  551.75	-1750.25	  432.35
     21.7700	  545.00	  551.45	-1746.95	  432.03
     21.8700	  553.00	  551.16	-1738.66	  431.71
     21.9700	  547.00	  550.87	-1744.37	  431.39
     22.0700	  528.00	  550.58	-1763.08	  431.06
     22.1700	  556.00	  550.29	-1734.79	  430.74
     22.2700	  513.00	  550.01	-1777.51	  430.41
     22.3700	  564.00	  549.72	-1726.22	  430.09
     22.4700	  554.00	  549.45	-1735.95	  429.76
     22.5700	  527.00	  549.18	-1762.68	  429.44
     22.6700	  564.00	  548.91	-1725.41	  429.11
     22.7700	  540.00	  548.65	-1749.15	  428.79
     22.8700	  494.00	  548.40	-1794.90	  428.46
     22.9700	  571.00	  548.16	-1717.66	  428.13
     23.0700	  537.00	  547.93	-1751.43	  427.80
     23.1700	  579.00	  547.72	-1709.22	  427.48
     23.2700	  535.00	  547.52	-1753.02	  427.15
     23.3700	  545.00	  547.36	-1742.86	  426.82
     23.4700	  553.00	  547.23	-1734.73	  426.49
     23.5700	  545.00	  547.14	-1742.64	  426.16
     23.6700	  574.00	  547.12	-1713.62	  425.83
     23.7700	  559.00	  547.35	-1728.85	  425.50
     23.8700	  547.00	  547.66	-1741.16	  425.18
     23.9700	  543.00	  548.42	-1745.92	  424.85
     24.0700	  547.00	  550.07	-1743.57	  424.52
     24.1700	  536.00	  553.29	-1757.79	  424.19
     24.2700	  564.00	  558.94	-1735.44	  423.86
     24.3700	  557.00	  568.01	-1751.51	  423.53
     24.4700	  563.00	  581.56	-1759.06	  423.20
     24.5700	  563.00	  599.86	-1777.36	  422.87
     24.6700	  613.00	  619.95	-1747.45	  422.54
     24.7700	  653.00	  633.58	-1721.08	  422.21
     24.8700	  616.00	  629.88	-1754.38	  421.88
     24.9700	  636.00	  607.97	-1712.47	  421.56
     25.0700	  626.00	  581.98	-1696.48	  421.23
     25.1700	  592.00	  562.83	-1711.33	  420.90
     25.2700	  557.00	  552.19	-1735.69	  420.57
     25.3700	  540.00	  547.27	-1747.77	  420.24
     25.4700	  566.00	  545.04	-1719.54	  419.91
     25.5700	  543.00	  543.85	-1741.35	  419.59
     25.6700	  584.00	  543.08	-1699.58	  419.26
     25.7700	  571.00	  542.51	-1712.01	  418.93
     25.8700	  549.00	  542.08	-1733.58	  418.61
     25.9700	  563.00	  541.75	-1719.25	  418.28
     26.0700	  540.00	  541.50	-1742.00	  417.96
     26.1700	  532.00	  541.34	-1749.84	  417.63
     26.2700	  565.00	  541.24	-1716.74	  417.30
     26.3700	  519.00	  541.23	-1762.73	  416.98
     26.4700	  545.00	  541.30	-1736.80	  416.66
     26.5700	  549.00	  541.46	-1732.96	  416.33
     26.6700	  545.00	  541.74	-1737.24	  416.01
     26.7700	  543.00	  542.15	-1739.65	  415.69
     26.8700	  594.00	  542.73	-1689.23	  415.36
     26.9700	  589.00	  543.54	-1695.04	  415.04
     27.0700	  576.00	  544.65	-1709.15	  414.72
     27.1700	  516.00	  546.18	-1770.68	  414.40
     27.2700	  563.00	  548.41	-1725.91	  414.08
     27.3700	  555.00	  551.82	-1737.32	  413.76
     27.4700	  548.00	  557.40	-1749.90	  413.44
     27.5700	  553.00	  566.92	-1754.42	  413.13
     27.6700	  557.00	  583.16	-1766.66	  412.81
     27.7700	  552.00	  609.71	-1798.21	  412.49
     27.8700	  628.00	  649.65	-1762.15	  412.18
     27.9700	  679.00	  703.04	-1764.54	  411.86
     28.0700	  798.00	  763.64	-1706.14	  411.55
     28.1700	  909.00	  816.06	-1647.56	  411.23
     28.2700	  879.00	  837.44	-1698.94	  410.92
     28.3700	  876.00	  815.14	-1679.64	  410.61
     28.4700	  810.00	  771.78	-1702.28	  410.30
     28.5700	  704.00	  742.84	-1779.34	  409.98
     28.6700	  729.00	  743.95	-1755.45	  409.68
     28.7700	  739.00	  769.72	-1771.22	  409.37
     28.8700	  830.00	  799.29	-1709.79	  409.06
     28.9700	  825.00	  803.63	-1719.13	  408.75
     29.0700	  761.00	  765.03	-1744.53	  408.44
     29.1700	  671.00	  700.50	-1770.00	  408.14
     29.2700	  663.00	  639.57	-1717.07	  407.83
     29.3700	  569.00	  595.97	-1767.47	  407.53
     29.4700	  617.00	  569.83	-1693.33	  407.23
     29.5700	  597.00	  555.80	-1699.30	  406.93
     29.6700	  608.00	  548.41	-1680.91	  406.63
     29.7700	  565.00	  544.22	-1719.72	  406.33
     29.8700	  554.00	  541.58	-1728.08	  406.03
     29.9700	  555.00	  539.88	-1725.38	  405.73
     30.0700	  563.00	  538.96	-1716.46	  405.43
     30.1700	  591.00	  538.97	-1688.47	  405.14
     30.2700	  584.00	  540.40	-1696.90	  404.84
     30.3700	  543.00	  544.26	-1741.76	  404.55
     30.4700	  570.00	  552.04	-1722.54	  404.26
     30.5700	  566.00	  565.33	-1739.83	  403.96
     30.6700	  571.00	  584.55	-1754.05	  403.67
     30.7700	  640.00	  607.26	-1707.76	  403.39
     30.8700	  606.00	  626.89	-1761.39	  403.10
     30.9700	  613.00	  633.47	-1760.97	  402.81
     31.0700	  580.00	  620.44	-1780.94	  402.52
     31.1700	  601.00	  594.75	-1734.25	  402.24
     31.2700	  547.00	  569.22	-1762.72	  401.96
     31.3700	  575.00	  550.52	-1716.02	  401.67
     31.4700	  558.00	  539.23	-1721.73	  401.39
     31.5700	  546.00	  533.24	-1727.74	  401.11
     31.6700	  562.00	  530.16	-1708.66	  400.84
     31.7700	  544.00	  528.44	-1724.94	  400.56
     31.8700	  572.00	  527.36	-1695.86	  400.28
     31.9700	  548.00	  526.60	-1719.10	  400.01
     32.0700	  557.00	  526.05	-1709.55	  399.73
     32.1700	  538.00	  525.68	-1728.18	  399.46
     32.2700	  537.00	  525.46	-1728.96	  399.19
     32.3700	  533.00	  525.38	-1732.88	  398.92
     32.4700	  508.00	  525.45	-1757.95	  398.65
     32.5700	  554.00	  525.69	-1712.19	  398.39
     32.6700	  555.00	  526.11	-1711.61	  398.12
     32.7700	  562.00	  526.77	-1705.27	  397.86
     32.8700	  539.00	  527.73	-1729.23	  397.59
     32.9700	  577.00	  529.11	-1692.61	  397.33
     33.0700	  524.00	  531.11	-1747.61	  397.07
     33.1700	  552.00	  534.18	-1722.68	  396.81
     33.2700	  544.00	  539.37	-1735.87	  396.55
     33.3700	  538.00	  548.93	-1751.43	  396.30
     33.4700	  577.00	  567.24	-1730.74	  396.04
     33.5700	  609.00	  601.25	-1732.75	  395.79
     33.6700	  631.00	  658.96	-1768.46	  395.54
     33.7700	  764.00	  744.00	-1720.50	  395.29
     33.8700	  860.00	  847.02	-1727.52	  395.04
     33.9700	  961.00	  940.09	-1719.59	  394.79
     34.0700	 1054.00	  980.45	-1666.95	  394.55
     34.1700	 1015.00	  937.16	-1662.66	  394.30
     34.2700	  866.00	  832.91	-1707.41	  394.06
     34.3700	  764.00	  721.56	-1698.06	  393.82
     34.4700	  639.00	  635.90	-1737.40	  393.58
     34.5700	  561.00	  582.41	-1761.91	  393.34
     34.6700	  561.00	  553.67	-1733.17	  393.10
     34.7700	  526.00	  539.33	-1753.83	  392.87
     34.8700	  516.00	  531.87	-1756.37	  392.63
     34.9700	  539.00	  527.42	-1728.92	  392.40
     35.0700	  539.00	  524.33	-1725.83	  392.17
     35.1700	  518.00	  522.00	-1744.50	  391.94
     35.2700	  540.00	  520.17	-1720.67	  391.71
     35.3700	  531.00	  518.67	-1728.17	  391.48
     35.4700	  534.00	  517.42	-1723.92	  391.26
     35.5700	  481.00	  516.37	-1775.87	  391.04
     35.6700	  525.00	  515.46	-1730.96	  390.81
     35.7700	  508.00	  514.67	-1747.17	  390.59
     35.8700	  533.00	  513.98	-1721.48	  390.38
     35.9700	  552.00	  513.36	-1701.86	  390.16
     36.0700	  510.00	  513.28	-1743.78	  389.94
     36.1700	  512.00	  512.79	-1741.29	  389.73
     36.2700	  500.00	  512.34	-1752.84	  389.52
     36.3700	  508.00	  511.94	-1744.44	  389.31
     36.4700	  481.00	  511.58	-1771.08	  389.10
     36.5700	  503.00	  511.25	-1748.75	  388.89
     36.6700	  524.00	  510.97	-1727.47	  388.69
     36.7700	  500.00	  510.73	-1751.23	  388.48
     36.8700	  502.00	  510.56	-1749.06	  388.28
     36.9700	  493.00	  510.52	-1758.02	  388.08
     37.0700	  549.00	  510.76	-1702.26	  387.88
     37.1700	  490.00	  511.53	-1762.03	  387.68
     37.2700	  568.00	  513.24	-1685.74	  387.49
     37.3700	  578.00	  516.26	-1678.76	  387.29
     37.4700	  562.00	  520.57	-1699.07	  387.10
     37.5700	  537.00	  525.35	-1728.85	  386.91
     37.6700	  486.00	  528.92	-1783.42	  386.72
     37.7700	  478.00	  529.45	-1791.95	  386.54
     37.8700	  498.00	  526.63	-1769.13	  386.35
     37.9700	  518.00	  522.18	-1744.68	  386.17
     38.0700	  497.00	  517.75	-1761.25	  385.98
     38.1700	  469.00	  514.00	-1785.50	  385.80
     38.2700	  486.00	  511.15	-1765.65	  385.62
     38.3700	  511.00	  509.17	-1738.67	  385.45
     38.4700	  481.00	  507.86	-1767.36	  385.27
     38.5700	  499.00	  507.01	-1748.51	  385.10
     38.6700	  515.00	  506.37	-1731.87	  384.93
     38.7700	  507.00	  505.99	-1739.49	  384.76
     38.8700	  529.00	  505.69	-1717.19	  384.59
     38.9700	  485.00	  505.45	-1760.95	  384.42
     39.0700	  455.00	  505.23	-1790.73	  384.26
     39.1700	  506.00	  504.94	-1739.44	  384.09
     39.2700	  519.00	  504.76	-1726.26	  383.93
     39.3700	  505.00	  504.59	-1740.09	  383.77
     39.4700	  516.00	  504.43	-1728.93	  383.61
     39.5700	  514.00	  504.28	-1730.78	  383.46
     39.6700	  524.00	  504.26	-1720.76	  383.30
     39.7700	  516.00	  504.13	-1728.63	  383.15
     39.8700	  509.00	  504.01	-1735.51	  383.00
     39.9700	  514.00	  503.90	-1730.40	  382.85
     40.0700	  506.00	  503.80	-1738.30	  382.70
     40.1700	  499.00	  503.71	-1745.21	  382.56
     40.2700	  473.00	  503.62	-1771.12	  382.41
     40.3700	  486.00	  503.55	-1758.05	  382.27
     40.4700	  510.00	  503.50	-1734.00	  382.13
     40.5700	  515.00	  503.45	-1728.95	  381.99
     40.6700	  513.00	  503.43	-1730.93	  381.85
     40.7700	  498.00	  503.42	-1745.92	  381.72
