MSG Master    CELL:    5.91979   5.91979  23.27911   90.0000   90.0000  120.0000   SPGR: P 63/m m c             TEMP:   1075.05
  1   1280     2.52000     0.00000    -0.12664     0.00000     0.00000    0
    99     0     2
       0.00000      10.00000
     125.00000     130.00000
 2Theta	Yobs	Ycal	Yobs-Ycal	Backg	Posr	(hkl)	K
      0.7700	    0.00	  525.31	-1703.27	  408.87
      0.8700	    1.00	  526.32	-1703.27	  409.88
      0.9700	   28.00	  527.31	-1703.27	  410.88
      1.0700	   57.00	  528.30	-1703.27	  411.86
      1.1700	   52.00	  529.27	-1703.27	  412.83
      1.2700	   39.00	  530.23	-1703.27	  413.79
      1.3700	   41.00	  531.17	-1703.27	  414.73
      1.4700	   84.00	  532.10	-1703.27	  415.67
      1.5700	  303.00	  533.02	-1703.27	  416.58
      1.6700	  435.00	  533.92	-1703.27	  417.49
      1.7700	  559.00	  534.82	-1703.27	  418.38
      1.8700	  620.00	  535.70	-1703.27	  419.26
      1.9700	  660.00	  536.56	-1703.27	  420.13
      2.0700	  811.00	  537.42	-1703.27	  420.98
      2.1700	  802.00	  538.26	-1703.27	  421.82
      2.2700	  772.00	  539.09	-1703.27	  422.65
      2.3700	  731.00	  539.91	-1703.27	  423.47
      2.4700	  726.00	  540.71	-1703.27	  424.28
      2.5700	  693.00	  541.50	-1703.27	  425.07
      2.6700	  635.00	  542.28	-1703.27	  425.85
      2.7700	  680.00	  543.05	-1703.27	  426.62
      2.8700	  635.00	  543.81	-1703.27	  427.37
      2.9700	  582.00	  544.55	-1703.27	  428.12
      3.0700	  631.00	  545.29	-1703.27	  428.85
      3.1700	  586.00	  546.01	-1703.27	  429.57
      3.2700	  636.00	  546.72	-1703.27	  430.28
      3.3700	  741.00	  547.42	-1703.27	  430.98
      3.4700	  772.00	  548.10	-1703.27	  431.67
      3.5700	  830.00	  548.78	-1703.27	  432.35
      3.6700	  866.00	  549.45	-1703.27	  433.01
      3.7700	  991.00	  550.10	-1703.27	  433.66
      3.8700	  966.00	  550.74	-1703.27	  434.31
      3.9700	  993.00	  551.37	-1703.27	  434.94
      4.0700	 1051.00	  551.99	-1703.27	  435.56
      4.1700	 1082.00	  552.60	-1703.27	  436.17
      4.2700	 1067.00	  553.20	-1703.27	  436.77
      4.3700	 1101.00	  553.79	-1703.27	  437.35
      4.4700	 1053.00	  554.37	-1703.27	  437.93
      4.5700	 1079.00	  554.93	-1703.27	  438.50
      4.6700	 1005.00	  555.49	-1703.27	  439.05
      4.7700	  978.00	  556.04	-1703.27	  439.60
      4.8700	 1001.00	  556.57	-1703.27	  440.14
      4.9700	  930.00	  557.10	-1703.27	  440.66
      5.0700	  972.00	  557.61	-1703.27	  441.18
      5.1700	  951.00	  558.12	-1703.27	  441.68
      5.2700	  908.00	  558.61	-1703.27	  442.18
      5.3700	  898.00	  559.10	-1703.27	  442.66
      5.4700	  918.00	  559.58	-1703.27	  443.14
      5.5700	  889.00	  560.04	-1703.27	  443.61
      5.6700	  839.00	  560.50	-1703.27	  444.06
      5.7700	  890.00	  560.94	-1703.27	  444.51
      5.8700	  857.00	  561.38	-1703.27	  444.95
      5.9700	  839.00	  561.81	-1703.27	  445.37
      6.0700	  790.00	  562.23	-1703.27	  445.79
      6.1700	  757.00	  562.64	-1703.27	  446.20
      6.2700	  761.00	  563.04	-1703.27	  446.60
      6.3700	  749.00	  563.43	-1703.27	  446.99
      6.4700	  792.00	  563.81	-1703.27	  447.37
      6.5700	  721.00	  564.18	-1703.27	  447.74
      6.6700	  771.00	  564.54	-1703.27	  448.11
      6.7700	  742.00	  564.90	-1703.27	  448.46
      6.8700	  723.00	  565.24	-1703.27	  448.81
      6.9700	  695.00	  565.58	-1703.27	  449.15
      7.0700	  695.00	  565.91	-1703.27	  449.47
      7.1700	  650.00	  566.23	-1703.27	  449.79
      7.2700	  680.00	  566.54	-1703.27	  450.10
      7.3700	  686.00	  566.84	-1703.27	  450.41
      7.4700	  689.00	  567.14	-1703.27	  450.70
      7.5700	  670.00	  567.42	-1703.27	  450.99
      7.6700	  668.00	  567.70	-1703.27	  451.27
      7.7700	  637.00	  567.97	-1703.27	  451.53
      7.8700	  665.00	  568.23	-1703.27	  451.80
      7.9700	  649.00	  568.48	-1703.27	  452.05
      8.0700	  619.00	  568.73	-1703.27	  452.29
      8.1700	  642.00	  568.97	-1703.27	  452.53
      8.2700	  619.00	  569.20	-1703.27	  452.76
      8.3700	  674.00	  569.42	-1703.27	  452.98
      8.4700	  598.00	  569.63	-1703.27	  453.20
      8.5700	  628.00	  569.84	-1703.27	  453.40
      8.6700	  619.00	  570.04	-1703.27	  453.60
      8.7700	  614.00	  570.23	-1703.27	  453.79
      8.8700	  648.00	  570.41	-1703.27	  453.98
      8.9700	  600.00	  570.59	-1703.27	  454.15
      9.0700	  631.00	  570.76	-1703.27	  454.32
      9.1700	  655.00	  570.92	-1703.27	  454.49
      9.2700	  605.00	  571.08	-1703.27	  454.64
      9.3700	  645.00	  571.22	-1703.27	  454.79
      9.4700	  639.00	  571.36	-1703.27	  454.93
      9.5700	  646.00	  571.50	-1703.27	  455.06
      9.6700	  648.00	  571.62	-1703.27	  455.19
      9.7700	  586.00	  571.74	-1703.27	  455.31
      9.8700	  598.00	  571.86	-1703.27	  455.42
      9.9700	  586.00	  571.96	-1703.27	  455.53
     10.0700	  584.00	  573.18	-1692.45	  455.63
     10.1700	  604.00	  573.40	-1672.67	  455.72
     10.2700	  597.00	  573.64	-1679.91	  455.81
     10.3700	  586.00	  573.92	-1691.20	  455.89
     10.4700	  615.00	  574.28	-1662.56	  455.96
     10.5700	  580.00	  574.78	-1698.05	  456.03
     10.6700	  544.00	  575.50	-1734.78	  456.09
     10.7700	  623.00	  576.56	-1656.83	  456.14
     10.8700	  557.00	  578.01	-1724.28	  456.19
     10.9700	  562.00	  579.86	-1721.13	  456.23
     11.0700	  558.00	  582.08	-1727.36	  456.27
     11.1700	  533.00	  584.69	-1754.96	  456.30
     11.2700	  554.00	  587.71	-1736.99	  456.32
     11.3700	  634.00	  591.25	-1660.52	  456.34
     11.4700	  613.00	  595.43	-1685.71	  456.35
     11.5700	  595.00	  600.50	-1708.77	  456.36
     11.6700	  593.00	  606.81	-1717.09	  456.36
     11.7700	  637.00	  614.96	-1681.24	  456.36
     11.8700	  648.00	  625.61	-1680.88	  456.34
     11.9700	  623.00	  638.77	-1719.04	  456.33
     12.0700	  690.00	  652.34	-1665.61	  456.31
     12.1700	  709.00	  660.81	-1655.08	  456.28
     12.2700	  690.00	  656.41	-1669.69	  456.25
     12.3700	  674.00	  637.57	-1666.84	  456.21
     12.4700	  608.00	  614.80	-1710.07	  456.17
     12.5700	  659.00	  597.26	-1641.54	  456.12
     12.6700	  582.00	  586.68	-1707.96	  456.07
     12.7700	  572.00	  581.18	-1712.46	  456.01
     12.8700	  572.00	  578.43	-1709.71	  455.94
     12.9700	  545.00	  576.91	-1735.19	  455.88
     13.0700	  580.00	  575.92	-1699.20	  455.80
     13.1700	  584.00	  575.20	-1694.48	  455.72
     13.2700	  549.00	  574.64	-1728.91	  455.64
     13.3700	  560.00	  574.18	-1717.46	  455.55
     13.4700	  568.00	  573.80	-1709.07	  455.46
     13.5700	  574.00	  573.47	-1702.74	  455.36
     13.6700	  561.00	  573.18	-1715.45	  455.26
     13.7700	  570.00	  572.91	-1706.19	  455.15
     13.8700	  544.00	  572.67	-1731.95	  455.04
     13.9700	  606.00	  572.45	-1669.72	  454.93
     14.0700	  512.00	  572.23	-1763.51	  454.81
     14.1700	  555.00	  572.03	-1720.30	  454.68
     14.2700	  577.00	  571.83	-1698.11	  454.55
     14.3700	  593.00	  571.64	-1681.91	  454.42
     14.4700	  555.00	  571.45	-1719.72	  454.28
     14.5700	  558.00	  571.26	-1716.54	  454.14
     14.6700	  542.00	  571.07	-1732.35	  454.00
     14.7700	  553.00	  570.89	-1721.16	  453.85
     14.8700	  566.00	  570.70	-1707.98	  453.69
     14.9700	  542.00	  570.52	-1731.79	  453.54
     15.0700	  570.00	  570.33	-1703.60	  453.37
     15.1700	  536.00	  570.14	-1737.41	  453.21
     15.2700	  587.00	  569.97	-1686.25	  453.04
     15.3700	  578.00	  569.78	-1695.06	  452.87
     15.4700	  574.00	  569.59	-1698.86	  452.69
     15.5700	  596.00	  569.39	-1676.67	  452.51
     15.6700	  534.00	  569.19	-1738.47	  452.33
     15.7700	  592.00	  568.99	-1680.27	  452.14
     15.8700	  546.00	  568.79	-1726.06	  451.95
     15.9700	  575.00	  568.58	-1696.86	  451.75
     16.0700	  565.00	  568.38	-1706.65	  451.56
     16.1700	  530.00	  568.17	-1741.44	  451.36
     16.2700	  553.00	  567.95	-1718.23	  451.15
     16.3700	  518.00	  567.74	-1753.01	  450.94
     16.4700	  568.00	  567.52	-1702.79	  450.73
     16.5700	  591.00	  567.30	-1679.57	  450.52
     16.6700	  556.00	  567.07	-1714.35	  450.30
     16.7700	  563.00	  566.85	-1707.12	  450.08
     16.8700	  578.00	  566.62	-1691.89	  449.86
     16.9700	  574.00	  566.39	-1695.66	  449.63
     17.0700	  551.00	  566.15	-1718.43	  449.40
     17.1700	  552.00	  565.92	-1717.19	  449.17
     17.2700	  574.00	  565.68	-1694.95	  448.93
     17.3700	  574.00	  565.44	-1694.71	  448.69
     17.4700	  544.00	  565.19	-1724.47	  448.45
     17.5700	  589.00	  564.94	-1679.22	  448.21
     17.6700	  514.00	  564.69	-1753.97	  447.96
     17.7700	  551.00	  564.44	-1716.72	  447.71
     17.8700	  569.00	  564.19	-1698.46	  447.46
     17.9700	  605.00	  563.93	-1662.21	  447.20
     18.0700	  540.00	  563.77	-1727.04	  446.95
     18.1700	  552.00	  563.51	-1714.78	  446.69
     18.2700	  562.00	  563.25	-1704.52	  446.43
     18.3700	  519.00	  562.98	-1747.26	  446.16
     18.4700	  535.00	  562.72	-1730.99	  445.89
     18.5700	  595.00	  562.45	-1670.73	  445.62
     18.6700	  537.00	  562.27	-1728.54	  445.35
     18.7700	  592.00	  562.00	-1673.27	  445.08
     18.8700	  559.00	  561.72	-1706.00	  444.80
     18.9700	  530.00	  561.45	-1734.73	  444.52
     19.0700	  572.00	  561.17	-1692.45	  444.24
     19.1700	  565.00	  560.90	-1699.17	  443.96
     19.2700	  536.00	  560.62	-1727.89	  443.68
     19.3700	  563.00	  560.34	-1700.61	  443.39
     19.4700	  544.00	  560.06	-1719.33	  443.10
     19.5700	  540.00	  559.77	-1723.05	  442.81
     19.6700	  568.00	  559.49	-1694.76	  442.52
     19.7700	  591.00	  559.20	-1671.47	  442.22
     19.8700	  592.00	  558.91	-1670.19	  441.93
     19.9700	  558.00	  558.62	-1703.90	  441.63
     20.0700	  590.00	  558.33	-1671.61	  441.33
     20.1700	  573.00	  558.04	-1688.31	  441.03
     20.2700	  543.00	  557.75	-1718.02	  440.73
     20.3700	  522.00	  557.45	-1738.73	  440.42
     20.4700	  555.00	  557.16	-1705.43	  440.11
     20.5700	  561.00	  556.90	-1699.17	  439.81
     20.6700	  588.00	  556.60	-1671.87	  439.50
     20.7700	  568.00	  556.30	-1691.58	  439.19
     20.8700	  564.00	  556.01	-1695.28	  438.87
     20.9700	  602.00	  555.71	-1656.98	  438.56
     21.0700	  562.00	  555.41	-1696.69	  438.24
     21.1700	  558.00	  555.11	-1700.39	  437.93
     21.2700	  552.00	  554.81	-1706.09	  437.61
     21.3700	  556.00	  554.48	-1701.75	  437.29
     21.4700	  543.00	  554.18	-1714.45	  436.97
     21.5700	  554.00	  553.88	-1703.16	  436.65
     21.6700	  555.00	  553.59	-1701.86	  436.32
     21.7700	  559.00	  553.29	-1697.56	  436.00
     21.8700	  555.00	  553.00	-1701.27	  435.67
     21.9700	  589.00	  552.70	-1666.98	  435.35
     22.0700	  534.00	  552.41	-1721.69	  435.02
     22.1700	  570.00	  552.12	-1685.40	  434.69
     22.2700	  581.00	  551.84	-1674.11	  434.36
     22.3700	  544.00	  551.55	-1710.83	  434.03
     22.4700	  535.00	  551.27	-1719.55	  433.70
     22.5700	  572.00	  551.00	-1682.28	  433.37
     22.6700	  560.00	  550.73	-1694.01	  433.03
     22.7700	  535.00	  550.47	-1718.75	  432.70
     22.8700	  518.00	  550.22	-1735.49	  432.36
     22.9700	  531.00	  549.98	-1722.25	  432.03
     23.0700	  569.00	  549.75	-1684.03	  431.69
     23.1700	  571.00	  549.54	-1681.82	  431.36
     23.2700	  525.00	  549.51	-1727.78	  431.02
     23.3700	  554.00	  549.35	-1698.63	  430.68
     23.4700	  549.00	  549.24	-1703.51	  430.34
     23.5700	  525.00	  549.17	-1727.45	  430.00
     23.6700	  577.00	  549.19	-1675.46	  429.66
     23.7700	  593.00	  549.33	-1659.60	  429.32
     23.8700	  567.00	  549.70	-1685.98	  428.98
     23.9700	  490.00	  550.51	-1763.79	  428.64
     24.0700	  528.00	  552.10	-1727.37	  428.29
     24.1700	  587.00	  554.98	-1671.25	  427.95
     24.2700	  559.00	  559.78	-1704.05	  427.61
     24.3700	  551.00	  567.16	-1719.43	  427.26
     24.4700	  592.00	  577.57	-1688.84	  426.92
     24.5700	  615.00	  590.58	-1678.85	  426.58
     24.6700	  645.00	  603.71	-1661.99	  426.23
     24.7700	  618.00	  611.70	-1696.97	  425.89
     24.8700	  578.00	  608.22	-1733.50	  425.54
     24.9700	  600.00	  593.44	-1696.71	  425.20
     25.0700	  583.00	  575.98	-1696.25	  424.85
     25.1700	  597.00	  562.35	-1668.62	  424.51
     25.2700	  577.00	  553.87	-1680.15	  424.16
     25.3700	  560.00	  549.29	-1692.57	  423.82
     25.4700	  537.00	  546.92	-1713.20	  423.47
     25.5700	  538.00	  545.59	-1710.86	  423.13
     25.6700	  549.00	  544.71	-1698.99	  422.78
     25.7700	  566.00	  544.07	-1681.34	  422.43
     25.8700	  527.00	  543.58	-1719.85	  422.09
     25.9700	  551.00	  543.19	-1695.47	  421.74
     26.0700	  573.00	  542.90	-1673.17	  421.40
     26.1700	  514.00	  542.69	-1731.96	  421.05
     26.2700	  564.00	  542.55	-1681.82	  420.71
     26.3700	  513.00	  542.48	-1732.76	  420.36
     26.4700	  592.00	  542.51	-1653.78	  420.02
     26.5700	  518.00	  542.62	-1727.90	  419.67
     26.6700	  539.00	  542.84	-1707.12	  419.33
     26.7700	  550.00	  543.19	-1696.47	  418.98
     26.8700	  573.00	  543.71	-1673.98	  418.64
     26.9700	  574.00	  544.43	-1673.71	  418.30
     27.0700	  565.00	  545.45	-1683.72	  417.95
     27.1700	  531.00	  546.86	-1719.14	  417.61
     27.2700	  582.00	  548.93	-1670.20	  417.27
     27.3700	  588.00	  552.11	-1667.38	  416.92
     27.4700	  583.00	  557.33	-1677.60	  416.58
     27.5700	  574.00	  566.22	-1695.49	  416.24
     27.6700	  584.00	  581.37	-1700.64	  415.90
     27.7700	  552.00	  606.08	-1757.35	  415.56
     27.8700	  606.00	  643.15	-1740.43	  415.22
     27.9700	  646.00	  692.60	-1749.88	  414.88
     28.0700	  760.00	  748.62	-1691.89	  414.54
     28.1700	  873.00	  797.02	-1627.29	  414.20
     28.2700	  918.00	  816.88	-1602.16	  413.87
     28.3700	  870.00	  796.91	-1630.19	  413.53
     28.4700	  782.00	  758.17	-1679.44	  413.19
     28.5700	  686.00	  732.95	-1750.22	  412.86
     28.6700	  675.00	  735.09	-1763.36	  412.52
     28.7700	  701.00	  759.18	-1761.46	  412.19
     28.8700	  842.00	  786.00	-1647.28	  411.85
     28.9700	  815.00	  789.19	-1677.47	  411.52
     29.0700	  750.00	  753.11	-1706.39	  411.19
     29.1700	  714.00	  693.45	-1682.72	  410.86
     29.2700	  647.00	  636.86	-1693.14	  410.53
     29.3700	  576.00	  595.81	-1723.08	  410.20
     29.4700	  619.00	  570.66	-1654.94	  409.87
     29.5700	  561.00	  556.82	-1699.10	  409.54
     29.6700	  554.00	  549.40	-1698.67	  409.21
     29.7700	  545.00	  545.17	-1703.45	  408.88
     29.8700	  576.00	  542.55	-1669.83	  408.56
     29.9700	  543.00	  540.91	-1701.18	  408.23
     30.0700	  598.00	  540.10	-1645.37	  407.91
     30.1700	  538.00	  540.27	-1705.55	  407.59
     30.2700	  585.00	  541.95	-1660.22	  407.26
     30.3700	  538.00	  546.08	-1711.35	  406.94
     30.4700	  547.00	  554.09	-1710.36	  406.62
     30.5700	  535.00	  567.20	-1735.48	  406.30
     30.6700	  605.00	  585.56	-1683.84	  405.99
     30.7700	  632.00	  606.66	-1677.93	  405.67
     30.8700	  572.00	  624.40	-1755.67	  405.35
     30.9700	  642.00	  629.89	-1691.17	  405.04
     31.0700	  623.00	  617.56	-1697.84	  404.73
     31.1700	  589.00	  593.80	-1708.07	  404.41
     31.2700	  555.00	  570.04	-1718.31	  404.10
     31.3700	  562.00	  552.23	-1693.50	  403.79
     31.4700	  479.00	  541.06	-1765.34	  403.48
     31.5700	  566.00	  534.85	-1672.13	  403.17
     31.6700	  529.00	  531.54	-1705.82	  402.87
     31.7700	  531.00	  529.69	-1701.96	  402.56
     31.8700	  513.00	  528.54	-1718.81	  402.26
     31.9700	  525.00	  527.77	-1706.04	  401.95
     32.0700	  545.00	  527.25	-1685.52	  401.65
     32.1700	  608.00	  526.93	-1622.20	  401.35
     32.2700	  538.00	  526.79	-1692.06	  401.05
     32.3700	  578.00	  526.82	-1652.10	  400.75
     32.4700	  575.00	  527.05	-1655.32	  400.46
     32.5700	  510.00	  527.48	-1720.75	  400.16
     32.6700	  533.00	  528.15	-1698.43	  399.87
     32.7700	  557.00	  529.13	-1675.41	  399.57
     32.8700	  589.00	  530.52	-1644.79	  399.28
     32.9700	  522.00	  532.45	-1713.73	  398.99
     33.0700	  536.00	  535.24	-1702.51	  398.70
     33.1700	  543.00	  539.49	-1699.76	  398.42
     33.2700	  546.00	  546.53	-1703.81	  398.13
     33.3700	  528.00	  559.07	-1734.35	  397.84
     33.4700	  595.00	  581.93	-1690.20	  397.56
     33.5700	  572.00	  622.12	-1753.40	  397.28
     33.6700	  658.00	  686.82	-1732.09	  397.00
     33.7700	  787.00	  777.68	-1693.95	  396.72
     33.8700	  941.00	  883.43	-1645.71	  396.44
     33.9700	 1039.00	  975.53	-1639.81	  396.17
     34.0700	 1072.00	 1012.36	-1643.64	  395.89
     34.1700	 1046.00	  965.71	-1622.98	  395.62
     34.2700	  900.00	  859.59	-1662.87	  395.35
     34.3700	  748.00	  746.10	-1701.38	  395.08
     34.4700	  663.00	  656.62	-1696.89	  394.81
     34.5700	  590.00	  598.13	-1711.41	  394.54
     34.6700	  578.00	  564.67	-1689.94	  394.28
     34.7700	  525.00	  546.84	-1725.11	  394.01
     34.8700	  571.00	  537.15	-1669.42	  393.75
     34.9700	  528.00	  531.30	-1706.57	  393.49
     35.0700	  558.00	  527.29	-1672.57	  393.23
     35.1700	  535.00	  524.28	-1692.56	  392.97
     35.2700	  490.00	  521.91	-1735.19	  392.72
     35.3700	  561.00	  519.99	-1662.27	  392.46
     35.4700	  521.00	  518.40	-1700.68	  392.21
     35.5700	  533.00	  517.06	-1687.34	  391.96
     35.6700	  555.00	  515.91	-1664.19	  391.71
     35.7700	  466.00	  514.92	-1752.19	  391.46
     35.8700	  489.00	  514.05	-1728.32	  391.22
     35.9700	  507.00	  513.73	-1710.01	  390.97
     36.0700	  580.00	  513.05	-1636.33	  390.73
     36.1700	  534.00	  512.44	-1681.71	  390.49
     36.2700	  534.00	  511.89	-1681.16	  390.25
     36.3700	  507.00	  511.39	-1707.67	  390.01
     36.4700	  545.00	  510.95	-1669.22	  389.78
     36.5700	  530.00	  510.55	-1683.82	  389.54
     36.6700	  508.00	  510.20	-1705.48	  389.31
     36.7700	  496.00	  509.92	-1717.19	  389.08
     36.8700	  525.00	  509.73	-1688.00	  388.85
     36.9700	  511.00	  509.69	-1701.97	  388.62
     37.0700	  503.00	  509.96	-1710.24	  388.40
     37.1700	  512.00	  510.73	-1702.01	  388.17
     37.2700	  547.00	  512.27	-1668.55	  387.95
     37.3700	  532.00	  514.76	-1686.03	  387.73
     37.4700	  515.00	  518.03	-1706.31	  387.51
     37.5700	  539.00	  521.38	-1685.66	  387.30
     37.6700	  498.00	  523.58	-1728.86	  387.08
     37.7700	  517.00	  523.38	-1709.65	  386.87
     37.8700	  541.00	  520.73	-1683.01	  386.66
     37.9700	  473.00	  516.99	-1747.27	  386.45
     38.0700	  510.00	  513.39	-1706.66	  386.24
     38.1700	  516.00	  510.44	-1697.72	  386.03
     38.2700	  489.00	  508.27	-1722.55	  385.83
     38.3700	  538.00	  506.79	-1672.06	  385.63
     38.4700	  524.00	  505.80	-1685.07	  385.43
     38.5700	  486.00	  505.13	-1722.40	  385.23
     38.6700	  527.00	  504.55	-1680.83	  385.03
     38.7700	  507.00	  504.18	-1700.46	  384.84
     38.8700	  508.00	  504.03	-1699.30	  384.64
     38.9700	  458.00	  503.76	-1749.03	  384.45
     39.0700	  471.00	  503.51	-1735.79	  384.26
     39.1700	  483.00	  503.29	-1723.56	  384.08
     39.2700	  480.00	  503.07	-1726.35	  383.89
     39.3700	  508.00	  502.80	-1698.07	  383.71
     39.4700	  501.00	  502.61	-1704.89	  383.52
     39.5700	  468.00	  502.44	-1737.72	  383.34
     39.6700	  557.00	  502.28	-1648.55	  383.17
     39.7700	  499.00	  502.13	-1706.40	  382.99
     39.8700	  528.00	  501.98	-1677.26	  382.82
     39.9700	  483.00	  501.85	-1722.13	  382.64
     40.0700	  478.00	  501.73	-1727.01	  382.47
     40.1700	  522.00	  501.62	-1682.90	  382.30
     40.2700	  528.00	  501.53	-1676.80	  382.14
     40.3700	  485.00	  501.44	-1719.72	  381.97
     40.4700	  460.00	  501.38	-1744.65	  381.81
     40.5700	  513.00	  501.33	-1691.60	  381.65
     40.6700	  481.00	  501.29	-1723.57	  381.49
     40.7700	  489.00	  501.29	-1715.56	  381.33
