MSG Master    CELL:    5.91904   5.91904  23.27474   90.0000   90.0000  120.0000   SPGR: P 63/m m c             TEMP:   1074.85
  1   1280     2.52000     0.00000    -0.12632     0.00000     0.00000    0
    99     0     2
       0.00000      10.00000
     125.00000     130.00000
 2Theta	Yobs	Ycal	Yobs-Ycal	Backg	Posr	(hkl)	K
      0.7700	    1.00	  529.79	-1743.75	  412.22
      0.8700	    0.00	  530.70	-1743.75	  413.14
      0.9700	   32.00	  531.60	-1743.75	  414.04
      1.0700	   46.00	  532.49	-1743.75	  414.92
      1.1700	   43.00	  533.36	-1743.75	  415.80
      1.2700	   43.00	  534.22	-1743.75	  416.66
      1.3700	   42.00	  535.07	-1743.75	  417.51
      1.4700	  102.00	  535.91	-1743.75	  418.35
      1.5700	  283.00	  536.74	-1743.75	  419.17
      1.6700	  452.00	  537.55	-1743.75	  419.99
      1.7700	  578.00	  538.35	-1743.75	  420.79
      1.8700	  645.00	  539.14	-1743.75	  421.58
      1.9700	  757.00	  539.92	-1743.75	  422.36
      2.0700	  786.00	  540.68	-1743.75	  423.12
      2.1700	  823.00	  541.44	-1743.75	  423.88
      2.2700	  797.00	  542.18	-1743.75	  424.62
      2.3700	  730.00	  542.91	-1743.75	  425.35
      2.4700	  669.00	  543.64	-1743.75	  426.07
      2.5700	  676.00	  544.34	-1743.75	  426.78
      2.6700	  677.00	  545.04	-1743.75	  427.48
      2.7700	  674.00	  545.73	-1743.75	  428.17
      2.8700	  685.00	  546.41	-1743.75	  428.84
      2.9700	  656.00	  547.07	-1743.75	  429.51
      3.0700	  579.00	  547.72	-1743.75	  430.16
      3.1700	  577.00	  548.37	-1743.75	  430.80
      3.2700	  611.00	  549.00	-1743.75	  431.44
      3.3700	  672.00	  549.62	-1743.75	  432.06
      3.4700	  745.00	  550.23	-1743.75	  432.67
      3.5700	  841.00	  550.83	-1743.75	  433.27
      3.6700	  851.00	  551.42	-1743.75	  433.86
      3.7700	  907.00	  552.00	-1743.75	  434.44
      3.8700	  940.00	  552.57	-1743.75	  435.01
      3.9700	 1008.00	  553.13	-1743.75	  435.57
      4.0700	 1066.00	  553.68	-1743.75	  436.12
      4.1700	 1049.00	  554.22	-1743.75	  436.66
      4.2700	 1090.00	  554.75	-1743.75	  437.19
      4.3700	 1049.00	  555.27	-1743.75	  437.71
      4.4700	 1060.00	  555.78	-1743.75	  438.22
      4.5700	 1023.00	  556.28	-1743.75	  438.72
      4.6700	 1022.00	  556.77	-1743.75	  439.21
      4.7700	 1036.00	  557.25	-1743.75	  439.69
      4.8700	  951.00	  557.72	-1743.75	  440.16
      4.9700	  941.00	  558.18	-1743.75	  440.62
      5.0700	  902.00	  558.64	-1743.75	  441.07
      5.1700	  904.00	  559.08	-1743.75	  441.51
      5.2700	  872.00	  559.51	-1743.75	  441.95
      5.3700	  837.00	  559.94	-1743.75	  442.37
      5.4700	  813.00	  560.35	-1743.75	  442.79
      5.5700	  887.00	  560.76	-1743.75	  443.19
      5.6700	  861.00	  561.15	-1743.75	  443.59
      5.7700	  816.00	  561.54	-1743.75	  443.98
      5.8700	  822.00	  561.92	-1743.75	  444.36
      5.9700	  797.00	  562.29	-1743.75	  444.73
      6.0700	  803.00	  562.65	-1743.75	  445.09
      6.1700	  801.00	  563.01	-1743.75	  445.44
      6.2700	  756.00	  563.35	-1743.75	  445.79
      6.3700	  779.00	  563.69	-1743.75	  446.13
      6.4700	  769.00	  564.02	-1743.75	  446.45
      6.5700	  735.00	  564.34	-1743.75	  446.77
      6.6700	  682.00	  564.65	-1743.75	  447.08
      6.7700	  743.00	  564.95	-1743.75	  447.39
      6.8700	  734.00	  565.25	-1743.75	  447.68
      6.9700	  719.00	  565.53	-1743.75	  447.97
      7.0700	  716.00	  565.81	-1743.75	  448.25
      7.1700	  686.00	  566.08	-1743.75	  448.52
      7.2700	  700.00	  566.35	-1743.75	  448.78
      7.3700	  650.00	  566.60	-1743.75	  449.04
      7.4700	  677.00	  566.85	-1743.75	  449.28
      7.5700	  648.00	  567.09	-1743.75	  449.52
      7.6700	  652.00	  567.32	-1743.75	  449.76
      7.7700	  666.00	  567.54	-1743.75	  449.98
      7.8700	  675.00	  567.76	-1743.75	  450.20
      7.9700	  676.00	  567.97	-1743.75	  450.41
      8.0700	  669.00	  568.17	-1743.75	  450.61
      8.1700	  637.00	  568.37	-1743.75	  450.80
      8.2700	  630.00	  568.55	-1743.75	  450.99
      8.3700	  623.00	  568.74	-1743.75	  451.17
      8.4700	  643.00	  568.91	-1743.75	  451.35
      8.5700	  599.00	  569.07	-1743.75	  451.51
      8.6700	  622.00	  569.23	-1743.75	  451.67
      8.7700	  598.00	  569.39	-1743.75	  451.82
      8.8700	  594.00	  569.53	-1743.75	  451.97
      8.9700	  589.00	  569.67	-1743.75	  452.11
      9.0700	  622.00	  569.80	-1743.75	  452.24
      9.1700	  603.00	  569.93	-1743.75	  452.36
      9.2700	  610.00	  570.05	-1743.75	  452.48
      9.3700	  587.00	  570.16	-1743.75	  452.60
      9.4700	  614.00	  570.26	-1743.75	  452.70
      9.5700	  645.00	  570.36	-1743.75	  452.80
      9.6700	  645.00	  570.46	-1743.75	  452.89
      9.7700	  593.00	  570.54	-1743.75	  452.98
      9.8700	  595.00	  570.62	-1743.75	  453.06
      9.9700	  601.00	  570.70	-1743.75	  453.13
     10.0700	  613.00	  571.48	-1702.23	  453.20
     10.1700	  608.00	  571.61	-1707.36	  453.26
     10.2700	  633.00	  571.76	-1682.51	  453.32
     10.3700	  587.00	  571.93	-1728.68	  453.37
     10.4700	  594.00	  572.14	-1721.89	  453.41
     10.5700	  602.00	  572.46	-1714.21	  453.45
     10.6700	  577.00	  572.97	-1739.72	  453.48
     10.7700	  607.00	  573.79	-1710.54	  453.51
     10.8700	  622.00	  574.98	-1696.73	  453.53
     10.9700	  581.00	  576.53	-1739.28	  453.54
     11.0700	  529.00	  578.40	-1793.15	  453.55
     11.1700	  597.00	  580.60	-1727.35	  453.55
     11.2700	  541.00	  583.14	-1785.89	  453.55
     11.3700	  608.00	  586.11	-1721.86	  453.55
     11.4700	  578.00	  589.64	-1755.39	  453.53
     11.5700	  601.00	  593.91	-1736.66	  453.52
     11.6700	  581.00	  599.26	-1762.01	  453.49
     11.7700	  614.00	  606.29	-1736.04	  453.46
     11.8700	  605.00	  615.93	-1754.68	  453.43
     11.9700	  632.00	  628.97	-1740.72	  453.39
     12.0700	  668.00	  643.99	-1719.74	  453.35
     12.1700	  709.00	  654.77	-1689.52	  453.30
     12.2700	  644.00	  651.37	-1751.12	  453.25
     12.3700	  607.00	  630.93	-1767.68	  453.19
     12.4700	  633.00	  606.34	-1717.09	  453.13
     12.5700	  575.00	  588.81	-1757.56	  453.06
     12.6700	  555.00	  579.67	-1768.42	  452.98
     12.7700	  580.00	  575.73	-1739.48	  452.91
     12.8700	  591.00	  574.02	-1726.77	  452.82
     12.9700	  551.00	  573.09	-1765.84	  452.74
     13.0700	  564.00	  572.46	-1752.21	  452.65
     13.1700	  568.00	  571.98	-1747.73	  452.55
     13.2700	  573.00	  571.59	-1742.34	  452.45
     13.3700	  540.00	  571.27	-1775.02	  452.35
     13.4700	  522.00	  570.99	-1792.74	  452.24
     13.5700	  567.00	  570.74	-1747.49	  452.13
     13.6700	  543.00	  570.51	-1771.26	  452.01
     13.7700	  539.00	  570.29	-1775.04	  451.89
     13.8700	  530.00	  570.09	-1783.84	  451.76
     13.9700	  539.00	  569.90	-1774.65	  451.63
     14.0700	  596.00	  569.71	-1717.46	  451.50
     14.1700	  557.00	  569.53	-1756.28	  451.36
     14.2700	  540.00	  569.34	-1773.09	  451.22
     14.3700	  527.00	  569.16	-1785.91	  451.07
     14.4700	  538.00	  568.98	-1774.73	  450.92
     14.5700	  587.00	  568.80	-1725.55	  450.77
     14.6700	  631.00	  568.62	-1681.37	  450.62
     14.7700	  534.00	  568.44	-1778.19	  450.45
     14.8700	  584.00	  568.26	-1728.01	  450.29
     14.9700	  526.00	  568.07	-1785.82	  450.12
     15.0700	  556.00	  567.89	-1755.64	  449.95
     15.1700	  512.00	  567.70	-1799.45	  449.78
     15.2700	  595.00	  567.51	-1716.26	  449.60
     15.3700	  599.00	  567.31	-1712.06	  449.42
     15.4700	  547.00	  567.12	-1763.87	  449.23
     15.5700	  568.00	  566.92	-1742.67	  449.04
     15.6700	  530.00	  566.72	-1780.47	  448.85
     15.7700	  579.00	  566.52	-1731.27	  448.66
     15.8700	  551.00	  566.31	-1759.06	  448.46
     15.9700	  536.00	  566.10	-1773.85	  448.26
     16.0700	  629.00	  565.89	-1680.64	  448.05
     16.1700	  530.00	  565.68	-1779.43	  447.85
     16.2700	  558.00	  565.47	-1751.22	  447.64
     16.3700	  599.00	  565.27	-1710.02	  447.42
     16.4700	  589.00	  565.05	-1719.80	  447.21
     16.5700	  566.00	  564.83	-1742.58	  446.99
     16.6700	  578.00	  564.60	-1730.35	  446.77
     16.7700	  609.00	  564.37	-1699.12	  446.54
     16.8700	  545.00	  564.14	-1762.89	  446.31
     16.9700	  540.00	  563.91	-1767.66	  446.08
     17.0700	  570.00	  563.68	-1737.43	  445.85
     17.1700	  574.00	  563.44	-1733.19	  445.61
     17.2700	  557.00	  563.20	-1749.95	  445.38
     17.3700	  517.00	  562.96	-1789.71	  445.13
     17.4700	  539.00	  562.71	-1767.46	  444.89
     17.5700	  520.00	  562.46	-1786.21	  444.65
     17.6700	  557.00	  562.21	-1748.96	  444.40
     17.7700	  565.00	  561.96	-1740.71	  444.15
     17.8700	  552.00	  561.71	-1753.46	  443.89
     17.9700	  578.00	  561.56	-1727.31	  443.64
     18.0700	  538.00	  561.30	-1767.05	  443.38
     18.1700	  560.00	  561.04	-1744.79	  443.12
     18.2700	  528.00	  560.78	-1776.53	  442.86
     18.3700	  575.00	  560.52	-1729.27	  442.59
     18.4700	  606.00	  560.26	-1698.01	  442.33
     18.5700	  552.00	  559.99	-1751.74	  442.06
     18.6700	  628.00	  559.72	-1675.47	  441.79
     18.7700	  608.00	  559.45	-1695.20	  441.52
     18.8700	  574.00	  559.18	-1728.93	  441.24
     18.9700	  604.00	  559.00	-1698.75	  440.97
     19.0700	  520.00	  558.72	-1782.47	  440.69
     19.1700	  542.00	  558.45	-1760.20	  440.41
     19.2700	  594.00	  558.17	-1707.92	  440.13
     19.3700	  540.00	  557.89	-1761.64	  439.84
     19.4700	  568.00	  557.62	-1733.37	  439.56
     19.5700	  559.00	  557.34	-1742.09	  439.27
     19.6700	  509.00	  557.05	-1791.80	  438.98
     19.7700	  525.00	  556.77	-1775.52	  438.69
     19.8700	  564.00	  556.49	-1736.24	  438.40
     19.9700	  550.00	  556.20	-1749.95	  438.10
     20.0700	  519.00	  555.92	-1780.67	  437.81
     20.1700	  560.00	  555.63	-1739.38	  437.51
     20.2700	  552.00	  555.34	-1747.09	  437.21
     20.3700	  479.00	  555.05	-1819.80	  436.91
     20.4700	  544.00	  554.73	-1754.48	  436.61
     20.5700	  568.00	  554.44	-1730.19	  436.31
     20.6700	  514.00	  554.15	-1783.90	  436.01
     20.7700	  548.00	  553.86	-1749.61	  435.70
     20.8700	  552.00	  553.57	-1745.32	  435.40
     20.9700	  574.00	  553.31	-1723.06	  435.09
     21.0700	  570.00	  553.02	-1726.77	  434.78
     21.1700	  569.00	  552.73	-1727.48	  434.47
     21.2700	  541.00	  552.44	-1755.19	  434.16
     21.3700	  533.00	  552.15	-1762.90	  433.85
     21.4700	  510.00	  551.85	-1785.60	  433.53
     21.5700	  594.00	  551.56	-1701.31	  433.22
     21.6700	  528.00	  551.27	-1767.02	  432.90
     21.7700	  549.00	  550.98	-1745.73	  432.59
     21.8700	  528.00	  550.69	-1766.44	  432.27
     21.9700	  566.00	  550.40	-1728.15	  431.95
     22.0700	  535.00	  550.12	-1758.87	  431.63
     22.1700	  540.00	  549.83	-1753.58	  431.31
     22.2700	  524.00	  549.55	-1769.30	  430.99
     22.3700	  567.00	  549.27	-1726.02	  430.67
     22.4700	  561.00	  548.99	-1731.74	  430.35
     22.5700	  547.00	  548.72	-1745.47	  430.03
     22.6700	  572.00	  548.45	-1720.20	  429.70
     22.7700	  546.00	  548.19	-1745.94	  429.38
     22.8700	  545.00	  547.93	-1746.68	  429.05
     22.9700	  553.00	  547.69	-1738.44	  428.73
     23.0700	  550.00	  547.45	-1741.20	  428.40
     23.1700	  554.00	  547.23	-1736.98	  428.08
     23.2700	  570.00	  547.03	-1720.78	  427.75
     23.3700	  510.00	  546.85	-1780.60	  427.42
     23.4700	  613.00	  546.69	-1677.44	  427.09
     23.5700	  578.00	  546.58	-1712.33	  426.76
     23.6700	  558.00	  546.53	-1732.28	  426.44
     23.7700	  577.00	  546.58	-1713.33	  426.11
     23.8700	  564.00	  546.96	-1726.71	  425.78
     23.9700	  562.00	  547.60	-1729.35	  425.45
     24.0700	  544.00	  549.07	-1748.82	  425.12
     24.1700	  542.00	  552.01	-1753.76	  424.78
     24.2700	  556.00	  557.23	-1744.98	  424.45
     24.3700	  577.00	  565.69	-1732.44	  424.12
     24.4700	  608.00	  578.43	-1714.18	  423.79
     24.5700	  593.00	  595.86	-1746.61	  423.46
     24.6700	  632.00	  615.26	-1727.01	  423.13
     24.7700	  630.00	  628.62	-1742.37	  422.80
     24.8700	  611.00	  625.23	-1757.98	  422.46
     24.9700	  579.00	  604.07	-1768.82	  422.13
     25.0700	  630.00	  578.97	-1692.72	  421.80
     25.1700	  564.00	  560.65	-1740.40	  421.47
     25.2700	  600.00	  550.67	-1694.42	  421.14
     25.3700	  513.00	  546.16	-1776.91	  420.80
     25.4700	  527.00	  544.17	-1760.92	  420.47
     25.5700	  517.00	  543.10	-1769.85	  420.14
     25.6700	  557.00	  542.40	-1729.15	  419.81
     25.7700	  559.00	  541.88	-1726.63	  419.48
     25.8700	  567.00	  541.48	-1718.23	  419.15
     25.9700	  573.00	  541.18	-1711.93	  418.81
     26.0700	  585.00	  540.96	-1699.71	  418.48
     26.1700	  544.00	  540.81	-1740.56	  418.15
     26.2700	  562.00	  540.74	-1722.49	  417.82
     26.3700	  528.00	  540.73	-1756.48	  417.49
     26.4700	  544.00	  540.82	-1740.57	  417.16
     26.5700	  563.00	  540.99	-1721.74	  416.83
     26.6700	  512.00	  541.28	-1773.03	  416.50
     26.7700	  567.00	  541.70	-1718.45	  416.17
     26.8700	  592.00	  542.30	-1694.05	  415.84
     26.9700	  564.00	  543.12	-1722.87	  415.52
     27.0700	  561.00	  544.25	-1727.00	  415.19
     27.1700	  600.00	  545.81	-1689.56	  414.86
     27.2700	  560.00	  548.05	-1731.80	  414.53
     27.3700	  565.00	  551.49	-1730.24	  414.21
     27.4700	  558.00	  557.09	-1742.84	  413.88
     27.5700	  569.00	  566.61	-1741.36	  413.56
     27.6700	  591.00	  582.78	-1735.53	  413.23
     27.7700	  547.00	  609.13	-1805.88	  412.91
     27.8700	  627.00	  648.73	-1765.48	  412.58
     27.9700	  684.00	  701.65	-1761.40	  412.26
     28.0700	  793.00	  761.85	-1712.60	  411.94
     28.1700	  907.00	  814.37	-1651.12	  411.61
     28.2700	  881.00	  836.79	-1699.54	  411.29
     28.3700	  890.00	  815.99	-1669.74	  410.97
     28.4700	  782.00	  773.35	-1735.10	  410.65
     28.5700	  723.00	  744.13	-1764.88	  410.33
     28.6700	  739.00	  744.45	-1749.20	  410.02
     28.7700	  695.00	  769.53	-1818.28	  409.70
     28.8700	  796.00	  799.05	-1746.80	  409.38
     28.9700	  827.00	  804.23	-1720.98	  409.06
     29.0700	  767.00	  766.69	-1743.44	  408.75
     29.1700	  727.00	  702.45	-1719.20	  408.44
     29.2700	  630.00	  641.14	-1754.89	  408.12
     29.3700	  620.00	  596.94	-1720.69	  407.81
     29.4700	  616.00	  570.27	-1698.02	  407.50
     29.5700	  606.00	  555.90	-1693.65	  407.19
     29.6700	  604.00	  548.34	-1688.09	  406.88
     29.7700	  557.00	  544.07	-1730.82	  406.57
     29.8700	  550.00	  541.42	-1735.17	  406.26
     29.9700	  538.00	  539.75	-1745.50	  405.95
     30.0700	  571.00	  538.92	-1711.67	  405.64
     30.1700	  581.00	  539.09	-1701.84	  405.34
     30.2700	  554.00	  540.84	-1730.59	  405.04
     30.3700	  562.00	  545.31	-1727.06	  404.73
     30.4700	  535.00	  554.23	-1762.98	  404.43
     30.5700	  542.00	  569.44	-1771.19	  404.13
     30.6700	  595.00	  591.51	-1740.26	  403.83
     30.7700	  607.00	  617.74	-1754.49	  403.53
     30.8700	  609.00	  640.67	-1775.42	  403.23
     30.9700	  619.00	  648.85	-1773.60	  402.94
     31.0700	  623.00	  634.41	-1755.16	  402.64
     31.1700	  558.00	  605.00	-1790.75	  402.35
     31.2700	  545.00	  575.49	-1774.24	  402.05
     31.3700	  585.00	  553.78	-1712.53	  401.76
     31.4700	  505.00	  540.66	-1779.41	  401.47
     31.5700	  566.00	  533.70	-1711.45	  401.18
     31.6700	  567.00	  530.15	-1706.90	  400.89
     31.7700	  545.00	  528.18	-1726.93	  400.60
     31.8700	  565.00	  526.94	-1705.69	  400.32
     31.9700	  542.00	  526.06	-1727.81	  400.03
     32.0700	  507.00	  525.44	-1762.19	  399.75
     32.1700	  574.00	  525.00	-1694.75	  399.47
     32.2700	  539.00	  524.72	-1729.47	  399.19
     32.3700	  505.00	  524.59	-1763.34	  398.91
     32.4700	  556.00	  524.62	-1712.37	  398.63
     32.5700	  548.00	  524.81	-1720.56	  398.35
     32.6700	  566.00	  525.20	-1702.95	  398.08
     32.7700	  568.00	  525.83	-1701.58	  397.80
     32.8700	  530.00	  526.76	-1740.51	  397.53
     32.9700	  538.00	  528.10	-1733.85	  397.26
     33.0700	  566.00	  530.06	-1707.81	  396.99
     33.1700	  531.00	  533.09	-1745.84	  396.72
     33.2700	  502.00	  538.21	-1779.96	  396.45
     33.3700	  560.00	  547.69	-1731.44	  396.19
     33.4700	  576.00	  565.91	-1733.66	  395.92
     33.5700	  594.00	  600.01	-1749.76	  395.66
     33.6700	  583.00	  658.28	-1819.03	  395.40
     33.7700	  787.00	  744.68	-1701.43	  395.14
     33.8700	  893.00	  850.00	-1700.75	  394.88
     33.9700	 1050.00	  945.87	-1639.62	  394.62
     34.0700	 1075.00	  988.44	-1657.19	  394.37
     34.1700	 1021.00	  945.34	-1668.09	  394.11
     34.2700	  917.00	  838.97	-1665.72	  393.86
     34.3700	  739.00	  724.77	-1729.52	  393.61
     34.4700	  642.00	  636.83	-1738.58	  393.36
     34.5700	  535.00	  582.05	-1790.80	  393.11
     34.6700	  571.00	  552.75	-1725.50	  392.87
     34.7700	  538.00	  538.21	-1743.96	  392.62
     34.8700	  566.00	  530.69	-1708.44	  392.38
     34.9700	  568.00	  526.21	-1701.96	  392.14
     35.0700	  538.00	  523.10	-1728.85	  391.90
     35.1700	  517.00	  520.76	-1747.51	  391.66
     35.2700	  552.00	  518.90	-1710.65	  391.42
     35.3700	  467.00	  517.40	-1794.15	  391.19
     35.4700	  482.00	  516.14	-1777.89	  390.96
     35.5700	  509.00	  515.07	-1749.82	  390.72
     35.6700	  499.00	  514.16	-1758.91	  390.49
     35.7700	  524.00	  513.36	-1733.11	  390.27
     35.8700	  517.00	  512.65	-1739.40	  390.04
     35.9700	  523.00	  512.51	-1733.26	  389.81
     36.0700	  516.00	  511.95	-1739.70	  389.59
     36.1700	  516.00	  511.45	-1739.20	  389.37
     36.2700	  477.00	  511.00	-1777.75	  389.15
     36.3700	  496.00	  510.58	-1758.33	  388.93
     36.4700	  505.00	  510.21	-1748.96	  388.71
     36.5700	  505.00	  509.87	-1748.62	  388.50
     36.6700	  500.00	  509.58	-1753.33	  388.29
     36.7700	  550.00	  509.32	-1703.07	  388.08
     36.8700	  515.00	  509.14	-1737.89	  387.87
     36.9700	  536.00	  509.07	-1716.82	  387.66
     37.0700	  537.00	  509.25	-1716.00	  387.45
     37.1700	  488.00	  509.92	-1765.67	  387.25
     37.2700	  541.00	  511.47	-1714.22	  387.04
     37.3700	  520.00	  514.28	-1738.03	  386.84
     37.4700	  498.00	  518.40	-1764.15	  386.64
     37.5700	  498.00	  523.15	-1768.90	  386.45
     37.6700	  516.00	  527.05	-1754.80	  386.25
     37.7700	  492.00	  528.42	-1780.17	  386.06
     37.8700	  492.00	  526.84	-1778.59	  385.87
     37.9700	  500.00	  523.60	-1767.35	  385.68
     38.0700	  522.00	  519.81	-1741.56	  385.49
     38.1700	  496.00	  515.87	-1763.62	  385.30
     38.2700	  514.00	  512.24	-1741.99	  385.12
     38.3700	  518.00	  509.35	-1735.10	  384.93
     38.4700	  495.00	  507.32	-1756.07	  384.75
     38.5700	  504.00	  506.01	-1745.76	  384.57
     38.6700	  482.00	  505.22	-1766.97	  384.40
     38.7700	  536.00	  504.62	-1712.37	  384.22
     38.8700	  513.00	  504.27	-1735.02	  384.05
     38.9700	  484.00	  503.98	-1763.73	  383.87
     39.0700	  510.00	  503.74	-1737.49	  383.70
     39.1700	  537.00	  503.44	-1710.19	  383.54
     39.2700	  497.00	  503.24	-1749.99	  383.37
     39.3700	  482.00	  503.06	-1764.81	  383.20
     39.4700	  519.00	  502.88	-1727.63	  383.04
     39.5700	  498.00	  502.72	-1748.47	  382.88
     39.6700	  489.00	  502.57	-1757.32	  382.72
     39.7700	  502.00	  502.55	-1744.30	  382.56
     39.8700	  489.00	  502.42	-1757.17	  382.41
     39.9700	  487.00	  502.30	-1759.05	  382.26
     40.0700	  485.00	  502.19	-1760.94	  382.10
     40.1700	  517.00	  502.09	-1728.84	  381.95
     40.2700	  476.00	  502.00	-1769.75	  381.81
     40.3700	  522.00	  501.92	-1723.68	  381.66
     40.4700	  475.00	  501.86	-1770.61	  381.52
     40.5700	  494.00	  501.81	-1751.56	  381.37
     40.6700	  463.00	  501.77	-1782.52	  381.23
     40.7700	  483.00	  501.76	-1762.51	  381.10
