MSG Master    CELL:    5.90215   5.90215  23.17857   90.0000   90.0000  120.0000   SPGR: P 63/m m c             TEMP:    806.55
  1   1280     2.52000     0.00000    -0.12830     0.00000     0.00000    0
    98     0     2
       0.00000      10.00000
     125.00000     130.00000
 2Theta	Yobs	Ycal	Yobs-Ycal	Backg	Posr	(hkl)	K
      0.7700	    0.00	  454.47	-1770.75	  349.50
      0.8700	    0.00	  456.60	-1770.75	  351.63
      0.9700	   41.00	  458.70	-1770.75	  353.73
      1.0700	   51.00	  460.78	-1770.75	  355.81
      1.1700	   53.00	  462.84	-1770.75	  357.87
      1.2700	   50.00	  464.88	-1770.75	  359.91
      1.3700	   40.00	  466.89	-1770.75	  361.92
      1.4700	   89.00	  468.89	-1770.75	  363.92
      1.5700	  276.00	  470.86	-1770.75	  365.89
      1.6700	  485.00	  472.81	-1770.75	  367.84
      1.7700	  569.00	  474.74	-1770.75	  369.77
      1.8700	  655.00	  476.65	-1770.75	  371.68
      1.9700	  712.00	  478.53	-1770.75	  373.56
      2.0700	  780.00	  480.40	-1770.75	  375.43
      2.1700	  826.00	  482.25	-1770.75	  377.28
      2.2700	  776.00	  484.07	-1770.75	  379.10
      2.3700	  661.00	  485.88	-1770.75	  380.91
      2.4700	  678.00	  487.66	-1770.75	  382.69
      2.5700	  689.00	  489.42	-1770.75	  384.45
      2.6700	  684.00	  491.17	-1770.75	  386.20
      2.7700	  661.00	  492.89	-1770.75	  387.92
      2.8700	  627.00	  494.60	-1770.75	  389.63
      2.9700	  649.00	  496.28	-1770.75	  391.31
      3.0700	  595.00	  497.94	-1770.75	  392.97
      3.1700	  596.00	  499.59	-1770.75	  394.62
      3.2700	  697.00	  501.21	-1770.75	  396.25
      3.3700	  805.00	  502.82	-1770.75	  397.85
      3.4700	  927.00	  504.41	-1770.75	  399.44
      3.5700	 1067.00	  505.98	-1770.75	  401.01
      3.6700	 1164.00	  507.53	-1770.75	  402.56
      3.7700	 1182.00	  509.06	-1770.75	  404.09
      3.8700	 1324.00	  510.57	-1770.75	  405.60
      3.9700	 1391.00	  512.06	-1770.75	  407.09
      4.0700	 1433.00	  513.54	-1770.75	  408.57
      4.1700	 1409.00	  514.99	-1770.75	  410.03
      4.2700	 1370.00	  516.43	-1770.75	  411.46
      4.3700	 1462.00	  517.85	-1770.75	  412.88
      4.4700	 1359.00	  519.26	-1770.75	  414.29
      4.5700	 1312.00	  520.64	-1770.75	  415.67
      4.6700	 1230.00	  522.01	-1770.75	  417.04
      4.7700	 1218.00	  523.36	-1770.75	  418.39
      4.8700	 1237.00	  524.69	-1770.75	  419.72
      4.9700	 1148.00	  526.00	-1770.75	  421.04
      5.0700	 1165.00	  527.30	-1770.75	  422.33
      5.1700	 1064.00	  528.58	-1770.75	  423.61
      5.2700	 1001.00	  529.85	-1770.75	  424.88
      5.3700	 1070.00	  531.09	-1770.75	  426.12
      5.4700	 1059.00	  532.32	-1770.75	  427.35
      5.5700	  989.00	  533.53	-1770.75	  428.56
      5.6700	  997.00	  534.73	-1770.75	  429.76
      5.7700	  952.00	  535.91	-1770.75	  430.94
      5.8700	  974.00	  537.07	-1770.75	  432.10
      5.9700	  895.00	  538.22	-1770.75	  433.25
      6.0700	  919.00	  539.35	-1770.75	  434.38
      6.1700	  857.00	  540.47	-1770.75	  435.50
      6.2700	  860.00	  541.57	-1770.75	  436.60
      6.3700	  882.00	  542.65	-1770.75	  437.68
      6.4700	  807.00	  543.72	-1770.75	  438.75
      6.5700	  866.00	  544.77	-1770.75	  439.80
      6.6700	  833.00	  545.81	-1770.75	  440.84
      6.7700	  825.00	  546.83	-1770.75	  441.86
      6.8700	  801.00	  547.83	-1770.75	  442.86
      6.9700	  786.00	  548.82	-1770.75	  443.85
      7.0700	  740.00	  549.80	-1770.75	  444.83
      7.1700	  732.00	  550.76	-1770.75	  445.79
      7.2700	  767.00	  551.71	-1770.75	  446.74
      7.3700	  741.00	  552.64	-1770.75	  447.67
      7.4700	  722.00	  553.55	-1770.75	  448.58
      7.5700	  747.00	  554.46	-1770.75	  449.49
      7.6700	  733.00	  555.34	-1770.75	  450.37
      7.7700	  696.00	  556.22	-1770.75	  451.25
      7.8700	  688.00	  557.08	-1770.75	  452.11
      7.9700	  726.00	  557.92	-1770.75	  452.95
      8.0700	  643.00	  558.75	-1770.75	  453.78
      8.1700	  672.00	  559.57	-1770.75	  454.60
      8.2700	  644.00	  560.37	-1770.75	  455.40
      8.3700	  704.00	  561.16	-1770.75	  456.19
      8.4700	  678.00	  561.94	-1770.75	  456.97
      8.5700	  683.00	  562.70	-1770.75	  457.73
      8.6700	  644.00	  563.45	-1770.75	  458.48
      8.7700	  658.00	  564.18	-1770.75	  459.21
      8.8700	  664.00	  564.91	-1770.75	  459.94
      8.9700	  628.00	  565.62	-1770.75	  460.65
      9.0700	  615.00	  566.31	-1770.75	  461.34
      9.1700	  622.00	  567.00	-1770.75	  462.03
      9.2700	  592.00	  567.67	-1770.75	  462.70
      9.3700	  614.00	  568.32	-1770.75	  463.35
      9.4700	  664.00	  568.97	-1770.75	  464.00
      9.5700	  630.00	  569.60	-1770.75	  464.63
      9.6700	  663.00	  570.22	-1770.75	  465.25
      9.7700	  596.00	  570.83	-1770.75	  465.86
      9.8700	  605.00	  571.43	-1770.75	  466.46
      9.9700	  633.00	  572.01	-1770.75	  467.04
     10.0700	  630.00	  575.39	-1716.14	  467.61
     10.1700	  586.00	  576.13	-1760.88	  468.17
     10.2700	  669.00	  576.91	-1678.66	  468.72
     10.3700	  611.00	  577.73	-1737.48	  469.25
     10.4700	  576.00	  578.63	-1773.38	  469.78
     10.5700	  636.00	  579.65	-1714.40	  470.29
     10.6700	  580.00	  580.87	-1771.62	  470.79
     10.7700	  617.00	  582.37	-1736.12	  471.28
     10.8700	  602.00	  584.22	-1752.97	  471.76
     10.9700	  626.00	  586.47	-1731.22	  472.23
     11.0700	  605.00	  589.13	-1754.88	  472.68
     11.1700	  605.00	  592.21	-1757.96	  473.13
     11.2700	  585.00	  595.73	-1781.48	  473.56
     11.3700	  610.00	  599.75	-1760.50	  473.99
     11.4700	  620.00	  604.41	-1755.16	  474.40
     11.5700	  622.00	  609.88	-1758.63	  474.80
     11.6700	  649.00	  616.43	-1738.18	  475.19
     11.7700	  613.00	  624.39	-1782.14	  475.57
     11.8700	  675.00	  634.06	-1729.81	  475.94
     11.9700	  631.00	  645.23	-1784.98	  476.30
     12.0700	  718.00	  656.72	-1709.47	  476.65
     12.1700	  714.00	  665.62	-1722.37	  476.99
     12.2700	  717.00	  667.23	-1720.98	  477.32
     12.3700	  702.00	  657.87	-1726.62	  477.64
     12.4700	  660.00	  640.81	-1751.56	  477.95
     12.5700	  615.00	  623.67	-1779.42	  478.25
     12.6700	  634.00	  610.63	-1747.38	  478.54
     12.7700	  558.00	  602.09	-1814.84	  478.82
     12.8700	  615.00	  597.01	-1752.76	  479.09
     12.9700	  557.00	  594.11	-1807.86	  479.35
     13.0700	  593.00	  592.44	-1770.19	  479.60
     13.1700	  585.00	  591.41	-1777.16	  479.85
     13.2700	  586.00	  590.74	-1775.49	  480.08
     13.3700	  599.00	  590.28	-1762.03	  480.30
     13.4700	  538.00	  589.96	-1822.71	  480.52
     13.5700	  599.00	  589.78	-1761.53	  480.73
     13.6700	  572.00	  589.63	-1788.38	  480.92
     13.7700	  601.00	  589.54	-1759.29	  481.11
     13.8700	  572.00	  589.49	-1788.24	  481.29
     13.9700	  614.00	  589.46	-1746.21	  481.46
     14.0700	  572.00	  589.46	-1788.21	  481.62
     14.1700	  585.00	  589.47	-1775.22	  481.78
     14.2700	  583.00	  589.50	-1777.25	  481.92
     14.3700	  550.00	  589.53	-1810.28	  482.06
     14.4700	  551.00	  589.57	-1809.32	  482.19
     14.5700	  555.00	  589.61	-1805.36	  482.31
     14.6700	  574.00	  589.65	-1786.40	  482.42
     14.7700	  561.00	  589.69	-1799.44	  482.53
     14.8700	  593.00	  589.73	-1767.48	  482.62
     14.9700	  575.00	  589.77	-1785.52	  482.71
     15.0700	  557.00	  589.81	-1803.56	  482.79
     15.1700	  568.00	  589.84	-1792.59	  482.87
     15.2700	  566.00	  589.87	-1794.62	  482.93
     15.3700	  582.00	  589.90	-1778.65	  482.99
     15.4700	  591.00	  589.92	-1769.67	  483.04
     15.5700	  567.00	  589.94	-1793.69	  483.08
     15.6700	  559.00	  589.95	-1801.70	  483.12
     15.7700	  567.00	  589.96	-1793.71	  483.14
     15.8700	  580.00	  589.96	-1780.71	  483.17
     15.9700	  574.00	  589.95	-1786.70	  483.18
     16.0700	  534.00	  589.94	-1826.69	  483.19
     16.1700	  546.00	  589.93	-1814.68	  483.19
     16.2700	  615.00	  589.91	-1745.66	  483.18
     16.3700	  533.00	  589.88	-1827.63	  483.16
     16.4700	  593.00	  589.85	-1767.60	  483.14
     16.5700	  620.00	  589.81	-1740.56	  483.12
     16.6700	  538.00	  589.77	-1822.52	  483.08
     16.7700	  614.00	  589.72	-1746.47	  483.04
     16.8700	  571.00	  589.66	-1789.41	  482.99
     16.9700	  551.00	  589.60	-1809.35	  482.94
     17.0700	  638.00	  589.54	-1722.29	  482.88
     17.1700	  573.00	  589.47	-1787.22	  482.81
     17.2700	  589.00	  589.39	-1771.14	  482.74
     17.3700	  542.00	  589.42	-1818.17	  482.66
     17.4700	  552.00	  589.33	-1808.08	  482.58
     17.5700	  562.00	  589.24	-1797.99	  482.49
     17.6700	  538.00	  589.14	-1821.89	  482.39
     17.7700	  588.00	  589.03	-1771.78	  482.29
     17.8700	  558.00	  589.04	-1801.79	  482.18
     17.9700	  557.00	  588.93	-1802.68	  482.06
     18.0700	  543.00	  588.81	-1816.56	  481.94
     18.1700	  564.00	  588.69	-1795.44	  481.82
     18.2700	  578.00	  588.56	-1781.31	  481.69
     18.3700	  557.00	  588.43	-1802.18	  481.55
     18.4700	  581.00	  588.29	-1778.04	  481.41
     18.5700	  594.00	  588.15	-1764.90	  481.26
     18.6700	  593.00	  588.00	-1765.75	  481.11
     18.7700	  568.00	  587.85	-1790.60	  480.95
     18.8700	  587.00	  587.70	-1771.45	  480.78
     18.9700	  618.00	  587.53	-1740.28	  480.61
     19.0700	  569.00	  587.37	-1789.12	  480.44
     19.1700	  532.00	  587.20	-1825.95	  480.26
     19.2700	  599.00	  587.03	-1758.78	  480.08
     19.3700	  545.00	  586.85	-1812.60	  479.89
     19.4700	  549.00	  586.70	-1808.45	  479.70
     19.5700	  575.00	  586.52	-1782.27	  479.50
     19.6700	  566.00	  586.33	-1791.08	  479.30
     19.7700	  590.00	  586.13	-1766.88	  479.09
     19.8700	  563.00	  585.94	-1793.69	  478.88
     19.9700	  576.00	  585.73	-1780.48	  478.66
     20.0700	  562.00	  585.53	-1794.28	  478.44
     20.1700	  563.00	  585.32	-1793.07	  478.21
     20.2700	  575.00	  585.11	-1780.86	  477.99
     20.3700	  554.00	  584.89	-1801.64	  477.75
     20.4700	  576.00	  584.67	-1779.42	  477.51
     20.5700	  557.00	  584.45	-1798.20	  477.27
     20.6700	  596.00	  584.23	-1758.98	  477.02
     20.7700	  561.00	  584.00	-1793.75	  476.77
     20.8700	  598.00	  583.77	-1756.52	  476.52
     20.9700	  541.00	  583.54	-1813.29	  476.26
     21.0700	  606.00	  583.30	-1748.05	  476.00
     21.1700	  580.00	  583.06	-1773.81	  475.73
     21.2700	  572.00	  582.83	-1781.58	  475.46
     21.3700	  593.00	  582.58	-1760.33	  475.19
     21.4700	  542.00	  582.34	-1811.09	  474.91
     21.5700	  568.00	  582.10	-1784.85	  474.63
     21.6700	  606.00	  581.85	-1746.60	  474.35
     21.7700	  519.00	  581.61	-1833.36	  474.06
     21.8700	  562.00	  581.37	-1790.12	  473.77
     21.9700	  578.00	  581.12	-1773.87	  473.47
     22.0700	  571.00	  581.03	-1780.78	  473.17
     22.1700	  606.00	  580.80	-1745.55	  472.87
     22.2700	  600.00	  580.56	-1751.31	  472.57
     22.3700	  560.00	  580.32	-1791.07	  472.26
     22.4700	  564.00	  580.09	-1786.84	  471.95
     22.5700	  567.00	  579.87	-1783.62	  471.64
     22.6700	  580.00	  579.65	-1770.40	  471.32
     22.7700	  577.00	  579.44	-1773.19	  471.00
     22.8700	  588.00	  579.24	-1761.99	  470.68
     22.9700	  583.00	  579.05	-1766.80	  470.35
     23.0700	  579.00	  578.89	-1770.64	  470.02
     23.1700	  562.00	  578.74	-1787.49	  469.69
     23.2700	  553.00	  578.62	-1796.37	  469.36
     23.3700	  578.00	  578.49	-1771.24	  469.02
     23.4700	  585.00	  578.45	-1764.20	  468.68
     23.5700	  558.00	  578.47	-1791.22	  468.34
     23.6700	  568.00	  578.58	-1781.33	  467.99
     23.7700	  568.00	  578.81	-1781.56	  467.65
     23.8700	  601.00	  579.25	-1749.00	  467.30
     23.9700	  582.00	  580.01	-1768.76	  466.95
     24.0700	  569.00	  581.32	-1783.07	  466.59
     24.1700	  600.00	  583.52	-1754.27	  466.23
     24.2700	  561.00	  587.07	-1796.82	  465.88
     24.3700	  584.00	  592.49	-1779.24	  465.51
     24.4700	  604.00	  600.17	-1766.92	  465.15
     24.5700	  637.00	  610.12	-1743.87	  464.79
     24.6700	  663.00	  621.55	-1729.30	  464.42
     24.7700	  661.00	  632.35	-1742.10	  464.05
     24.8700	  694.00	  638.76	-1715.51	  463.68
     24.9700	  651.00	  636.50	-1756.25	  463.31
     25.0700	  666.00	  625.34	-1730.09	  462.93
     25.1700	  626.00	  610.81	-1755.56	  462.55
     25.2700	  612.00	  598.01	-1756.76	  462.17
     25.3700	  595.00	  588.70	-1764.45	  461.79
     25.4700	  577.00	  582.65	-1776.40	  461.41
     25.5700	  608.00	  578.94	-1741.69	  461.03
     25.6700	  612.00	  576.70	-1735.45	  460.64
     25.7700	  603.00	  575.26	-1743.01	  460.26
     25.8700	  584.00	  574.28	-1761.03	  459.87
     25.9700	  618.00	  573.57	-1726.32	  459.48
     26.0700	  590.00	  573.04	-1753.79	  459.09
     26.1700	  639.00	  572.66	-1704.41	  458.69
     26.2700	  604.00	  572.40	-1739.15	  458.30
     26.3700	  607.00	  572.26	-1736.01	  457.90
     26.4700	  609.00	  572.24	-1733.99	  457.50
     26.5700	  619.00	  572.33	-1724.08	  457.11
     26.6700	  605.00	  572.56	-1738.31	  456.71
     26.7700	  640.00	  572.95	-1703.70	  456.31
     26.8700	  574.00	  573.52	-1770.27	  455.90
     26.9700	  643.00	  574.33	-1702.08	  455.50
     27.0700	  594.00	  575.45	-1752.20	  455.10
     27.1700	  630.00	  576.97	-1717.72	  454.69
     27.2700	  630.00	  579.09	-1719.84	  454.29
     27.3700	  613.00	  582.14	-1739.89	  453.88
     27.4700	  601.00	  586.79	-1756.54	  453.47
     27.5700	  601.00	  594.21	-1763.96	  453.06
     27.6700	  623.00	  606.37	-1754.12	  452.65
     27.7700	  648.00	  626.12	-1748.87	  452.24
     27.8700	  633.00	  656.67	-1794.42	  451.83
     27.9700	  667.00	  700.06	-1803.81	  451.42
     28.0700	  764.00	  754.79	-1761.54	  451.01
     28.1700	  878.00	  813.45	-1706.20	  450.59
     28.2700	  914.00	  860.94	-1717.69	  450.18
     28.3700	  943.00	  877.49	-1705.24	  449.77
     28.4700	  956.00	  856.86	-1671.61	  449.35
     28.5700	  871.00	  822.98	-1722.73	  448.93
     28.6700	  758.00	  804.79	-1817.54	  448.52
     28.7700	  788.00	  812.31	-1795.06	  448.10
     28.8700	  830.00	  838.02	-1778.77	  447.69
     28.9700	  839.00	  861.98	-1793.73	  447.27
     29.0700	  848.00	  858.69	-1781.44	  446.85
     29.1700	  856.00	  815.91	-1730.66	  446.43
     29.2700	  755.00	  751.32	-1767.07	  446.01
     29.3700	  738.00	  690.16	-1722.91	  445.60
     29.4700	  689.00	  644.05	-1725.80	  445.18
     29.5700	  662.00	  613.80	-1722.55	  444.76
     29.6700	  596.00	  595.66	-1770.41	  444.34
     29.7700	  670.00	  585.16	-1685.91	  443.92
     29.8700	  616.00	  578.94	-1733.69	  443.50
     29.9700	  656.00	  575.07	-1689.82	  443.08
     30.0700	  642.00	  572.67	-1701.42	  442.66
     30.1700	  635.00	  571.49	-1707.24	  442.24
     30.2700	  642.00	  571.65	-1700.40	  441.82
     30.3700	  639.00	  573.66	-1705.41	  441.40
     30.4700	  605.00	  578.42	-1744.17	  440.99
     30.5700	  598.00	  587.03	-1759.78	  440.57
     30.6700	  641.00	  600.29	-1730.04	  440.15
     30.7700	  659.00	  617.78	-1729.53	  439.73
     30.8700	  611.00	  636.91	-1796.66	  439.31
     30.9700	  683.00	  652.37	-1740.12	  438.89
     31.0700	  662.00	  656.78	-1765.53	  438.47
     31.1700	  653.00	  645.74	-1763.49	  438.06
     31.2700	  580.00	  624.33	-1815.08	  437.64
     31.3700	  590.00	  601.97	-1782.72	  437.22
     31.4700	  592.00	  584.03	-1762.78	  436.81
     31.5700	  618.00	  571.63	-1724.38	  436.39
     31.6700	  572.00	  563.87	-1762.62	  435.97
     31.7700	  616.00	  559.26	-1714.01	  435.56
     31.8700	  558.00	  556.49	-1769.24	  435.14
     31.9700	  584.00	  554.73	-1741.48	  434.73
     32.0700	  595.00	  553.55	-1729.30	  434.32
     32.1700	  569.00	  552.73	-1754.48	  433.90
     32.2700	  557.00	  552.19	-1765.94	  433.49
     32.3700	  607.00	  551.88	-1715.63	  433.08
     32.4700	  533.00	  551.81	-1789.56	  432.67
     32.5700	  566.00	  551.97	-1756.72	  432.26
     32.6700	  612.00	  552.38	-1711.13	  431.85
     32.7700	  625.00	  553.10	-1698.85	  431.44
     32.8700	  573.00	  554.18	-1751.93	  431.03
     32.9700	  576.00	  555.75	-1750.50	  430.62
     33.0700	  618.00	  558.01	-1710.76	  430.21
     33.1700	  641.00	  561.25	-1691.00	  429.81
     33.2700	  575.00	  566.17	-1761.92	  429.40
     33.3700	  573.00	  574.05	-1771.80	  429.00
     33.4700	  589.00	  587.15	-1768.90	  428.59
     33.5700	  587.00	  609.04	-1792.79	  428.19
     33.6700	  617.00	  644.26	-1798.01	  427.79
     33.7700	  698.00	  696.83	-1769.58	  427.39
     33.8700	  741.00	  766.86	-1796.61	  426.99
     33.9700	  916.00	  846.58	-1701.33	  426.59
     34.0700	  961.00	  917.67	-1727.42	  426.19
     34.1700	 1057.00	  952.73	-1666.48	  425.79
     34.2700	  956.00	  929.71	-1744.46	  425.40
     34.3700	  899.00	  857.81	-1729.56	  425.00
     34.4700	  769.00	  770.97	-1772.72	  424.61
     34.5700	  732.00	  694.89	-1733.65	  424.22
     34.6700	  612.00	  638.73	-1797.48	  423.82
     34.7700	  594.00	  601.72	-1778.47	  423.43
     34.8700	  602.00	  579.09	-1747.84	  423.04
     34.9700	  581.00	  565.59	-1755.34	  422.66
     35.0700	  580.00	  557.24	-1747.99	  422.27
     35.1700	  551.00	  551.65	-1771.40	  421.88
     35.2700	  511.00	  547.57	-1807.32	  421.50
     35.3700	  535.00	  544.40	-1780.15	  421.12
     35.4700	  525.00	  542.33	-1788.08	  420.74
     35.5700	  522.00	  540.21	-1788.96	  420.36
     35.6700	  514.00	  538.41	-1795.16	  419.98
     35.7700	  506.00	  536.87	-1801.62	  419.60
     35.8700	  549.00	  535.52	-1757.27	  419.22
     35.9700	  486.00	  534.34	-1819.09	  418.85
     36.0700	  480.00	  533.28	-1824.03	  418.47
     36.1700	  551.00	  532.34	-1752.09	  418.10
     36.2700	  509.00	  531.48	-1793.23	  417.73
     36.3700	  493.00	  530.70	-1808.45	  417.36
     36.4700	  510.00	  529.97	-1790.72	  416.99
     36.5700	  506.00	  529.32	-1794.07	  416.63
     36.6700	  538.00	  528.74	-1761.49	  416.26
     36.7700	  491.00	  528.22	-1807.97	  415.90
     36.8700	  506.00	  527.77	-1792.52	  415.54
     36.9700	  505.00	  527.42	-1793.17	  415.18
     37.0700	  569.00	  527.20	-1728.95	  414.82
     37.1700	  532.00	  527.21	-1765.96	  414.46
     37.2700	  520.00	  527.56	-1778.31	  414.10
     37.3700	  472.00	  528.58	-1827.33	  413.75
     37.4700	  516.00	  530.00	-1784.75	  413.40
     37.5700	  523.00	  532.00	-1779.75	  413.05
     37.6700	  504.00	  534.30	-1801.05	  412.70
     37.7700	  523.00	  536.32	-1784.07	  412.35
     37.8700	  551.00	  537.22	-1756.97	  412.00
     37.9700	  567.00	  536.37	-1740.12	  411.66
     38.0700	  544.00	  534.04	-1760.79	  411.32
     38.1700	  512.00	  531.09	-1789.84	  410.98
     38.2700	  512.00	  528.18	-1786.93	  410.64
     38.3700	  498.00	  525.64	-1798.39	  410.30
     38.4700	  477.00	  523.62	-1817.37	  409.96
     38.5700	  509.00	  522.10	-1783.85	  409.63
     38.6700	  531.00	  520.99	-1760.74	  409.30
     38.7700	  508.00	  520.15	-1782.90	  408.97
     38.8700	  529.00	  519.50	-1761.25	  408.64
     38.9700	  516.00	  518.96	-1773.71	  408.31
     39.0700	  509.00	  518.49	-1780.24	  407.99
     39.1700	  506.00	  518.07	-1782.82	  407.66
     39.2700	  499.00	  517.68	-1789.43	  407.34
     39.3700	  519.00	  517.31	-1769.06	  407.02
     39.4700	  544.00	  516.85	-1743.60	  406.70
     39.5700	  510.00	  516.52	-1777.27	  406.39
     39.6700	  507.00	  516.20	-1779.95	  406.07
     39.7700	  493.00	  515.90	-1793.65	  405.76
     39.8700	  561.00	  515.61	-1725.36	  405.45
     39.9700	  502.00	  515.33	-1784.08	  405.14
     40.0700	  529.00	  515.66	-1757.41	  404.84
     40.1700	  538.00	  515.41	-1748.16	  404.53
     40.2700	  557.00	  515.18	-1728.93	  404.23
     40.3700	  482.00	  514.86	-1803.61	  403.93
     40.4700	  471.00	  514.66	-1814.41	  403.63
     40.5700	  485.00	  514.48	-1800.23	  403.33
     40.6700	  465.00	  514.32	-1820.07	  403.04
     40.7700	  514.00	  514.19	-1770.94	  402.75
