MSG Master    CELL:    5.89533   5.89533  23.16668   90.0000   90.0000  120.0000   SPGR: P 63/m m c             TEMP:    718.25
  2   1280     2.52000     0.00000    -0.11441     0.00000     0.00000    0
    96    96     0     0     2
       0.00000      10.00000
     125.00000     130.00000
 2Theta	Yobs	Ycal	Yobs-Ycal	Backg	Posr	(hkl)	K
      0.7700	    0.00	  586.16	-1819.50	  472.18
      0.8700	    0.00	  587.21	-1819.50	  473.22
      0.9700	   67.00	  588.24	-1819.50	  474.26
      1.0700	   43.00	  589.26	-1819.50	  475.28
      1.1700	   39.00	  590.27	-1819.50	  476.29
      1.2700	   35.00	  591.26	-1819.50	  477.28
      1.3700	   49.00	  592.24	-1819.50	  478.26
      1.4700	   96.00	  593.21	-1819.50	  479.23
      1.5700	  280.00	  594.16	-1819.50	  480.18
      1.6700	  457.00	  595.10	-1819.50	  481.12
      1.7700	  591.00	  596.03	-1819.50	  482.05
      1.8700	  654.00	  596.94	-1819.50	  482.96
      1.9700	  680.00	  597.84	-1819.50	  483.86
      2.0700	  770.00	  598.73	-1819.50	  484.75
      2.1700	  822.00	  599.60	-1819.50	  485.62
      2.2700	  773.00	  600.47	-1819.50	  486.48
      2.3700	  790.00	  601.31	-1819.50	  487.33
      2.4700	  655.00	  602.15	-1819.50	  488.17
      2.5700	  704.00	  602.97	-1819.50	  488.99
      2.6700	  710.00	  603.78	-1819.50	  489.80
      2.7700	  619.00	  604.58	-1819.50	  490.60
      2.8700	  610.00	  605.37	-1819.50	  491.39
      2.9700	  627.00	  606.14	-1819.50	  492.16
      3.0700	  627.00	  606.91	-1819.50	  492.92
      3.1700	  623.00	  607.66	-1819.50	  493.67
      3.2700	  679.00	  608.39	-1819.50	  494.41
      3.3700	  843.00	  609.12	-1819.50	  495.14
      3.4700	 1018.00	  609.83	-1819.50	  495.85
      3.5700	 1085.00	  610.54	-1819.50	  496.55
      3.6700	 1244.00	  611.23	-1819.50	  497.24
      3.7700	 1362.00	  611.91	-1819.50	  497.92
      3.8700	 1438.00	  612.57	-1819.50	  498.59
      3.9700	 1481.00	  613.23	-1819.50	  499.25
      4.0700	 1541.00	  613.87	-1819.50	  499.89
      4.1700	 1572.00	  614.51	-1819.50	  500.53
      4.2700	 1557.00	  615.13	-1819.50	  501.15
      4.3700	 1645.00	  615.74	-1819.50	  501.76
      4.4700	 1435.00	  616.34	-1819.50	  502.36
      4.5700	 1447.00	  616.93	-1819.50	  502.95
      4.6700	 1474.00	  617.51	-1819.50	  503.53
      4.7700	 1390.00	  618.08	-1819.50	  504.09
      4.8700	 1223.00	  618.63	-1819.50	  504.65
      4.9700	 1286.00	  619.18	-1819.50	  505.20
      5.0700	 1249.00	  619.72	-1819.50	  505.73
      5.1700	 1158.00	  620.24	-1819.50	  506.26
      5.2700	 1191.00	  620.76	-1819.50	  506.77
      5.3700	 1159.00	  621.26	-1819.50	  507.28
      5.4700	 1162.00	  621.75	-1819.50	  507.77
      5.5700	 1098.00	  622.24	-1819.50	  508.26
      5.6700	 1064.00	  622.71	-1819.50	  508.73
      5.7700	 1030.00	  623.18	-1819.50	  509.19
      5.8700	 1031.00	  623.63	-1819.50	  509.65
      5.9700	  996.00	  624.07	-1819.50	  510.09
      6.0700	  968.00	  624.51	-1819.50	  510.52
      6.1700	  958.00	  624.93	-1819.50	  510.95
      6.2700	  966.00	  625.35	-1819.50	  511.36
      6.3700	  894.00	  625.75	-1819.50	  511.77
      6.4700	  931.00	  626.15	-1819.50	  512.16
      6.5700	  918.00	  626.53	-1819.50	  512.55
      6.6700	  864.00	  626.91	-1819.50	  512.93
      6.7700	  840.00	  627.28	-1819.50	  513.30
      6.8700	  861.00	  627.64	-1819.50	  513.65
      6.9700	  891.00	  627.98	-1819.50	  514.00
      7.0700	  794.00	  628.32	-1819.50	  514.34
      7.1700	  758.00	  628.66	-1819.50	  514.67
      7.2700	  810.00	  628.98	-1819.50	  515.00
      7.3700	  786.00	  629.29	-1819.50	  515.31
      7.4700	  772.00	  629.59	-1819.50	  515.61
      7.5700	  791.00	  629.89	-1819.50	  515.91
      7.6700	  766.00	  630.18	-1819.50	  516.19
      7.7700	  782.00	  630.46	-1819.50	  516.47
      7.8700	  784.00	  630.73	-1819.50	  516.74
      7.9700	  716.00	  630.99	-1819.50	  517.00
      8.0700	  772.00	  631.24	-1819.50	  517.26
      8.1700	  721.00	  631.48	-1819.50	  517.50
      8.2700	  780.00	  631.72	-1819.50	  517.74
      8.3700	  738.00	  631.95	-1819.50	  517.97
      8.4700	  713.00	  632.17	-1819.50	  518.19
      8.5700	  716.00	  632.38	-1819.50	  518.40
      8.6700	  693.00	  632.58	-1819.50	  518.60
      8.7700	  728.00	  632.78	-1819.50	  518.80
      8.8700	  688.00	  632.97	-1819.50	  518.98
      8.9700	  737.00	  633.15	-1819.50	  519.16
      9.0700	  720.00	  633.32	-1819.50	  519.34
      9.1700	  719.00	  633.48	-1819.50	  519.50
      9.2700	  695.00	  633.64	-1819.50	  519.66
      9.3700	  682.00	  633.79	-1819.50	  519.81
      9.4700	  683.00	  633.93	-1819.50	  519.95
      9.5700	  733.00	  634.07	-1819.50	  520.09
      9.6700	  678.00	  634.20	-1819.50	  520.21
      9.7700	  680.00	  634.32	-1819.50	  520.33
      9.8700	  674.00	  634.43	-1819.50	  520.45
      9.9700	  653.00	  634.53	-1819.50	  520.55
     10.0700	  686.00	  636.69	-1770.19	  520.65
     10.1700	  693.00	  637.01	-1763.51	  520.74
     10.2700	  648.00	  637.38	-1808.88	  520.83
     10.3700	  672.00	  637.82	-1785.32	  520.90
     10.4700	  680.00	  638.35	-1777.85	  520.97
     10.5700	  664.00	  639.03	-1794.53	  521.04
     10.6700	  662.00	  639.94	-1797.44	  521.10
     10.7700	  663.00	  641.19	-1797.69	  521.15
     10.8700	  641.00	  642.86	-1821.36	  521.19
     10.9700	  680.00	  645.04	-1784.54	  521.23
     11.0700	  617.00	  647.72	-1850.22	  521.26
     11.1700	  712.00	  650.94	-1758.44	  521.28
     11.2700	  679.00	  654.71	-1795.21	  521.30
     11.3700	  701.00	  659.10	-1777.60	  521.31
     11.4700	  645.00	  664.26	-1838.76	  521.32
     11.5700	  669.00	  670.39	-1820.89	  521.32
     11.6700	  729.00	  677.78	-1768.28	  521.31
     11.7700	  737.00	  686.83	-1769.33	  521.30
     11.8700	  743.00	  697.85	-1774.35	  521.28
     11.9700	  773.00	  710.71	-1757.21	  521.25
     12.0700	  762.00	  724.20	-1781.70	  521.22
     12.1700	  802.00	  735.30	-1752.80	  521.19
     12.2700	  784.00	  738.84	-1774.34	  521.14
     12.3700	  789.00	  729.79	-1760.29	  521.10
     12.4700	  722.00	  710.09	-1807.59	  521.04
     12.5700	  691.00	  688.46	-1816.96	  520.98
     12.6700	  604.00	  670.96	-1886.46	  520.92
     12.7700	  660.00	  658.86	-1818.36	  520.85
     12.8700	  652.00	  651.23	-1818.73	  520.77
     12.9700	  648.00	  646.59	-1818.09	  520.69
     13.0700	  625.00	  643.72	-1838.22	  520.60
     13.1700	  675.00	  641.81	-1786.31	  520.51
     13.2700	  603.00	  640.47	-1856.97	  520.41
     13.3700	  626.00	  639.42	-1832.92	  520.31
     13.4700	  601.00	  638.58	-1857.08	  520.20
     13.5700	  584.00	  637.88	-1873.38	  520.09
     13.6700	  638.00	  637.29	-1818.79	  519.97
     13.7700	  600.00	  636.79	-1856.29	  519.85
     13.8700	  598.00	  636.34	-1857.84	  519.72
     13.9700	  629.00	  635.94	-1826.44	  519.59
     14.0700	  656.00	  635.57	-1799.07	  519.45
     14.1700	  567.00	  635.24	-1887.74	  519.31
     14.2700	  619.00	  634.93	-1835.43	  519.16
     14.3700	  574.00	  634.63	-1880.13	  519.01
     14.4700	  601.00	  634.35	-1852.85	  518.86
     14.5700	  586.00	  634.08	-1867.58	  518.70
     14.6700	  675.00	  633.81	-1778.31	  518.53
     14.7700	  645.00	  633.56	-1808.06	  518.36
     14.8700	  611.00	  633.31	-1841.81	  518.19
     14.9700	  592.00	  633.06	-1860.56	  518.01
     15.0700	  640.00	  632.82	-1812.32	  517.83
     15.1700	  583.00	  632.57	-1869.07	  517.64
     15.2700	  651.00	  632.33	-1800.83	  517.45
     15.3700	  581.00	  632.09	-1870.59	  517.25
     15.4700	  623.00	  631.85	-1828.35	  517.05
     15.5700	  560.00	  631.61	-1891.11	  516.85
     15.6700	  604.00	  631.37	-1846.87	  516.64
     15.7700	  625.00	  631.13	-1825.63	  516.43
     15.8700	  625.00	  630.88	-1825.38	  516.21
     15.9700	  643.00	  630.64	-1807.14	  515.99
     16.0700	  642.00	  630.39	-1807.89	  515.77
     16.1700	  582.00	  630.14	-1867.64	  515.54
     16.2700	  657.00	  629.89	-1792.39	  515.31
     16.3700	  607.00	  629.64	-1842.14	  515.08
     16.4700	  612.00	  629.38	-1836.88	  514.84
     16.5700	  654.00	  629.12	-1794.62	  514.60
     16.6700	  610.00	  628.86	-1838.36	  514.35
     16.7700	  596.00	  628.60	-1852.10	  514.11
     16.8700	  611.00	  628.33	-1836.83	  513.85
     16.9700	  643.00	  628.07	-1804.57	  513.60
     17.0700	  643.00	  627.80	-1804.30	  513.34
     17.1700	  595.00	  627.52	-1852.02	  513.08
     17.2700	  620.00	  627.25	-1826.75	  512.81
     17.3700	  636.00	  626.97	-1810.47	  512.54
     17.4700	  601.00	  626.69	-1845.19	  512.27
     17.5700	  637.00	  626.89	-1809.39	  512.00
     17.6700	  678.00	  626.61	-1768.11	  511.72
     17.7700	  598.00	  626.34	-1847.84	  511.44
     17.8700	  598.00	  626.06	-1847.56	  511.15
     17.9700	  604.00	  626.09	-1841.59	  510.86
     18.0700	  582.00	  625.81	-1863.31	  510.57
     18.1700	  627.00	  625.53	-1818.03	  510.28
     18.2700	  615.00	  625.24	-1829.74	  509.99
     18.3700	  584.00	  624.96	-1860.46	  509.69
     18.4700	  629.00	  624.67	-1815.17	  509.39
     18.5700	  591.00	  624.38	-1852.88	  509.08
     18.6700	  627.00	  624.09	-1816.59	  508.77
     18.7700	  604.00	  623.80	-1839.30	  508.46
     18.8700	  584.00	  623.51	-1859.01	  508.15
     18.9700	  645.00	  623.21	-1797.71	  507.84
     19.0700	  579.00	  622.92	-1863.42	  507.52
     19.1700	  590.00	  622.62	-1852.12	  507.20
     19.2700	  637.00	  622.32	-1804.82	  506.88
     19.3700	  578.00	  622.02	-1863.52	  506.55
     19.4700	  617.00	  621.77	-1824.27	  506.23
     19.5700	  614.00	  621.47	-1826.97	  505.90
     19.6700	  584.00	  621.17	-1856.67	  505.57
     19.7700	  601.00	  620.87	-1839.37	  505.23
     19.8700	  601.00	  620.56	-1839.06	  504.90
     19.9700	  617.00	  620.26	-1822.76	  504.56
     20.0700	  631.00	  619.95	-1808.45	  504.22
     20.1700	  601.00	  619.65	-1838.15	  503.88
     20.2700	  625.00	  619.34	-1813.84	  503.53
     20.3700	  637.00	  619.03	-1801.53	  503.19
     20.4700	  597.00	  618.73	-1841.23	  502.84
     20.5700	  595.00	  618.42	-1842.92	  502.49
     20.6700	  551.00	  618.11	-1886.61	  502.13
     20.7700	  580.00	  617.81	-1857.31	  501.78
     20.8700	  549.00	  617.50	-1888.00	  501.42
     20.9700	  618.00	  617.20	-1818.70	  501.07
     21.0700	  628.00	  616.90	-1808.40	  500.71
     21.1700	  608.00	  616.59	-1828.09	  500.35
     21.2700	  596.00	  616.29	-1839.79	  499.98
     21.3700	  614.00	  615.99	-1821.49	  499.62
     21.4700	  601.00	  615.70	-1834.20	  499.25
     21.5700	  639.00	  615.40	-1795.90	  498.88
     21.6700	  629.00	  615.11	-1805.61	  498.51
     21.7700	  578.00	  614.82	-1856.32	  498.14
     21.8700	  621.00	  614.54	-1813.04	  497.77
     21.9700	  584.00	  614.43	-1849.93	  497.40
     22.0700	  604.00	  614.16	-1829.66	  497.02
     22.1700	  636.00	  613.89	-1797.39	  496.65
     22.2700	  590.00	  613.63	-1843.13	  496.27
     22.3700	  632.00	  613.38	-1800.88	  495.89
     22.4700	  585.00	  613.13	-1847.63	  495.51
     22.5700	  592.00	  612.90	-1840.40	  495.13
     22.6700	  623.00	  612.67	-1809.17	  494.74
     22.7700	  634.00	  612.46	-1797.96	  494.36
     22.8700	  570.00	  612.27	-1861.77	  493.97
     22.9700	  585.00	  612.09	-1846.59	  493.59
     23.0700	  617.00	  611.94	-1814.44	  493.20
     23.1700	  538.00	  611.81	-1893.31	  492.81
     23.2700	  608.00	  611.71	-1823.21	  492.42
     23.3700	  599.00	  611.66	-1832.16	  492.03
     23.4700	  598.00	  611.65	-1833.15	  491.64
     23.5700	  655.00	  611.72	-1776.22	  491.25
     23.6700	  592.00	  611.81	-1839.31	  490.85
     23.7700	  599.00	  612.08	-1832.58	  490.46
     23.8700	  628.00	  612.55	-1804.05	  490.06
     23.9700	  628.00	  613.31	-1804.81	  489.67
     24.0700	  604.00	  614.56	-1830.06	  489.27
     24.1700	  665.00	  616.58	-1771.08	  488.87
     24.2700	  644.00	  619.79	-1795.29	  488.47
     24.3700	  675.00	  624.66	-1769.16	  488.08
     24.4700	  627.00	  631.61	-1824.11	  487.68
     24.5700	  650.00	  640.70	-1810.20	  487.28
     24.6700	  670.00	  651.39	-1800.89	  486.87
     24.7700	  690.00	  662.07	-1791.57	  486.47
     24.8700	  695.00	  669.69	-1794.19	  486.07
     24.9700	  679.00	  670.21	-1810.71	  485.67
     25.0700	  706.00	  662.01	-1775.51	  485.27
     25.1700	  711.00	  649.07	-1757.57	  484.86
     25.2700	  613.00	  636.66	-1843.16	  484.46
     25.3700	  672.00	  627.23	-1774.73	  484.05
     25.4700	  652.00	  620.97	-1788.47	  483.65
     25.5700	  669.00	  617.21	-1767.71	  483.24
     25.6700	  695.00	  615.12	-1739.62	  482.84
     25.7700	  613.00	  614.05	-1820.55	  482.43
     25.8700	  614.00	  613.58	-1819.08	  482.03
     25.9700	  655.00	  613.52	-1778.02	  481.62
     26.0700	  609.00	  613.75	-1824.25	  481.21
     26.1700	  666.00	  614.25	-1767.75	  480.81
     26.2700	  683.00	  615.01	-1751.51	  480.40
     26.3700	  661.00	  616.05	-1774.55	  479.99
     26.4700	  654.00	  617.39	-1782.89	  479.59
     26.5700	  689.00	  619.08	-1749.58	  479.18
     26.6700	  648.00	  621.19	-1792.69	  478.77
     26.7700	  680.00	  623.79	-1763.29	  478.36
     26.8700	  631.00	  627.01	-1815.51	  477.96
     26.9700	  642.00	  631.02	-1808.52	  477.55
     27.0700	  687.00	  636.05	-1768.55	  477.14
     27.1700	  738.00	  642.44	-1723.94	  476.73
     27.2700	  678.00	  650.79	-1792.29	  476.33
     27.3700	  678.00	  662.15	-1803.65	  475.92
     27.4700	  711.00	  678.53	-1787.03	  475.51
     27.5700	  773.00	  703.75	-1750.25	  475.10
     27.6700	  765.00	  744.55	-1799.05	  474.70
     27.7700	  847.00	  811.56	-1784.06	  474.29
     27.8700	  880.00	  918.83	-1858.33	  473.88
     27.9700	  944.00	 1079.18	-1954.68	  473.48
     28.0700	 1123.00	 1295.15	-1991.65	  473.07
     28.1700	 1466.00	 1547.46	-1900.96	  472.67
     28.2700	 1867.00	 1784.32	-1736.82	  472.26
     28.3700	 2129.00	 1920.01	-1610.51	  471.85
     28.4700	 2006.00	 1878.31	-1691.81	  471.45
     28.5700	 1802.00	 1698.68	-1716.18	  471.04
     28.6700	 1383.00	 1517.19	-1953.69	  470.64
     28.7700	 1362.00	 1422.20	-1879.70	  470.24
     28.8700	 1358.00	 1421.54	-1883.04	  469.83
     28.9700	 1422.00	 1469.00	-1866.50	  469.43
     29.0700	 1461.00	 1488.04	-1846.54	  469.03
     29.1700	 1483.00	 1410.48	-1746.98	  468.63
     29.2700	 1236.00	 1242.82	-1826.32	  468.22
     29.3700	 1112.00	 1056.25	-1763.75	  467.82
     29.4700	  897.00	  902.76	-1825.26	  467.42
     29.5700	  831.00	  796.02	-1784.52	  467.02
     29.6700	  816.00	  729.48	-1732.98	  466.62
     29.7700	  760.00	  690.33	-1749.83	  466.22
     29.8700	  703.00	  667.16	-1783.66	  465.83
     29.9700	  704.00	  652.60	-1768.10	  465.43
     30.0700	  703.00	  642.85	-1759.35	  465.03
     30.1700	  766.00	  636.22	-1689.72	  464.64
     30.2700	  708.00	  632.21	-1743.71	  464.24
     30.3700	  732.00	  631.01	-1718.51	  463.84
     30.4700	  649.00	  633.43	-1803.93	  463.45
     30.5700	  681.00	  640.78	-1779.28	  463.06
     30.6700	  690.00	  654.38	-1783.88	  462.66
     30.7700	  671.00	  674.55	-1823.05	  462.27
     30.8700	  748.00	  699.23	-1770.73	  461.88
     30.9700	  687.00	  722.98	-1855.48	  461.49
     31.0700	  694.00	  736.67	-1862.17	  461.10
     31.1700	  717.00	  731.01	-1833.51	  460.71
     31.2700	  706.00	  706.38	-1819.88	  460.32
     31.3700	  689.00	  674.64	-1805.14	  459.94
     31.4700	  664.00	  646.35	-1801.85	  459.55
     31.5700	  669.00	  625.41	-1775.91	  459.17
     31.6700	  637.00	  611.62	-1794.12	  458.78
     31.7700	  614.00	  603.16	-1808.66	  458.40
     31.8700	  656.00	  598.03	-1761.53	  458.02
     31.9700	  641.00	  594.80	-1773.30	  457.63
     32.0700	  627.00	  592.60	-1785.10	  457.25
     32.1700	  593.00	  591.03	-1817.53	  456.87
     32.2700	  625.00	  589.89	-1784.39	  456.50
     32.3700	  613.00	  589.09	-1795.59	  456.12
     32.4700	  630.00	  588.59	-1778.09	  455.74
     32.5700	  586.00	  588.38	-1821.88	  455.37
     32.6700	  587.00	  588.48	-1820.98	  454.99
     32.7700	  603.00	  588.91	-1805.41	  454.62
     32.8700	  587.00	  589.73	-1822.23	  454.25
     32.9700	  588.00	  591.06	-1822.56	  453.88
     33.0700	  625.00	  592.99	-1787.49	  453.51
     33.1700	  609.00	  595.83	-1806.33	  453.14
     33.2700	  626.00	  600.12	-1793.62	  452.77
     33.3700	  629.00	  606.86	-1797.36	  452.40
     33.4700	  632.00	  617.93	-1805.43	  452.04
     33.5700	  624.00	  636.44	-1831.94	  451.67
     33.6700	  589.00	  666.77	-1897.27	  451.31
     33.7700	  677.00	  713.68	-1856.18	  450.95
     33.8700	  814.00	  779.64	-1785.14	  450.59
     33.9700	  912.00	  860.81	-1768.31	  450.23
     34.0700	  999.00	  943.36	-1763.86	  449.87
     34.1700	 1127.00	 1002.34	-1694.84	  449.52
     34.2700	 1094.00	 1008.73	-1734.23	  449.16
     34.3700	  993.00	  954.03	-1780.53	  448.81
     34.4700	  875.00	  865.49	-1809.99	  448.45
     34.5700	  804.00	  777.37	-1792.87	  448.10
     34.6700	  636.00	  707.13	-1890.63	  447.75
     34.7700	  661.00	  658.19	-1816.69	  447.40
     34.8700	  622.00	  627.10	-1824.60	  447.05
     34.9700	  630.00	  608.34	-1797.84	  446.71
     35.0700	  594.00	  596.97	-1822.47	  446.36
     35.1700	  627.00	  589.70	-1782.20	  446.02
     35.2700	  614.00	  584.60	-1790.10	  445.68
     35.3700	  576.00	  580.77	-1824.27	  445.34
     35.4700	  560.00	  577.73	-1837.23	  445.00
     35.5700	  530.00	  575.25	-1864.75	  444.66
     35.6700	  549.00	  573.69	-1844.19	  444.32
     35.7700	  548.00	  571.95	-1843.45	  443.99
     35.8700	  586.00	  570.46	-1803.96	  443.65
     35.9700	  553.00	  569.17	-1835.67	  443.32
     36.0700	  583.00	  568.04	-1804.54	  442.99
     36.1700	  566.00	  567.05	-1820.55	  442.66
     36.2700	  582.00	  566.18	-1803.68	  442.33
     36.3700	  557.00	  565.42	-1827.92	  442.01
     36.4700	  548.00	  564.74	-1836.24	  441.68
     36.5700	  554.00	  564.16	-1829.66	  441.36
     36.6700	  576.00	  563.67	-1807.17	  441.04
     36.7700	  526.00	  563.27	-1856.77	  440.72
     36.8700	  565.00	  562.95	-1817.45	  440.40
     36.9700	  524.00	  562.80	-1858.30	  440.08
     37.0700	  535.00	  562.85	-1847.35	  439.77
     37.1700	  579.00	  563.39	-1803.89	  439.45
     37.2700	  559.00	  564.21	-1824.71	  439.14
     37.3700	  576.00	  565.74	-1809.24	  438.83
     37.4700	  555.00	  568.31	-1832.81	  438.52
     37.5700	  588.00	  572.24	-1803.74	  438.21
     37.6700	  556.00	  577.78	-1841.28	  437.90
     37.7700	  564.00	  584.86	-1840.36	  437.60
     37.8700	  629.00	  592.87	-1783.37	  437.30
     37.9700	  584.00	  600.65	-1836.15	  436.99
     38.0700	  584.00	  606.80	-1842.30	  436.69
     38.1700	  598.00	  609.73	-1831.23	  436.40
     38.2700	  587.00	  607.62	-1840.12	  436.10
     38.3700	  550.00	  600.10	-1869.60	  435.80
     38.4700	  553.00	  589.66	-1856.16	  435.51
     38.5700	  582.00	  579.47	-1816.97	  435.22
     38.6700	  523.00	  571.09	-1867.59	  434.93
     38.7700	  557.00	  564.96	-1827.46	  434.64
     38.8700	  498.00	  560.80	-1882.30	  434.35
     38.9700	  512.00	  558.09	-1865.59	  434.07
     39.0700	  532.00	  556.31	-1843.81	  433.79
     39.1700	  493.00	  555.07	-1881.57	  433.50
     39.2700	  555.00	  553.68	-1818.18	  433.22
     39.3700	  543.00	  552.95	-1829.45	  432.94
     39.4700	  529.00	  552.33	-1842.83	  432.67
     39.5700	  540.00	  551.80	-1831.30	  432.39
     39.6700	  514.00	  551.32	-1856.82	  432.12
     39.7700	  504.00	  550.90	-1866.40	  431.85
     39.8700	  556.00	  550.51	-1814.01	  431.58
     39.9700	  502.00	  550.16	-1867.66	  431.31
     40.0700	  579.00	  549.84	-1790.34	  431.04
     40.1700	  544.00	  550.09	-1825.59	  430.78
     40.2700	  558.00	  549.83	-1811.33	  430.51
     40.3700	  532.00	  549.29	-1836.79	  430.25
     40.4700	  575.00	  549.08	-1793.58	  429.99
     40.5700	  568.00	  548.90	-1800.40	  429.74
     40.6700	  533.00	  548.74	-1835.24	  429.48
     40.7700	  543.00	  548.61	-1825.11	  429.22
