MSG Master    CELL:    5.90242   5.90242  23.18305   90.0000   90.0000  120.0000   SPGR: P 63/m m c             TEMP:    811.45
  1   1280     2.52000     0.00000    -0.12790     0.00000     0.00000    0
    98     0     2
       0.00000      10.00000
     125.00000     130.00000
 2Theta	Yobs	Ycal	Yobs-Ycal	Backg	Posr	(hkl)	K
      0.7700	    0.00	  501.04	-1761.25	  393.87
      0.8700	    0.00	  502.60	-1761.25	  395.43
      0.9700	   37.00	  504.14	-1761.25	  396.97
      1.0700	   44.00	  505.66	-1761.25	  398.49
      1.1700	   44.00	  507.17	-1761.25	  400.00
      1.2700	   46.00	  508.66	-1761.25	  401.49
      1.3700	   41.00	  510.13	-1761.25	  402.96
      1.4700	  106.00	  511.58	-1761.25	  404.41
      1.5700	  316.00	  513.01	-1761.25	  405.84
      1.6700	  447.00	  514.43	-1761.25	  407.26
      1.7700	  531.00	  515.84	-1761.25	  408.66
      1.8700	  635.00	  517.22	-1761.25	  410.05
      1.9700	  697.00	  518.59	-1761.25	  411.42
      2.0700	  747.00	  519.94	-1761.25	  412.77
      2.1700	  833.00	  521.27	-1761.25	  414.10
      2.2700	  782.00	  522.59	-1761.25	  415.42
      2.3700	  704.00	  523.89	-1761.25	  416.72
      2.4700	  723.00	  525.18	-1761.25	  418.01
      2.5700	  715.00	  526.45	-1761.25	  419.28
      2.6700	  684.00	  527.70	-1761.25	  420.53
      2.7700	  615.00	  528.94	-1761.25	  421.76
      2.8700	  646.00	  530.16	-1761.25	  422.99
      2.9700	  643.00	  531.36	-1761.25	  424.19
      3.0700	  603.00	  532.55	-1761.25	  425.38
      3.1700	  607.00	  533.72	-1761.25	  426.55
      3.2700	  685.00	  534.88	-1761.25	  427.71
      3.3700	  799.00	  536.02	-1761.25	  428.85
      3.4700	  895.00	  537.15	-1761.25	  429.98
      3.5700	 1064.00	  538.26	-1761.25	  431.09
      3.6700	 1155.00	  539.36	-1761.25	  432.19
      3.7700	 1210.00	  540.44	-1761.25	  433.27
      3.8700	 1278.00	  541.51	-1761.25	  434.34
      3.9700	 1363.00	  542.56	-1761.25	  435.39
      4.0700	 1368.00	  543.60	-1761.25	  436.43
      4.1700	 1459.00	  544.62	-1761.25	  437.45
      4.2700	 1354.00	  545.63	-1761.25	  438.46
      4.3700	 1358.00	  546.63	-1761.25	  439.46
      4.4700	 1368.00	  547.61	-1761.25	  440.44
      4.5700	 1304.00	  548.57	-1761.25	  441.40
      4.6700	 1236.00	  549.52	-1761.25	  442.35
      4.7700	 1236.00	  550.46	-1761.25	  443.29
      4.8700	 1188.00	  551.38	-1761.25	  444.21
      4.9700	 1180.00	  552.29	-1761.25	  445.12
      5.0700	 1119.00	  553.19	-1761.25	  446.02
      5.1700	 1082.00	  554.07	-1761.25	  446.90
      5.2700	 1035.00	  554.94	-1761.25	  447.77
      5.3700	 1062.00	  555.80	-1761.25	  448.63
      5.4700	  971.00	  556.64	-1761.25	  449.47
      5.5700	 1034.00	  557.47	-1761.25	  450.30
      5.6700	  943.00	  558.28	-1761.25	  451.11
      5.7700	  905.00	  559.08	-1761.25	  451.91
      5.8700	 1004.00	  559.87	-1761.25	  452.70
      5.9700	  890.00	  560.65	-1761.25	  453.48
      6.0700	  887.00	  561.41	-1761.25	  454.24
      6.1700	  860.00	  562.17	-1761.25	  455.00
      6.2700	  867.00	  562.90	-1761.25	  455.73
      6.3700	  823.00	  563.63	-1761.25	  456.46
      6.4700	  851.00	  564.34	-1761.25	  457.17
      6.5700	  818.00	  565.04	-1761.25	  457.87
      6.6700	  823.00	  565.73	-1761.25	  458.56
      6.7700	  809.00	  566.41	-1761.25	  459.24
      6.8700	  784.00	  567.07	-1761.25	  459.90
      6.9700	  780.00	  567.73	-1761.25	  460.56
      7.0700	  789.00	  568.37	-1761.25	  461.20
      7.1700	  751.00	  569.00	-1761.25	  461.83
      7.2700	  745.00	  569.61	-1761.25	  462.44
      7.3700	  717.00	  570.22	-1761.25	  463.05
      7.4700	  723.00	  570.81	-1761.25	  463.64
      7.5700	  758.00	  571.40	-1761.25	  464.22
      7.6700	  710.00	  571.97	-1761.25	  464.80
      7.7700	  734.00	  572.53	-1761.25	  465.36
      7.8700	  698.00	  573.07	-1761.25	  465.90
      7.9700	  669.00	  573.61	-1761.25	  466.44
      8.0700	  666.00	  574.14	-1761.25	  466.97
      8.1700	  653.00	  574.65	-1761.25	  467.48
      8.2700	  670.00	  575.16	-1761.25	  467.99
      8.3700	  677.00	  575.65	-1761.25	  468.48
      8.4700	  676.00	  576.13	-1761.25	  468.96
      8.5700	  665.00	  576.61	-1761.25	  469.44
      8.6700	  664.00	  577.07	-1761.25	  469.90
      8.7700	  629.00	  577.52	-1761.25	  470.35
      8.8700	  664.00	  577.96	-1761.25	  470.79
      8.9700	  662.00	  578.39	-1761.25	  471.22
      9.0700	  625.00	  578.81	-1761.25	  471.64
      9.1700	  641.00	  579.22	-1761.25	  472.05
      9.2700	  668.00	  579.62	-1761.25	  472.45
      9.3700	  594.00	  580.01	-1761.25	  472.84
      9.4700	  619.00	  580.39	-1761.25	  473.22
      9.5700	  633.00	  580.76	-1761.25	  473.59
      9.6700	  637.00	  581.13	-1761.25	  473.96
      9.7700	  643.00	  581.48	-1761.25	  474.31
      9.8700	  620.00	  581.82	-1761.25	  474.65
      9.9700	  658.00	  582.15	-1761.25	  474.98
     10.0700	  661.00	  584.82	-1685.07	  475.30
     10.1700	  623.00	  585.31	-1723.56	  475.62
     10.2700	  617.00	  585.83	-1730.08	  475.92
     10.3700	  547.00	  586.40	-1800.65	  476.22
     10.4700	  596.00	  587.04	-1752.29	  476.50
     10.5700	  592.00	  587.81	-1757.06	  476.78
     10.6700	  650.00	  588.77	-1700.02	  477.05
     10.7700	  616.00	  590.02	-1735.27	  477.31
     10.8700	  634.00	  591.63	-1718.88	  477.56
     10.9700	  605.00	  593.65	-1749.90	  477.80
     11.0700	  626.00	  596.08	-1731.33	  478.03
     11.1700	  619.00	  598.92	-1741.17	  478.25
     11.2700	  650.00	  602.20	-1713.45	  478.47
     11.3700	  604.00	  605.99	-1763.24	  478.68
     11.4700	  674.00	  610.42	-1697.67	  478.88
     11.5700	  636.00	  615.65	-1740.90	  479.07
     11.6700	  625.00	  621.99	-1758.24	  479.25
     11.7700	  631.00	  629.79	-1760.04	  479.42
     11.8700	  683.00	  639.38	-1717.63	  479.59
     11.9700	  725.00	  650.64	-1686.89	  479.75
     12.0700	  724.00	  662.36	-1699.61	  479.90
     12.1700	  674.00	  671.46	-1758.71	  480.04
     12.2700	  659.00	  672.92	-1775.17	  480.18
     12.3700	  691.00	  662.79	-1733.04	  480.30
     12.4700	  662.00	  644.73	-1743.98	  480.42
     12.5700	  649.00	  626.89	-1739.14	  480.53
     12.6700	  595.00	  613.53	-1779.78	  480.64
     12.7700	  614.00	  604.92	-1752.17	  480.73
     12.8700	  631.00	  599.86	-1730.11	  480.82
     12.9700	  550.00	  596.96	-1808.21	  480.91
     13.0700	  572.00	  595.24	-1784.49	  480.98
     13.1700	  596.00	  594.12	-1759.37	  481.05
     13.2700	  577.00	  593.32	-1777.57	  481.11
     13.3700	  594.00	  592.73	-1759.98	  481.16
     13.4700	  555.00	  592.28	-1798.53	  481.21
     13.5700	  583.00	  591.92	-1770.17	  481.25
     13.6700	  568.00	  591.63	-1784.88	  481.28
     13.7700	  570.00	  591.39	-1782.64	  481.31
     13.8700	  575.00	  591.22	-1777.47	  481.33
     13.9700	  587.00	  591.05	-1765.30	  481.34
     14.0700	  556.00	  590.90	-1796.15	  481.35
     14.1700	  586.00	  590.77	-1766.02	  481.35
     14.2700	  604.00	  590.65	-1747.90	  481.34
     14.3700	  590.00	  590.53	-1761.78	  481.33
     14.4700	  583.00	  590.43	-1768.68	  481.31
     14.5700	  595.00	  590.33	-1756.58	  481.28
     14.6700	  556.00	  590.23	-1795.48	  481.25
     14.7700	  579.00	  590.13	-1772.38	  481.22
     14.8700	  582.00	  590.04	-1769.29	  481.17
     14.9700	  553.00	  589.94	-1798.19	  481.12
     15.0700	  557.00	  589.84	-1794.09	  481.07
     15.1700	  590.00	  589.74	-1760.99	  481.00
     15.2700	  592.00	  589.64	-1758.89	  480.94
     15.3700	  534.00	  589.54	-1816.79	  480.86
     15.4700	  567.00	  589.43	-1783.68	  480.79
     15.5700	  555.00	  589.32	-1795.57	  480.70
     15.6700	  586.00	  589.21	-1764.46	  480.61
     15.7700	  515.00	  589.09	-1835.34	  480.52
     15.8700	  547.00	  588.98	-1803.23	  480.42
     15.9700	  524.00	  588.85	-1826.10	  480.31
     16.0700	  567.00	  588.72	-1782.97	  480.20
     16.1700	  599.00	  588.59	-1750.84	  480.08
     16.2700	  554.00	  588.46	-1795.71	  479.96
     16.3700	  617.00	  588.32	-1732.57	  479.83
     16.4700	  534.00	  588.18	-1815.43	  479.70
     16.5700	  576.00	  588.03	-1773.28	  479.56
     16.6700	  579.00	  587.88	-1770.13	  479.42
     16.7700	  558.00	  587.72	-1790.97	  479.27
     16.8700	  601.00	  587.56	-1747.81	  479.12
     16.9700	  596.00	  587.40	-1752.65	  478.97
     17.0700	  608.00	  587.23	-1740.48	  478.80
     17.1700	  566.00	  587.06	-1782.31	  478.64
     17.2700	  569.00	  586.89	-1779.14	  478.47
     17.3700	  567.00	  586.71	-1780.96	  478.29
     17.4700	  627.00	  586.65	-1720.90	  478.11
     17.5700	  525.00	  586.46	-1822.71	  477.93
     17.6700	  516.00	  586.27	-1831.52	  477.74
     17.7700	  559.00	  586.08	-1788.33	  477.55
     17.8700	  574.00	  585.88	-1773.13	  477.35
     17.9700	  535.00	  585.79	-1812.04	  477.15
     18.0700	  638.00	  585.59	-1708.84	  476.94
     18.1700	  566.00	  585.38	-1780.63	  476.73
     18.2700	  579.00	  585.17	-1767.42	  476.52
     18.3700	  550.00	  584.96	-1796.21	  476.30
     18.4700	  551.00	  584.74	-1794.99	  476.08
     18.5700	  568.00	  584.52	-1777.77	  475.86
     18.6700	  551.00	  584.30	-1794.55	  475.63
     18.7700	  598.00	  584.07	-1747.32	  475.39
     18.8700	  570.00	  583.84	-1775.09	  475.16
     18.9700	  594.00	  583.61	-1750.86	  474.91
     19.0700	  577.00	  583.37	-1767.62	  474.67
     19.1700	  565.00	  583.13	-1779.38	  474.42
     19.2700	  564.00	  582.89	-1780.14	  474.17
     19.3700	  561.00	  582.64	-1782.89	  473.92
     19.4700	  562.00	  582.39	-1781.64	  473.66
     19.5700	  551.00	  582.18	-1792.43	  473.39
     19.6700	  573.00	  581.93	-1770.18	  473.13
     19.7700	  536.00	  581.67	-1806.92	  472.86
     19.8700	  520.00	  581.42	-1822.67	  472.59
     19.9700	  562.00	  581.15	-1780.41	  472.31
     20.0700	  589.00	  580.89	-1753.14	  472.04
     20.1700	  587.00	  580.63	-1754.88	  471.75
     20.2700	  548.00	  580.36	-1793.61	  471.47
     20.3700	  575.00	  580.09	-1766.34	  471.18
     20.4700	  611.00	  579.82	-1730.07	  470.89
     20.5700	  552.00	  579.54	-1788.79	  470.60
     20.6700	  564.00	  579.27	-1776.52	  470.30
     20.7700	  560.00	  578.99	-1780.24	  470.00
     20.8700	  549.00	  578.71	-1790.96	  469.70
     20.9700	  602.00	  578.43	-1737.68	  469.40
     21.0700	  535.00	  578.15	-1804.40	  469.09
     21.1700	  627.00	  577.87	-1712.12	  468.78
     21.2700	  561.00	  577.58	-1777.83	  468.47
     21.3700	  554.00	  577.30	-1784.55	  468.15
     21.4700	  592.00	  577.01	-1746.26	  467.83
     21.5700	  626.00	  576.73	-1711.98	  467.51
     21.6700	  540.00	  576.44	-1797.69	  467.19
     21.7700	  552.00	  576.16	-1785.41	  466.87
     21.8700	  535.00	  575.88	-1802.13	  466.54
     21.9700	  538.00	  575.59	-1798.84	  466.21
     22.0700	  567.00	  575.31	-1769.56	  465.88
     22.1700	  544.00	  575.20	-1792.45	  465.54
     22.2700	  614.00	  574.93	-1722.18	  465.21
     22.3700	  545.00	  574.66	-1790.91	  464.87
     22.4700	  604.00	  574.39	-1731.64	  464.53
     22.5700	  544.00	  574.13	-1791.38	  464.19
     22.6700	  554.00	  573.88	-1781.13	  463.84
     22.7700	  545.00	  573.64	-1789.89	  463.50
     22.8700	  594.00	  573.40	-1740.65	  463.15
     22.9700	  587.00	  573.18	-1747.43	  462.80
     23.0700	  542.00	  572.94	-1792.19	  462.44
     23.1700	  535.00	  572.75	-1799.00	  462.09
     23.2700	  565.00	  572.59	-1768.84	  461.74
     23.3700	  491.00	  572.47	-1842.72	  461.38
     23.4700	  521.00	  572.39	-1812.64	  461.02
     23.5700	  564.00	  572.36	-1769.61	  460.66
     23.6700	  589.00	  572.41	-1744.66	  460.30
     23.7700	  584.00	  572.58	-1749.83	  459.93
     23.8700	  581.00	  572.94	-1753.19	  459.57
     23.9700	  623.00	  573.60	-1711.85	  459.20
     24.0700	  593.00	  574.78	-1743.03	  458.83
     24.1700	  600.00	  576.80	-1738.05	  458.46
     24.2700	  582.00	  580.13	-1759.38	  458.09
     24.3700	  594.00	  585.28	-1752.53	  457.72
     24.4700	  633.00	  592.67	-1720.92	  457.35
     24.5700	  636.00	  602.33	-1727.58	  456.97
     24.6700	  639.00	  613.49	-1735.74	  456.59
     24.7700	  680.00	  624.06	-1705.31	  456.22
     24.8700	  677.00	  630.21	-1714.46	  455.84
     24.9700	  676.00	  627.63	-1712.88	  455.46
     25.0700	  650.00	  616.32	-1727.57	  455.08
     25.1700	  617.00	  602.00	-1746.25	  454.70
     25.2700	  589.00	  589.68	-1761.93	  454.31
     25.3700	  632.00	  580.91	-1710.16	  453.93
     25.4700	  597.00	  575.35	-1739.60	  453.54
     25.5700	  627.00	  572.03	-1706.28	  453.16
     25.6700	  588.00	  570.04	-1743.29	  452.77
     25.7700	  601.00	  568.78	-1729.03	  452.39
     25.8700	  619.00	  567.92	-1710.17	  452.00
     25.9700	  556.00	  567.30	-1772.55	  451.61
     26.0700	  625.00	  566.85	-1703.10	  451.22
     26.1700	  646.00	  566.53	-1681.78	  450.83
     26.2700	  621.00	  566.34	-1706.59	  450.44
     26.3700	  607.00	  566.26	-1720.51	  450.05
     26.4700	  578.00	  566.29	-1749.54	  449.65
     26.5700	  611.00	  566.46	-1716.71	  449.26
     26.6700	  645.00	  566.76	-1683.01	  448.87
     26.7700	  636.00	  567.23	-1692.48	  448.47
     26.8700	  593.00	  567.90	-1736.15	  448.08
     26.9700	  595.00	  568.82	-1735.07	  447.68
     27.0700	  613.00	  570.07	-1718.32	  447.29
     27.1700	  645.00	  571.76	-1688.01	  446.89
     27.2700	  624.00	  574.11	-1711.36	  446.50
     27.3700	  661.00	  577.49	-1677.74	  446.10
     27.4700	  626.00	  582.62	-1717.87	  445.70
     27.5700	  609.00	  590.84	-1743.08	  445.31
     27.6700	  648.00	  604.31	-1717.56	  444.91
     27.7700	  640.00	  626.23	-1747.48	  444.51
     27.8700	  686.00	  660.15	-1735.40	  444.12
     27.9700	  709.00	  708.29	-1760.54	  443.72
     28.0700	  744.00	  768.90	-1786.15	  443.32
     28.1700	  812.00	  833.54	-1782.79	  442.92
     28.2700	  939.00	  885.11	-1707.36	  442.52
     28.3700	 1036.00	  901.31	-1626.56	  442.13
     28.4700	  988.00	  875.02	-1648.27	  441.73
     28.5700	  807.00	  832.72	-1786.97	  441.33
     28.6700	  785.00	  806.36	-1782.61	  440.93
     28.7700	  768.00	  807.21	-1800.46	  440.54
     28.8700	  760.00	  827.96	-1829.21	  440.14
     28.9700	  891.00	  848.61	-1718.86	  439.74
     29.0700	  867.00	  843.72	-1737.97	  439.34
     29.1700	  822.00	  801.25	-1740.50	  438.95
     29.2700	  778.00	  738.37	-1721.62	  438.55
     29.3700	  717.00	  679.28	-1723.53	  438.15
     29.4700	  644.00	  635.00	-1752.25	  437.75
     29.5700	  660.00	  606.10	-1707.35	  437.36
     29.6700	  652.00	  588.87	-1698.12	  436.96
     29.7700	  657.00	  578.93	-1683.18	  436.57
     29.8700	  648.00	  573.05	-1686.30	  436.17
     29.9700	  661.00	  569.43	-1669.68	  435.78
     30.0700	  590.00	  567.23	-1738.48	  435.38
     30.1700	  690.00	  566.24	-1637.49	  434.99
     30.2700	  627.00	  566.65	-1700.90	  434.59
     30.3700	  578.00	  569.05	-1752.30	  434.20
     30.4700	  619.00	  574.42	-1716.67	  433.81
     30.5700	  584.00	  584.03	-1761.28	  433.42
     30.6700	  604.00	  598.79	-1756.04	  433.02
     30.7700	  623.00	  618.26	-1756.51	  432.63
     30.8700	  688.00	  639.55	-1712.80	  432.24
     30.9700	  638.00	  656.71	-1779.96	  431.85
     31.0700	  636.00	  661.47	-1786.72	  431.46
     31.1700	  678.00	  649.02	-1732.27	  431.07
     31.2700	  662.00	  625.26	-1724.51	  430.69
     31.3700	  626.00	  600.70	-1735.95	  430.30
     31.4700	  596.00	  581.18	-1746.43	  429.91
     31.5700	  562.00	  567.84	-1767.09	  429.53
     31.6700	  564.00	  559.60	-1756.85	  429.14
     31.7700	  590.00	  554.78	-1726.03	  428.76
     31.8700	  568.00	  551.92	-1745.17	  428.37
     31.9700	  578.00	  550.12	-1733.37	  427.99
     32.0700	  554.00	  548.92	-1756.17	  427.61
     32.1700	  553.00	  548.10	-1756.35	  427.23
     32.2700	  576.00	  547.57	-1732.82	  426.85
     32.3700	  571.00	  547.28	-1737.53	  426.47
     32.4700	  605.00	  547.24	-1703.49	  426.09
     32.5700	  565.00	  547.43	-1743.68	  425.71
     32.6700	  566.00	  547.89	-1743.14	  425.34
     32.7700	  563.00	  548.66	-1746.91	  424.96
     32.8700	  567.00	  549.81	-1744.06	  424.59
     32.9700	  590.00	  551.46	-1722.71	  424.21
     33.0700	  571.00	  553.79	-1744.04	  423.84
     33.1700	  569.00	  557.15	-1749.40	  423.47
     33.2700	  611.00	  562.28	-1712.53	  423.10
     33.3700	  586.00	  570.46	-1745.71	  422.73
     33.4700	  561.00	  584.15	-1784.40	  422.36
     33.5700	  536.00	  607.20	-1832.45	  422.00
     33.6700	  608.00	  644.61	-1797.86	  421.63
     33.7700	  709.00	  700.82	-1753.07	  421.27
     33.8700	  768.00	  776.04	-1769.29	  420.90
     33.9700	  858.00	  861.76	-1765.01	  420.54
     34.0700	 1009.00	  937.86	-1690.11	  420.18
     34.1700	 1058.00	  974.43	-1677.68	  419.82
     34.2700	 1009.00	  947.90	-1700.15	  419.46
     34.3700	  937.00	  869.39	-1693.64	  419.11
     34.4700	  741.00	  776.12	-1796.37	  418.75
     34.5700	  718.00	  695.45	-1738.70	  418.39
     34.6700	  658.00	  636.64	-1739.89	  418.04
     34.7700	  573.00	  598.46	-1786.71	  417.69
     34.8700	  572.00	  575.46	-1764.71	  417.34
     34.9700	  579.00	  561.90	-1744.15	  416.99
     35.0700	  533.00	  553.58	-1781.83	  416.64
     35.1700	  545.00	  548.00	-1764.25	  416.29
     35.2700	  523.00	  543.93	-1782.18	  415.95
     35.3700	  554.00	  540.77	-1748.02	  415.60
     35.4700	  517.00	  538.70	-1782.95	  415.26
     35.5700	  497.00	  536.59	-1800.84	  414.92
     35.6700	  565.00	  534.83	-1731.08	  414.58
     35.7700	  489.00	  533.31	-1805.56	  414.24
     35.8700	  547.00	  531.99	-1746.24	  413.91
     35.9700	  496.00	  530.83	-1796.08	  413.57
     36.0700	  536.00	  529.80	-1755.05	  413.24
     36.1700	  529.00	  528.89	-1761.14	  412.91
     36.2700	  499.00	  528.04	-1790.29	  412.58
     36.3700	  532.00	  527.29	-1756.54	  412.25
     36.4700	  484.00	  526.62	-1803.87	  411.92
     36.5700	  499.00	  526.01	-1788.26	  411.59
     36.6700	  475.00	  525.46	-1811.71	  411.27
     36.7700	  474.00	  524.98	-1812.23	  410.95
     36.8700	  518.00	  524.57	-1767.82	  410.62
     36.9700	  506.00	  524.25	-1779.50	  410.30
     37.0700	  545.00	  524.09	-1740.34	  409.99
     37.1700	  502.00	  524.16	-1783.41	  409.67
     37.2700	  485.00	  524.61	-1800.86	  409.35
     37.3700	  511.00	  525.58	-1775.83	  409.04
     37.4700	  531.00	  527.21	-1757.46	  408.73
     37.5700	  515.00	  529.64	-1775.89	  408.42
     37.6700	  515.00	  532.22	-1778.47	  408.11
     37.7700	  529.00	  534.44	-1766.69	  407.81
     37.8700	  503.00	  535.34	-1793.59	  407.50
     37.9700	  530.00	  534.29	-1765.54	  407.20
     38.0700	  478.00	  531.67	-1814.92	  406.90
     38.1700	  538.00	  528.47	-1751.72	  406.60
     38.2700	  514.00	  525.42	-1772.67	  406.30
     38.3700	  480.00	  522.84	-1804.09	  406.00
     38.4700	  506.00	  520.84	-1776.09	  405.71
     38.5700	  490.00	  519.39	-1790.64	  405.42
     38.6700	  492.00	  518.34	-1787.59	  405.12
     38.7700	  493.00	  517.58	-1785.83	  404.84
     38.8700	  501.00	  516.98	-1777.23	  404.55
     38.9700	  498.00	  516.50	-1779.75	  404.26
     39.0700	  485.00	  516.07	-1792.32	  403.98
     39.1700	  512.00	  515.69	-1764.94	  403.70
     39.2700	  533.00	  515.33	-1743.58	  403.42
     39.3700	  494.00	  515.00	-1782.25	  403.14
     39.4700	  517.00	  514.57	-1758.82	  402.86
     39.5700	  521.00	  514.28	-1754.53	  402.59
     39.6700	  517.00	  514.00	-1758.25	  402.31
     39.7700	  503.00	  513.73	-1771.98	  402.04
     39.8700	  538.00	  513.48	-1736.73	  401.77
     39.9700	  485.00	  513.24	-1789.49	  401.51
     40.0700	  501.00	  513.01	-1773.26	  401.24
     40.1700	  491.00	  512.79	-1783.04	  400.98
     40.2700	  490.00	  513.12	-1784.37	  400.72
     40.3700	  477.00	  512.84	-1797.09	  400.46
     40.4700	  541.00	  512.72	-1732.97	  400.20
     40.5700	  524.00	  512.57	-1749.82	  399.94
     40.6700	  529.00	  512.44	-1744.69	  399.69
     40.7700	  508.00	  512.33	-1765.58	  399.44
