MSG Master    CELL:    5.91918   5.91918  23.27626   90.0000   90.0000  120.0000   SPGR: P 63/m m c             TEMP:   1074.85
  1   1280     2.52000     0.00000    -0.12682     0.00000     0.00000    0
    99     0     2
       0.00000      10.00000
     125.00000     130.00000
 2Theta	Yobs	Ycal	Yobs-Ycal	Backg	Posr	(hkl)	K
      0.7700	    0.00	  522.85	-1744.25	  404.24
      0.8700	    0.00	  523.76	-1744.25	  405.15
      0.9700	   36.00	  524.66	-1744.25	  406.05
      1.0700	   51.00	  525.55	-1744.25	  406.94
      1.1700	   41.00	  526.43	-1744.25	  407.81
      1.2700	   45.00	  527.29	-1744.25	  408.68
      1.3700	   46.00	  528.15	-1744.25	  409.53
      1.4700	  106.00	  528.99	-1744.25	  410.38
      1.5700	  326.00	  529.82	-1744.25	  411.21
      1.6700	  478.00	  530.64	-1744.25	  412.03
      1.7700	  590.00	  531.45	-1744.25	  412.83
      1.8700	  604.00	  532.25	-1744.25	  413.63
      1.9700	  716.00	  533.03	-1744.25	  414.42
      2.0700	  750.00	  533.81	-1744.25	  415.19
      2.1700	  760.00	  534.57	-1744.25	  415.96
      2.2700	  766.00	  535.33	-1744.25	  416.71
      2.3700	  711.00	  536.07	-1744.25	  417.46
      2.4700	  729.00	  536.81	-1744.25	  418.19
      2.5700	  673.00	  537.53	-1744.25	  418.91
      2.6700	  681.00	  538.24	-1744.25	  419.62
      2.7700	  652.00	  538.94	-1744.25	  420.32
      2.8700	  632.00	  539.63	-1744.25	  421.02
      2.9700	  670.00	  540.31	-1744.25	  421.70
      3.0700	  577.00	  540.98	-1744.25	  422.37
      3.1700	  595.00	  541.64	-1744.25	  423.03
      3.2700	  596.00	  542.29	-1744.25	  423.68
      3.3700	  758.00	  542.93	-1744.25	  424.32
      3.4700	  740.00	  543.56	-1744.25	  424.95
      3.5700	  796.00	  544.18	-1744.25	  425.57
      3.6700	  823.00	  544.79	-1744.25	  426.18
      3.7700	  966.00	  545.39	-1744.25	  426.78
      3.8700	  977.00	  545.99	-1744.25	  427.37
      3.9700	 1017.00	  546.57	-1744.25	  427.95
      4.0700	 1059.00	  547.14	-1744.25	  428.52
      4.1700	 1098.00	  547.70	-1744.25	  429.09
      4.2700	 1118.00	  548.26	-1744.25	  429.64
      4.3700	 1093.00	  548.80	-1744.25	  430.18
      4.4700	 1040.00	  549.33	-1744.25	  430.72
      4.5700	 1093.00	  549.86	-1744.25	  431.24
      4.6700	 1028.00	  550.38	-1744.25	  431.76
      4.7700	 1013.00	  550.88	-1744.25	  432.27
      4.8700	  993.00	  551.38	-1744.25	  432.77
      4.9700	  930.00	  551.87	-1744.25	  433.25
      5.0700	  916.00	  552.35	-1744.25	  433.73
      5.1700	  932.00	  552.82	-1744.25	  434.21
      5.2700	  882.00	  553.28	-1744.25	  434.67
      5.3700	  870.00	  553.74	-1744.25	  435.12
      5.4700	  876.00	  554.18	-1744.25	  435.57
      5.5700	  806.00	  554.62	-1744.25	  436.01
      5.6700	  875.00	  555.05	-1744.25	  436.43
      5.7700	  824.00	  555.47	-1744.25	  436.85
      5.8700	  840.00	  555.88	-1744.25	  437.27
      5.9700	  828.00	  556.28	-1744.25	  437.67
      6.0700	  790.00	  556.68	-1744.25	  438.06
      6.1700	  812.00	  557.07	-1744.25	  438.45
      6.2700	  770.00	  557.44	-1744.25	  438.83
      6.3700	  812.00	  557.82	-1744.25	  439.20
      6.4700	  803.00	  558.18	-1744.25	  439.56
      6.5700	  724.00	  558.53	-1744.25	  439.92
      6.6700	  707.00	  558.88	-1744.25	  440.26
      6.7700	  748.00	  559.22	-1744.25	  440.60
      6.8700	  708.00	  559.55	-1744.25	  440.93
      6.9700	  719.00	  559.87	-1744.25	  441.26
      7.0700	  736.00	  560.19	-1744.25	  441.57
      7.1700	  729.00	  560.50	-1744.25	  441.88
      7.2700	  718.00	  560.80	-1744.25	  442.18
      7.3700	  649.00	  561.09	-1744.25	  442.48
      7.4700	  652.00	  561.38	-1744.25	  442.76
      7.5700	  648.00	  561.66	-1744.25	  443.04
      7.6700	  674.00	  561.93	-1744.25	  443.31
      7.7700	  645.00	  562.19	-1744.25	  443.58
      7.8700	  632.00	  562.45	-1744.25	  443.83
      7.9700	  654.00	  562.70	-1744.25	  444.08
      8.0700	  657.00	  562.94	-1744.25	  444.33
      8.1700	  623.00	  563.18	-1744.25	  444.56
      8.2700	  643.00	  563.41	-1744.25	  444.79
      8.3700	  670.00	  563.63	-1744.25	  445.01
      8.4700	  607.00	  563.85	-1744.25	  445.23
      8.5700	  660.00	  564.05	-1744.25	  445.44
      8.6700	  622.00	  564.26	-1744.25	  445.64
      8.7700	  595.00	  564.45	-1744.25	  445.84
      8.8700	  644.00	  564.64	-1744.25	  446.02
      8.9700	  594.00	  564.82	-1744.25	  446.21
      9.0700	  617.00	  565.00	-1744.25	  446.38
      9.1700	  619.00	  565.17	-1744.25	  446.55
      9.2700	  622.00	  565.33	-1744.25	  446.71
      9.3700	  595.00	  565.48	-1744.25	  446.87
      9.4700	  543.00	  565.63	-1744.25	  447.02
      9.5700	  581.00	  565.78	-1744.25	  447.16
      9.6700	  601.00	  565.92	-1744.25	  447.30
      9.7700	  609.00	  566.05	-1744.25	  447.43
      9.8700	  631.00	  566.17	-1744.25	  447.56
      9.9700	  649.00	  566.29	-1744.25	  447.68
     10.0700	  547.00	  567.34	-1764.59	  447.79
     10.1700	  557.00	  567.55	-1754.80	  447.90
     10.2700	  629.00	  567.78	-1683.03	  448.00
     10.3700	  570.00	  568.04	-1742.29	  448.10
     10.4700	  570.00	  568.37	-1742.62	  448.19
     10.5700	  570.00	  568.83	-1743.08	  448.27
     10.6700	  600.00	  569.52	-1713.77	  448.35
     10.7700	  598.00	  570.57	-1716.82	  448.42
     10.8700	  569.00	  572.06	-1747.31	  448.49
     10.9700	  602.00	  573.97	-1716.22	  448.55
     11.0700	  552.00	  576.27	-1768.52	  448.61
     11.1700	  551.00	  578.96	-1772.21	  448.66
     11.2700	  587.00	  582.07	-1739.32	  448.71
     11.3700	  590.00	  585.71	-1739.96	  448.75
     11.4700	  559.00	  590.01	-1775.26	  448.79
     11.5700	  578.00	  595.21	-1761.46	  448.82
     11.6700	  603.00	  601.71	-1742.96	  448.84
     11.7700	  653.00	  610.20	-1701.45	  448.86
     11.8700	  653.00	  621.66	-1712.91	  448.88
     11.9700	  675.00	  636.66	-1705.91	  448.89
     12.0700	  681.00	  653.24	-1716.49	  448.89
     12.1700	  737.00	  664.55	-1671.80	  448.89
     12.2700	  680.00	  660.20	-1724.45	  448.89
     12.3700	  640.00	  637.56	-1741.81	  448.88
     12.4700	  601.00	  610.39	-1753.64	  448.87
     12.5700	  568.00	  590.52	-1766.77	  448.85
     12.6700	  640.00	  579.61	-1683.86	  448.82
     12.7700	  544.00	  574.60	-1774.85	  448.80
     12.8700	  594.00	  572.34	-1722.59	  448.76
     12.9700	  502.00	  571.13	-1813.38	  448.73
     13.0700	  573.00	  570.35	-1741.60	  448.69
     13.1700	  547.00	  569.77	-1767.02	  448.64
     13.2700	  550.00	  569.33	-1763.58	  448.59
     13.3700	  552.00	  568.97	-1761.22	  448.53
     13.4700	  563.00	  568.67	-1749.92	  448.48
     13.5700	  594.00	  568.42	-1718.67	  448.41
     13.6700	  533.00	  568.20	-1779.45	  448.35
     13.7700	  527.00	  568.00	-1785.25	  448.27
     13.8700	  543.00	  567.82	-1769.07	  448.20
     13.9700	  562.00	  567.65	-1749.90	  448.12
     14.0700	  538.00	  567.49	-1773.74	  448.04
     14.1700	  542.00	  567.34	-1769.59	  447.95
     14.2700	  580.00	  567.19	-1731.44	  447.86
     14.3700	  561.00	  567.04	-1750.29	  447.76
     14.4700	  562.00	  566.90	-1749.15	  447.66
     14.5700	  544.00	  566.76	-1767.01	  447.56
     14.6700	  549.00	  566.62	-1761.87	  447.45
     14.7700	  562.00	  566.48	-1748.73	  447.34
     14.8700	  545.00	  566.34	-1765.59	  447.23
     14.9700	  566.00	  566.20	-1744.45	  447.11
     15.0700	  570.00	  566.06	-1740.31	  446.99
     15.1700	  534.00	  565.91	-1776.16	  446.86
     15.2700	  549.00	  565.77	-1761.02	  446.73
     15.3700	  543.00	  565.62	-1766.87	  446.60
     15.4700	  595.00	  565.47	-1714.72	  446.47
     15.5700	  545.00	  565.32	-1764.57	  446.33
     15.6700	  564.00	  565.16	-1745.41	  446.19
     15.7700	  565.00	  565.01	-1744.26	  446.04
     15.8700	  557.00	  564.85	-1752.10	  445.89
     15.9700	  568.00	  564.72	-1740.97	  445.74
     16.0700	  537.00	  564.55	-1771.80	  445.59
     16.1700	  537.00	  564.39	-1771.64	  445.43
     16.2700	  569.00	  564.22	-1739.47	  445.27
     16.3700	  601.00	  564.05	-1707.30	  445.10
     16.4700	  592.00	  563.88	-1716.13	  444.94
     16.5700	  525.00	  563.70	-1782.95	  444.77
     16.6700	  569.00	  563.52	-1738.77	  444.59
     16.7700	  534.00	  563.34	-1773.59	  444.42
     16.8700	  531.00	  563.16	-1776.41	  444.24
     16.9700	  568.00	  562.97	-1739.22	  444.06
     17.0700	  585.00	  562.78	-1722.03	  443.87
     17.1700	  548.00	  562.59	-1758.84	  443.68
     17.2700	  561.00	  562.40	-1745.65	  443.49
     17.3700	  530.00	  562.21	-1776.46	  443.30
     17.4700	  555.00	  562.01	-1751.26	  443.11
     17.5700	  567.00	  561.81	-1739.06	  442.91
     17.6700	  552.00	  561.61	-1753.86	  442.71
     17.7700	  544.00	  561.40	-1761.65	  442.50
     17.8700	  582.00	  561.20	-1723.45	  442.30
     17.9700	  545.00	  560.99	-1760.24	  442.09
     18.0700	  592.00	  560.88	-1713.13	  441.88
     18.1700	  609.00	  560.67	-1695.92	  441.67
     18.2700	  590.00	  560.45	-1714.70	  441.45
     18.3700	  567.00	  560.24	-1737.49	  441.24
     18.4700	  608.00	  560.02	-1696.27	  441.02
     18.5700	  593.00	  559.80	-1711.05	  440.79
     18.6700	  554.00	  559.58	-1749.83	  440.57
     18.7700	  516.00	  559.35	-1787.60	  440.34
     18.8700	  522.00	  559.21	-1781.46	  440.12
     18.9700	  551.00	  558.98	-1752.23	  439.89
     19.0700	  596.00	  558.75	-1707.00	  439.65
     19.1700	  591.00	  558.53	-1711.78	  439.42
     19.2700	  573.00	  558.29	-1729.54	  439.18
     19.3700	  602.00	  558.06	-1700.31	  438.94
     19.4700	  525.00	  557.83	-1777.08	  438.70
     19.5700	  575.00	  557.59	-1726.84	  438.46
     19.6700	  532.00	  557.36	-1769.61	  438.22
     19.7700	  563.00	  557.12	-1738.37	  437.97
     19.8700	  563.00	  556.88	-1738.13	  437.72
     19.9700	  509.00	  556.64	-1791.89	  437.47
     20.0700	  585.00	  556.40	-1715.65	  437.22
     20.1700	  564.00	  556.15	-1736.40	  436.97
     20.2700	  539.00	  555.91	-1761.16	  436.71
     20.3700	  572.00	  555.66	-1727.91	  436.46
     20.4700	  525.00	  555.42	-1774.67	  436.20
     20.5700	  576.00	  555.17	-1723.42	  435.94
     20.6700	  562.00	  554.88	-1737.13	  435.68
     20.7700	  574.00	  554.63	-1724.88	  435.42
     20.8700	  554.00	  554.42	-1744.67	  435.15
     20.9700	  541.00	  554.17	-1757.42	  434.89
     21.0700	  555.00	  553.92	-1743.17	  434.62
     21.1700	  545.00	  553.67	-1752.92	  434.35
     21.2700	  537.00	  553.42	-1760.67	  434.08
     21.3700	  543.00	  553.17	-1754.42	  433.81
     21.4700	  571.00	  552.92	-1726.17	  433.54
     21.5700	  561.00	  552.67	-1735.92	  433.27
     21.6700	  594.00	  552.43	-1702.68	  432.99
     21.7700	  557.00	  552.18	-1739.43	  432.72
     21.8700	  549.00	  551.93	-1747.18	  432.44
     21.9700	  556.00	  551.68	-1739.93	  432.16
     22.0700	  556.00	  551.44	-1739.69	  431.88
     22.1700	  532.00	  551.20	-1763.45	  431.60
     22.2700	  553.00	  550.96	-1742.21	  431.32
     22.3700	  568.00	  550.72	-1726.97	  431.04
     22.4700	  540.00	  550.49	-1754.74	  430.75
     22.5700	  574.00	  550.26	-1720.51	  430.47
     22.6700	  524.00	  550.04	-1770.29	  430.18
     22.7700	  555.00	  549.82	-1739.07	  429.90
     22.8700	  543.00	  549.61	-1750.86	  429.61
     22.9700	  567.00	  549.41	-1726.66	  429.32
     23.0700	  547.00	  549.23	-1746.48	  429.03
     23.1700	  547.00	  549.06	-1746.31	  428.74
     23.2700	  557.00	  548.91	-1736.16	  428.45
     23.3700	  578.00	  548.79	-1715.04	  428.16
     23.4700	  529.00	  548.70	-1763.95	  427.87
     23.5700	  562.00	  548.66	-1730.91	  427.57
     23.6700	  555.00	  548.84	-1738.09	  427.28
     23.7700	  530.00	  549.00	-1763.25	  426.99
     23.8700	  524.00	  549.38	-1769.63	  426.69
     23.9700	  549.00	  550.22	-1745.47	  426.40
     24.0700	  589.00	  551.94	-1707.19	  426.10
     24.1700	  585.00	  555.20	-1714.45	  425.80
     24.2700	  555.00	  560.81	-1750.06	  425.51
     24.3700	  546.00	  569.69	-1767.94	  425.21
     24.4700	  592.00	  582.78	-1735.03	  424.91
     24.5700	  584.00	  600.09	-1760.34	  424.61
     24.6700	  598.00	  618.68	-1764.93	  424.31
     24.7700	  629.00	  630.93	-1746.18	  424.01
     24.8700	  626.00	  627.11	-1745.36	  423.71
     24.9700	  661.00	  606.74	-1689.99	  423.41
     25.0700	  618.00	  582.68	-1708.93	  423.11
     25.1700	  570.00	  564.73	-1738.98	  422.81
     25.2700	  561.00	  554.48	-1737.73	  422.51
     25.3700	  581.00	  549.56	-1712.81	  422.21
     25.4700	  543.00	  547.28	-1748.53	  421.91
     25.5700	  611.00	  546.06	-1679.31	  421.61
     25.6700	  531.00	  545.27	-1758.52	  421.30
     25.7700	  564.00	  544.70	-1724.95	  421.00
     25.8700	  545.00	  544.27	-1743.52	  420.70
     25.9700	  583.00	  543.95	-1705.20	  420.40
     26.0700	  527.00	  543.72	-1760.97	  420.09
     26.1700	  604.00	  543.56	-1683.81	  419.79
     26.2700	  542.00	  543.48	-1745.73	  419.49
     26.3700	  539.00	  543.48	-1748.73	  419.19
     26.4700	  568.00	  543.56	-1719.81	  418.88
     26.5700	  563.00	  543.73	-1724.98	  418.58
     26.6700	  559.00	  544.02	-1729.27	  418.28
     26.7700	  551.00	  544.44	-1737.69	  417.97
     26.8700	  530.00	  545.04	-1759.29	  417.67
     26.9700	  576.00	  545.85	-1714.10	  417.37
     27.0700	  550.00	  546.96	-1741.21	  417.07
     27.1700	  575.00	  548.51	-1717.76	  416.76
     27.2700	  525.00	  550.73	-1769.98	  416.46
     27.3700	  575.00	  554.14	-1723.39	  416.16
     27.4700	  561.00	  559.71	-1742.96	  415.86
     27.5700	  520.00	  569.20	-1793.45	  415.56
     27.6700	  550.00	  585.38	-1779.63	  415.25
     27.7700	  573.00	  611.85	-1783.10	  414.95
     27.8700	  664.00	  651.69	-1731.94	  414.65
     27.9700	  619.00	  705.00	-1830.25	  414.35
     28.0700	  819.00	  765.59	-1690.84	  414.05
     28.1700	  876.00	  818.10	-1686.35	  413.75
     28.2700	  990.00	  839.53	-1593.78	  413.45
     28.3700	  888.00	  816.57	-1672.82	  413.15
     28.4700	  802.00	  770.97	-1713.22	  412.85
     28.5700	  703.00	  737.99	-1779.24	  412.55
     28.6700	  655.00	  733.58	-1822.83	  412.26
     28.7700	  741.00	  753.20	-1756.45	  411.96
     28.8700	  796.00	  777.88	-1726.13	  411.66
     28.9700	  782.00	  781.20	-1743.45	  411.36
     29.0700	  759.00	  746.67	-1731.92	  411.07
     29.1700	  679.00	  688.79	-1754.04	  410.77
     29.2700	  635.00	  633.81	-1743.06	  410.48
     29.3700	  621.00	  594.17	-1717.42	  410.18
     29.4700	  610.00	  570.17	-1704.42	  409.89
     29.5700	  595.00	  557.17	-1706.42	  409.59
     29.6700	  599.00	  550.27	-1695.52	  409.30
     29.7700	  569.00	  546.36	-1721.61	  409.01
     29.8700	  586.00	  543.93	-1702.18	  408.71
     29.9700	  568.00	  542.40	-1718.65	  408.42
     30.0700	  548.00	  541.64	-1737.89	  408.13
     30.1700	  529.00	  541.82	-1757.07	  407.84
     30.2700	  507.00	  543.47	-1780.72	  407.55
     30.3700	  552.00	  547.60	-1739.85	  407.26
     30.4700	  560.00	  555.75	-1740.00	  406.98
     30.5700	  583.00	  569.50	-1730.75	  406.69
     30.6700	  566.00	  589.22	-1767.47	  406.40
     30.7700	  582.00	  612.42	-1774.67	  406.12
     30.8700	  648.00	  632.45	-1728.70	  405.83
     30.9700	  598.00	  639.33	-1785.58	  405.55
     31.0700	  603.00	  626.30	-1767.55	  405.26
     31.1700	  565.00	  600.24	-1779.49	  404.98
     31.2700	  572.00	  574.18	-1746.43	  404.70
     31.3700	  516.00	  554.91	-1783.16	  404.42
     31.4700	  521.00	  543.15	-1766.40	  404.14
     31.5700	  531.00	  536.83	-1750.08	  403.86
     31.6700	  564.00	  533.57	-1713.82	  403.58
     31.7700	  561.00	  531.76	-1715.01	  403.30
     31.8700	  528.00	  530.63	-1746.88	  403.03
     31.9700	  575.00	  529.85	-1699.10	  402.75
     32.0700	  545.00	  529.31	-1728.56	  402.48
     32.1700	  563.00	  528.95	-1710.20	  402.20
     32.2700	  556.00	  528.75	-1717.00	  401.93
     32.3700	  582.00	  528.71	-1690.96	  401.66
     32.4700	  549.00	  528.83	-1724.08	  401.39
     32.5700	  510.00	  529.12	-1763.37	  401.12
     32.6700	  555.00	  529.63	-1718.88	  400.85
     32.7700	  557.00	  530.39	-1717.64	  400.58
     32.8700	  532.00	  531.48	-1743.73	  400.31
     32.9700	  524.00	  533.02	-1753.27	  400.05
     33.0700	  514.00	  535.26	-1765.51	  399.78
     33.1700	  527.00	  538.68	-1755.93	  399.52
     33.2700	  552.00	  544.41	-1736.66	  399.26
     33.3700	  625.00	  554.88	-1674.13	  399.00
     33.4700	  619.00	  574.66	-1699.91	  398.73
     33.5700	  589.00	  610.90	-1766.15	  398.48
     33.6700	  631.00	  671.63	-1784.88	  398.22
     33.7700	  795.00	  760.11	-1709.36	  397.96
     33.8700	  854.00	  866.33	-1756.58	  397.70
     33.9700	  999.00	  961.62	-1706.87	  397.45
     34.0700	 1129.00	 1002.54	-1617.79	  397.20
     34.1700	 1047.00	  957.86	-1655.11	  396.94
     34.2700	  871.00	  850.83	-1724.08	  396.69
     34.3700	  813.00	  736.16	-1667.41	  396.44
     34.4700	  612.00	  647.25	-1779.50	  396.19
     34.5700	  590.00	  591.01	-1745.26	  395.95
     34.6700	  570.00	  560.28	-1734.53	  395.70
     34.7700	  559.00	  544.68	-1729.93	  395.45
     34.8700	  568.00	  536.49	-1712.74	  395.21
     34.9700	  517.00	  531.59	-1758.84	  394.97
     35.0700	  510.00	  528.23	-1762.48	  394.73
     35.1700	  514.00	  525.68	-1755.93	  394.49
     35.2700	  498.00	  523.67	-1769.92	  394.25
     35.3700	  495.00	  522.03	-1771.28	  394.01
     35.4700	  530.00	  520.67	-1734.92	  393.77
     35.5700	  486.00	  519.53	-1777.78	  393.54
     35.6700	  535.00	  518.54	-1727.79	  393.31
     35.7700	  518.00	  517.69	-1743.94	  393.07
     35.8700	  503.00	  516.94	-1758.19	  392.84
     35.9700	  518.00	  516.27	-1742.52	  392.61
     36.0700	  539.00	  516.15	-1721.40	  392.39
     36.1700	  496.00	  515.62	-1763.87	  392.16
     36.2700	  516.00	  515.14	-1743.39	  391.93
     36.3700	  538.00	  514.71	-1720.96	  391.71
     36.4700	  506.00	  514.32	-1752.57	  391.49
     36.5700	  536.00	  513.98	-1722.23	  391.27
     36.6700	  482.00	  513.68	-1775.93	  391.05
     36.7700	  548.00	  513.43	-1709.68	  390.83
     36.8700	  461.00	  513.27	-1796.52	  390.61
     36.9700	  494.00	  513.27	-1763.52	  390.39
     37.0700	  493.00	  513.57	-1764.82	  390.18
     37.1700	  564.00	  514.46	-1694.71	  389.97
     37.2700	  542.00	  516.35	-1718.60	  389.76
     37.3700	  508.00	  519.59	-1755.84	  389.55
     37.4700	  543.00	  524.12	-1725.37	  389.34
     37.5700	  521.00	  529.10	-1752.35	  389.13
     37.6700	  553.00	  532.86	-1724.11	  388.92
     37.7700	  537.00	  533.58	-1740.83	  388.72
     37.8700	  523.00	  530.99	-1752.24	  388.52
     37.9700	  505.00	  526.73	-1765.98	  388.32
     38.0700	  513.00	  522.27	-1753.52	  388.12
     38.1700	  495.00	  518.21	-1767.46	  387.92
     38.2700	  475.00	  514.86	-1784.11	  387.72
     38.3700	  517.00	  512.38	-1739.63	  387.53
     38.4700	  553.00	  510.69	-1701.94	  387.33
     38.5700	  492.00	  509.59	-1761.84	  387.14
     38.6700	  537.00	  508.88	-1716.13	  386.95
     38.7700	  524.00	  508.30	-1728.55	  386.76
     38.8700	  524.00	  507.95	-1728.20	  386.57
     38.9700	  480.00	  507.65	-1771.90	  386.39
     39.0700	  505.00	  507.39	-1746.64	  386.20
     39.1700	  517.00	  507.16	-1734.41	  386.02
     39.2700	  540.00	  506.87	-1711.12	  385.84
     39.3700	  531.00	  506.67	-1719.92	  385.66
     39.4700	  509.00	  506.62	-1741.87	  385.48
     39.5700	  499.00	  506.44	-1751.69	  385.30
     39.6700	  504.00	  506.28	-1746.53	  385.13
     39.7700	  502.00	  506.12	-1748.37	  384.95
     39.8700	  531.00	  505.98	-1719.23	  384.78
     39.9700	  502.00	  505.85	-1748.10	  384.61
     40.0700	  495.00	  505.72	-1754.97	  384.44
     40.1700	  535.00	  505.61	-1714.86	  384.28
     40.2700	  513.00	  505.51	-1736.76	  384.11
     40.3700	  480.00	  505.42	-1769.67	  383.95
     40.4700	  474.00	  505.34	-1775.59	  383.78
     40.5700	  485.00	  505.28	-1764.53	  383.62
     40.6700	  471.00	  505.24	-1778.49	  383.46
     40.7700	  533.00	  505.21	-1716.46	  383.30
