MSG Master    CELL:    5.91914   5.91914  23.27050   90.0000   90.0000  120.0000   SPGR: P 63/m m c             TEMP:   1074.85
  1   1280     2.52000     0.00000    -0.12750     0.00000     0.00000    0
    99     0     2
       0.00000      10.00000
     125.00000     130.00000
 2Theta	Yobs	Ycal	Yobs-Ycal	Backg	Posr	(hkl)	K
      0.7700	    0.00	  575.56	-1782.00	  457.01
      0.8700	    0.00	  575.88	-1782.00	  457.32
      0.9700	   43.00	  576.18	-1782.00	  457.62
      1.0700	   46.00	  576.48	-1782.00	  457.92
      1.1700	   42.00	  576.77	-1782.00	  458.21
      1.2700	   44.00	  577.05	-1782.00	  458.50
      1.3700	   56.00	  577.33	-1782.00	  458.77
      1.4700	   88.00	  577.60	-1782.00	  459.04
      1.5700	  281.00	  577.86	-1782.00	  459.30
      1.6700	  414.00	  578.12	-1782.00	  459.56
      1.7700	  545.00	  578.36	-1782.00	  459.81
      1.8700	  666.00	  578.60	-1782.00	  460.05
      1.9700	  766.00	  578.84	-1782.00	  460.28
      2.0700	  785.00	  579.07	-1782.00	  460.51
      2.1700	  725.00	  579.29	-1782.00	  460.73
      2.2700	  821.00	  579.50	-1782.00	  460.94
      2.3700	  721.00	  579.71	-1782.00	  461.15
      2.4700	  733.00	  579.91	-1782.00	  461.35
      2.5700	  690.00	  580.10	-1782.00	  461.54
      2.6700	  661.00	  580.29	-1782.00	  461.73
      2.7700	  653.00	  580.47	-1782.00	  461.91
      2.8700	  612.00	  580.64	-1782.00	  462.09
      2.9700	  621.00	  580.81	-1782.00	  462.25
      3.0700	  636.00	  580.97	-1782.00	  462.42
      3.1700	  575.00	  581.13	-1782.00	  462.57
      3.2700	  635.00	  581.28	-1782.00	  462.72
      3.3700	  675.00	  581.42	-1782.00	  462.87
      3.4700	  753.00	  581.56	-1782.00	  463.00
      3.5700	  864.00	  581.69	-1782.00	  463.13
      3.6700	  899.00	  581.82	-1782.00	  463.26
      3.7700	  904.00	  581.94	-1782.00	  463.38
      3.8700	  967.00	  582.05	-1782.00	  463.49
      3.9700	 1015.00	  582.16	-1782.00	  463.60
      4.0700	  997.00	  582.26	-1782.00	  463.70
      4.1700	 1136.00	  582.35	-1782.00	  463.80
      4.2700	 1084.00	  582.44	-1782.00	  463.89
      4.3700	 1106.00	  582.53	-1782.00	  463.97
      4.4700	 1083.00	  582.61	-1782.00	  464.05
      4.5700	 1034.00	  582.68	-1782.00	  464.12
      4.6700	 1012.00	  582.75	-1782.00	  464.19
      4.7700	 1051.00	  582.81	-1782.00	  464.25
      4.8700	  968.00	  582.87	-1782.00	  464.31
      4.9700	  996.00	  582.92	-1782.00	  464.36
      5.0700	  951.00	  582.97	-1782.00	  464.41
      5.1700	  886.00	  583.01	-1782.00	  464.45
      5.2700	  902.00	  583.04	-1782.00	  464.48
      5.3700	  838.00	  583.07	-1782.00	  464.52
      5.4700	  849.00	  583.10	-1782.00	  464.54
      5.5700	  841.00	  583.12	-1782.00	  464.56
      5.6700	  791.00	  583.13	-1782.00	  464.58
      5.7700	  805.00	  583.14	-1782.00	  464.59
      5.8700	  788.00	  583.15	-1782.00	  464.59
      5.9700	  821.00	  583.15	-1782.00	  464.59
      6.0700	  841.00	  583.14	-1782.00	  464.59
      6.1700	  760.00	  583.14	-1782.00	  464.58
      6.2700	  810.00	  583.12	-1782.00	  464.56
      6.3700	  751.00	  583.10	-1782.00	  464.54
      6.4700	  775.00	  583.08	-1782.00	  464.52
      6.5700	  715.00	  583.05	-1782.00	  464.49
      6.6700	  780.00	  583.02	-1782.00	  464.46
      6.7700	  764.00	  582.98	-1782.00	  464.42
      6.8700	  769.00	  582.94	-1782.00	  464.38
      6.9700	  704.00	  582.89	-1782.00	  464.33
      7.0700	  689.00	  582.84	-1782.00	  464.28
      7.1700	  699.00	  582.79	-1782.00	  464.23
      7.2700	  689.00	  582.73	-1782.00	  464.17
      7.3700	  695.00	  582.66	-1782.00	  464.11
      7.4700	  654.00	  582.60	-1782.00	  464.04
      7.5700	  623.00	  582.52	-1782.00	  463.97
      7.6700	  659.00	  582.45	-1782.00	  463.89
      7.7700	  650.00	  582.37	-1782.00	  463.81
      7.8700	  644.00	  582.28	-1782.00	  463.72
      7.9700	  616.00	  582.19	-1782.00	  463.64
      8.0700	  619.00	  582.10	-1782.00	  463.54
      8.1700	  638.00	  582.00	-1782.00	  463.45
      8.2700	  629.00	  581.90	-1782.00	  463.35
      8.3700	  652.00	  581.80	-1782.00	  463.24
      8.4700	  636.00	  581.69	-1782.00	  463.13
      8.5700	  677.00	  581.58	-1782.00	  463.02
      8.6700	  603.00	  581.46	-1782.00	  462.90
      8.7700	  618.00	  581.34	-1782.00	  462.78
      8.8700	  611.00	  581.22	-1782.00	  462.66
      8.9700	  634.00	  581.09	-1782.00	  462.53
      9.0700	  653.00	  580.96	-1782.00	  462.40
      9.1700	  612.00	  580.83	-1782.00	  462.27
      9.2700	  594.00	  580.69	-1782.00	  462.13
      9.3700	  609.00	  580.55	-1782.00	  461.99
      9.4700	  618.00	  580.40	-1782.00	  461.85
      9.5700	  593.00	  580.26	-1782.00	  461.70
      9.6700	  592.00	  580.11	-1782.00	  461.55
      9.7700	  629.00	  579.95	-1782.00	  461.39
      9.8700	  605.00	  579.79	-1782.00	  461.24
      9.9700	  621.00	  579.63	-1782.00	  461.07
     10.0700	  534.00	  580.14	-1828.14	  460.91
     10.1700	  573.00	  580.04	-1789.04	  460.74
     10.2700	  624.00	  579.95	-1737.95	  460.57
     10.3700	  608.00	  579.89	-1753.89	  460.40
     10.4700	  580.00	  579.87	-1781.87	  460.22
     10.5700	  629.00	  579.95	-1732.95	  460.04
     10.6700	  597.00	  580.21	-1765.21	  459.86
     10.7700	  592.00	  580.75	-1770.75	  459.67
     10.8700	  583.00	  581.64	-1780.64	  459.48
     10.9700	  603.00	  582.88	-1761.88	  459.29
     11.0700	  600.00	  584.41	-1766.41	  459.10
     11.1700	  596.00	  586.25	-1772.25	  458.90
     11.2700	  597.00	  588.41	-1773.41	  458.70
     11.3700	  585.00	  590.98	-1787.98	  458.50
     11.4700	  611.00	  594.06	-1765.06	  458.29
     11.5700	  605.00	  597.83	-1774.83	  458.08
     11.6700	  618.00	  602.60	-1766.60	  457.87
     11.7700	  622.00	  608.93	-1768.93	  457.66
     11.8700	  643.00	  617.68	-1756.68	  457.44
     11.9700	  670.00	  629.60	-1741.60	  457.23
     12.0700	  673.00	  643.41	-1752.41	  457.00
     12.1700	  678.00	  653.37	-1757.37	  456.78
     12.2700	  659.00	  650.21	-1773.21	  456.56
     12.3700	  629.00	  631.11	-1784.11	  456.33
     12.4700	  619.00	  608.01	-1771.01	  456.10
     12.5700	  589.00	  591.44	-1784.44	  455.86
     12.6700	  579.00	  582.70	-1785.70	  455.63
     12.7700	  554.00	  578.85	-1806.85	  455.39
     12.8700	  557.00	  577.09	-1802.09	  455.15
     12.9700	  579.00	  576.06	-1779.06	  454.91
     13.0700	  578.00	  575.32	-1779.32	  454.67
     13.1700	  551.00	  574.72	-1805.72	  454.42
     13.2700	  532.00	  574.20	-1824.20	  454.17
     13.3700	  589.00	  573.75	-1766.75	  453.92
     13.4700	  558.00	  573.33	-1797.33	  453.67
     13.5700	  579.00	  572.95	-1775.95	  453.41
     13.6700	  589.00	  572.59	-1765.59	  453.16
     13.7700	  539.00	  572.25	-1815.25	  452.90
     13.8700	  561.00	  571.92	-1792.92	  452.64
     13.9700	  520.00	  571.60	-1833.60	  452.38
     14.0700	  579.00	  571.28	-1774.28	  452.11
     14.1700	  583.00	  570.97	-1769.97	  451.85
     14.2700	  530.00	  570.67	-1822.67	  451.58
     14.3700	  565.00	  570.36	-1787.36	  451.31
     14.4700	  537.00	  570.07	-1815.07	  451.04
     14.5700	  558.00	  569.77	-1793.77	  450.77
     14.6700	  595.00	  569.47	-1756.47	  450.49
     14.7700	  535.00	  569.18	-1816.18	  450.22
     14.8700	  555.00	  568.88	-1795.88	  449.94
     14.9700	  534.00	  568.59	-1816.59	  449.66
     15.0700	  510.00	  568.29	-1840.29	  449.38
     15.1700	  559.00	  568.00	-1791.00	  449.10
     15.2700	  591.00	  567.70	-1758.70	  448.81
     15.3700	  550.00	  567.41	-1799.41	  448.53
     15.4700	  579.00	  567.11	-1770.11	  448.24
     15.5700	  572.00	  566.81	-1776.81	  447.95
     15.6700	  631.00	  566.52	-1717.52	  447.67
     15.7700	  602.00	  566.22	-1746.22	  447.38
     15.8700	  537.00	  565.92	-1810.92	  447.08
     15.9700	  539.00	  565.62	-1808.62	  446.79
     16.0700	  561.00	  565.32	-1786.32	  446.50
     16.1700	  508.00	  565.02	-1839.02	  446.20
     16.2700	  512.00	  564.72	-1834.72	  445.90
     16.3700	  559.00	  564.44	-1787.44	  445.60
     16.4700	  582.00	  564.14	-1764.14	  445.31
     16.5700	  549.00	  563.83	-1796.83	  445.01
     16.6700	  560.00	  563.53	-1785.53	  444.70
     16.7700	  578.00	  563.22	-1767.22	  444.40
     16.8700	  594.00	  562.92	-1750.92	  444.10
     16.9700	  560.00	  562.61	-1784.61	  443.79
     17.0700	  584.00	  562.30	-1760.30	  443.49
     17.1700	  545.00	  561.99	-1798.99	  443.18
     17.2700	  559.00	  561.68	-1784.68	  442.87
     17.3700	  549.00	  561.37	-1794.37	  442.57
     17.4700	  548.00	  561.06	-1795.06	  442.26
     17.5700	  565.00	  560.75	-1777.75	  441.95
     17.6700	  550.00	  560.44	-1792.44	  441.64
     17.7700	  534.00	  560.13	-1808.13	  441.32
     17.8700	  556.00	  559.82	-1785.82	  441.01
     17.9700	  584.00	  559.60	-1757.60	  440.70
     18.0700	  603.00	  559.29	-1738.29	  440.38
     18.1700	  561.00	  558.98	-1779.98	  440.07
     18.2700	  585.00	  558.67	-1755.67	  439.75
     18.3700	  549.00	  558.35	-1791.35	  439.44
     18.4700	  562.00	  558.04	-1778.04	  439.12
     18.5700	  533.00	  557.72	-1806.72	  438.80
     18.6700	  542.00	  557.41	-1797.41	  438.49
     18.7700	  552.00	  557.09	-1787.09	  438.17
     18.8700	  557.00	  556.78	-1781.78	  437.85
     18.9700	  540.00	  556.55	-1798.55	  437.53
     19.0700	  526.00	  556.23	-1812.23	  437.21
     19.1700	  558.00	  555.92	-1779.92	  436.89
     19.2700	  543.00	  555.60	-1794.60	  436.57
     19.3700	  573.00	  555.29	-1764.29	  436.25
     19.4700	  551.00	  554.97	-1785.97	  435.92
     19.5700	  532.00	  554.66	-1804.66	  435.60
     19.6700	  596.00	  554.34	-1740.34	  435.28
     19.7700	  540.00	  554.03	-1796.03	  434.96
     19.8700	  545.00	  553.71	-1790.71	  434.63
     19.9700	  550.00	  553.40	-1785.40	  434.31
     20.0700	  536.00	  553.08	-1799.08	  433.99
     20.1700	  528.00	  552.77	-1806.77	  433.66
     20.2700	  537.00	  552.46	-1797.46	  433.34
     20.3700	  508.00	  552.14	-1826.14	  433.01
     20.4700	  527.00	  551.80	-1806.80	  432.69
     20.5700	  591.00	  551.49	-1742.49	  432.37
     20.6700	  532.00	  551.18	-1801.18	  432.04
     20.7700	  489.00	  550.87	-1843.87	  431.72
     20.8700	  563.00	  550.56	-1769.56	  431.39
     20.9700	  521.00	  550.28	-1811.28	  431.07
     21.0700	  531.00	  549.97	-1800.97	  430.74
     21.1700	  528.00	  549.66	-1803.66	  430.42
     21.2700	  506.00	  549.36	-1825.36	  430.09
     21.3700	  565.00	  549.05	-1766.05	  429.76
     21.4700	  553.00	  548.75	-1777.75	  429.44
     21.5700	  545.00	  548.45	-1785.45	  429.11
     21.6700	  549.00	  548.15	-1781.15	  428.79
     21.7700	  512.00	  547.85	-1817.85	  428.46
     21.8700	  544.00	  547.55	-1785.55	  428.14
     21.9700	  536.00	  547.25	-1793.25	  427.81
     22.0700	  511.00	  546.96	-1817.96	  427.49
     22.1700	  557.00	  546.67	-1771.67	  427.17
     22.2700	  543.00	  546.39	-1785.39	  426.84
     22.3700	  581.00	  546.10	-1747.10	  426.52
     22.4700	  530.00	  545.83	-1797.83	  426.19
     22.5700	  568.00	  545.55	-1759.55	  425.87
     22.6700	  518.00	  545.29	-1809.29	  425.55
     22.7700	  581.00	  545.02	-1746.02	  425.22
     22.8700	  583.00	  544.77	-1743.77	  424.90
     22.9700	  566.00	  544.53	-1760.53	  424.58
     23.0700	  522.00	  544.30	-1804.30	  424.25
     23.1700	  540.00	  544.08	-1786.08	  423.93
     23.2700	  556.00	  543.89	-1769.89	  423.61
     23.3700	  535.00	  543.71	-1790.71	  423.29
     23.4700	  501.00	  543.57	-1824.57	  422.97
     23.5700	  565.00	  543.47	-1760.47	  422.65
     23.6700	  560.00	  543.44	-1765.44	  422.33
     23.7700	  545.00	  543.50	-1780.50	  422.01
     23.8700	  526.00	  543.88	-1799.88	  421.69
     23.9700	  546.00	  544.55	-1780.55	  421.37
     24.0700	  569.00	  546.04	-1759.04	  421.05
     24.1700	  528.00	  549.01	-1803.01	  420.74
     24.2700	  618.00	  554.32	-1718.32	  420.42
     24.3700	  581.00	  562.91	-1763.91	  420.10
     24.4700	  587.00	  575.90	-1770.90	  419.79
     24.5700	  595.00	  593.73	-1780.73	  419.47
     24.6700	  638.00	  613.79	-1757.79	  419.16
     24.7700	  598.00	  627.98	-1811.98	  418.84
     24.8700	  631.00	  625.19	-1776.19	  418.53
     24.9700	  656.00	  603.81	-1729.81	  418.21
     25.0700	  587.00	  577.86	-1772.86	  417.90
     25.1700	  562.00	  558.72	-1778.72	  417.59
     25.2700	  581.00	  548.25	-1749.25	  417.28
     25.3700	  613.00	  543.52	-1712.52	  416.97
     25.4700	  563.00	  541.44	-1760.44	  416.66
     25.5700	  535.00	  540.36	-1787.36	  416.35
     25.6700	  555.00	  539.66	-1766.66	  416.04
     25.7700	  590.00	  539.15	-1731.15	  415.73
     25.8700	  545.00	  538.77	-1775.77	  415.43
     25.9700	  551.00	  538.48	-1769.48	  415.12
     26.0700	  576.00	  538.28	-1744.28	  414.82
     26.1700	  550.00	  538.15	-1770.15	  414.51
     26.2700	  522.00	  538.10	-1798.10	  414.21
     26.3700	  552.00	  538.12	-1768.12	  413.91
     26.4700	  565.00	  538.23	-1755.23	  413.60
     26.5700	  553.00	  538.43	-1767.43	  413.30
     26.6700	  542.00	  538.74	-1778.74	  413.00
     26.7700	  549.00	  539.20	-1772.20	  412.70
     26.8700	  596.00	  539.82	-1725.82	  412.41
     26.9700	  565.00	  540.68	-1757.68	  412.11
     27.0700	  521.00	  541.83	-1802.83	  411.81
     27.1700	  511.00	  543.43	-1814.43	  411.52
     27.2700	  544.00	  545.71	-1783.71	  411.22
     27.3700	  542.00	  549.21	-1789.21	  410.93
     27.4700	  549.00	  554.89	-1787.89	  410.63
     27.5700	  562.00	  564.54	-1784.54	  410.34
     27.6700	  559.00	  580.96	-1803.96	  410.05
     27.7700	  593.00	  607.72	-1796.72	  409.76
     27.8700	  620.00	  647.91	-1809.91	  409.47
     27.9700	  663.00	  701.60	-1820.60	  409.19
     28.0700	  775.00	  762.56	-1769.56	  408.90
     28.1700	  857.00	  815.45	-1740.45	  408.61
     28.2700	  956.00	  837.41	-1663.41	  408.33
     28.3700	  970.00	  815.42	-1627.42	  408.04
     28.4700	  770.00	  771.69	-1783.69	  407.76
     28.5700	  688.00	  741.85	-1835.85	  407.48
     28.6700	  687.00	  741.95	-1836.95	  407.20
     28.7700	  778.00	  766.92	-1770.92	  406.92
     28.8700	  816.00	  796.21	-1762.21	  406.64
     28.9700	  757.00	  800.91	-1825.91	  406.37
     29.0700	  777.00	  762.94	-1767.94	  406.09
     29.1700	  721.00	  698.74	-1759.74	  405.82
     29.2700	  657.00	  637.83	-1762.82	  405.54
     29.3700	  586.00	  594.11	-1790.11	  405.27
     29.4700	  610.00	  567.86	-1739.86	  405.00
     29.5700	  564.00	  553.76	-1771.76	  404.73
     29.6700	  641.00	  546.35	-1687.35	  404.46
     29.7700	  653.00	  542.16	-1671.16	  404.19
     29.8700	  592.00	  539.54	-1729.54	  403.93
     29.9700	  544.00	  537.87	-1775.87	  403.66
     30.0700	  543.00	  536.98	-1775.98	  403.40
     30.1700	  532.00	  537.02	-1787.02	  403.14
     30.2700	  557.00	  538.50	-1763.50	  402.88
     30.3700	  567.00	  542.43	-1757.43	  402.62
     30.4700	  542.00	  550.36	-1790.36	  402.36
     30.5700	  548.00	  563.95	-1797.95	  402.10
     30.6700	  543.00	  583.71	-1822.71	  401.84
     30.7700	  577.00	  607.19	-1812.19	  401.59
     30.8700	  635.00	  627.69	-1774.69	  401.33
     30.9700	  669.00	  634.89	-1747.89	  401.08
     31.0700	  590.00	  621.82	-1813.82	  400.83
     31.1700	  591.00	  595.38	-1786.38	  400.58
     31.2700	  546.00	  569.01	-1805.01	  400.33
     31.3700	  544.00	  549.65	-1787.65	  400.09
     31.4700	  537.00	  538.00	-1783.00	  399.84
     31.5700	  516.00	  531.84	-1797.84	  399.60
     31.6700	  546.00	  528.71	-1764.71	  399.35
     31.7700	  553.00	  526.99	-1755.99	  399.11
     31.8700	  559.00	  525.91	-1748.91	  398.87
     31.9700	  538.00	  525.17	-1769.17	  398.63
     32.0700	  542.00	  524.64	-1764.64	  398.40
     32.1700	  506.00	  524.29	-1800.29	  398.16
     32.2700	  523.00	  524.08	-1783.08	  397.93
     32.3700	  555.00	  524.02	-1751.02	  397.69
     32.4700	  527.00	  524.10	-1779.10	  397.46
     32.5700	  535.00	  524.35	-1771.35	  397.23
     32.6700	  584.00	  524.78	-1722.78	  397.00
     32.7700	  542.00	  525.43	-1765.43	  396.78
     32.8700	  577.00	  526.39	-1731.39	  396.55
     32.9700	  522.00	  527.74	-1787.74	  396.33
     33.0700	  556.00	  529.69	-1755.69	  396.10
     33.1700	  594.00	  532.68	-1720.68	  395.88
     33.2700	  567.00	  537.69	-1752.69	  395.66
     33.3700	  560.00	  546.95	-1768.95	  395.44
     33.4700	  582.00	  564.73	-1764.73	  395.23
     33.5700	  605.00	  598.03	-1775.03	  395.01
     33.6700	  624.00	  655.03	-1813.03	  394.80
     33.7700	  753.00	  739.69	-1768.69	  394.58
     33.8700	  895.00	  843.08	-1730.08	  394.37
     33.9700	 1026.00	  937.39	-1693.39	  394.16
     34.0700	 1026.00	  979.54	-1735.54	  393.96
     34.1700	 1022.00	  937.54	-1697.54	  393.75
     34.2700	  863.00	  833.24	-1752.24	  393.54
     34.3700	  777.00	  721.12	-1726.12	  393.34
     34.4700	  648.00	  634.84	-1768.84	  393.14
     34.5700	  609.00	  581.16	-1754.16	  392.94
     34.6700	  561.00	  552.53	-1773.53	  392.74
     34.7700	  543.00	  538.38	-1777.38	  392.54
     34.8700	  567.00	  531.09	-1746.09	  392.35
     34.9700	  530.00	  526.76	-1778.76	  392.15
     35.0700	  563.00	  523.78	-1742.78	  391.96
     35.1700	  504.00	  521.53	-1799.53	  391.77
     35.2700	  537.00	  519.76	-1764.76	  391.58
     35.3700	  538.00	  518.34	-1762.34	  391.39
     35.4700	  517.00	  517.16	-1782.16	  391.21
     35.5700	  536.00	  516.16	-1762.16	  391.02
     35.6700	  527.00	  515.31	-1770.31	  390.84
     35.7700	  539.00	  514.57	-1757.57	  390.66
     35.8700	  505.00	  513.92	-1790.92	  390.48
     35.9700	  494.00	  513.83	-1801.83	  390.30
     36.0700	  521.00	  513.33	-1774.33	  390.12
     36.1700	  517.00	  512.88	-1777.88	  389.95
     36.2700	  513.00	  512.47	-1781.47	  389.77
     36.3700	  501.00	  512.10	-1793.10	  389.60
     36.4700	  488.00	  511.78	-1805.78	  389.43
     36.5700	  541.00	  511.48	-1752.48	  389.26
     36.6700	  542.00	  511.22	-1751.22	  389.09
     36.7700	  510.00	  511.00	-1783.00	  388.93
     36.8700	  535.00	  510.84	-1757.84	  388.77
     36.9700	  519.00	  510.78	-1773.78	  388.60
     37.0700	  521.00	  510.92	-1771.92	  388.44
     37.1700	  523.00	  511.47	-1770.47	  388.28
     37.2700	  494.00	  512.76	-1800.76	  388.13
     37.3700	  521.00	  515.12	-1776.12	  387.97
     37.4700	  496.00	  518.62	-1804.62	  387.82
     37.5700	  520.00	  522.72	-1784.72	  387.66
     37.6700	  481.00	  526.15	-1827.15	  387.51
     37.7700	  522.00	  527.44	-1787.44	  387.36
     37.8700	  545.00	  526.12	-1763.12	  387.21
     37.9700	  469.00	  523.29	-1836.29	  387.07
     38.0700	  470.00	  519.97	-1831.97	  386.92
     38.1700	  542.00	  516.59	-1756.59	  386.78
     38.2700	  546.00	  513.50	-1749.50	  386.64
     38.3700	  466.00	  511.09	-1827.09	  386.50
     38.4700	  492.00	  509.40	-1799.40	  386.36
     38.5700	  519.00	  508.33	-1771.33	  386.23
     38.6700	  480.00	  507.68	-1809.68	  386.09
     38.7700	  508.00	  507.18	-1781.18	  385.96
     38.8700	  553.00	  506.90	-1735.90	  385.83
     38.9700	  497.00	  506.68	-1791.68	  385.70
     39.0700	  506.00	  506.49	-1782.49	  385.57
     39.1700	  473.00	  506.24	-1815.24	  385.44
     39.2700	  491.00	  506.09	-1797.09	  385.32
     39.3700	  526.00	  505.95	-1761.95	  385.20
     39.4700	  462.00	  505.83	-1825.83	  385.07
     39.5700	  499.00	  505.71	-1788.71	  384.95
     39.6700	  506.00	  505.60	-1781.60	  384.84
     39.7700	  513.00	  505.62	-1774.62	  384.72
     39.8700	  465.00	  505.54	-1822.54	  384.61
     39.9700	  546.00	  505.46	-1741.46	  384.49
     40.0700	  494.00	  505.39	-1793.39	  384.38
     40.1700	  509.00	  505.33	-1778.33	  384.27
     40.2700	  510.00	  505.28	-1777.28	  384.16
     40.3700	  472.00	  505.24	-1815.24	  384.06
     40.4700	  507.00	  505.21	-1780.21	  383.95
     40.5700	  509.00	  505.19	-1778.19	  383.85
     40.6700	  436.00	  505.19	-1851.19	  383.74
     40.7700	  477.00	  505.21	-1810.21	  383.64
