MSG Master    CELL:    5.87604   5.87604  23.07477   90.0000   90.0000  120.0000   SPGR: P 63/m m c             TEMP:    444.15
  2   1280     2.52000     0.00000    -0.08626     0.00000     0.00000    0
    95    95     0     0     2
       0.00000      10.00000
     125.00000     130.00000
 2Theta	Yobs	Ycal	Yobs-Ycal	Backg	Posr	(hkl)	K
      0.7700	    0.00	  989.69	-2326.50	  848.35
      0.8700	    0.00	  986.32	-2326.50	  844.98
      0.9700	   41.00	  982.98	-2326.50	  841.64
      1.0700	   42.00	  979.66	-2326.50	  838.32
      1.1700	   35.00	  976.36	-2326.50	  835.01
      1.2700	   52.00	  973.08	-2326.50	  831.73
      1.3700	   56.00	  969.82	-2326.50	  828.48
      1.4700	  109.00	  966.58	-2326.50	  825.24
      1.5700	  306.00	  963.36	-2326.50	  822.02
      1.6700	  448.00	  960.17	-2326.50	  818.83
      1.7700	  616.00	  956.99	-2326.50	  815.65
      1.8700	  683.00	  953.84	-2326.50	  812.50
      1.9700	  706.00	  950.70	-2326.50	  809.36
      2.0700	  776.00	  947.59	-2326.50	  806.25
      2.1700	  784.00	  944.50	-2326.50	  803.16
      2.2700	  760.00	  941.42	-2326.50	  800.08
      2.3700	  730.00	  938.37	-2326.50	  797.03
      2.4700	  727.00	  935.34	-2326.50	  794.00
      2.5700	  697.00	  932.33	-2326.50	  790.98
      2.6700	  647.00	  929.33	-2326.50	  787.99
      2.7700	  665.00	  926.36	-2326.50	  785.02
      2.8700	  574.00	  923.41	-2326.50	  782.07
      2.9700	  591.00	  920.47	-2326.50	  779.13
      3.0700	  625.00	  917.56	-2326.50	  776.22
      3.1700	  602.00	  914.66	-2326.50	  773.32
      3.2700	  722.00	  911.79	-2326.50	  770.45
      3.3700	  842.00	  908.93	-2326.50	  767.59
      3.4700	 1136.00	  906.10	-2326.50	  764.76
      3.5700	 1160.00	  903.28	-2326.50	  761.94
      3.6700	 1439.00	  900.48	-2326.50	  759.14
      3.7700	 1432.00	  897.70	-2326.50	  756.36
      3.8700	 1506.00	  894.94	-2326.50	  753.60
      3.9700	 1567.00	  892.20	-2326.50	  750.86
      4.0700	 1610.00	  889.48	-2326.50	  748.14
      4.1700	 1809.00	  886.77	-2326.50	  745.43
      4.2700	 1720.00	  884.09	-2326.50	  742.75
      4.3700	 1675.00	  881.42	-2326.50	  740.08
      4.4700	 1544.00	  878.77	-2326.50	  737.43
      4.5700	 1546.00	  876.14	-2326.50	  734.80
      4.6700	 1521.00	  873.53	-2326.50	  732.19
      4.7700	 1504.00	  870.93	-2326.50	  729.59
      4.8700	 1377.00	  868.36	-2326.50	  727.02
      4.9700	 1446.00	  865.80	-2326.50	  724.46
      5.0700	 1276.00	  863.26	-2326.50	  721.92
      5.1700	 1363.00	  860.74	-2326.50	  719.40
      5.2700	 1249.00	  858.23	-2326.50	  716.89
      5.3700	 1295.00	  855.75	-2326.50	  714.41
      5.4700	 1218.00	  853.28	-2326.50	  711.94
      5.5700	 1169.00	  850.83	-2326.50	  709.48
      5.6700	 1174.00	  848.39	-2326.50	  707.05
      5.7700	 1166.00	  845.97	-2326.50	  704.63
      5.8700	 1123.00	  843.58	-2326.50	  702.23
      5.9700	 1169.00	  841.19	-2326.50	  699.85
      6.0700	 1118.00	  838.83	-2326.50	  697.49
      6.1700	 1102.00	  836.48	-2326.50	  695.14
      6.2700	 1135.00	  834.15	-2326.50	  692.81
      6.3700	 1024.00	  831.83	-2326.50	  690.49
      6.4700	 1012.00	  829.54	-2326.50	  688.19
      6.5700	 1039.00	  827.25	-2326.50	  685.91
      6.6700	 1019.00	  824.99	-2326.50	  683.65
      6.7700	  972.00	  822.74	-2326.50	  681.40
      6.8700	  979.00	  820.51	-2326.50	  679.17
      6.9700	  922.00	  818.30	-2326.50	  676.96
      7.0700	  885.00	  816.10	-2326.50	  674.76
      7.1700	  946.00	  813.92	-2326.50	  672.57
      7.2700	  934.00	  811.75	-2326.50	  670.41
      7.3700	  851.00	  809.60	-2326.50	  668.26
      7.4700	  874.00	  807.47	-2326.50	  666.12
      7.5700	  897.00	  805.35	-2326.50	  664.01
      7.6700	  890.00	  803.25	-2326.50	  661.90
      7.7700	  825.00	  801.16	-2326.50	  659.82
      7.8700	  846.00	  799.09	-2326.50	  657.75
      7.9700	  852.00	  797.03	-2326.50	  655.69
      8.0700	  861.00	  795.00	-2326.50	  653.65
      8.1700	  851.00	  792.97	-2326.50	  651.63
      8.2700	  874.00	  790.96	-2326.50	  649.62
      8.3700	  833.00	  788.97	-2326.50	  647.63
      8.4700	  822.00	  786.99	-2326.50	  645.65
      8.5700	  802.00	  785.03	-2326.50	  643.69
      8.6700	  798.00	  783.08	-2326.50	  641.74
      8.7700	  824.00	  781.15	-2326.50	  639.81
      8.8700	  789.00	  779.23	-2326.50	  637.89
      8.9700	  802.00	  777.33	-2326.50	  635.99
      9.0700	  797.00	  775.44	-2326.50	  634.10
      9.1700	  811.00	  773.57	-2326.50	  632.23
      9.2700	  799.00	  771.71	-2326.50	  630.37
      9.3700	  810.00	  769.87	-2326.50	  628.53
      9.4700	  785.00	  768.04	-2326.50	  626.70
      9.5700	  776.00	  766.23	-2326.50	  624.88
      9.6700	  800.00	  764.43	-2326.50	  623.08
      9.7700	  768.00	  762.64	-2326.50	  621.30
      9.8700	  804.00	  760.87	-2326.50	  619.53
      9.9700	  748.00	  759.11	-2326.50	  617.77
     10.0700	  757.00	  759.44	-2328.94	  616.03
     10.1700	  718.00	  757.93	-2366.43	  614.30
     10.2700	  741.00	  756.49	-2341.99	  612.58
     10.3700	  706.00	  755.11	-2375.61	  610.88
     10.4700	  760.00	  753.83	-2320.33	  609.19
     10.5700	  743.00	  752.69	-2336.19	  607.52
     10.6700	  797.00	  751.72	-2281.22	  605.86
     10.7700	  735.00	  751.03	-2342.53	  604.21
     10.8700	  696.00	  750.69	-2381.19	  602.58
     10.9700	  753.00	  750.80	-2324.30	  600.96
     11.0700	  724.00	  751.42	-2353.92	  599.36
     11.1700	  805.00	  752.57	-2274.07	  597.76
     11.2700	  737.00	  754.27	-2343.77	  596.19
     11.3700	  707.00	  756.56	-2376.06	  594.62
     11.4700	  755.00	  759.52	-2331.02	  593.07
     11.5700	  763.00	  763.30	-2326.80	  591.53
     11.6700	  767.00	  768.09	-2327.59	  590.00
     11.7700	  778.00	  774.18	-2322.68	  588.49
     11.8700	  813.00	  781.85	-2295.35	  586.99
     11.9700	  897.00	  791.21	-2220.71	  585.50
     12.0700	  897.00	  801.80	-2231.30	  584.02
     12.1700	  841.00	  812.16	-2297.66	  582.56
     12.2700	  890.00	  819.21	-2255.71	  581.11
     12.3700	  892.00	  818.37	-2252.87	  579.67
     12.4700	  887.00	  806.40	-2245.90	  578.25
     12.5700	  788.00	  786.61	-2325.11	  576.84
     12.6700	  746.00	  766.32	-2346.82	  575.44
     12.7700	  730.00	  749.78	-2346.28	  574.05
     12.8700	  671.00	  737.76	-2393.26	  572.67
     12.9700	  699.00	  729.45	-2356.95	  571.31
     13.0700	  663.00	  723.72	-2387.22	  569.96
     13.1700	  684.00	  719.59	-2362.09	  568.62
     13.2700	  673.00	  716.40	-2369.90	  567.29
     13.3700	  717.00	  713.77	-2323.27	  565.98
     13.4700	  711.00	  711.47	-2326.97	  564.67
     13.5700	  691.00	  709.41	-2344.91	  563.38
     13.6700	  705.00	  707.52	-2329.02	  562.10
     13.7700	  677.00	  705.75	-2355.25	  560.83
     13.8700	  699.00	  704.08	-2331.58	  559.58
     13.9700	  701.00	  702.50	-2328.00	  558.33
     14.0700	  726.00	  700.98	-2301.48	  557.10
     14.1700	  710.00	  699.51	-2316.01	  555.87
     14.2700	  692.00	  698.09	-2332.59	  554.66
     14.3700	  729.00	  696.71	-2294.21	  553.46
     14.4700	  688.00	  695.37	-2333.87	  552.27
     14.5700	  672.00	  694.05	-2348.55	  551.10
     14.6700	  671.00	  692.77	-2348.27	  549.93
     14.7700	  630.00	  691.51	-2388.01	  548.77
     14.8700	  696.00	  690.27	-2320.77	  547.63
     14.9700	  662.00	  689.05	-2353.55	  546.50
     15.0700	  690.00	  687.86	-2324.36	  545.37
     15.1700	  708.00	  686.68	-2305.18	  544.26
     15.2700	  686.00	  685.51	-2326.01	  543.16
     15.3700	  664.00	  684.37	-2346.87	  542.07
     15.4700	  715.00	  683.24	-2294.74	  540.99
     15.5700	  699.00	  682.13	-2309.63	  539.92
     15.6700	  703.00	  681.03	-2304.53	  538.86
     15.7700	  683.00	  679.94	-2323.44	  537.81
     15.8700	  690.00	  678.87	-2315.37	  536.77
     15.9700	  689.00	  677.81	-2315.31	  535.75
     16.0700	  655.00	  676.76	-2348.26	  534.73
     16.1700	  678.00	  675.73	-2324.23	  533.72
     16.2700	  635.00	  674.70	-2366.20	  532.72
     16.3700	  711.00	  673.69	-2289.19	  531.74
     16.4700	  644.00	  672.70	-2355.20	  530.76
     16.5700	  697.00	  671.71	-2301.21	  529.79
     16.6700	  684.00	  670.73	-2313.23	  528.83
     16.7700	  658.00	  669.77	-2338.27	  527.89
     16.8700	  633.00	  668.82	-2362.32	  526.95
     16.9700	  672.00	  667.87	-2322.37	  526.02
     17.0700	  704.00	  666.94	-2289.44	  525.10
     17.1700	  631.00	  666.02	-2361.52	  524.19
     17.2700	  693.00	  665.11	-2298.61	  523.29
     17.3700	  684.00	  664.21	-2306.71	  522.40
     17.4700	  687.00	  663.32	-2302.82	  521.52
     17.5700	  671.00	  662.44	-2317.94	  520.65
     17.6700	  688.00	  661.57	-2300.07	  519.79
     17.7700	  641.00	  660.71	-2346.21	  518.94
     17.8700	  659.00	  659.86	-2327.36	  518.09
     17.9700	  666.00	  659.02	-2319.52	  517.26
     18.0700	  739.00	  658.19	-2245.69	  516.43
     18.1700	  645.00	  657.36	-2338.86	  515.62
     18.2700	  610.00	  656.55	-2373.05	  514.81
     18.3700	  644.00	  655.75	-2338.25	  514.01
     18.4700	  693.00	  654.96	-2288.46	  513.22
     18.5700	  659.00	  654.17	-2321.67	  512.44
     18.6700	  687.00	  653.40	-2292.90	  511.67
     18.7700	  659.00	  652.63	-2320.13	  510.90
     18.8700	  702.00	  651.88	-2276.38	  510.15
     18.9700	  671.00	  651.13	-2306.63	  509.40
     19.0700	  648.00	  651.69	-2330.19	  508.67
     19.1700	  646.00	  653.18	-2333.68	  507.94
     19.2700	  663.00	  652.53	-2316.03	  507.22
     19.3700	  658.00	  651.89	-2320.39	  506.50
     19.4700	  679.00	  651.27	-2298.77	  505.80
     19.5700	  666.00	  650.66	-2311.16	  505.11
     19.6700	  696.00	  650.06	-2280.56	  504.42
     19.7700	  632.00	  649.47	-2343.97	  503.74
     19.8700	  676.00	  648.89	-2299.39	  503.07
     19.9700	  661.00	  648.32	-2313.82	  502.40
     20.0700	  702.00	  647.77	-2272.27	  501.75
     20.1700	  646.00	  647.23	-2327.73	  501.10
     20.2700	  647.00	  646.76	-2326.26	  500.46
     20.3700	  591.00	  646.25	-2381.75	  499.83
     20.4700	  650.00	  645.74	-2322.24	  499.21
     20.5700	  642.00	  645.25	-2329.75	  498.59
     20.6700	  618.00	  644.77	-2353.27	  497.98
     20.7700	  645.00	  644.31	-2325.81	  497.38
     20.8700	  664.00	  643.85	-2306.35	  496.79
     20.9700	  627.00	  643.42	-2342.92	  496.21
     21.0700	  653.00	  642.99	-2316.49	  495.63
     21.1700	  675.00	  642.58	-2294.08	  495.06
     21.2700	  641.00	  642.19	-2327.69	  494.49
     21.3700	  601.00	  641.80	-2367.30	  493.94
     21.4700	  598.00	  641.44	-2369.94	  493.39
     21.5700	  672.00	  641.09	-2295.59	  492.85
     21.6700	  636.00	  640.76	-2331.26	  492.32
     21.7700	  658.00	  640.44	-2308.94	  491.79
     21.8700	  604.00	  640.14	-2362.64	  491.27
     21.9700	  637.00	  639.87	-2329.37	  490.76
     22.0700	  695.00	  639.61	-2271.11	  490.25
     22.1700	  655.00	  639.37	-2310.87	  489.75
     22.2700	  626.00	  639.15	-2339.65	  489.26
     22.3700	  641.00	  638.95	-2324.45	  488.78
     22.4700	  643.00	  639.00	-2322.50	  488.30
     22.5700	  636.00	  638.85	-2329.35	  487.83
     22.6700	  654.00	  638.74	-2311.24	  487.36
     22.7700	  650.00	  638.66	-2315.16	  486.90
     22.8700	  631.00	  638.60	-2334.10	  486.45
     22.9700	  659.00	  638.59	-2306.09	  486.01
     23.0700	  610.00	  638.61	-2355.11	  485.57
     23.1700	  634.00	  638.68	-2331.18	  485.14
     23.2700	  674.00	  638.79	-2291.29	  484.71
     23.3700	  627.00	  638.96	-2338.46	  484.29
     23.4700	  652.00	  639.20	-2313.70	  483.88
     23.5700	  601.00	  639.51	-2365.01	  483.48
     23.6700	  658.00	  639.92	-2308.42	  483.08
     23.7700	  654.00	  640.44	-2312.94	  482.68
     23.8700	  630.00	  641.11	-2337.61	  482.29
     23.9700	  696.00	  642.00	-2272.50	  481.91
     24.0700	  663.00	  643.20	-2306.70	  481.54
     24.1700	  619.00	  644.86	-2352.36	  481.17
     24.2700	  644.00	  647.24	-2329.74	  480.80
     24.3700	  684.00	  650.69	-2293.19	  480.45
     24.4700	  677.00	  655.56	-2305.06	  480.10
     24.5700	  693.00	  662.32	-2295.82	  479.75
     24.6700	  738.00	  671.01	-2259.51	  479.41
     24.7700	  686.00	  681.24	-2321.74	  479.08
     24.8700	  727.00	  691.84	-2291.34	  478.75
     24.9700	  733.00	  700.56	-2294.06	  478.42
     25.0700	  729.00	  704.07	-2301.57	  478.11
     25.1700	  733.00	  700.12	-2293.62	  477.79
     25.2700	  729.00	  690.70	-2288.20	  477.49
     25.3700	  703.00	  680.47	-2303.97	  477.19
     25.4700	  683.00	  672.26	-2315.76	  476.89
     25.5700	  671.00	  666.90	-2322.40	  476.60
     25.6700	  675.00	  664.11	-2315.61	  476.32
     25.7700	  654.00	  663.28	-2335.78	  476.04
     25.8700	  676.00	  663.84	-2314.34	  475.77
     25.9700	  691.00	  665.36	-2300.86	  475.50
     26.0700	  634.00	  667.64	-2360.14	  475.23
     26.1700	  714.00	  670.57	-2283.07	  474.97
     26.2700	  606.00	  674.15	-2394.65	  474.72
     26.3700	  721.00	  678.42	-2283.92	  474.47
     26.4700	  698.00	  683.48	-2311.98	  474.23
     26.5700	  672.00	  689.43	-2343.93	  473.99
     26.6700	  683.00	  696.46	-2339.96	  473.76
     26.7700	  661.00	  704.78	-2370.28	  473.53
     26.8700	  720.00	  714.69	-2321.19	  473.31
     26.9700	  695.00	  726.60	-2358.10	  473.09
     27.0700	  728.00	  741.04	-2339.54	  472.87
     27.1700	  715.00	  758.77	-2370.27	  472.67
     27.2700	  733.00	  780.88	-2374.38	  472.46
     27.3700	  713.00	  809.06	-2422.56	  472.26
     27.4700	  811.00	  846.34	-2361.84	  472.07
     27.5700	  849.00	  899.06	-2376.56	  471.88
     27.6700	  857.00	  981.32	-2450.82	  471.69
     27.7700	  900.00	 1122.82	-2549.32	  471.51
     27.8700	 1097.00	 1378.81	-2608.31	  471.33
     27.9700	 1416.00	 1837.19	-2747.69	  471.16
     28.0700	 2052.00	 2610.06	-2884.56	  470.99
     28.1700	 3277.00	 3790.12	-2839.62	  470.83
     28.2700	 5325.00	 5356.44	-2357.94	  470.67
     28.3700	 7750.00	 7033.25	-1609.75	  470.51
     28.4700	 9306.00	 8207.81	-1228.31	  470.36
     28.5700	 8856.00	 8150.03	-1620.53	  470.21
     28.6700	 7137.00	 6847.84	-2037.34	  470.07
     28.7700	 5108.00	 5309.69	-2528.19	  469.93
     28.8700	 3926.00	 4370.70	-2771.20	  469.80
     28.9700	 4181.00	 4202.07	-2347.57	  469.67
     29.0700	 4728.00	 4521.89	-2120.39	  469.54
     29.1700	 5297.00	 4836.23	-1865.73	  469.42
     29.2700	 4886.00	 4660.41	-2100.91	  469.30
     29.3700	 3812.00	 3883.74	-2398.24	  469.19
     29.4700	 2788.00	 2894.04	-2432.54	  469.08
     29.5700	 1810.00	 2061.51	-2578.01	  468.97
     29.6700	 1406.00	 1502.72	-2423.22	  468.86
     29.7700	 1104.00	 1180.07	-2402.57	  468.77
     29.8700	  999.00	 1007.87	-2335.37	  468.67
     29.9700	  943.00	  914.00	-2297.50	  468.58
     30.0700	  861.00	  857.01	-2322.51	  468.49
     30.1700	  813.00	  818.10	-2331.60	  468.40
     30.2700	  807.00	  789.65	-2309.15	  468.32
     30.3700	  790.00	  768.53	-2305.03	  468.25
     30.4700	  758.00	  753.50	-2322.00	  468.17
     30.5700	  772.00	  744.54	-2299.04	  468.10
     30.6700	  769.00	  742.67	-2300.17	  468.03
     30.7700	  788.00	  749.57	-2288.07	  467.97
     30.8700	  743.00	  766.55	-2350.05	  467.91
     30.9700	  767.00	  792.53	-2352.03	  467.85
     31.0700	  830.00	  822.09	-2318.59	  467.80
     31.1700	  889.00	  844.42	-2281.92	  467.75
     31.2700	  812.00	  845.29	-2359.79	  467.70
     31.3700	  821.00	  818.16	-2323.66	  467.65
     31.4700	  748.00	  775.29	-2353.79	  467.61
     31.5700	  849.00	  733.95	-2211.45	  467.58
     31.6700	  709.00	  702.40	-2319.90	  467.54
     31.7700	  686.00	  681.47	-2321.97	  467.51
     31.8700	  720.00	  668.67	-2275.17	  467.48
     31.9700	  695.00	  660.95	-2292.45	  467.45
     32.0700	  705.00	  656.03	-2277.53	  467.43
     32.1700	  671.00	  652.60	-2308.10	  467.41
     32.2700	  638.00	  650.05	-2338.55	  467.39
     32.3700	  671.00	  648.11	-2303.61	  467.38
     32.4700	  692.00	  646.65	-2281.15	  467.37
     32.5700	  661.00	  645.62	-2311.12	  467.36
     32.6700	  711.00	  644.98	-2260.48	  467.35
     32.7700	  622.00	  644.74	-2349.24	  467.35
     32.8700	  662.00	  644.95	-2309.45	  467.35
     32.9700	  675.00	  645.59	-2297.09	  467.35
     33.0700	  682.00	  646.79	-2291.29	  467.36
     33.1700	  733.00	  648.66	-2242.16	  467.36
     33.2700	  704.00	  651.47	-2273.97	  467.37
     33.3700	  671.00	  655.64	-2311.14	  467.39
     33.4700	  661.00	  662.05	-2327.55	  467.40
     33.5700	  665.00	  672.41	-2333.91	  467.42
     33.6700	  732.00	  689.84	-2284.34	  467.44
     33.7700	  766.00	  719.34	-2279.84	  467.46
     33.8700	  735.00	  767.52	-2359.02	  467.49
     33.9700	  870.00	  840.41	-2296.91	  467.51
     34.0700	  938.00	  938.68	-2327.18	  467.54
     34.1700	 1116.00	 1051.63	-2262.13	  467.57
     34.2700	 1236.00	 1153.23	-2243.73	  467.61
     34.3700	 1298.00	 1204.12	-2232.62	  467.64
     34.4700	 1243.00	 1172.30	-2255.80	  467.68
     34.5700	 1154.00	 1070.70	-2243.20	  467.72
     34.6700	 1023.00	  948.17	-2251.67	  467.77
     34.7700	  815.00	  841.52	-2353.02	  467.81
     34.8700	  768.00	  763.65	-2322.15	  467.86
     34.9700	  729.00	  713.18	-2310.68	  467.91
     35.0700	  717.00	  682.97	-2292.47	  467.96
     35.1700	  726.00	  665.39	-2265.89	  468.01
     35.2700	  703.00	  654.78	-2278.28	  468.07
     35.3700	  754.00	  647.86	-2220.36	  468.12
     35.4700	  689.00	  642.93	-2280.43	  468.18
     35.5700	  670.00	  639.27	-2295.77	  468.24
     35.6700	  647.00	  636.37	-2315.87	  468.31
     35.7700	  628.00	  634.07	-2332.57	  468.37
     35.8700	  610.00	  632.22	-2348.72	  468.44
     35.9700	  649.00	  630.73	-2308.23	  468.50
     36.0700	  591.00	  629.53	-2365.03	  468.57
     36.1700	  616.00	  628.57	-2339.07	  468.65
     36.2700	  644.00	  627.81	-2310.31	  468.72
     36.3700	  639.00	  627.23	-2314.73	  468.79
     36.4700	  658.00	  626.82	-2295.32	  468.87
     36.5700	  641.00	  626.56	-2312.06	  468.95
     36.6700	  631.00	  626.46	-2321.96	  469.03
     36.7700	  634.00	  626.51	-2319.01	  469.11
     36.8700	  619.00	  626.74	-2334.24	  469.19
     36.9700	  624.00	  627.37	-2329.87	  469.28
     37.0700	  655.00	  628.04	-2299.54	  469.36
     37.1700	  661.00	  629.04	-2294.54	  469.45
     37.2700	  605.00	  631.02	-2352.52	  469.54
     37.3700	  613.00	  633.17	-2346.67	  469.63
     37.4700	  622.00	  636.41	-2340.91	  469.72
     37.5700	  652.00	  641.41	-2315.91	  469.82
     37.6700	  690.00	  649.29	-2285.79	  469.91
     37.7700	  629.00	  661.59	-2359.09	  470.01
     37.8700	  691.00	  680.03	-2315.53	  470.10
     37.9700	  725.00	  705.91	-2307.41	  470.20
     38.0700	  756.00	  736.81	-2307.31	  470.30
     38.1700	  775.00	  773.50	-2325.00	  470.40
     38.2700	  799.00	  806.64	-2334.14	  470.50
     38.3700	  777.00	  825.34	-2374.84	  470.61
     38.4700	  795.00	  819.58	-2351.08	  470.71
     38.5700	  731.00	  790.29	-2385.79	  470.82
     38.6700	  740.00	  750.38	-2336.88	  470.92
     38.7700	  731.00	  712.32	-2307.82	  471.03
     38.8700	  637.00	  682.08	-2371.58	  471.14
     38.9700	  653.00	  660.75	-2334.25	  471.25
     39.0700	  584.00	  646.96	-2389.46	  471.36
     39.1700	  632.00	  638.53	-2333.03	  471.47
     39.2700	  611.00	  633.43	-2348.93	  471.58
     39.3700	  589.00	  630.23	-2367.73	  471.70
     39.4700	  618.00	  626.83	-2335.33	  471.81
     39.5700	  607.00	  625.31	-2344.81	  471.93
     39.6700	  647.00	  624.18	-2303.68	  472.04
     39.7700	  612.00	  623.32	-2337.82	  472.16
     39.8700	  638.00	  622.64	-2311.14	  472.28
     39.9700	  638.00	  622.12	-2310.62	  472.39
     40.0700	  624.00	  621.72	-2324.22	  472.51
     40.1700	  604.00	  621.41	-2343.91	  472.63
     40.2700	  605.00	  621.19	-2342.69	  472.76
     40.3700	  649.00	  621.03	-2298.53	  472.88
     40.4700	  635.00	  620.94	-2312.44	  473.00
     40.5700	  642.00	  620.89	-2305.39	  473.12
     40.6700	  659.00	  620.89	-2288.39	  473.25
     40.7700	  593.00	  620.93	-2354.43	  473.37
