MSG Master    CELL:    5.88028   5.88028  23.10198   90.0000   90.0000  120.0000   SPGR: P 63/m m c             TEMP:    527.15
  2   1280     2.52000     0.00000    -0.08929     0.00000     0.00000    0
    96    96     0     0     2
       0.00000      10.00000
     125.00000     130.00000
 2Theta	Yobs	Ycal	Yobs-Ycal	Backg	Posr	(hkl)	K
      0.7700	    0.00	  932.39	-1988.50	  796.88
      0.8700	    1.00	  929.43	-1988.50	  793.93
      0.9700	   50.00	  926.49	-1988.50	  790.98
      1.0700	   50.00	  923.56	-1988.50	  788.06
      1.1700	   54.00	  920.66	-1988.50	  785.16
      1.2700	   46.00	  917.77	-1988.50	  782.27
      1.3700	   48.00	  914.90	-1988.50	  779.40
      1.4700	   78.00	  912.05	-1988.50	  776.54
      1.5700	  282.00	  909.21	-1988.50	  773.71
      1.6700	  463.00	  906.39	-1988.50	  770.89
      1.7700	  547.00	  903.59	-1988.50	  768.09
      1.8700	  684.00	  900.81	-1988.50	  765.31
      1.9700	  710.00	  898.05	-1988.50	  762.54
      2.0700	  757.00	  895.30	-1988.50	  759.80
      2.1700	  796.00	  892.57	-1988.50	  757.06
      2.2700	  797.00	  889.85	-1988.50	  754.35
      2.3700	  741.00	  887.15	-1988.50	  751.65
      2.4700	  727.00	  884.47	-1988.50	  748.97
      2.5700	  625.00	  881.81	-1988.50	  746.31
      2.6700	  626.00	  879.16	-1988.50	  743.66
      2.7700	  669.00	  876.53	-1988.50	  741.03
      2.8700	  640.00	  873.92	-1988.50	  738.42
      2.9700	  552.00	  871.32	-1988.50	  735.82
      3.0700	  646.00	  868.74	-1988.50	  733.24
      3.1700	  633.00	  866.18	-1988.50	  730.68
      3.2700	  721.00	  863.63	-1988.50	  728.13
      3.3700	  902.00	  861.10	-1988.50	  725.60
      3.4700	 1104.00	  858.58	-1988.50	  723.08
      3.5700	 1156.00	  856.09	-1988.50	  720.58
      3.6700	 1329.00	  853.60	-1988.50	  718.10
      3.7700	 1389.00	  851.14	-1988.50	  715.63
      3.8700	 1505.00	  848.68	-1988.50	  713.18
      3.9700	 1568.00	  846.25	-1988.50	  710.75
      4.0700	 1570.00	  843.83	-1988.50	  708.33
      4.1700	 1711.00	  841.43	-1988.50	  705.92
      4.2700	 1667.00	  839.04	-1988.50	  703.54
      4.3700	 1664.00	  836.67	-1988.50	  701.16
      4.4700	 1595.00	  834.31	-1988.50	  698.81
      4.5700	 1501.00	  831.97	-1988.50	  696.47
      4.6700	 1612.00	  829.64	-1988.50	  694.14
      4.7700	 1461.00	  827.33	-1988.50	  691.83
      4.8700	 1442.00	  825.04	-1988.50	  689.53
      4.9700	 1325.00	  822.75	-1988.50	  687.25
      5.0700	 1313.00	  820.49	-1988.50	  684.99
      5.1700	 1313.00	  818.24	-1988.50	  682.74
      5.2700	 1219.00	  816.00	-1988.50	  680.50
      5.3700	 1274.00	  813.78	-1988.50	  678.28
      5.4700	 1231.00	  811.58	-1988.50	  676.08
      5.5700	 1215.00	  809.39	-1988.50	  673.89
      5.6700	 1134.00	  807.21	-1988.50	  671.71
      5.7700	 1221.00	  805.05	-1988.50	  669.55
      5.8700	 1083.00	  802.91	-1988.50	  667.40
      5.9700	 1082.00	  800.77	-1988.50	  665.27
      6.0700	 1124.00	  798.66	-1988.50	  663.15
      6.1700	 1058.00	  796.55	-1988.50	  661.05
      6.2700	 1045.00	  794.46	-1988.50	  658.96
      6.3700	 1009.00	  792.39	-1988.50	  656.89
      6.4700	 1048.00	  790.33	-1988.50	  654.83
      6.5700	 1020.00	  788.28	-1988.50	  652.78
      6.6700	  967.00	  786.25	-1988.50	  650.75
      6.7700	  934.00	  784.23	-1988.50	  648.73
      6.8700	  889.00	  782.23	-1988.50	  646.73
      6.9700	  968.00	  780.24	-1988.50	  644.74
      7.0700	  912.00	  778.26	-1988.50	  642.76
      7.1700	  839.00	  776.30	-1988.50	  640.80
      7.2700	  887.00	  774.35	-1988.50	  638.85
      7.3700	  892.00	  772.42	-1988.50	  636.92
      7.4700	  904.00	  770.50	-1988.50	  635.00
      7.5700	  813.00	  768.59	-1988.50	  633.09
      7.6700	  850.00	  766.70	-1988.50	  631.19
      7.7700	  810.00	  764.81	-1988.50	  629.31
      7.8700	  838.00	  762.95	-1988.50	  627.45
      7.9700	  821.00	  761.09	-1988.50	  625.59
      8.0700	  800.00	  759.25	-1988.50	  623.75
      8.1700	  815.00	  757.42	-1988.50	  621.92
      8.2700	  783.00	  755.61	-1988.50	  620.11
      8.3700	  821.00	  753.81	-1988.50	  618.31
      8.4700	  730.00	  752.02	-1988.50	  616.52
      8.5700	  789.00	  750.24	-1988.50	  614.74
      8.6700	  831.00	  748.48	-1988.50	  612.98
      8.7700	  831.00	  746.73	-1988.50	  611.23
      8.8700	  747.00	  744.99	-1988.50	  609.49
      8.9700	  724.00	  743.27	-1988.50	  607.77
      9.0700	  740.00	  741.56	-1988.50	  606.05
      9.1700	  767.00	  739.86	-1988.50	  604.36
      9.2700	  821.00	  738.17	-1988.50	  602.67
      9.3700	  765.00	  736.50	-1988.50	  600.99
      9.4700	  733.00	  734.83	-1988.50	  599.33
      9.5700	  749.00	  733.18	-1988.50	  597.68
      9.6700	  741.00	  731.55	-1988.50	  596.05
      9.7700	  718.00	  729.92	-1988.50	  594.42
      9.8700	  748.00	  728.31	-1988.50	  592.81
      9.9700	  756.00	  726.71	-1988.50	  591.21
     10.0700	  690.00	  727.20	-2025.70	  589.62
     10.1700	  754.00	  725.85	-1960.35	  588.04
     10.2700	  750.00	  724.55	-1963.05	  586.48
     10.3700	  752.00	  723.33	-1959.83	  584.92
     10.4700	  752.00	  722.20	-1958.70	  583.38
     10.5700	  709.00	  721.21	-2000.71	  581.85
     10.6700	  733.00	  720.42	-1975.92	  580.34
     10.7700	  659.00	  719.91	-2049.41	  578.83
     10.8700	  769.00	  719.77	-1939.27	  577.33
     10.9700	  712.00	  720.10	-1996.60	  575.85
     11.0700	  736.00	  720.94	-1973.44	  574.38
     11.1700	  755.00	  722.32	-1955.82	  572.92
     11.2700	  745.00	  724.24	-1967.74	  571.47
     11.3700	  738.00	  726.76	-1977.26	  570.03
     11.4700	  759.00	  729.97	-1959.47	  568.61
     11.5700	  697.00	  734.02	-2025.52	  567.19
     11.6700	  739.00	  739.14	-1988.64	  565.79
     11.7700	  789.00	  745.63	-1945.13	  564.40
     11.8700	  788.00	  753.79	-1954.29	  563.02
     11.9700	  765.00	  763.69	-1987.19	  561.65
     12.0700	  834.00	  774.77	-1929.27	  560.29
     12.1700	  828.00	  785.29	-1945.79	  558.94
     12.2700	  866.00	  791.73	-1914.23	  557.60
     12.3700	  791.00	  789.17	-1986.67	  556.27
     12.4700	  744.00	  775.06	-2019.56	  554.96
     12.5700	  756.00	  754.19	-1986.69	  553.65
     12.6700	  701.00	  734.04	-2021.54	  552.35
     12.7700	  753.00	  718.23	-1953.73	  551.07
     12.8700	  696.00	  707.05	-1999.55	  549.80
     12.9700	  663.00	  699.46	-2024.96	  548.53
     13.0700	  632.00	  694.27	-2050.77	  547.28
     13.1700	  653.00	  690.53	-2026.03	  546.04
     13.2700	  659.00	  687.61	-2017.11	  544.80
     13.3700	  675.00	  685.18	-1998.68	  543.58
     13.4700	  630.00	  683.05	-2041.55	  542.37
     13.5700	  683.00	  681.13	-1986.63	  541.17
     13.6700	  680.00	  679.37	-1987.87	  539.97
     13.7700	  682.00	  677.72	-1984.22	  538.79
     13.8700	  655.00	  676.17	-2009.67	  537.62
     13.9700	  699.00	  674.68	-1964.18	  536.46
     14.0700	  680.00	  673.26	-1981.76	  535.31
     14.1700	  637.00	  671.89	-2023.39	  534.16
     14.2700	  663.00	  670.56	-1996.06	  533.03
     14.3700	  622.00	  669.27	-2035.77	  531.91
     14.4700	  669.00	  668.01	-1987.51	  530.79
     14.5700	  645.00	  666.78	-2010.28	  529.69
     14.6700	  630.00	  665.57	-2024.07	  528.60
     14.7700	  629.00	  664.39	-2023.89	  527.51
     14.8700	  605.00	  663.22	-2046.72	  526.44
     14.9700	  668.00	  662.08	-1982.58	  525.37
     15.0700	  669.00	  660.95	-1980.45	  524.32
     15.1700	  654.00	  659.84	-1994.34	  523.27
     15.2700	  674.00	  658.74	-1973.24	  522.23
     15.3700	  629.00	  657.66	-2017.16	  521.20
     15.4700	  656.00	  656.60	-1989.10	  520.18
     15.5700	  660.00	  655.54	-1984.04	  519.17
     15.6700	  672.00	  654.50	-1971.00	  518.17
     15.7700	  615.00	  653.48	-2026.98	  517.18
     15.8700	  645.00	  652.46	-1995.96	  516.20
     15.9700	  647.00	  651.46	-1992.96	  515.22
     16.0700	  666.00	  650.46	-1972.96	  514.26
     16.1700	  679.00	  649.48	-1958.98	  513.30
     16.2700	  652.00	  648.51	-1985.01	  512.35
     16.3700	  684.00	  647.55	-1952.05	  511.41
     16.4700	  626.00	  646.60	-2009.10	  510.48
     16.5700	  645.00	  645.66	-1989.16	  509.56
     16.6700	  658.00	  644.73	-1975.23	  508.65
     16.7700	  679.00	  643.81	-1953.31	  507.74
     16.8700	  631.00	  642.90	-2000.40	  506.85
     16.9700	  598.00	  642.00	-2032.50	  505.96
     17.0700	  610.00	  641.11	-2019.61	  505.08
     17.1700	  665.00	  640.22	-1963.72	  504.21
     17.2700	  630.00	  639.35	-1997.85	  503.35
     17.3700	  636.00	  638.49	-1990.99	  502.49
     17.4700	  624.00	  637.63	-2002.13	  501.64
     17.5700	  654.00	  636.78	-1971.28	  500.81
     17.6700	  636.00	  635.95	-1988.45	  499.98
     17.7700	  634.00	  635.12	-1989.62	  499.15
     17.8700	  633.00	  634.30	-1989.80	  498.34
     17.9700	  649.00	  633.48	-1972.98	  497.53
     18.0700	  642.00	  632.68	-1979.18	  496.74
     18.1700	  656.00	  631.89	-1964.39	  495.95
     18.2700	  618.00	  631.10	-2001.60	  495.16
     18.3700	  630.00	  630.32	-1988.82	  494.39
     18.4700	  597.00	  629.55	-2021.05	  493.62
     18.5700	  592.00	  628.79	-2025.29	  492.86
     18.6700	  629.00	  628.03	-1987.53	  492.11
     18.7700	  649.00	  627.29	-1966.79	  491.37
     18.8700	  661.00	  626.55	-1954.05	  490.63
     18.9700	  662.00	  625.82	-1952.32	  489.90
     19.0700	  613.00	  628.08	-2003.58	  489.18
     19.1700	  632.00	  627.43	-1983.93	  488.47
     19.2700	  651.00	  626.79	-1964.29	  487.76
     19.3700	  633.00	  626.15	-1981.65	  487.06
     19.4700	  625.00	  625.53	-1989.03	  486.37
     19.5700	  600.00	  624.92	-2013.42	  485.69
     19.6700	  638.00	  624.32	-1974.82	  485.01
     19.7700	  631.00	  623.73	-1981.23	  484.34
     19.8700	  656.00	  623.15	-1955.65	  483.68
     19.9700	  612.00	  622.57	-1999.07	  483.02
     20.0700	  649.00	  622.01	-1961.51	  482.37
     20.1700	  598.00	  621.46	-2011.96	  481.73
     20.2700	  603.00	  620.99	-2006.49	  481.09
     20.3700	  661.00	  620.46	-1947.96	  480.47
     20.4700	  632.00	  619.94	-1976.44	  479.84
     20.5700	  626.00	  619.44	-1981.94	  479.23
     20.6700	  624.00	  618.94	-1983.44	  478.62
     20.7700	  593.00	  618.46	-2013.96	  478.02
     20.8700	  614.00	  617.99	-1992.49	  477.43
     20.9700	  648.00	  617.53	-1958.03	  476.84
     21.0700	  619.00	  617.09	-1986.59	  476.26
     21.1700	  594.00	  616.65	-2011.15	  475.69
     21.2700	  611.00	  616.23	-1993.73	  475.12
     21.3700	  630.00	  615.83	-1974.33	  474.56
     21.4700	  602.00	  615.43	-2001.93	  474.00
     21.5700	  592.00	  615.05	-2011.55	  473.45
     21.6700	  584.00	  614.69	-2019.19	  472.91
     21.7700	  629.00	  614.34	-1973.84	  472.38
     21.8700	  650.00	  614.01	-1952.51	  471.85
     21.9700	  642.00	  613.69	-1960.19	  471.32
     22.0700	  624.00	  613.39	-1977.89	  470.81
     22.1700	  598.00	  613.11	-2003.61	  470.30
     22.2700	  645.00	  612.85	-1956.35	  469.79
     22.3700	  575.00	  612.61	-2026.11	  469.29
     22.4700	  627.00	  612.60	-1974.10	  468.80
     22.5700	  659.00	  612.41	-1941.91	  468.31
     22.6700	  665.00	  612.24	-1935.74	  467.83
     22.7700	  609.00	  612.10	-1991.60	  467.36
     22.8700	  572.00	  611.99	-2028.49	  466.89
     22.9700	  613.00	  611.92	-1987.42	  466.43
     23.0700	  680.00	  611.88	-1920.38	  465.97
     23.1700	  619.00	  611.88	-1981.38	  465.52
     23.2700	  622.00	  611.93	-1978.43	  465.07
     23.3700	  591.00	  612.04	-2009.54	  464.63
     23.4700	  612.00	  612.20	-1988.70	  464.20
     23.5700	  640.00	  612.44	-1960.94	  463.77
     23.6700	  617.00	  612.78	-1984.28	  463.35
     23.7700	  639.00	  613.23	-1962.73	  462.93
     23.8700	  697.00	  613.84	-1905.34	  462.52
     23.9700	  636.00	  614.68	-1967.18	  462.11
     24.0700	  624.00	  615.87	-1980.37	  461.71
     24.1700	  660.00	  617.58	-1946.08	  461.32
     24.2700	  620.00	  620.05	-1988.55	  460.92
     24.3700	  633.00	  623.78	-1979.28	  460.54
     24.4700	  655.00	  629.13	-1962.63	  460.16
     24.5700	  641.00	  636.42	-1983.92	  459.79
     24.6700	  665.00	  645.65	-1969.15	  459.42
     24.7700	  673.00	  656.21	-1971.71	  459.05
     24.8700	  669.00	  666.57	-1986.07	  458.69
     24.9700	  717.00	  673.96	-1945.46	  458.34
     25.0700	  712.00	  674.88	-1951.38	  457.99
     25.1700	  695.00	  668.16	-1961.66	  457.65
     25.2700	  652.00	  657.35	-1993.85	  457.31
     25.3700	  662.00	  647.01	-1973.51	  456.97
     25.4700	  636.00	  639.38	-1991.88	  456.65
     25.5700	  666.00	  634.60	-1957.10	  456.32
     25.6700	  608.00	  632.21	-2012.71	  456.00
     25.7700	  630.00	  631.56	-1990.06	  455.69
     25.8700	  692.00	  632.09	-1928.59	  455.38
     25.9700	  699.00	  633.43	-1922.93	  455.07
     26.0700	  639.00	  635.41	-1984.91	  454.77
     26.1700	  667.00	  637.96	-1959.46	  454.48
     26.2700	  639.00	  641.09	-1990.59	  454.19
     26.3700	  602.00	  644.83	-2031.33	  453.90
     26.4700	  672.00	  649.29	-1965.79	  453.62
     26.5700	  617.00	  654.55	-2026.05	  453.34
     26.6700	  681.00	  660.80	-1968.30	  453.07
     26.7700	  688.00	  668.22	-1968.72	  452.80
     26.8700	  671.00	  677.10	-1994.60	  452.54
     26.9700	  659.00	  687.80	-2017.30	  452.28
     27.0700	  711.00	  700.85	-1978.35	  452.02
     27.1700	  733.00	  716.94	-1972.44	  451.77
     27.2700	  679.00	  737.12	-2046.62	  451.53
     27.3700	  752.00	  763.06	-1999.56	  451.29
     27.4700	  727.00	  797.87	-2059.37	  451.05
     27.5700	  780.00	  848.21	-2056.71	  450.81
     27.6700	  789.00	  928.72	-2128.22	  450.58
     27.7700	  901.00	 1069.15	-2156.65	  450.36
     27.8700	 1048.00	 1322.65	-2263.15	  450.14
     27.9700	 1414.00	 1769.63	-2344.13	  449.92
     28.0700	 1876.00	 2504.27	-2616.77	  449.71
     28.1700	 3176.00	 3588.20	-2400.70	  449.50
     28.2700	 5178.00	 4960.24	-1770.74	  449.29
     28.3700	 7098.00	 6321.15	-1211.65	  449.09
     28.4700	 7954.00	 7103.38	-1137.88	  448.90
     28.5700	 7502.00	 6763.70	-1250.20	  448.70
     28.6700	 5475.00	 5538.15	-2051.65	  448.51
     28.7700	 4096.00	 4330.90	-2223.40	  448.33
     28.8700	 3356.00	 3703.99	-2336.49	  448.14
     28.9700	 3706.00	 3689.45	-1971.95	  447.97
     29.0700	 4292.00	 3992.45	-1688.95	  447.79
     29.1700	 4547.00	 4180.06	-1621.56	  447.62
     29.2700	 4113.00	 3888.04	-1763.54	  447.45
     29.3700	 3087.00	 3145.40	-2046.90	  447.29
     29.4700	 2213.00	 2321.04	-2096.54	  447.13
     29.5700	 1501.00	 1673.00	-2160.50	  446.97
     29.6700	 1110.00	 1256.42	-2134.92	  446.82
     29.7700	 1012.00	 1022.17	-1998.67	  446.67
     29.8700	  831.00	  897.53	-2055.03	  446.52
     29.9700	  806.00	  828.01	-2010.51	  446.38
     30.0700	  754.00	  784.38	-2018.88	  446.24
     30.1700	  789.00	  753.93	-1953.43	  446.11
     30.2700	  698.00	  731.53	-2022.03	  445.97
     30.3700	  753.00	  715.09	-1950.59	  445.85
     30.4700	  663.00	  703.96	-2029.46	  445.72
     30.5700	  754.00	  698.49	-1932.99	  445.60
     30.6700	  685.00	  700.00	-2003.50	  445.48
     30.7700	  659.00	  710.23	-2039.73	  445.36
     30.8700	  705.00	  730.04	-2013.54	  445.25
     30.9700	  748.00	  757.42	-1997.92	  445.14
     31.0700	  804.00	  785.76	-1970.26	  445.03
     31.1700	  793.00	  803.24	-1998.74	  444.93
     31.2700	  809.00	  796.65	-1976.15	  444.83
     31.3700	  824.00	  764.66	-1929.16	  444.73
     31.4700	  720.00	  722.72	-1991.22	  444.64
     31.5700	  738.00	  685.55	-1936.05	  444.54
     31.6700	  678.00	  658.59	-1969.09	  444.46
     31.7700	  707.00	  641.34	-1922.84	  444.37
     31.8700	  655.00	  631.00	-1964.50	  444.29
     31.9700	  692.00	  624.76	-1921.26	  444.21
     32.0700	  672.00	  620.71	-1937.21	  444.13
     32.1700	  667.00	  617.84	-1939.34	  444.05
     32.2700	  607.00	  615.69	-1997.19	  443.98
     32.3700	  612.00	  614.06	-1990.56	  443.91
     32.4700	  616.00	  612.86	-1985.36	  443.85
     32.5700	  615.00	  612.03	-1985.53	  443.78
     32.6700	  653.00	  611.57	-1947.07	  443.72
     32.7700	  621.00	  611.49	-1978.99	  443.67
     32.8700	  659.00	  611.80	-1941.30	  443.61
     32.9700	  638.00	  612.60	-1963.10	  443.56
     33.0700	  630.00	  613.91	-1972.41	  443.51
     33.1700	  624.00	  615.92	-1980.42	  443.46
     33.2700	  614.00	  618.90	-1993.40	  443.41
     33.3700	  662.00	  623.37	-1949.87	  443.37
     33.4700	  612.00	  630.36	-2006.86	  443.33
     33.5700	  632.00	  641.88	-1998.38	  443.29
     33.6700	  690.00	  661.46	-1959.96	  443.26
     33.7700	  719.00	  694.55	-1964.05	  443.22
     33.8700	  740.00	  747.75	-1996.25	  443.19
     33.9700	  865.00	  825.92	-1949.42	  443.16
     34.0700	  995.00	  926.75	-1920.25	  443.14
     34.1700	 1086.00	 1035.29	-1937.79	  443.11
     34.2700	 1253.00	 1121.30	-1856.80	  443.09
     34.3700	 1295.00	 1145.42	-1838.92	  443.07
     34.4700	 1164.00	 1087.85	-1912.35	  443.05
     34.5700	 1003.00	  977.62	-1963.12	  443.04
     34.6700	  876.00	  862.27	-1974.77	  443.03
     34.7700	  761.00	  768.97	-1996.47	  443.02
     34.8700	  704.00	  704.18	-1988.68	  443.01
     34.9700	  652.00	  663.76	-2000.26	  443.00
     35.0700	  698.00	  640.10	-1930.60	  443.00
     35.1700	  706.00	  626.32	-1908.82	  442.99
     35.2700	  674.00	  617.80	-1932.30	  442.99
     35.3700	  645.00	  612.05	-1955.55	  442.99
     35.4700	  587.00	  607.85	-2009.35	  443.00
     35.5700	  613.00	  604.63	-1980.13	  443.00
     35.6700	  620.00	  602.08	-1970.58	  443.01
     35.7700	  596.00	  600.03	-1992.53	  443.02
     35.8700	  582.00	  598.38	-2004.88	  443.03
     35.9700	  601.00	  597.03	-1984.53	  443.04
     36.0700	  596.00	  595.94	-1988.44	  443.06
     36.1700	  580.00	  595.05	-2003.55	  443.07
     36.2700	  605.00	  594.35	-1977.85	  443.09
     36.3700	  601.00	  593.80	-1981.30	  443.11
     36.4700	  618.00	  593.41	-1963.91	  443.13
     36.5700	  609.00	  593.15	-1972.65	  443.15
     36.6700	  632.00	  593.03	-1949.53	  443.18
     36.7700	  621.00	  593.06	-1960.56	  443.21
     36.8700	  599.00	  593.26	-1982.76	  443.23
     36.9700	  588.00	  593.70	-1994.20	  443.26
     37.0700	  598.00	  594.33	-1984.83	  443.30
     37.1700	  594.00	  596.00	-1990.50	  443.33
     37.2700	  599.00	  597.45	-1986.95	  443.36
     37.3700	  616.00	  599.65	-1972.15	  443.40
     37.4700	  582.00	  603.03	-2009.53	  443.44
     37.5700	  589.00	  608.36	-2007.86	  443.47
     37.6700	  628.00	  616.75	-1977.25	  443.52
     37.7700	  613.00	  629.63	-2005.13	  443.56
     37.8700	  588.00	  648.44	-2048.94	  443.60
     37.9700	  647.00	  673.82	-2015.32	  443.64
     38.0700	  738.00	  702.66	-1953.16	  443.69
     38.1700	  699.00	  734.31	-2023.81	  443.74
     38.2700	  760.00	  759.26	-1987.76	  443.79
     38.3700	  773.00	  767.43	-1982.93	  443.84
     38.4700	  748.00	  752.81	-1993.31	  443.89
     38.5700	  728.00	  721.37	-1981.87	  443.94
     38.6700	  649.00	  685.73	-2025.23	  443.99
     38.7700	  644.00	  654.69	-1999.19	  444.05
     38.8700	  577.00	  631.42	-2042.92	  444.11
     38.9700	  575.00	  615.74	-2029.24	  444.16
     39.0700	  585.00	  605.94	-2009.44	  444.22
     39.1700	  584.00	  600.04	-2004.54	  444.28
     39.2700	  588.00	  596.44	-1996.94	  444.34
     39.3700	  588.00	  594.12	-1994.62	  444.40
     39.4700	  599.00	  592.50	-1982.00	  444.47
     39.5700	  579.00	  590.27	-1999.77	  444.53
     39.6700	  584.00	  589.37	-1993.87	  444.60
     39.7700	  616.00	  588.67	-1961.17	  444.66
     39.8700	  627.00	  588.13	-1949.63	  444.73
     39.9700	  580.00	  587.70	-1996.20	  444.80
     40.0700	  585.00	  587.36	-1990.86	  444.87
     40.1700	  603.00	  587.11	-1972.61	  444.94
     40.2700	  585.00	  586.92	-1990.42	  445.01
     40.3700	  608.00	  586.79	-1967.29	  445.08
     40.4700	  564.00	  586.70	-2011.20	  445.15
     40.5700	  596.00	  586.66	-1979.16	  445.23
     40.6700	  575.00	  586.66	-2000.16	  445.30
     40.7700	  630.00	  586.70	-1945.20	  445.38
