neutron_powder_diffraction_0124
R_wp: 3.931
Temperature (K): 1006.425
Counts: 83799.00
Wavelength (Ã…): 2.52098
COMMENTS
Test file for demonstrating the .xyy file format in Reel1.0
END OF HEADER
   tth       Y_obs     Y_calc      Y_res    Background    Phase_1_Nuc    Phase_1_Mag    Phase_2_Nuc    Phase_2_Mag
  9.970    589.000    558.396     30.604    557.366    558.263    557.366    557.499    557.366
 10.070    616.000    558.784     57.216    557.677    558.650    557.677    557.810    557.677
 10.170    599.786    559.175     40.612    557.979    559.040    557.979    558.113    557.979
 10.270    579.083    559.571     19.512    558.273    559.436    558.273    558.407    558.273
 10.370    572.000    559.974     12.026    558.558    559.839    558.558    558.693    558.558
 10.470    592.427    560.390     32.037    558.835    560.253    558.835    558.971    558.835
 10.570    593.000    560.822     32.178    559.104    560.685    559.104    559.241    559.104
 10.670    557.000    561.277     -4.277    559.365    561.139    559.365    559.502    559.365
 10.770    543.000    561.763    -18.763    559.618    561.625    559.618    559.755    559.618
 10.870    606.000    562.293     43.707    559.863    562.154    559.863    560.001    559.863
 10.970    576.524    562.882     13.642    560.099    562.742    560.099    560.238    560.099
 11.070    516.663    563.552    -46.889    560.328    563.411    560.328    560.467    560.328
 11.170    575.627    564.337     11.289    560.549    564.196    560.549    560.689    560.549
 11.270    525.408    565.290    -39.882    560.763    565.147    560.763    560.903    560.763
 11.370    559.559    566.503     -6.943    560.968    566.359    560.968    561.109    560.968
 11.470    560.665    568.182     -7.518    561.166    568.037    561.166    561.308    561.166
 11.570    580.000    570.844      9.156    561.357    570.697    561.357    561.499    561.357
 11.670    607.000    575.710     31.290    561.540    575.560    561.540    561.682    561.540
 11.770    561.463    585.146    -23.683    561.715    584.989    561.715    561.858    561.715
 11.870    640.000    602.393     37.607    561.883    602.226    561.883    562.027    561.883
 11.970    662.000    629.522     32.478    562.044    629.339    562.044    562.189    562.044
 12.070    664.000    663.270      0.730    562.198    663.067    562.198    562.343    562.198
 12.170    673.000    690.924    -17.924    562.345    690.705    562.345    562.490    562.345
 12.270    700.524    695.195      5.328    562.484    694.973    562.484    562.631    562.484
 12.370    595.000    672.596    -77.596    562.617    672.386    562.617    562.764    562.617
 12.470    598.000    638.835    -40.835    562.742    638.644    562.742    562.890    562.742
 12.570    574.043    609.438    -35.395    562.861    609.263    562.861    563.009    562.861
 12.670    597.000    589.903      7.097    562.973    589.739    562.973    563.122    562.973
 12.770    616.000    579.044     36.956    563.078    578.885    563.078    563.228    563.078
 12.870    611.443    573.582     37.860    563.176    573.426    563.176    563.327    563.176
 12.970    609.220    570.813     38.407    563.268    570.658    563.268    563.419    563.268
 13.070    601.000    569.244     31.756    563.353    569.089    563.353    563.505    563.353
 13.170    609.585    568.228     41.357    563.432    568.073    563.432    563.585    563.432
 13.270    571.000    567.508      3.492    563.504    567.353    563.504    563.658    563.504
 13.370    533.000    566.975    -33.975    563.570    566.819    563.570    563.724    563.570
 13.470    543.000    566.569    -23.569    563.629    566.412    563.629    563.784    563.629
 13.570    589.000    566.253     22.747    563.683    566.097    563.683    563.839    563.683
 13.670    546.000    566.004    -20.004    563.730    565.847    563.730    563.886    563.730
 13.770    572.000    565.803      6.197    563.771    565.645    563.771    563.928    563.771
 13.870    553.734    565.639    -11.905    563.806    565.480    563.806    563.964    563.806
 13.970    570.000    565.501      4.499    563.835    565.342    563.835    563.994    563.835
 14.070    510.000    565.384    -55.384    563.858    565.224    563.858    564.017    563.858
 14.170    536.065    565.282    -29.217    563.875    565.121    563.875    564.035    563.875
 14.270    549.000    565.192    -16.192    563.886    565.030    563.886    564.047    563.886
 14.370    612.000    565.110     46.890    563.892    564.947    563.892    564.054    563.892
 14.470    546.593    565.035    -18.441    563.891    564.872    563.891    564.054    563.891
 14.570    599.000    564.965     34.035    563.885    564.800    563.885    564.049    563.885
 14.670    531.000    564.895    -33.895    563.874    564.730    563.874    564.039    563.874
 14.770    507.000    564.828    -57.828    563.857    564.662    563.857    564.022    563.857
 14.870    603.931    564.761     39.170    563.835    564.594    563.835    564.001    563.835
 14.970    510.000    564.694    -54.694    563.807    564.526    563.807    563.974    563.807
 15.070    546.000    564.625    -18.625    563.773    564.457    563.773    563.941    563.773
 15.170    544.000    564.555    -20.555    563.735    564.386    563.735    563.904    563.735
 15.270    557.273    564.483     -7.210    563.691    564.313    563.691    563.861    563.691
 15.370    556.000    564.409     -8.409    563.642    564.238    563.642    563.813    563.642
 15.470    529.000    564.333    -35.333    563.588    564.161    563.588    563.760    563.588
 15.570    511.000    564.254    -53.254    563.529    564.081    563.529    563.701    563.529
 15.670    540.000    564.174    -24.174    563.464    564.000    563.464    563.638    563.464
 15.770    536.000    564.088    -28.088    563.395    563.914    563.395    563.570    563.395
 15.870    588.000    564.000     24.000    563.321    563.824    563.321    563.497    563.321
 15.970    547.298    563.908    -16.610    563.242    563.731    563.242    563.419    563.242
 16.070    540.000    563.813    -23.813    563.158    563.635    563.158    563.336    563.158
 16.170    551.000    563.714    -12.714    563.070    563.535    563.070    563.249    563.070
 16.270    558.000    563.611     -5.611    562.977    563.432    562.977    563.156    562.977
 16.370    574.667    563.505     11.162    562.879    563.325    562.879    563.060    562.879
 16.470    512.000    563.396    -51.396    562.777    563.214    562.777    562.958    562.777
 16.570    517.000    563.282    -46.282    562.670    563.099    562.670    562.852    562.670
 16.670    541.000    563.166    -22.166    562.558    562.982    562.558    562.742    562.558
 16.770    554.000    563.051     -9.051    562.442    562.866    562.442    562.627    562.442
 16.870    517.741    562.947    -45.206    562.322    562.761    562.322    562.508    562.322
 16.970    590.732    562.822     27.911    562.198    562.634    562.198    562.385    562.198
 17.070    567.243    562.690      4.553    562.069    562.501    562.069    562.257    562.069
 17.170    572.000    562.555      9.445    561.936    562.365    561.936    562.125    561.936
 17.270    539.443    562.416    -22.973    561.799    562.225    561.799    561.990    561.799
 17.370    572.000    562.274      9.726    561.657    562.082    561.657    561.849    561.657
 17.470    597.269    562.128     35.142    561.512    561.934    561.512    561.705    561.512
 17.570    594.333    561.978     32.355    561.363    561.784    561.363    561.557    561.363
 17.670    583.413    561.826     21.587    561.209    561.630    561.209    561.405    561.209
 17.770    566.256    561.669      4.587    561.052    561.472    561.052    561.249    561.052
 17.870    553.403    561.509     -8.107    560.891    561.311    560.891    561.090    560.891
 17.970    561.000    561.346     -0.346    560.726    561.146    560.726    560.926    560.726
 18.070    583.000    561.180     21.820    560.557    560.979    560.557    560.759    560.557
 18.170    563.722    561.014      2.707    560.385    560.811    560.385    560.588    560.385
 18.270    585.000    560.841     24.159    560.209    560.637    560.209    560.413    560.209
 18.370    522.932    560.675    -37.743    560.029    560.469    560.029    560.235    560.029
 18.470    572.838    560.593     12.245    559.846    560.386    559.846    560.053    559.846
 18.570    570.000    560.428      9.572    559.659    560.220    559.659    559.868    559.659
 18.670    536.819    560.244    -23.425    559.469    560.033    559.469    559.679    559.469
 18.770    581.000    560.055     20.945    559.275    559.843    559.275    559.487    559.275
 18.870    598.647    559.863     38.783    559.078    559.650    559.078    559.292    559.078
 18.970    523.109    559.669    -36.561    558.878    559.454    558.878    559.093    558.878
 19.070    552.000    559.472     -7.472    558.674    559.256    558.674    558.891    558.674
 19.170    574.000    559.277     14.723    558.468    559.059    558.468    558.686    558.468
 19.270    553.000    559.076     -6.076    558.258    558.856    558.258    558.478    558.258
 19.370    547.668    558.871    -11.202    558.044    558.649    558.044    558.266    558.044
 19.470    538.000    558.663    -20.663    557.828    558.439    557.828    558.052    557.828
 19.570    514.966    558.452    -43.486    557.609    558.226    557.609    557.834    557.609
 19.670    556.000    558.239     -2.239    557.386    558.011    557.386    557.614    557.386
 19.770    544.000    558.023    -14.023    557.161    557.794    557.161    557.390    557.161
 19.870    530.000    557.805    -27.805    556.933    557.574    556.933    557.164    556.933
 19.970    573.690    557.584     16.105    556.702    557.351    556.702    556.935    556.702
 20.070    545.000    557.362    -12.362    556.468    557.127    556.468    556.703    556.468
 20.170    541.000    557.139    -16.139    556.231    556.902    556.231    556.468    556.231
 20.270    532.000    556.942    -24.942    555.992    556.702    555.992    556.231    555.992
 20.370    501.000    556.753    -55.753    555.750    556.512    555.750    555.991    555.750
 20.470    580.000    556.527     23.473    555.505    556.283    555.505    555.749    555.505
 20.570    535.000    556.294    -21.294    555.257    556.048    555.257    555.503    555.257
 20.670    492.000    556.060    -64.060    555.007    555.812    555.007    555.256    555.007
 20.770    544.000    555.825    -11.825    554.755    555.574    554.755    555.006    554.755
 20.870    552.000    555.588     -3.588    554.500    555.335    554.500    554.753    554.500
 20.970    534.000    555.352    -21.352    554.242    555.096    554.242    554.498    554.242
 21.070    521.000    555.123    -34.123    553.983    554.865    553.983    554.241    553.983
 21.170    540.000    554.923    -14.923    553.720    554.662    553.720    553.982    553.720
 21.270    590.836    554.689     36.147    553.456    554.425    553.456    553.720    553.456
 21.370    572.000    554.448     17.552    553.189    554.181    553.189    553.456    553.189
 21.470    560.000    554.205      5.795    552.920    553.935    552.920    553.190    552.920
 21.570    533.000    553.962    -20.962    552.649    553.690    552.649    552.922    552.649
 21.670    585.772    553.719     32.053    552.376    553.444    552.376    552.651    552.376
 21.770    526.667    553.476    -26.810    552.100    553.198    552.100    552.379    552.100
 21.870    584.000    553.234     30.766    551.823    552.952    551.823    552.105    551.823
 21.970    602.000    552.992     49.008    551.543    552.707    551.543    551.829    551.543
 22.070    582.654    552.752     29.901    551.262    552.463    551.262    551.551    551.262
 22.170    551.000    552.518     -1.518    550.978    552.226    550.978    551.271    550.978
 22.270    572.000    552.290     19.710    550.693    551.994    550.693    550.989    550.693
 22.370    541.970    552.065    -10.095    550.405    551.765    550.405    550.705    550.405
 22.470    592.000    551.852     40.148    550.116    551.548    550.116    550.420    550.116
 22.570    540.000    551.629    -11.629    549.825    551.321    549.825    550.133    549.825
 22.670    548.000    551.415     -3.415    549.532    551.103    549.532    549.845    549.532
 22.770    570.000    551.209     18.791    549.238    550.893    549.238    549.555    549.238
 22.870    534.467    551.006    -16.539    548.942    550.685    548.942    549.263    548.942
 22.970    576.000    550.814     25.186    548.644    550.489    548.644    548.970    548.644
 23.070    555.000    550.645      4.355    548.345    550.315    548.345    548.676    548.345
 23.170    561.000    550.502     10.498    548.044    550.166    548.044    548.380    548.044
 23.270    526.000    550.378    -24.378    547.741    550.037    547.741    548.083    547.741
 23.370    569.000    550.285     18.715    547.437    549.939    547.437    547.784    547.437
 23.470    540.621    550.213     -9.592    547.132    549.862    547.132    547.484    547.132
 23.570    538.000    550.188    -12.188    546.825    549.831    546.825    547.183    546.825
 23.670    600.000    550.231     49.769    546.516    549.868    546.516    546.881    546.516
 23.770    580.000    550.380     29.620    546.207    550.010    546.207    546.578    546.207
 23.870    536.789    550.688    -13.899    545.896    550.312    545.896    546.274    545.896
 23.970    559.082    551.156      7.926    545.583    550.773    545.583    545.969    545.583
 24.070    558.000    551.994      6.006    545.270    551.605    545.270    545.662    545.270
 24.170    567.992    553.625     14.366    544.955    553.230    544.955    545.355    544.955
 24.270    566.000    556.961      9.039    544.639    556.560    544.639    545.048    544.639
 24.370    614.000    563.604     50.396    544.322    563.200    544.322    544.739    544.322
 24.470    605.000    575.507     29.493    544.004    575.102    544.004    544.430    544.004
 24.570    628.000    593.446     34.554    543.684    593.045    543.684    544.120    543.684
 24.670    613.000    614.670     -1.670    543.364    614.273    543.364    543.809    543.364
 24.770    588.881    630.772    -41.891    543.043    630.377    543.043    543.499    543.043
 24.870    615.726    631.597    -15.871    542.720    631.191    542.720    543.187    542.720
 24.970    578.798    616.282    -37.484    542.397    615.854    542.397    542.876    542.397
 25.070    566.000    594.526    -28.526    542.073    594.070    542.073    542.564    542.073
 25.170    578.000    575.441      2.559    541.747    574.959    541.747    542.252    541.747
 25.270    547.185    562.370    -15.185    541.421    561.865    541.421    541.939    541.421
 25.370    543.000    554.746    -11.746    541.095    554.221    541.095    541.627    541.095
 25.470    545.000    550.645     -5.645    540.767    550.101    540.767    541.316    540.767
 25.570    611.000    548.390     62.610    540.439    547.828    540.439    541.004    540.439
 25.670    546.415    547.002     -0.587    540.109    546.421    540.109    540.693    540.109
 25.770    555.739    546.026      9.712    539.779    545.426    539.779    540.382    539.779
 25.870    567.000    545.278     21.722    539.449    544.657    539.449    540.072    539.449
 25.970    525.190    544.681    -19.490    539.118    544.037    539.118    539.763    539.118
 26.070    495.000    544.190    -49.190    538.786    543.523    538.786    539.455    538.786
 26.170    579.000    543.786     35.214    538.454    543.093    538.454    539.148    538.454
 26.270    497.275    543.453    -46.178    538.121    542.732    538.121    538.842    538.121
 26.370    546.000    543.186      2.814    537.787    542.435    537.787    538.539    537.787
 26.470    548.000    542.980      5.020    537.453    542.197    537.453    538.237    537.453
 26.570    553.000    542.836     10.164    537.119    542.018    537.119    537.937    537.119
 26.670    563.641    542.759     20.882    536.784    541.903    536.784    537.641    536.784
 26.770    539.000    542.757     -3.757    536.449    541.859    536.449    537.347    536.449
 26.870    557.376    542.840     14.536    536.113    541.896    536.113    537.057    536.113
 26.970    564.000    543.027     20.973    535.777    542.033    535.777    536.771    535.777
 27.070    515.000    543.345    -28.345    535.441    542.295    535.441    536.490    535.441
 27.170    580.000    543.831     36.169    535.104    542.721    535.104    536.215    535.104
 27.270    538.000    544.544     -6.544    534.768    543.365    534.768    535.946    534.768
 27.370    499.837    545.571    -45.735    534.431    544.317    534.431    535.684    534.431
 27.470    551.000    547.077      3.923    534.093    545.738    534.093    535.431    534.093
 27.570    564.877    549.487     15.390    533.756    548.052    533.756    535.189    533.756
 27.670    544.729    554.225     -9.497    533.418    552.682    533.418    534.958    533.418
 27.770    577.890    565.739     12.151    533.080    564.069    533.080    534.743    533.080
 27.870    629.000    594.479     34.521    532.742    592.660    532.742    534.544    532.742
 27.970    673.081    655.823     17.258    532.404    653.826    532.404    534.365    532.404
 28.070    747.000    756.497     -9.497    532.066    754.287    532.066    534.211    532.066
 28.170    839.000    871.392    -32.392    531.728    868.946    531.728    534.084    531.728
 28.270    936.000    937.359     -1.359    531.390    934.670    531.390    533.992    531.390
 28.370    929.099    906.125     22.974    531.052    903.182    531.052    533.938    531.052
 28.470    799.000    812.302    -13.302    530.714    809.061    530.714    533.930    530.714
 28.570    715.782    729.127    -13.345    530.376    725.519    530.376    533.975    530.376
 28.670    728.763    702.642     26.121    530.039    698.591    530.039    534.079    530.039
 28.770    753.000    735.247     17.753    529.701    730.682    529.701    534.249    529.701
 28.870    815.000    794.740     20.260    529.363    789.594    529.363    534.490    529.363
 28.970    802.000    828.851    -26.851    529.026    823.062    529.026    534.803    529.026
 29.070    771.103    801.462    -30.360    528.689    794.972    528.689    535.183    528.689
 29.170    680.000    730.791    -50.791    528.352    723.544    528.352    535.613    528.352
 29.270    687.000    657.198     29.802    528.015    649.166    528.015    536.062    528.015
 29.370    642.000    604.306     37.694    527.679    595.517    527.679    536.478    527.679
 29.470    574.204    574.640     -0.436    527.343    565.196    527.343    536.792    527.343
 29.570    564.242    560.522      3.720    527.007    550.604    527.007    536.928    527.007
 29.670    545.355    554.005     -8.650    526.671    543.861    526.671    536.817    526.671
 29.770    576.000    550.473     25.527    526.336    540.386    526.336    536.425    526.336
 29.870    568.000    548.014     19.986    526.001    538.255    526.001    535.761    526.001
 29.970    539.309    546.003     -6.694    525.667    536.794    525.667    534.876    525.667
 30.070    578.000    544.302     33.698    525.333    535.790    525.333    533.844    525.333
 30.170    573.000    542.943     30.057    524.999    535.200    524.999    532.741    524.999
 30.270    533.000    542.102     -9.102    524.666    535.138    524.666    531.629    524.666
 30.370    555.425    542.253     13.172    524.334    536.033    524.334    530.550    524.334
