neutron_powder_diffraction_0072
R_wp: 4.724
Temperature (K): 754.798
Counts: 83632.00
Wavelength (Ã…): 2.52098
COMMENTS
Test file for demonstrating the .xyy file format in Reel1.0
END OF HEADER
   tth       Y_obs     Y_calc      Y_res    Background    Phase_1_Nuc    Phase_1_Mag    Phase_2_Nuc    Phase_2_Mag
  9.970    641.943    607.689     34.254    606.568    607.688    606.568    606.568    606.568
 10.070    702.000    608.689     93.311    607.479    608.689    607.479    607.479    607.479
 10.170    659.000    609.688     49.312    608.374    609.688    608.374    608.374    608.374
 10.270    697.000    610.686     86.314    609.254    610.686    609.254    609.254    609.254
 10.370    634.000    611.686     22.314    610.118    611.685    610.118    610.118    610.118
 10.470    665.000    612.691     52.309    610.966    612.690    610.966    610.966    610.966
 10.570    687.000    613.713     73.287    611.799    613.712    611.799    611.799    611.799
 10.670    568.868    614.802    -45.934    612.617    614.801    612.617    612.617    612.617
 10.770    637.000    615.978     21.022    613.420    615.976    613.420    613.420    613.420
 10.870    665.084    617.092     47.992    614.207    617.091    614.207    614.207    614.207
 10.970    636.794    618.252     18.541    614.980    618.251    614.980    614.980    614.980
 11.070    661.918    619.492     42.426    615.738    619.490    615.738    615.738    615.738
 11.170    584.521    620.842    -36.321    616.481    620.840    616.481    616.481    616.481
 11.270    674.000    622.354     51.646    617.210    622.351    617.210    617.210    617.210
 11.370    627.000    624.108      2.892    617.924    624.105    617.924    617.924    617.924
 11.470    602.001    626.266    -24.265    618.624    626.262    618.624    618.624    618.624
 11.570    703.000    629.201     73.799    619.310    629.196    619.310    619.310    619.310
 11.670    604.879    633.795    -28.916    619.981    633.788    619.981    619.981    619.981
 11.770    593.643    641.862    -48.219    620.638    641.851    620.638    620.638    620.638
 11.870    691.370    656.267     35.103    621.282    656.247    621.282    621.282    621.282
 11.970    721.000    679.867     41.133    621.912    679.834    621.912    621.912    621.912
 12.070    723.000    712.656     10.344    622.528    712.605    622.528    622.528    622.528
 12.170    757.000    747.316      9.684    623.130    747.246    623.130    623.130    623.130
 12.270    769.000    766.726      2.274    623.719    766.645    623.719    623.719    623.719
 12.370    796.868    757.065     39.803    624.295    756.990    624.295    624.295    624.295
 12.470    666.390    726.699    -60.309    624.857    726.641    624.857    624.857    624.857
 12.570    692.491    693.449     -0.958    625.406    693.410    625.406    625.406    625.406
 12.670    677.000    667.779      9.221    625.942    667.756    625.942    625.942    625.942
 12.770    658.000    651.688      6.312    626.465    651.674    626.465    626.465    626.465
 12.870    684.023    642.950     41.074    626.975    642.941    626.975    626.975    626.975
 12.970    568.000    638.576    -70.576    627.473    638.570    627.473    627.473    627.473
 13.070    617.000    636.356    -19.356    627.958    636.351    627.958    627.958    627.958
 13.170    601.000    635.149    -34.149    628.430    635.146    628.430    628.430    628.430
 13.270    634.000    634.450     -0.450    628.890    634.447    628.890    628.890    628.890
 13.370    605.000    634.041    -29.041    629.337    634.039    629.337    629.337    629.337
 13.470    620.000    633.819    -13.819    629.772    633.817    629.772    629.772    629.772
 13.570    685.368    633.728     51.640    630.195    633.726    630.195    630.195    630.195
 13.670    624.449    633.732     -9.283    630.606    633.730    630.606    630.606    630.606
 13.770    630.000    633.797     -3.797    631.006    633.796    631.006    631.006    631.006
 13.870    590.000    633.911    -43.911    631.393    633.910    631.393    631.393    631.393
 13.970    649.000    634.059     14.941    631.768    634.058    631.768    631.768    631.768
 14.070    617.000    634.232    -17.232    632.132    634.232    632.132    632.132    632.132
 14.170    693.648    634.424     59.224    632.484    634.423    632.484    632.484    632.484
 14.270    635.786    634.627      1.159    632.825    634.627    632.825    632.825    632.825
 14.370    623.000    634.839    -11.839    633.155    634.838    633.155    633.155    633.155
 14.470    609.000    635.056    -26.056    633.473    635.055    633.473    633.473    633.473
 14.570    628.000    635.274     -7.274    633.780    635.274    633.780    633.780    633.780
 14.670    631.713    635.496     -3.783    634.076    635.496    634.076    634.076    634.076
 14.770    616.000    635.746    -19.746    634.361    635.745    634.361    634.361    634.361
 14.870    622.000    636.013    -14.013    634.635    636.012    634.635    634.635    634.635
 14.970    599.000    636.229    -37.229    634.898    636.229    634.898    634.898    634.898
 15.070    661.000    636.438     24.562    635.151    636.437    635.151    635.151    635.151
 15.170    628.000    636.640     -8.640    635.393    636.639    635.393    635.393    635.393
 15.270    623.000    636.835    -13.835    635.625    636.835    635.625    635.625    635.625
 15.370    634.523    637.024     -2.501    635.846    637.024    635.846    635.846    635.846
 15.470    697.901    637.209     60.692    636.057    637.209    636.057    636.057    636.057
 15.570    613.000    637.397    -24.397    636.258    637.397    636.258    636.258    636.258
 15.670    638.000    637.573      0.427    636.448    637.573    636.448    636.448    636.448
 15.770    669.657    637.734     31.923    636.629    637.734    636.629    636.629    636.629
 15.870    604.128    637.886    -33.758    636.799    637.886    636.799    636.799    636.799
 15.970    652.795    638.031     14.764    636.960    638.031    636.960    636.960    636.960
 16.070    690.029    638.171     51.858    637.111    638.171    637.111    637.111    637.111
 16.170    653.169    638.336     14.833    637.252    638.336    637.252    637.252    637.252
 16.270    556.000    638.491    -82.491    637.384    638.490    637.384    637.384    637.384
 16.370    662.894    638.606     24.287    637.506    638.606    637.506    637.506    637.506
 16.470    610.000    638.711    -28.711    637.619    638.711    637.619    637.619    637.619
 16.570    599.000    638.810    -39.810    637.722    638.810    637.722    637.722    637.722
 16.670    609.000    638.925    -29.925    637.816    638.924    637.816    637.816    637.816
 16.770    602.000    639.010    -37.010    637.902    639.009    637.902    637.902    637.902
 16.870    676.689    639.093     37.596    637.978    639.093    637.978    637.978    637.978
 16.970    647.000    639.160      7.840    638.045    639.160    638.045    638.045    638.045
 17.070    620.832    639.216    -18.383    638.103    639.216    638.103    638.103    638.103
 17.170    678.213    639.264     38.950    638.152    639.264    638.152    638.152    638.152
 17.270    584.000    639.304    -55.304    638.193    639.304    638.193    638.193    638.193
 17.370    615.932    639.336    -23.404    638.225    639.336    638.225    638.225    638.225
 17.470    641.350    639.360      1.989    638.249    639.360    638.249    638.249    638.249
 17.570    687.516    639.383     48.133    638.264    639.383    638.264    638.264    638.264
 17.670    606.000    639.419    -33.419    638.270    639.418    638.270    638.270    638.270
 17.770    620.000    639.428    -19.428    638.269    639.428    638.269    638.269    638.269
 17.870    586.967    639.449    -52.483    638.259    639.449    638.259    638.259    638.259
 17.970    623.000    639.472    -16.472    638.241    639.472    638.241    638.241    638.241
 18.070    647.000    639.458      7.542    638.215    639.458    638.215    638.215    638.215
 18.170    692.708    639.465     53.242    638.181    639.465    638.181    638.181    638.181
 18.270    599.294    639.465    -40.171    638.139    639.465    638.139    638.139    638.139
 18.370    626.000    639.426    -13.426    638.090    639.426    638.090    638.090    638.090
 18.470    607.178    639.385    -32.207    638.032    639.385    638.032    638.032    638.032
 18.570    608.000    639.354    -31.354    637.967    639.354    637.967    637.967    637.967
 18.670    675.085    639.296     35.788    637.895    639.296    637.895    637.895    637.895
 18.770    578.000    639.268    -61.268    637.815    639.268    637.815    637.815    637.815
 18.870    606.000    639.203    -33.203    637.728    639.202    637.728    637.728    637.728
 18.970    653.000    639.119     13.881    637.633    639.119    637.633    637.633    637.633
 19.070    643.000    639.028      3.972    637.531    639.028    637.531    637.531    637.531
 19.170    621.000    638.931    -17.931    637.422    638.930    637.422    637.422    637.422
 19.270    688.471    638.828     49.643    637.306    638.828    637.306    637.306    637.306
 19.370    569.000    638.722    -69.722    637.183    638.722    637.183    637.183    637.183
 19.470    569.000    638.608    -69.608    637.052    638.608    637.052    637.052    637.052
 19.570    670.522    638.487     32.036    636.915    638.487    636.915    636.915    636.915
 19.670    618.269    638.362    -20.093    636.772    638.362    636.772    636.772    636.772
 19.770    580.049    638.237    -58.187    636.621    638.237    636.621    636.621    636.621
 19.870    567.000    638.096    -71.096    636.464    638.096    636.464    636.464    636.464
 19.970    626.000    637.949    -11.949    636.301    637.949    636.301    636.301    636.301
 20.070    600.000    637.797    -37.797    636.131    637.797    636.131    636.131    636.131
 20.170    574.000    637.640    -63.640    635.954    637.640    635.954    635.954    635.954
 20.270    602.000    637.476    -35.476    635.771    637.476    635.771    635.771    635.771
 20.370    626.000    637.307    -11.307    635.582    637.307    635.582    635.582    635.582
 20.470    600.000    637.135    -37.135    635.387    637.135    635.387    635.387    635.387
 20.570    685.037    636.955     48.082    635.186    636.955    635.186    635.186    635.186
 20.670    621.000    636.771    -15.771    634.978    636.771    634.978    634.978    634.978
 20.770    685.798    636.583     49.215    634.765    636.583    634.765    634.765    634.765
 20.870    604.000    636.389    -32.389    634.546    636.389    634.546    634.546    634.546
 20.970    615.000    636.190    -21.190    634.321    636.190    634.321    634.321    634.321
 21.070    683.988    635.987     48.000    634.090    635.988    634.090    634.090    634.090
 21.170    603.000    635.781    -32.781    633.853    635.781    633.853    633.853    633.853
 21.270    660.000    635.569     24.431    633.611    635.570    633.611    633.611    633.611
 21.370    639.887    635.355      4.533    633.364    635.355    633.364    633.364    633.364
 21.470    631.000    635.136     -4.136    633.110    635.136    633.110    633.110    633.110
 21.570    614.000    634.915    -20.915    632.852    634.915    632.852    632.852    632.852
 21.670    598.000    634.690    -36.690    632.588    634.690    632.588    632.588    632.588
 21.770    559.000    634.463    -75.463    632.319    634.463    632.319    632.319    632.319
 21.870    671.878    634.233     37.645    632.045    634.233    632.045    632.045    632.045
 21.970    610.000    634.003    -24.003    631.765    634.003    631.765    631.765    631.765
 22.070    602.000    633.771    -31.771    631.481    633.771    631.481    631.481    631.481
 22.170    582.000    633.538    -51.538    631.191    633.538    631.191    631.191    631.191
 22.270    683.924    633.303     50.620    630.897    633.304    630.897    630.897    630.897
 22.370    659.953    633.070     26.883    630.598    633.070    630.598    630.598    630.598
 22.470    663.103    632.838     30.264    630.293    632.839    630.293    630.293    630.293
 22.570    682.033    632.608     49.425    629.985    632.608    629.985    629.985    629.985
 22.670    556.000    632.381    -76.381    629.671    632.381    629.671    629.671    629.671
 22.770    639.000    632.160      6.840    629.353    632.160    629.353    629.353    629.353
 22.870    614.000    631.944    -17.944    629.031    631.945    629.031    629.031    629.031
 22.970    633.284    631.737      1.547    628.703    631.738    628.703    628.703    628.703
 23.070    600.000    631.541    -31.541    628.372    631.541    628.372    628.372    628.372
 23.170    633.000    631.359      1.641    628.036    631.360    628.036    628.036    628.036
 23.270    642.377    631.196     11.181    627.696    631.197    627.696    627.696    627.696
 23.370    643.385    631.058     12.328    627.352    631.059    627.352    627.352    627.352
 23.470    576.713    630.951    -54.238    627.003    630.952    627.003    627.003    627.003
 23.570    686.289    630.886     55.403    626.651    630.887    626.651    626.651    626.651
 23.670    608.000    630.877    -22.877    626.294    630.878    626.294    626.294    626.294
 23.770    670.000    630.944     39.056    625.933    630.946    625.933    625.933    625.933
 23.870    611.000    631.114    -20.114    625.569    631.116    625.569    625.569    625.569
 23.970    637.000    631.435      5.565    625.201    631.438    625.201    625.201    625.201
 24.070    630.243    631.998     -1.755    624.829    632.001    624.829    624.829    624.829
 24.170    685.238    632.983     52.254    624.453    632.987    624.453    624.453    624.453
 24.270    628.000    634.840     -6.840    624.073    634.845    624.073    624.073    624.073
 24.370    631.922    638.485     -6.563    623.690    638.493    623.690    623.690    623.690
 24.470    676.000    645.461     30.539    623.303    645.475    623.303    623.303    623.303
 24.570    701.656    657.593     44.063    622.913    657.615    622.913    622.913    622.913
 24.670    684.388    675.724      8.663    622.519    675.759    622.519    622.519    622.519
 24.770    733.259    697.465     35.794    622.122    697.516    622.122    622.122    622.122
 24.870    711.000    715.004     -4.004    621.722    715.068    621.722    621.722    621.722
 24.970    768.972    717.881     51.091    621.319    717.947    621.319    621.319    621.319
 25.070    696.000    703.589     -7.589    620.912    703.645    620.912    620.912    620.912
 25.170    751.000    681.303     69.697    620.502    681.344    620.502    620.502    620.502
 25.270    628.403    660.788    -32.385    620.089    660.814    620.089    620.089    620.089
 25.370    599.472    646.065    -46.593    619.673    646.081    619.673    619.673    619.673
 25.470    614.245    637.025    -22.780    619.254    637.035    619.254    619.254    619.254
 25.570    672.000    631.945     40.055    618.832    631.951    618.832    618.832    618.832
 25.670    582.652    629.097    -46.445    618.407    629.101    618.407    618.407    618.407
 25.770    661.676    627.359     34.318    617.979    627.362    617.979    617.979    617.979
 25.870    645.855    626.167     19.688    617.549    626.169    617.549    617.549    617.549
 25.970    631.000    625.276      5.724    617.115    625.278    617.115    617.115    617.115
 26.070    664.692    624.581     40.110    616.679    624.583    616.679    616.679    616.679
 26.170    678.000    624.032     53.968    616.241    624.033    616.241    616.241    616.241
 26.270    681.603    623.602     58.001    615.800    623.603    615.800    615.800    615.800
 26.370    583.417    623.277    -39.860    615.357    623.277    615.357    615.357    615.357
 26.470    661.000    623.050     37.950    614.911    623.050    614.911    614.911    614.911
 26.570    717.000    622.920     94.080    614.462    622.920    614.462    614.462    614.462
 26.670    683.012    622.895     60.117    614.012    622.895    614.012    614.012    614.012
 26.770    726.000    622.986    103.014    613.559    622.985    613.559    613.559    613.559
 26.870    645.000    623.211     21.789    613.103    623.210    613.103    613.103    613.103
 26.970    703.000    623.599     79.401    612.646    623.598    612.646    612.646    612.646
 27.070    674.956    624.189     50.767    612.186    624.188    612.186    612.186    612.186
 27.170    686.140    625.036     61.103    611.725    625.035    611.725    611.725    611.725
 27.270    716.000    626.222     89.778    611.261    626.220    611.261    611.261    611.261
 27.370    704.000    627.869     76.131    610.795    627.867    610.795    610.795    610.795
 27.470    757.000    630.186    126.814    610.328    630.183    610.328    610.328    610.328
 27.570    647.249    633.609     13.640    609.858    633.605    609.858    609.858    609.858
 27.670    745.000    639.208    105.792    609.387    639.202    609.387    609.387    609.387
 27.770    745.000    649.596     95.404    608.914    649.588    608.914    608.914    608.914
 27.870    744.000    670.185     73.815    608.439    670.170    608.439    608.439    608.439
 27.970    832.000    709.306    122.694    607.962    709.279    607.962    607.962    607.962
 28.070    841.000    774.504     66.496    607.484    774.460    607.484    607.484    607.484
 28.170    910.000    863.763     46.237    607.004    863.696    607.004    607.004    607.004
 28.270   1053.000    954.336     98.664    606.523    954.251    606.523    606.523    606.523
 28.370   1047.000   1000.450     46.550    606.040   1000.368    606.040    606.040    606.040
 28.470   1060.000    972.633     87.367    605.555    972.575    605.555    605.555    605.555
 28.570    831.536    903.219    -71.683    605.069    903.186    605.069    605.069    605.069
 28.670    865.941    844.069     21.872    604.582    844.050    604.582    604.582    604.582
 28.770    930.000    823.512    106.488    604.093    823.495    604.093    604.093    604.093
 28.870    986.000    842.238    143.762    603.604    842.219    603.604    603.604    603.604
 28.970    946.000    878.143     67.857    603.112    878.124    603.112    603.112    603.112
 29.070    978.000    894.117     83.883    602.620    894.104    602.620    602.620    602.620
 29.170    988.000    865.413    122.587    602.127    865.412    602.127    602.127    602.127
 29.270    758.779    805.953    -47.173    601.632    805.960    601.632    601.632    601.632
 29.370    752.681    743.537      9.143    601.136    743.546    601.136    601.136    601.136
 29.470    689.661    694.176     -4.515    600.639    694.183    600.639    600.639    600.639
 29.570    697.680    661.364     36.315    600.142    661.368    600.142    600.142    600.142
 29.670    706.000    641.936     64.064    599.643    641.937    599.643    599.643    599.643
 29.770    587.514    631.002    -43.488    599.143    631.001    599.143    599.143    599.143
 29.870    776.000    624.674    151.326    598.643    624.673    598.643    598.643    598.643
 29.970    723.000    620.697    102.303    598.142    620.695    598.142    598.142    598.142
 30.070    768.000    618.005    149.995    597.640    618.002    597.640    597.640    597.640
 30.170    726.000    616.172    109.828    597.137    616.168    597.137    597.137    597.137
 30.270    626.404    615.101     11.302    596.633    615.098    596.633    596.633    596.633
 30.370    633.503    614.950     18.552    596.129    614.945    596.129    596.129    596.129
