neutron_powder_diffraction_0126
R_wp: 3.970
Temperature (K): 1017.025
Counts: 83496.00
Wavelength (Ã…): 2.52098
COMMENTS
Test file for demonstrating the .xyy file format in Reel1.0
END OF HEADER
   tth       Y_obs     Y_calc      Y_res    Background    Phase_1_Nuc    Phase_1_Mag    Phase_2_Nuc    Phase_2_Mag
  9.970    601.000    568.681     32.319    567.726    568.601    567.726    567.805    567.726
 10.070    541.251    568.879    -27.628    567.847    568.798    567.847    567.927    567.847
 10.170    603.000    569.081     33.919    567.962    569.000    567.962    568.043    567.962
 10.270    589.655    569.290     20.365    568.071    569.209    568.071    568.152    568.071
 10.370    568.000    569.509     -1.509    568.174    569.427    568.174    568.255    568.174
 10.470    604.000    569.742     34.258    568.270    569.659    568.270    568.352    568.270
 10.570    542.000    569.993    -27.993    568.361    569.910    568.361    568.443    568.361
 10.670    600.000    570.268     29.732    568.445    570.185    568.445    568.528    568.445
 10.770    616.000    570.577     45.423    568.524    570.493    568.524    568.606    568.524
 10.870    582.274    570.931     11.344    568.596    570.846    568.596    568.679    568.596
 10.970    567.000    571.344     -4.344    568.663    571.260    568.663    568.746    568.663
 11.070    613.000    571.841     41.159    568.724    571.756    568.724    568.807    568.724
 11.170    579.622    572.454      7.169    568.779    572.368    568.779    568.863    568.779
 11.270    616.000    573.233     42.767    568.828    573.147    568.828    568.913    568.828
 11.370    580.000    574.273      5.727    568.872    574.185    568.872    568.957    568.872
 11.470    540.445    575.776    -35.331    568.910    575.687    568.910    568.995    568.910
 11.570    586.000    578.256      7.744    568.943    578.165    568.943    569.028    568.943
 11.670    624.727    582.930     41.797    568.970    582.836    568.970    569.056    568.970
 11.770    573.000    592.158    -19.158    568.992    592.058    568.992    569.078    568.992
 11.870    566.626    609.169    -42.543    569.008    609.060    569.008    569.095    569.008
 11.970    657.000    635.997     21.003    569.019    635.871    569.019    569.106    569.019
 12.070    655.583    669.296    -13.713    569.025    669.151    569.025    569.112    569.025
 12.170    656.213    696.259    -40.046    569.025    696.098    569.025    569.113    569.025
 12.270    720.000    699.788     20.212    569.021    699.624    569.021    569.109    569.021
 12.370    664.000    676.887    -12.887    569.011    676.737    569.011    569.099    569.011
 12.470    645.000    643.314      1.686    568.996    643.183    568.996    569.085    568.996
 12.570    606.204    614.294     -8.090    568.976    614.179    568.976    569.066    568.976
 12.670    626.000    595.083     30.917    568.951    594.979    568.951    569.041    568.951
 12.770    615.000    584.400     30.600    568.922    584.301    568.922    569.012    568.922
 12.870    576.754    578.978     -2.224    568.887    578.882    568.887    568.978    568.887
 12.970    539.000    576.164    -37.164    568.848    576.069    568.848    568.939    568.848
 13.070    599.000    574.509     24.491    568.804    574.415    568.804    568.895    568.804
 13.170    594.395    573.390     21.005    568.755    573.296    568.755    568.847    568.755
 13.270    555.000    572.562    -17.562    568.701    572.468    568.701    568.794    568.701
 13.370    568.000    571.917     -3.917    568.643    571.822    568.643    568.736    568.643
 13.470    556.000    571.398    -15.398    568.581    571.303    568.581    568.674    568.581
 13.570    565.000    570.969     -5.969    568.514    570.874    568.514    568.607    568.514
 13.670    587.311    570.607     16.704    568.442    570.512    568.442    568.536    568.442
 13.770    555.686    570.294    -14.607    568.366    570.198    568.366    568.460    568.366
 13.870    585.000    570.017     14.983    568.286    569.921    568.286    568.381    568.286
 13.970    616.000    569.769     46.231    568.201    569.673    568.201    568.296    568.201
 14.070    528.000    569.542    -41.542    568.112    569.446    568.112    568.208    568.112
 14.170    527.000    569.332    -42.332    568.019    569.235    568.019    568.115    568.019
 14.270    555.000    569.135    -14.135    567.921    569.037    567.921    568.018    567.921
 14.370    560.000    568.947     -8.947    567.820    568.849    567.820    567.917    567.820
 14.470    568.000    568.767     -0.767    567.714    568.668    567.714    567.812    567.714
 14.570    575.000    568.592      6.408    567.605    568.493    567.605    567.703    567.605
 14.670    586.000    568.421     17.579    567.491    568.322    567.491    567.590    567.491
 14.770    552.371    568.253    -15.882    567.374    568.154    567.374    567.473    567.374
 14.870    563.000    568.088     -5.088    567.253    567.987    567.253    567.352    567.253
 14.970    602.854    567.923     34.931    567.127    567.823    567.127    567.228    567.127
 15.070    538.745    567.761    -29.016    566.998    567.660    566.998    567.099    566.998
 15.170    584.915    567.598     17.317    566.866    567.497    566.866    566.967    566.866
 15.270    592.110    567.434     24.676    566.729    567.332    566.729    566.831    566.729
 15.370    529.000    567.270    -38.270    566.589    567.167    566.589    566.692    566.589
 15.470    575.000    567.104      7.896    566.445    567.000    566.445    566.548    566.445
 15.570    584.800    566.936     17.864    566.298    566.832    566.298    566.402    566.298
 15.670    611.599    566.767     44.831    566.147    566.663    566.147    566.251    566.147
 15.770    567.000    566.597      0.403    565.993    566.492    565.993    566.098    565.993
 15.870    621.000    566.424     54.576    565.835    566.319    565.835    565.941    565.835
 15.970    593.000    566.250     26.750    565.674    566.144    565.674    565.780    565.674
 16.070    583.000    566.074     16.926    565.509    565.967    565.509    565.616    565.509
 16.170    566.000    565.895      0.105    565.342    565.788    565.342    565.449    565.342
 16.270    525.000    565.714    -40.714    565.171    565.606    565.171    565.278    565.171
 16.370    550.000    565.532    -15.532    564.996    565.423    564.996    565.105    564.996
 16.470    526.000    565.346    -39.346    564.819    565.237    564.819    564.928    564.819
 16.570    608.000    565.159     42.841    564.638    565.049    564.638    564.748    564.638
 16.670    587.666    564.969     22.697    564.454    564.859    564.454    564.565    564.454
 16.770    535.000    564.777    -29.777    564.268    564.666    564.268    564.379    564.268
 16.870    578.061    564.583     13.478    564.078    564.471    564.078    564.190    564.078
 16.970    558.000    564.386     -6.386    563.885    564.274    563.885    563.998    563.885
 17.070    548.000    564.189    -16.189    563.689    564.076    563.689    563.803    563.689
 17.170    550.000    563.988    -13.988    563.491    563.874    563.491    563.605    563.491
 17.270    569.050    563.784      5.266    563.290    563.669    563.290    563.404    563.290
 17.370    529.723    563.578    -33.855    563.085    563.463    563.085    563.201    563.085
 17.470    553.000    563.370    -10.370    562.878    563.253    562.878    562.994    562.878
 17.570    578.000    563.160     14.840    562.669    563.043    562.669    562.785    562.669
 17.670    573.938    562.954     10.984    562.456    562.837    562.456    562.574    562.456
 17.770    556.000    562.758     -6.758    562.241    562.640    562.241    562.360    562.241
 17.870    546.000    562.543    -16.543    562.023    562.423    562.023    562.143    562.023
 17.970    548.076    562.323    -14.247    561.803    562.203    561.803    561.923    561.803
 18.070    520.000    562.102    -42.102    561.580    561.981    561.580    561.701    561.580
 18.170    557.000    561.879     -4.879    561.355    561.757    561.355    561.477    561.355
 18.270    582.536    561.653     20.884    561.127    561.530    561.127    561.250    561.127
 18.370    540.000    561.425    -21.425    560.897    561.302    560.897    561.021    560.897
 18.470    568.033    561.195      6.837    560.665    561.071    560.665    560.789    560.665
 18.570    573.000    560.964     12.036    560.430    560.839    560.430    560.555    560.430
 18.670    552.000    560.730     -8.730    560.193    560.604    560.193    560.319    560.193
 18.770    600.743    560.495     40.248    559.953    560.368    559.953    560.081    559.953
 18.870    526.285    560.258    -33.974    559.712    560.130    559.712    559.840    559.712
 18.970    602.280    560.038     42.242    559.468    559.908    559.468    559.597    559.468
 19.070    515.549    559.890    -44.341    559.222    559.760    559.222    559.352    559.222
 19.170    546.000    559.657    -13.657    558.974    559.526    558.974    559.105    558.974
 19.270    537.190    559.413    -22.223    558.724    559.281    558.724    558.856    558.724
 19.370    561.000    559.167      1.833    558.472    559.034    558.472    558.605    558.472
 19.470    544.067    558.920    -14.853    558.217    558.785    558.217    558.352    558.217
 19.570    557.000    558.671     -1.671    557.961    558.536    557.961    558.096    557.961
 19.670    542.000    558.421    -16.421    557.703    558.284    557.703    557.839    557.703
 19.770    531.606    558.170    -26.564    557.443    558.032    557.443    557.581    557.443
 19.870    499.000    557.920    -58.920    557.181    557.781    557.181    557.320    557.181
 19.970    589.808    557.666     32.143    556.917    557.526    556.917    557.057    556.917
 20.070    537.000    557.410    -20.410    556.652    557.269    556.652    556.793    556.652
 20.170    587.704    557.154     30.550    556.385    557.011    556.385    556.527    556.385
 20.270    511.146    556.901    -45.755    556.116    556.758    556.116    556.259    556.116
 20.370    545.000    556.643    -11.643    555.845    556.499    555.845    555.990    555.845
 20.470    574.902    556.386     18.516    555.573    556.240    555.573    555.719    555.573
 20.570    556.530    556.158      0.372    555.299    556.010    555.299    555.446    555.299
 20.670    599.000    555.932     43.068    555.023    555.783    555.023    555.172    555.023
 20.770    548.000    555.674     -7.674    554.746    555.523    554.746    554.896    554.746
 20.870    578.000    555.411     22.589    554.467    555.259    554.467    554.619    554.467
 20.970    534.898    555.148    -20.250    554.187    554.994    554.187    554.341    554.187
 21.070    507.000    554.885    -47.885    553.905    554.730    553.905    554.061    553.905
 21.170    565.000    554.621     10.379    553.622    554.464    553.622    553.779    553.622
 21.270    505.000    554.357    -49.357    553.338    554.199    553.338    553.496    553.338
 21.370    531.574    554.093    -22.520    553.052    553.933    553.052    553.212    553.052
 21.470    531.000    553.831    -22.831    552.765    553.669    552.765    552.927    552.765
 21.570    588.226    553.581     34.644    552.477    553.418    552.477    552.640    552.477
 21.670    570.000    553.358     16.642    552.187    553.192    552.187    552.352    552.187
 21.770    514.168    553.100    -38.932    551.896    552.933    551.896    552.063    551.896
 21.870    591.514    552.840     38.673    551.604    552.671    551.604    551.773    551.604
 21.970    531.000    552.582    -21.582    551.311    552.411    551.311    551.482    551.311
 22.070    525.322    552.325    -27.003    551.016    552.152    551.016    551.190    551.016
 22.170    553.000    552.071      0.929    550.721    551.896    550.721    550.896    550.721
 22.270    581.331    551.820     29.511    550.424    551.642    550.424    550.602    550.424
 22.370    516.550    551.572    -35.022    550.126    551.392    550.126    550.306    550.126
 22.470    533.000    551.328    -18.328    549.827    551.146    549.827    550.010    549.827
 22.570    579.000    551.095     27.905    549.528    550.910    549.528    549.713    549.528
 22.670    527.186    550.868    -23.682    549.227    550.681    549.227    549.415    549.227
 22.770    512.001    550.644    -38.644    548.925    550.454    548.925    549.116    548.925
 22.870    542.155    550.429     -8.274    548.623    550.236    548.623    548.816    548.623
 22.970    542.000    550.225     -8.225    548.320    550.030    548.320    548.515    548.320
 23.070    528.000    550.036    -22.036    548.015    549.838    548.015    548.214    548.015
 23.170    579.000    549.863     29.137    547.710    549.662    547.710    547.912    547.710
 23.270    518.745    549.719    -30.974    547.404    549.515    547.404    547.609    547.404
 23.370    552.000    549.601      2.399    547.098    549.394    547.098    547.306    547.098
 23.470    561.000    549.527     11.473    546.790    549.316    546.790    547.002    546.790
 23.570    579.000    549.517     29.483    546.482    549.303    546.482    546.698    546.482
 23.670    547.000    549.568     -2.568    546.173    549.350    546.173    546.393    546.173
 23.770    530.000    549.698    -19.698    545.864    549.477    545.864    546.087    545.864
 23.870    551.000    549.938      1.062    545.554    549.713    545.554    545.781    545.554
 23.970    540.000    550.373    -10.373    545.243    550.144    545.243    545.475    545.243
 24.070    533.808    551.171    -17.363    544.932    550.938    544.932    545.168    544.932
 24.170    561.000    552.750      8.250    544.620    552.514    544.620    544.861    544.620
 24.270    597.060    556.050     41.010    544.308    555.812    544.308    544.554    544.308
 24.370    578.334    562.641     15.693    543.995    562.402    543.995    544.246    543.995
 24.470    590.387    574.601     15.787    543.682    574.365    543.682    543.938    543.682
 24.570    584.000    592.847     -8.847    543.369    592.618    543.369    543.630    543.369
 24.670    601.000    614.476    -13.476    543.054    614.257    543.054    543.322    543.054
 24.770    607.000    630.564    -23.564    542.740    630.350    542.740    543.014    542.740
 24.870    641.000    630.702     10.298    542.425    630.482    542.425    542.706    542.425
 24.970    635.000    614.535     20.465    542.110    614.296    542.110    542.398    542.110
 25.070    625.974    592.369     33.605    541.794    592.108    541.794    542.090    541.794
 25.170    594.000    573.399     20.601    541.479    573.117    541.479    541.782    541.479
 25.270    558.397    560.691     -2.294    541.163    560.391    541.163    541.475    541.163
 25.370    526.000    553.434    -27.434    540.846    553.120    540.846    541.168    540.846
 25.470    527.937    549.595    -21.657    540.530    549.268    540.530    540.861    540.530
 25.570    565.000    547.488     17.512    540.213    547.150    540.213    540.554    540.213
 25.670    576.000    546.177     29.823    539.896    545.827    539.896    540.248    539.896
 25.770    562.419    545.253     17.165    539.579    544.891    539.579    539.943    539.579
 25.870    509.000    544.536    -35.536    539.262    544.161    539.262    539.639    539.262
 25.970    567.937    543.957     23.980    538.945    543.568    538.945    539.335    538.945
 26.070    569.953    543.477     26.476    538.627    543.073    538.627    539.033    538.627
 26.170    572.000    543.076     28.924    538.310    542.656    538.310    538.731    538.310
 26.270    537.590    542.744     -5.155    537.993    542.307    537.993    538.431    537.993
 26.370    541.000    542.475     -1.475    537.675    542.019    537.675    538.132    537.675
 26.470    562.000    542.262     19.738    537.358    541.785    537.358    537.835    537.358
 26.570    555.000    542.105     12.895    537.041    541.606    537.041    537.539    537.041
 26.670    545.000    542.008      2.992    536.723    541.486    536.723    537.246    536.723
 26.770    513.484    541.980    -28.496    536.406    541.430    536.406    536.955    536.406
 26.870    532.000    542.030    -10.030    536.089    541.451    536.089    536.667    536.089
 26.970    561.000    542.175     18.825    535.772    541.564    535.772    536.382    535.772
 27.070    557.000    542.441     14.559    535.455    541.794    535.455    536.101    535.455
 27.170    554.174    542.862     11.313    535.138    542.176    535.138    535.823    535.138
 27.270    570.000    543.487     26.513    534.822    542.757    534.822    535.551    534.822
 27.370    543.000    544.398     -1.398    534.506    543.619    534.506    535.284    534.506
 27.470    524.704    545.745    -21.041    534.190    544.911    534.190    535.023    534.190
 27.570    534.520    547.917    -13.398    533.874    547.020    533.874    534.769    533.874
 27.670    557.000    552.265      4.735    533.558    551.295    533.558    534.524    533.558
 27.770    611.000    563.207     47.793    533.243    562.152    533.243    534.290    533.243
 27.870    613.000    591.562     21.438    532.928    590.405    532.928    534.068    532.928
 27.970    644.894    653.828     -8.934    532.614    652.542    532.614    533.862    532.614
 28.070    741.802    757.658    -15.857    532.299    756.214    532.299    533.674    532.299
 28.170    841.000    876.350    -35.350    531.985    874.729    531.985    533.510    531.985
 28.270    920.000    942.725    -22.725    531.672    940.925    531.672    533.376    531.672
 28.370    867.000    906.936    -39.936    531.359    904.952    531.359    533.280    531.359
 28.470    808.878    807.468      1.409    531.046    805.256    531.046    533.231    531.046
 28.570    741.000    721.554     19.446    530.734    719.034    530.734    533.243    530.734
 28.670    643.041    695.971    -52.930    530.422    693.051    530.422    533.330    530.422
 28.770    751.000    731.451     19.549    530.111    728.034    530.111    533.509    530.111
 28.870    838.519    793.502     45.017    529.800    789.481    529.800    533.798    529.800
 28.970    885.000    827.971     57.029    529.490    823.229    529.490    534.216    529.490
 29.070    810.000    798.688     11.312    529.180    793.093    529.180    534.776    529.180
 29.170    764.208    726.176     38.031    528.871    719.578    528.871    535.481    528.871
 29.270    681.000    652.376     28.624    528.563    644.644    528.563    536.307    528.563
 29.370    580.000    600.761    -20.761    528.255    591.834    528.255    537.190    528.255
 29.470    535.000    572.872    -37.872    527.947    562.821    527.947    538.003    527.947
 29.570    575.000    560.193     14.807    527.640    549.275    527.640    538.560    527.640
 29.670    585.000    554.495     30.505    527.334    543.160    527.334    538.670    527.334
 29.770    607.000    551.230     55.770    527.029    540.031    527.029    538.228    527.029
 29.870    512.675    548.650    -35.975    526.724    538.104    526.724    537.269    526.724
 29.970    496.426    546.325    -49.899    526.420    536.788    526.420    535.956    526.420
 30.070    545.545    544.263      1.282    526.116    535.896    526.116    534.482    526.116
 30.170    555.000    542.588     12.412    525.814    535.392    525.814    533.008    525.814
 30.270    545.000    541.514      3.486    525.512    535.396    525.512    531.627    525.512
 30.370    578.170    541.527     36.643    525.211    536.350    525.211    530.384    525.211
