neutron_powder_diffraction_0191
R_wp: 3.934
Temperature (K): 1074.000
Counts: 83548.00
Wavelength (Ã…): 2.52098
COMMENTS
Test file for demonstrating the .xyy file format in Reel1.0
END OF HEADER
   tth       Y_obs     Y_calc      Y_res    Background    Phase_1_Nuc    Phase_1_Mag    Phase_2_Nuc    Phase_2_Mag
  9.970    581.000    571.983      9.017    571.287    571.928    571.287    571.341    571.287
 10.070    619.000    572.022     46.978    571.268    571.964    571.268    571.325    571.268
 10.170    564.000    572.062     -8.062    571.244    572.004    571.244    571.303    571.244
 10.270    566.000    572.108     -6.108    571.217    572.048    571.217    571.276    571.217
 10.370    593.426    572.161     21.266    571.185    572.101    571.185    571.244    571.185
 10.470    585.000    572.224     12.776    571.148    572.164    571.148    571.208    571.148
 10.570    630.000    572.301     57.699    571.108    572.240    571.108    571.168    571.108
 10.670    534.523    572.397    -37.873    571.063    572.336    571.063    571.124    571.063
 10.770    588.000    572.517     15.483    571.015    572.456    571.015    571.075    571.015
 10.870    597.000    572.671     24.329    570.962    572.610    570.962    571.023    570.962
 10.970    559.807    572.871    -13.064    570.905    572.809    570.905    570.967    570.905
 11.070    567.000    573.133     -6.133    570.845    573.070    570.845    570.906    570.845
 11.170    603.993    573.483     30.510    570.780    573.419    570.780    570.842    570.780
 11.270    597.000    573.958     23.042    570.712    573.895    570.712    570.774    570.712
 11.370    559.000    574.626    -15.626    570.639    574.562    570.639    570.702    570.639
 11.470    630.000    575.631     54.369    570.563    575.566    570.563    570.626    570.563
 11.570    612.400    577.374     35.026    570.483    577.308    570.483    570.546    570.483
 11.670    637.000    581.010     55.990    570.400    580.941    570.400    570.463    570.400
 11.770    618.290    589.244     29.046    570.313    589.170    570.313    570.376    570.313
 11.870    661.000    606.486     54.514    570.222    606.402    570.222    570.286    570.222
 11.970    640.000    636.209      3.791    570.127    636.108    570.127    570.191    570.127
 12.070    674.000    674.617     -0.617    570.029    674.495    570.029    570.094    570.029
 12.170    717.754    704.867     12.887    569.928    704.728    569.928    569.992    569.928
 12.270    650.000    705.753    -55.753    569.823    705.613    569.823    569.888    569.823
 12.370    608.000    676.381    -68.381    569.714    676.257    569.714    569.779    569.714
 12.470    661.766    637.587     24.180    569.602    637.484    569.602    569.668    569.602
 12.570    596.000    606.970    -10.970    569.487    606.884    569.487    569.553    569.487
 12.670    572.000    588.920    -16.920    569.369    588.843    569.369    569.435    569.369
 12.770    544.313    580.141    -35.828    569.247    580.068    569.247    569.313    569.247
 12.870    574.089    576.155     -2.066    569.122    576.084    569.122    569.189    569.122
 12.970    620.000    574.152     45.848    568.993    574.081    568.993    569.062    568.993
 13.070    548.000    572.920    -24.920    568.862    572.849    568.862    568.931    568.862
 13.170    528.588    572.035    -43.447    568.727    571.964    568.727    568.797    568.727
 13.270    607.909    571.348     36.561    568.590    571.276    568.590    568.660    568.590
 13.370    591.000    570.790     20.210    568.449    570.718    568.449    568.519    568.449
 13.470    563.000    570.322     -7.322    568.305    570.250    568.305    568.376    568.305
 13.570    530.618    569.919    -39.301    568.158    569.847    568.158    568.229    568.158
 13.670    581.000    569.563     11.437    568.009    569.491    568.009    568.080    568.009
 13.770    556.000    569.242    -13.242    567.856    569.170    567.856    567.928    567.856
 13.870    564.000    568.948     -4.948    567.700    568.875    567.700    567.773    567.700
 13.970    543.531    568.674    -25.143    567.542    568.601    567.542    567.615    567.542
 14.070    579.737    568.415     11.322    567.381    568.342    567.381    567.454    567.381
 14.170    526.000    568.169    -42.169    567.217    568.095    567.217    567.290    567.217
 14.270    561.000    567.931     -6.931    567.050    567.857    567.050    567.124    567.050
 14.370    546.000    567.701    -21.701    566.881    567.627    566.881    566.955    566.881
 14.470    567.559    567.476      0.083    566.709    567.402    566.709    566.783    566.709
 14.570    575.000    567.259      7.741    566.534    567.184    566.534    566.609    566.534
 14.670    558.000    567.043     -9.043    566.357    566.967    566.357    566.432    566.357
 14.770    563.000    566.828     -3.828    566.177    566.752    566.177    566.253    566.177
 14.870    583.000    566.614     16.386    565.995    566.538    565.995    566.071    565.995
 14.970    529.000    566.402    -37.402    565.810    566.325    565.810    565.887    565.810
 15.070    565.722    566.190     -0.467    565.623    566.113    565.623    565.700    565.623
 15.170    540.043    565.978    -25.935    565.433    565.901    565.433    565.511    565.433
 15.270    576.000    565.767     10.233    565.241    565.689    565.241    565.319    565.241
 15.370    529.129    565.555    -36.426    565.047    565.477    565.047    565.125    565.047
 15.470    567.000    565.343      1.657    564.850    565.264    564.850    564.929    564.850
 15.570    571.000    565.130      5.870    564.651    565.051    564.651    564.730    564.651
 15.670    533.176    564.916    -31.740    564.450    564.836    564.450    564.529    564.450
 15.770    587.812    564.702     23.110    564.246    564.621    564.246    564.327    564.246
 15.870    561.000    564.490     -3.490    564.040    564.405    564.040    564.126    564.040
 15.970    518.844    564.275    -45.431    563.833    564.188    563.833    563.920    563.833
 16.070    583.000    564.058     18.942    563.623    563.969    563.623    563.711    563.623
 16.170    583.000    563.838     19.162    563.410    563.750    563.410    563.499    563.410
 16.270    595.246    563.618     31.628    563.196    563.529    563.196    563.285    563.196
 16.370    536.635    563.397    -26.762    562.980    563.307    562.980    563.070    562.980
 16.470    564.000    563.176      0.824    562.762    563.085    562.762    562.852    562.762
 16.570    561.533    562.951     -1.418    562.542    562.860    562.542    562.633    562.542
 16.670    556.000    562.725     -6.725    562.320    562.634    562.320    562.411    562.320
 16.770    577.000    562.498     14.502    562.096    562.406    562.096    562.188    562.096
 16.870    568.994    562.270      6.724    561.870    562.177    561.870    561.962    561.870
 16.970    527.000    562.040    -35.040    561.642    561.946    561.642    561.735    561.642
 17.070    553.000    561.808     -8.808    561.413    561.715    561.413    561.506    561.413
 17.170    539.000    561.576    -22.576    561.181    561.482    561.181    561.276    561.181
 17.270    597.000    561.342     35.658    560.948    561.247    560.948    561.043    560.948
 17.370    509.000    561.109    -52.109    560.713    561.013    560.713    560.809    560.713
 17.470    579.000    560.873     18.127    560.477    560.776    560.477    560.573    560.477
 17.570    574.000    560.635     13.365    560.239    560.538    560.239    560.336    560.239
 17.670    545.987    560.395    -14.408    559.999    560.298    559.999    560.097    559.999
 17.770    531.000    560.154    -29.154    559.758    560.056    559.758    559.856    559.758
 17.870    558.000    559.912     -1.912    559.515    559.814    559.515    559.614    559.515
 17.970    537.000    559.669    -22.669    559.270    559.570    559.270    559.370    559.270
 18.070    604.164    559.425     44.739    559.024    559.325    559.024    559.124    559.024
 18.170    541.000    559.179    -18.179    558.777    559.078    558.777    558.878    558.777
 18.270    586.787    558.932     27.855    558.528    558.831    558.528    558.629    558.528
 18.370    597.616    558.684     38.931    558.278    558.582    558.278    558.380    558.278
 18.470    576.000    558.435     17.565    558.026    558.332    558.026    558.129    558.026
 18.570    555.000    558.185     -3.185    557.773    558.081    557.773    557.876    557.773
 18.670    536.999    557.934    -20.935    557.518    557.829    557.518    557.623    557.518
 18.770    584.629    557.682     26.947    557.262    557.577    557.262    557.368    557.262
 18.870    585.312    557.430     27.883    557.005    557.323    557.005    557.111    557.005
 18.970    525.000    557.175    -32.175    556.747    557.069    556.747    556.854    556.747
 19.070    541.814    556.920    -15.106    556.487    556.813    556.487    556.595    556.487
 19.170    541.000    556.664    -15.664    556.227    556.556    556.227    556.335    556.227
 19.270    562.389    556.407      5.981    555.965    556.298    555.965    556.074    555.965
 19.370    593.717    556.150     37.567    555.701    556.039    555.701    555.812    555.701
 19.470    596.812    555.891     40.921    555.437    555.780    555.437    555.548    555.437
 19.570    528.000    555.633    -27.633    555.172    555.521    555.172    555.284    555.172
 19.670    563.000    555.374      7.626    554.905    555.261    554.905    555.019    554.905
 19.770    508.730    555.113    -46.383    554.638    554.999    554.638    554.752    554.638
 19.870    510.000    554.852    -44.852    554.369    554.737    554.369    554.484    554.369
 19.970    555.000    554.591      0.409    554.100    554.475    554.100    554.216    554.100
 20.070    515.291    554.342    -39.051    553.829    554.225    553.829    553.946    553.829
 20.170    562.000    554.090      7.910    553.558    553.971    553.558    553.676    553.558
 20.270    583.000    553.827     29.173    553.286    553.708    553.286    553.405    553.286
 20.370    522.659    553.564    -30.905    553.012    553.443    553.012    553.133    553.012
 20.470    554.000    553.300      0.700    552.738    553.178    552.738    552.860    552.738
 20.570    551.867    553.038     -1.171    552.463    552.913    552.463    552.588    552.463
 20.670    552.887    552.775      0.112    552.187    552.647    552.187    552.315    552.187
 20.770    541.000    552.510    -11.510    551.911    552.382    551.911    552.039    551.911
 20.870    520.000    552.246    -32.246    551.633    552.116    551.633    551.763    551.633
 20.970    539.000    551.981    -12.981    551.355    551.850    551.355    551.486    551.355
 21.070    595.702    551.717     43.985    551.077    551.585    551.077    551.209    551.077
 21.170    533.000    551.453    -18.453    550.797    551.319    550.797    550.931    550.797
 21.270    557.000    551.189      5.811    550.517    551.054    550.517    550.652    550.517
 21.370    521.000    550.926    -29.926    550.236    550.789    550.236    550.373    550.236
 21.470    543.000    550.663     -7.663    549.954    550.525    549.954    550.093    549.954
 21.570    523.000    550.401    -27.401    549.672    550.262    549.672    549.812    549.672
 21.670    552.000    550.148      1.852    549.390    550.007    549.390    549.531    549.390
 21.770    551.000    549.973      1.027    549.106    549.830    549.106    549.249    549.106
 21.870    566.000    549.738     16.262    548.823    549.594    548.823    548.967    548.823
 21.970    584.000    549.504     34.496    548.538    549.358    548.538    548.685    548.538
 22.070    539.000    549.278    -10.278    548.254    549.130    548.254    548.402    548.254
 22.170    527.332    549.028    -21.696    547.968    548.878    547.968    548.118    547.968
 22.270    521.076    548.782    -27.707    547.683    548.631    547.683    547.834    547.683
 22.370    522.000    548.581    -26.581    547.397    548.428    547.397    547.550    547.397
 22.470    512.892    548.357    -35.465    547.110    548.201    547.110    547.266    547.110
 22.570    570.000    548.120     21.880    546.823    547.962    546.823    546.981    546.823
 22.670    564.000    547.889     16.111    546.536    547.729    546.536    546.696    546.536
 22.770    493.000    547.665    -54.665    546.248    547.503    546.248    546.411    546.248
 22.870    569.000    547.446     21.554    545.960    547.282    545.960    546.125    545.960
 22.970    538.925    547.235     -8.310    545.672    547.069    545.672    545.839    545.672
 23.070    576.000    547.036     28.964    545.384    546.867    545.384    545.553    545.384
 23.170    554.125    546.850      7.275    545.095    546.678    545.095    545.267    545.095
 23.270    513.322    546.682    -33.360    544.806    546.507    544.806    544.981    544.806
 23.370    563.000    546.535     16.465    544.517    546.358    544.517    544.695    544.517
 23.470    527.000    546.417    -19.417    544.227    546.237    544.227    544.408    544.227
 23.570    558.000    546.337     11.663    543.938    546.154    543.938    544.122    543.938
 23.670    586.075    546.307     39.768    543.648    546.121    543.648    543.835    543.648
 23.770    556.000    546.349      9.651    543.358    546.160    543.358    543.549    543.358
 23.870    549.000    546.486      2.514    543.068    546.294    543.068    543.263    543.068
 23.970    527.000    546.776    -19.776    542.778    546.580    542.778    542.976    542.778
 24.070    565.000    547.344     17.656    542.488    547.145    542.488    542.690    542.488
 24.170    558.000    548.550      9.450    542.198    548.348    542.198    542.404    542.198
 24.270    558.898    551.368      7.530    541.908    551.163    541.908    542.118    541.908
 24.370    602.000    557.857     44.143    541.618    557.653    541.618    541.832    541.618
 24.470    574.005    570.911      3.094    541.328    570.712    541.328    541.547    541.328
 24.570    572.881    592.007    -19.125    541.037    591.818    541.037    541.262    541.037
 24.670    648.000    617.044     30.956    540.747    616.869    540.747    540.977    540.747
 24.770    634.519    633.668      0.851    540.457    633.501    540.457    540.692    540.457
 24.870    627.000    629.620     -2.620    540.167    629.462    540.167    540.408    540.167
 24.970    637.677    608.243     29.434    539.877    608.051    539.877    540.124    539.877
 25.070    594.000    583.284     10.716    539.588    583.062    539.588    539.841    539.588
 25.170    581.003    564.321     16.682    539.298    564.078    539.298    539.559    539.298
 25.270    597.000    553.189     43.811    539.008    552.930    539.008    539.277    539.008
 25.370    516.000    547.650    -31.650    538.719    547.379    538.719    538.995    538.719
 25.470    552.000    545.007      6.993    538.430    544.726    538.430    538.714    538.430
 25.570    537.219    543.595     -6.376    538.141    543.304    538.141    538.435    538.141
 25.670    566.000    542.682     23.318    537.852    542.381    537.852    538.156    537.852
 25.770    508.000    542.007    -34.007    537.564    541.694    537.564    537.877    537.564
 25.870    510.356    541.474    -31.118    537.276    541.151    537.276    537.600    537.276
 25.970    536.000    541.039     -5.039    536.988    540.703    536.988    537.324    536.988
 26.070    579.235    540.681     38.554    536.700    540.332    536.700    537.050    536.700
 26.170    551.000    540.388     10.612    536.413    540.024    536.413    536.776    536.413
 26.270    558.000    540.175     17.825    536.126    539.796    536.126    536.505    536.126
 26.370    500.716    540.010    -39.294    535.839    539.615    535.839    536.235    535.839
 26.470    553.109    539.874     13.235    535.553    539.460    535.553    535.966    535.553
 26.570    548.000    539.788      8.212    535.267    539.355    535.267    535.700    535.267
 26.670    555.092    539.764     15.327    534.981    539.309    534.981    535.436    534.981
 26.770    547.000    539.811      7.189    534.696    539.332    534.696    535.175    534.696
 26.870    517.000    539.931    -22.931    534.411    539.425    534.411    534.916    534.411
 26.970    542.000    540.150      1.850    534.127    539.615    534.127    534.661    534.127
 27.070    555.000    540.505     14.495    533.843    539.938    533.843    534.410    533.843
 27.170    539.000    541.043     -2.043    533.560    540.440    533.560    534.162    533.560
 27.270    582.451    541.788     40.663    533.277    541.144    533.277    533.920    533.277
 27.370    586.000    542.828     43.172    532.995    542.138    532.995    533.683    532.995
 27.470    552.000    544.338      7.662    532.713    543.597    532.713    533.453    532.713
 27.570    570.000    546.739     23.261    532.431    545.938    532.431    533.230    532.431
 27.670    574.000    551.468     22.532    532.150    550.598    532.150    533.017    532.150
 27.770    524.132    563.238    -39.106    531.870    562.287    531.870    532.814    531.870
 27.870    587.407    593.596     -6.189    531.591    592.544    531.591    532.624    531.591
 27.970    611.836    659.926    -48.089    531.311    658.748    531.311    532.450    531.311
 28.070    746.239    769.290    -23.051    531.033    767.958    531.033    532.295    531.033
 28.170    941.428    890.874     50.553    530.755    889.368    530.755    532.165    530.755
 28.270    895.000    950.926    -55.926    530.478    949.245    530.478    532.065    530.478
 28.370    927.000    900.626     26.374    530.201    898.764    530.201    532.004    530.201
 28.470    813.000    792.093     20.907    529.925    789.997    529.925    531.997    529.925
 28.570    683.928    707.999    -24.071    529.650    705.574    529.650    532.063    529.650
 28.670    729.000    690.898     38.102    529.375    688.019    529.375    532.240    529.375
 28.770    704.000    736.167    -32.167    529.101    732.662    529.101    532.588    529.101
 28.870    744.000    804.428    -60.428    528.828    800.039    528.828    533.206    528.828
 28.970    810.424    836.730    -26.306    528.555    831.046    528.555    534.243    528.555
 29.070    779.000    798.055    -19.055    528.283    790.456    528.283    535.895    528.283
 29.170    746.000    718.894     27.106    528.012    708.544    528.012    538.376    528.012
 29.270    626.000    646.201    -20.201    527.742    632.103    527.742    541.848    527.742
 29.370    627.000    601.148     25.852    527.473    582.330    527.473    546.294    527.473
 29.470    584.703    581.135      3.568    527.204    557.070    527.204    551.268    527.204
 29.570    531.412    574.640    -43.228    526.936    545.999    526.936    555.575    526.936
 29.670    617.000    571.778     45.222    526.669    541.053    526.669    557.392    526.669
 29.770    520.746    567.618    -46.872    526.402    538.394    526.402    555.625    526.402
 29.870    571.000    561.638      9.362    526.137    536.671    526.137    551.102    526.137
 29.970    560.000    555.218      4.782    525.872    535.465    525.872    545.624    525.872
 30.070    575.975    549.547     26.428    525.608    534.641    525.608    540.513    525.608
 30.170    506.317    545.156    -38.839    525.345    534.171    525.345    536.328    525.345
 30.270    573.363    542.231     31.132    525.083    534.166    525.083    533.146    525.083
 30.370    567.076    541.072     26.004    524.822    535.064    524.822    530.827    524.822
