neutron_powder_diffraction_0063
R_wp: 4.166
Temperature (K): 712.756
Counts: 83727.00
Wavelength (Ã…): 2.52098
COMMENTS
Test file for demonstrating the .xyy file format in Reel1.0
END OF HEADER
   tth       Y_obs     Y_calc      Y_res    Background    Phase_1_Nuc    Phase_1_Mag    Phase_2_Nuc    Phase_2_Mag
  9.970    593.604    639.495    -45.891    638.368    639.271    638.591    638.368    638.368
 10.070    622.000    639.632    -17.632    638.431    639.405    638.657    638.431    638.431
 10.170    710.000    639.771     70.229    638.487    639.542    638.716    638.487    638.487
 10.270    675.247    639.916     35.332    638.536    639.684    638.767    638.536    638.536
 10.370    640.376    640.067      0.309    638.577    639.833    638.810    638.577    638.577
 10.470    671.809    640.229     31.581    638.611    639.992    638.847    638.611    638.611
 10.570    677.000    640.405     36.595    638.638    640.165    638.876    638.638    638.638
 10.670    672.000    640.601     31.399    638.657    640.359    638.899    638.657    638.657
 10.770    613.956    640.824    -26.869    638.670    640.579    638.914    638.670    638.670
 10.870    664.746    641.084     23.662    638.676    640.836    638.923    638.676    638.676
 10.970    651.000    641.393      9.607    638.675    641.142    638.924    638.675    638.675
 11.070    694.000    641.773     52.227    638.666    641.519    638.919    638.666    638.666
 11.170    666.000    642.282     23.718    638.652    642.025    638.907    638.652    638.652
 11.270    676.000    643.010     32.990    638.630    642.750    638.888    638.630    638.630
 11.370    646.000    643.820      2.180    638.602    643.556    638.863    638.602    638.602
 11.470    736.000    644.926     91.074    638.567    644.658    638.831    638.567    638.567
 11.570    672.512    646.612     25.900    638.526    646.340    638.793    638.526    638.526
 11.670    621.133    649.584    -28.451    638.478    649.308    638.749    638.478    638.478
 11.770    707.042    655.526     51.516    638.424    655.243    638.698    638.424    638.424
 11.870    698.117    667.556     30.561    638.364    667.263    638.641    638.364    638.364
 11.970    726.000    689.461     36.539    638.297    689.152    638.577    638.297    638.297
 12.070    770.000    722.442     47.558    638.224    722.111    638.508    638.224    638.224
 12.170    788.243    759.639     28.604    638.145    759.283    638.432    638.145    638.145
 12.270    793.000    782.616     10.384    638.060    782.243    638.351    638.060    638.060
 12.370    729.629    774.474    -44.846    637.969    774.103    638.264    637.969    637.969
 12.470    745.000    742.120      2.880    637.873    741.763    638.170    637.873    637.873
 12.570    750.720    705.509     45.210    637.770    705.170    638.071    637.770    637.770
 12.670    678.442    677.457      0.984    637.661    677.130    637.966    637.661    637.661
 12.770    660.016    660.388     -0.372    637.547    660.066    637.856    637.547    637.547
 12.870    698.893    651.417     47.476    637.427    651.097    637.740    637.427    637.427
 12.970    651.000    646.916      4.084    637.301    646.595    637.618    637.301    637.301
 13.070    650.000    644.474      5.526    637.170    644.149    637.491    637.170    637.170
 13.170    677.499    642.930     34.569    637.034    642.602    637.359    637.034    637.034
 13.270    648.000    641.819      6.181    636.892    641.488    637.221    636.892    636.892
 13.370    672.737    640.958     31.779    636.744    640.623    637.078    636.744    636.744
 13.470    597.000    640.261    -43.261    636.591    639.922    636.929    636.591    636.591
 13.570    597.817    639.679    -41.861    636.433    639.335    636.776    636.433    636.433
 13.670    612.000    639.178    -27.178    636.270    638.830    636.617    636.270    636.270
 13.770    628.000    638.738    -10.738    636.102    638.386    636.453    636.102    636.102
 13.870    622.000    638.344    -16.344    635.928    637.987    636.285    635.928    635.928
 13.970    607.000    637.983    -30.983    635.750    637.621    636.111    635.750    635.750
 14.070    617.000    637.648    -20.648    635.567    637.281    635.933    635.567    635.567
 14.170    679.129    637.333     41.796    635.378    636.961    635.749    635.378    635.378
 14.270    660.372    637.032     23.340    635.185    636.656    635.561    635.185    635.185
 14.370    680.573    636.747     43.826    634.987    636.365    635.369    634.987    634.987
 14.470    621.000    636.468    -15.468    634.785    636.081    635.171    634.785    634.785
 14.570    579.000    636.195    -57.195    634.578    635.802    634.970    634.578    634.578
 14.670    634.000    635.927     -1.927    634.366    635.529    634.763    634.366    634.366
 14.770    627.000    635.674     -8.674    634.149    635.271    634.553    634.149    634.149
 14.870    633.363    635.427     -2.064    633.928    635.017    634.338    633.928    633.928
 14.970    619.000    635.167    -16.167    633.703    634.751    634.118    633.703    633.703
 15.070    617.131    634.905    -17.774    633.473    634.484    633.895    633.473    633.473
 15.170    635.000    634.644      0.356    633.239    634.216    633.667    633.239    633.239
 15.270    585.214    634.383    -49.169    633.001    633.948    633.435    633.001    633.001
 15.370    595.000    634.121    -39.121    632.758    633.680    633.199    632.758    632.758
 15.470    608.000    633.862    -25.862    632.511    633.414    632.959    632.511    632.511
 15.570    629.000    633.598     -4.598    632.260    633.143    632.715    632.260    632.260
 15.670    605.000    633.331    -28.331    632.006    632.869    632.467    632.006    632.006
 15.770    633.000    633.062     -0.062    631.747    632.594    632.215    631.747    631.747
 15.870    655.000    632.792     22.208    631.484    632.316    631.959    631.484    631.484
 15.970    608.000    632.519    -24.519    631.217    632.036    631.700    631.217    631.217
 16.070    599.765    632.244    -32.479    630.946    631.753    631.437    630.946    630.946
 16.170    587.000    631.974    -44.974    630.672    631.476    631.170    630.672    630.672
 16.270    603.493    631.765    -28.272    630.394    631.259    630.900    630.394    630.394
 16.370    622.000    631.494     -9.494    630.112    630.979    630.627    630.112    630.112
 16.470    622.414    631.211     -8.797    629.826    630.688    630.350    629.826    629.826
 16.570    656.857    630.944     25.913    629.537    630.410    630.071    629.537    629.537
 16.670    642.000    630.710     11.290    629.245    630.161    629.793    629.245    629.245
 16.770    618.000    630.426    -12.426    628.948    629.868    629.507    628.948    628.948
 16.870    632.000    630.133      1.867    628.649    629.566    629.216    628.649    628.649
 16.970    602.000    629.837    -27.837    628.346    629.260    628.923    628.346    628.346
 17.070    581.638    629.539    -47.901    628.040    628.953    628.626    628.040    628.040
 17.170    604.027    629.239    -25.212    627.730    628.642    628.327    627.730    627.730
 17.270    609.000    628.937    -19.937    627.417    628.329    628.025    627.417    627.417
 17.370    585.000    628.636    -43.636    627.101    628.018    627.719    627.101    627.101
 17.470    602.573    628.332    -25.759    626.782    627.703    627.411    626.782    626.782
 17.570    605.000    628.023    -23.023    626.460    627.383    627.100    626.460    626.460
 17.670    611.000    627.719    -16.719    626.135    627.067    626.786    626.135    626.135
 17.770    658.599    627.411     31.187    625.807    626.748    626.470    625.807    625.807
 17.870    593.000    627.096    -34.096    625.475    626.420    626.151    625.475    625.475
 17.970    626.000    626.777     -0.777    625.141    626.089    625.829    625.141    625.141
 18.070    645.000    626.457     18.543    624.805    625.756    625.505    624.805    624.805
 18.170    574.000    626.135    -52.135    624.465    625.421    625.179    624.465    624.465
 18.270    583.000    625.810    -42.810    624.122    625.083    624.850    624.122    624.122
 18.370    581.619    625.484    -43.865    623.777    624.743    624.519    623.777    623.777
 18.470    587.000    625.156    -38.156    623.429    624.401    624.185    623.429    623.429
 18.570    674.235    624.832     49.403    623.079    624.061    623.849    623.079    623.079
 18.670    609.000    624.514    -15.514    622.726    623.728    623.512    622.726    622.726
 18.770    619.625    624.236     -4.610    622.370    623.433    623.173    622.370    622.370
 18.870    597.089    623.941    -26.851    622.012    623.122    622.831    622.012    622.012
 18.970    623.365    623.609     -0.244    621.652    622.774    622.488    621.652    621.652
 19.070    608.000    623.275    -15.275    621.289    622.421    622.143    621.289    621.289
 19.170    635.000    622.943     12.057    620.924    622.070    621.797    620.924    620.924
 19.270    636.000    622.615     13.385    620.556    621.722    621.448    620.556    620.556
 19.370    620.672    622.278     -1.606    620.186    621.367    621.098    620.186    620.186
 19.470    602.359    621.936    -19.577    619.814    621.005    620.745    619.814    619.814
 19.570    601.000    621.593    -20.593    619.440    620.642    620.391    619.440    619.440
 19.670    618.000    621.257     -3.257    619.064    620.284    620.036    619.064    619.064
 19.770    537.000    620.976    -83.976    618.685    619.982    619.679    618.685    618.685
 19.870    610.000    620.660    -10.660    618.305    619.643    619.321    618.305    618.305
 19.970    627.000    620.338      6.662    617.923    619.298    618.962    617.923    617.923
 20.070    585.000    619.995    -34.995    617.538    618.931    618.602    617.538    617.538
 20.170    652.287    619.654     32.633    617.152    618.564    618.242    617.152    617.152
 20.270    634.000    619.310     14.690    616.764    618.194    617.880    616.764    616.764
 20.370    619.950    618.965      0.985    616.374    617.822    617.516    616.374    616.374
 20.470    595.000    618.638    -23.638    615.982    617.467    617.152    615.982    615.982
 20.570    632.934    618.320     14.614    615.588    617.121    616.787    615.588    615.588
 20.670    587.000    617.976    -30.976    615.193    616.747    616.422    615.193    615.193
 20.770    608.212    617.630     -9.418    614.796    616.370    616.056    614.796    614.796
 20.870    583.000    617.285    -34.285    614.397    615.993    615.689    614.397    614.397
 20.970    592.542    616.941    -24.399    613.997    615.616    615.322    613.997    613.997
 21.070    612.000    616.603     -4.603    613.595    615.243    614.955    613.595    613.595
 21.170    554.000    616.269    -62.269    613.192    614.872    614.589    613.192    613.192
 21.270    556.000    615.933    -59.933    612.787    614.498    614.222    612.787    612.787
 21.370    624.000    615.594      8.406    612.381    614.120    613.855    612.381    612.381
 21.470    600.454    615.256    -14.803    611.974    613.742    613.488    611.974    611.974
 21.570    634.206    614.921     19.285    611.565    613.364    613.121    611.565    611.565
 21.670    644.842    614.588     30.254    611.154    612.987    612.755    611.154    611.154
 21.770    642.164    614.263     27.902    610.743    612.616    612.390    610.743    610.743
 21.870    594.313    613.937    -19.624    610.330    612.242    612.025    610.330    610.330
 21.970    603.000    613.615    -10.615    609.916    611.869    611.662    609.916    609.916
 22.070    606.000    613.297     -7.297    609.501    611.498    611.299    609.501    609.501
 22.170    657.455    612.982     44.473    609.085    611.128    610.938    609.085    609.085
 22.270    593.000    612.672    -19.672    608.667    610.761    610.579    608.667    608.667
 22.370    650.850    612.370     38.481    608.249    610.398    610.221    608.249    608.249
 22.470    575.000    612.073    -37.073    607.829    610.038    609.865    607.829    607.829
 22.570    655.796    611.785     44.012    607.409    609.682    609.511    607.409    607.409
 22.670    635.737    611.504     24.233    606.987    609.332    609.160    606.987    606.987
 22.770    631.349    611.234     20.116    606.565    608.988    608.811    606.565    606.565
 22.870    595.000    610.975    -15.975    606.142    608.652    608.466    606.142    606.142
 22.970    658.018    610.730     47.287    605.717    608.325    608.123    605.717    605.717
 23.070    641.000    610.503     30.497    605.293    608.011    607.784    605.293    605.293
 23.170    621.933    610.293     11.640    604.867    607.711    607.450    604.867    604.867
 23.270    654.000    610.105     43.895    604.440    607.427    607.119    604.440    604.440
 23.370    579.000    609.945    -30.945    604.013    607.165    606.794    604.013    604.013
 23.470    562.745    609.818    -47.073    603.585    606.931    606.473    603.585    603.585
 23.570    594.000    609.733    -15.733    603.157    606.732    606.159    603.157    603.157
 23.670    620.000    609.701     10.299    602.728    606.579    605.851    602.728    602.728
 23.770    627.208    609.738     17.470    602.298    606.488    605.550    602.298    602.298
 23.870    590.812    609.865    -19.053    601.868    606.478    605.256    601.868    601.868
 23.970    628.000    610.117     17.883    601.437    606.584    604.971    601.437    601.437
 24.070    651.000    610.551     40.449    601.006    606.864    604.695    601.006    601.006
 24.170    598.094    611.291    -13.197    600.574    607.438    604.430    600.574    600.574
 24.270    647.000    612.641     34.359    600.142    608.611    604.175    600.142    600.142
 24.370    691.000    615.339     75.661    599.709    611.121    603.934    599.709    599.709
 24.470    608.000    620.894    -12.894    599.276    616.474    603.707    599.276    599.276
 24.570    641.000    631.553      9.447    598.843    626.920    603.494    598.843    598.843
 24.670    713.000    649.192     63.808    598.410    644.335    603.297    598.410    598.410
 24.770    654.000    672.705    -18.705    597.976    667.608    603.119    597.976    597.976
 24.870    740.593    694.839     45.754    597.542    689.481    602.962    597.542    597.542
 24.970    682.000    702.758    -20.758    597.108    697.107    602.828    597.108    597.108
 25.070    682.000    689.918     -7.918    596.673    683.931    602.719    596.673    596.673
 25.170    620.373    665.989    -45.616    596.239    659.631    602.640    596.239    596.239
 25.270    702.000    643.430     58.570    595.804    636.666    602.594    595.804    595.804
 25.370    635.000    627.673      7.327    595.369    620.472    602.585    595.369    595.369
 25.470    656.000    618.661     37.339    594.934    610.987    602.617    594.934    594.934
 25.570    624.000    614.174      9.826    594.500    605.983    602.695    594.500    594.500
 25.670    654.778    612.084     42.695    594.065    603.324    602.828    594.065    594.065
 25.770    657.000    611.123     45.877    593.630    601.732    603.023    593.630    593.630
 25.870    650.000    610.724     39.276    593.195    600.632    603.289    593.195    593.195
 25.970    661.000    610.672     50.328    592.760    599.796    603.638    592.760    592.760
 26.070    642.000    610.890     31.110    592.326    599.133    604.084    592.326    592.326
 26.170    664.000    611.351     52.649    591.891    598.600    604.642    591.891    591.891
 26.270    578.264    612.050    -33.786    591.457    598.173    605.335    591.457    591.457
 26.370    686.000    613.000     73.000    591.023    597.837    606.186    591.023    591.023
 26.470    693.000    614.227     78.773    590.589    597.588    607.228    590.589    590.589
 26.570    660.000    615.770     44.230    590.156    597.425    608.500    590.156    590.156
 26.670    665.146    617.684     47.462    589.722    597.352    610.053    589.722    589.722
 26.770    718.000    620.045     97.955    589.289    597.380    611.953    589.289    589.289
 26.870    684.000    622.955     61.045    588.857    597.523    614.287    588.857    588.857
 26.970    576.823    626.553    -49.730    588.424    597.805    617.171    588.424    588.424
 27.070    626.070    631.028     -4.958    587.992    598.259    620.759    587.992    587.992
 27.170    653.000    636.643     16.357    587.561    598.930    625.270    587.561    587.561
 27.270    598.704    643.772    -45.069    587.129    599.887    631.012    587.129    587.129
 27.370    664.087    652.978     11.108    586.699    601.229    638.444    586.699    586.699
 27.470    728.000    665.198     62.802    586.268    603.124    648.336    586.268    586.268
 27.570    693.940    682.343     11.597    585.839    605.914    662.259    585.839    585.839
 27.670    731.000    709.116     21.884    585.409    610.435    684.079    585.409    585.409
 27.770    764.270    757.298      6.972    584.981    618.773    723.485    584.981    584.981
 27.870    860.000    852.305      7.695    584.553    635.431    801.389    584.553    584.553
 27.970   1011.499   1035.611    -24.112    584.125    667.747    951.918    584.125    584.125
 28.070   1347.900   1349.168     -1.268    583.698    723.159   1209.586    583.698    583.698
 28.170   1669.000   1792.708   -123.708    583.272    801.660   1574.142    583.272    583.272
 28.270   2189.000   2265.143    -76.143    582.846    885.477   1962.305    582.846    582.846
 28.370   2488.000   2543.298    -55.298    582.421    935.382   2190.169    582.421    582.421
 28.470   2351.600   2451.401    -99.801    581.997    920.761   2112.570    581.997    581.997
 28.570   2183.000   2099.013     83.987    581.574    861.806   1818.792    581.574    581.574
 28.670   1687.000   1739.724    -52.724    581.151    804.532   1516.379    581.151    581.151
 28.770   1420.000   1542.644   -122.644    580.729    779.868   1343.529    580.729    580.729
 28.870   1588.880   1538.719     50.161    580.308    792.993   1326.041    580.308    580.308
 28.970   1609.772   1646.996    -37.223    579.888    826.397   1400.494    579.888    579.888
 29.070   1709.990   1716.552     -6.562    579.468    846.684   1449.370    579.468    579.468
 29.170   1668.000   1629.083     38.917    579.049    827.509   1380.697    579.049    579.049
 29.270   1458.460   1409.443     49.017    578.632    775.854   1212.310    578.632    578.632
 29.370   1181.557   1160.838     20.719    578.215    716.881   1022.251    578.215    578.215
 29.470    932.493    956.804    -24.312    577.799    668.382    866.277    577.799    577.799
 29.570    813.693    818.903     -5.210    577.384    635.606    760.716    577.384    577.384
 29.670    789.000    737.076     51.924    576.970    616.189    697.877    576.970    576.970
 29.770    780.000    691.553     88.447    576.557    605.426    662.693    576.557    576.557
 29.870    733.000    665.741     67.259    576.145    599.369    642.522    576.145    576.145
 29.970    633.242    649.740    -16.498    575.734    595.669    629.807    575.734    575.734
 30.070    657.067    638.772     18.295    575.324    593.209    620.889    575.324    575.324
 30.170    719.000    630.787     88.213    574.915    591.535    614.167    574.915    574.915
 30.270    653.889    624.953     28.936    574.507    590.520    608.938    574.507    574.507
 30.370    585.033    621.055    -36.022    574.100    590.266    604.887    574.100    574.100
