neutron_powder_diffraction_0003
R_wp: 3.751
Temperature (K): 436.099
Counts: 83276.00
Wavelength (Ã…): 2.52098
COMMENTS
Test file for demonstrating the .xyy file format in Reel1.0
END OF HEADER
   tth       Y_obs     Y_calc      Y_res    Background    Phase_1_Nuc    Phase_1_Mag    Phase_2_Nuc    Phase_2_Mag
  9.970    782.000    761.395     20.605    759.528    760.652    760.270    759.528    759.528
 10.070    777.426    760.293     17.133    758.328    759.542    759.078    758.328    758.328
 10.170    759.489    759.210      0.278    757.135    758.452    757.893    757.135    757.135
 10.270    769.000    758.149     10.851    755.949    757.383    756.715    755.949    755.949
 10.370    759.000    757.112      1.888    754.769    756.337    755.543    754.769    754.769
 10.470    798.474    756.103     42.370    753.596    755.320    754.378    753.596    753.596
 10.570    761.000    755.127      5.873    752.429    754.335    753.220    752.429    752.429
 10.670    780.702    754.191     26.511    751.269    753.390    752.069    751.269    751.269
 10.770    736.041    753.304    -17.263    750.115    752.494    750.924    750.115    750.115
 10.870    739.000    752.471    -13.471    748.968    751.652    749.786    748.968    748.968
 10.970    754.381    751.711      2.670    747.827    750.882    748.654    747.827    747.827
 11.070    779.000    751.042     27.958    746.693    750.204    747.529    746.693    746.693
 11.170    816.000    750.492     65.508    745.565    749.645    746.411    745.565    745.565
 11.270    787.000    750.106     36.894    744.444    749.248    745.299    744.444    744.444
 11.370    766.923    749.959     16.963    743.329    749.091    744.194    743.329    743.329
 11.470    763.000    750.248     12.752    742.221    749.369    743.095    742.221    742.221
 11.570    766.000    751.100     14.900    741.118    750.210    742.003    741.118    741.118
 11.670    783.000    753.062     29.938    740.023    752.160    740.918    740.023    740.023
 11.770    803.000    757.237     45.763    738.933    756.322    739.839    738.933    738.933
 11.870    804.000    765.325     38.675    737.850    764.394    738.766    737.850    737.850
 11.970    842.000    779.291     62.709    736.773    778.340    737.700    736.773    736.773
 12.070    885.000    800.149     84.851    735.703    799.175    736.640    735.703    735.703
 12.170    848.000    825.686     22.314    734.638    824.686    735.587    734.638    734.638
 12.270    909.418    847.721     61.697    733.580    846.696    734.541    733.580    733.580
 12.370    924.000    853.550     70.450    732.529    852.509    733.501    732.529    732.529
 12.470    831.271    837.919     -6.648    731.483    836.875    732.467    731.483    731.483
 12.570    778.000    810.718    -32.718    730.444    809.678    731.440    730.444    730.444
 12.670    789.721    784.211      5.511    729.411    783.172    730.419    729.411    729.411
 12.770    758.684    763.985     -5.301    728.384    762.945    729.405    728.384    728.384
 12.870    751.000    750.546      0.454    727.364    749.501    728.397    727.364    727.364
 12.970    712.000    742.242    -30.242    726.349    741.188    727.395    726.349    726.349
 13.070    671.000    737.097    -66.097    725.341    736.032    726.400    725.341    725.341
 13.170    770.616    733.660     36.956    724.339    732.583    725.411    724.339    724.339
 13.270    680.042    731.115    -51.073    723.342    730.025    724.429    723.342    723.342
 13.370    746.190    729.022     17.168    722.352    727.918    723.453    722.352    722.352
 13.470    730.000    727.214      2.786    721.368    726.097    722.483    721.368    721.368
 13.570    766.469    725.602     40.867    720.391    724.470    721.520    720.391    720.391
 13.670    666.000    724.130    -58.130    719.419    722.984    720.563    719.419    719.419
 13.770    676.260    722.765    -46.505    718.453    721.605    719.612    718.453    718.453
 13.870    672.000    721.486    -49.486    717.493    720.310    718.668    717.493    717.493
 13.970    708.453    720.271    -11.818    716.539    719.080    717.730    716.539    716.539
 14.070    698.000    719.107    -21.107    715.591    717.899    716.798    715.591    715.591
 14.170    771.000    717.985     53.015    714.650    716.761    715.872    714.650    714.650
 14.270    714.744    716.899     -2.155    713.714    715.659    714.953    713.714    713.714
 14.370    751.000    715.843     35.157    712.784    714.586    714.040    712.784    712.784
 14.470    738.073    714.813     23.260    711.860    713.539    713.133    711.860    711.860
 14.570    676.000    713.806    -37.806    710.941    712.514    712.233    710.941    710.941
 14.670    711.000    712.819     -1.819    710.029    711.509    711.339    710.029    710.029
 14.770    742.615    711.849     30.765    709.123    710.521    710.451    709.123    709.123
 14.870    664.048    710.896    -46.848    708.222    709.548    709.569    708.222    708.222
 14.970    749.000    709.957     39.043    707.327    708.590    708.693    707.327    707.327
 15.070    680.000    709.031    -29.031    706.439    707.645    707.824    706.439    706.439
 15.170    671.219    708.118    -36.900    705.555    706.712    706.961    705.555    705.555
 15.270    762.581    707.217     55.364    704.678    705.790    706.104    704.678    704.678
 15.370    726.091    706.326     19.765    703.806    704.879    705.254    703.806    703.806
 15.470    750.000    705.447     44.553    702.941    703.978    704.410    702.941    702.941
 15.570    650.027    704.584    -54.557    702.081    703.092    703.572    702.081    702.081
 15.670    693.000    703.724    -10.724    701.226    702.210    702.740    701.226    701.226
 15.770    708.000    702.872      5.128    700.377    701.335    701.914    700.377    700.377
 15.870    629.000    702.034    -73.034    699.534    700.474    701.095    699.534    699.534
 15.970    672.000    701.211    -29.211    698.697    699.626    700.282    698.697    698.697
 16.070    744.218    700.386     43.833    697.865    698.776    699.475    697.865    697.865
 16.170    689.318    699.568    -10.249    697.039    697.933    698.674    697.039    697.039
 16.270    708.000    698.759      9.241    696.219    697.098    697.880    696.219    696.219
 16.370    694.000    697.973     -3.973    695.404    696.286    697.091    695.404    695.404
 16.470    700.000    697.195      2.805    694.595    695.480    696.309    694.595    694.595
 16.570    713.000    696.414     16.586    693.791    694.672    695.533    693.791    693.791
 16.670    659.000    695.689    -36.689    692.993    693.916    694.766    692.993    692.993
 16.770    651.000    694.941    -43.941    692.200    693.139    694.003    692.200    692.200
 16.870    642.261    694.179    -51.918    691.413    692.346    693.246    691.413    691.413
 16.970    684.000    693.422     -9.422    690.632    691.558    692.496    690.632    690.632
 17.070    660.000    692.672    -32.672    689.856    690.776    691.752    689.856    689.856
 17.170    671.000    691.929    -20.929    689.085    690.000    691.014    689.085    689.085
 17.270    646.558    691.193    -44.634    688.320    689.231    690.281    688.320    688.320
 17.370    650.000    690.463    -40.463    687.560    688.468    689.556    687.560    687.560
 17.470    666.000    689.741    -23.741    686.806    687.711    688.836    686.806    686.806
 17.570    728.543    689.026     39.518    686.057    686.960    688.123    686.057    686.057
 17.670    698.769    688.317     10.451    685.313    686.214    687.416    685.313    685.313
 17.770    729.169    687.616     41.553    684.575    685.475    686.716    684.575    684.575
 17.870    691.129    686.922      4.207    683.842    684.742    686.022    683.842    683.842
 17.970    668.000    686.235    -18.235    683.115    684.016    685.334    683.115    683.115
 18.070    692.000    685.563      6.437    682.393    683.303    684.653    682.393    682.393
 18.170    715.000    684.895     30.105    681.676    682.592    683.979    681.676    681.676
 18.270    648.291    684.229    -35.938    680.964    681.883    683.310    680.964    680.964
 18.370    659.000    683.569    -24.569    680.258    681.179    682.649    680.258    680.258
 18.470    722.619    682.920     39.699    679.557    680.484    681.993    679.557    679.557
 18.570    708.927    682.295     26.632    678.861    679.810    681.345    678.861    678.861
 18.670    657.000    681.665    -24.665    678.170    679.132    680.703    678.170    678.170
 18.770    673.000    681.035     -8.035    677.485    678.452    680.068    677.485    677.485
 18.870    689.000    680.413      8.587    676.804    677.778    679.439    676.804    676.804
 18.970    644.000    679.800    -35.800    676.129    677.112    678.817    676.129    676.129
 19.070    646.000    679.190    -33.190    675.459    676.448    678.202    675.459    675.459
 19.170    669.000    678.588     -9.588    674.794    675.789    677.594    674.794    674.794
 19.270    639.000    677.995    -38.995    674.135    675.137    676.992    674.135    674.135
 19.370    684.000    677.422      6.578    673.480    674.503    676.399    673.480    673.480
 19.470    651.000    676.882    -25.882    672.830    673.889    675.823    672.830    672.830
 19.570    698.000    676.378     21.622    672.186    673.292    675.271    672.186    672.186
 19.670    632.000    675.861    -43.861    671.546    672.694    674.713    671.546    671.546
 19.770    654.135    675.387    -21.252    670.912    672.139    674.159    670.912    670.912
 19.870    697.954    674.848     23.105    670.282    671.529    673.602    670.282    670.282
 19.970    642.000    674.326    -32.326    669.658    670.933    673.052    669.658    669.658
 20.070    666.000    673.830     -7.830    669.039    670.359    672.510    669.039    669.039
 20.170    672.000    673.315     -1.315    668.424    669.764    671.974    668.424    668.424
 20.270    670.000    672.827     -2.827    667.814    669.192    671.449    667.814    667.814
 20.370    626.000    672.345    -46.345    667.210    668.620    670.935    667.210    667.210
 20.470    742.000    671.854     70.146    666.610    668.041    670.424    666.610    666.610
 20.570    686.000    671.367     14.633    666.015    667.463    669.920    666.015    666.015
 20.670    659.079    670.889    -11.810    665.425    666.890    669.424    665.425    665.425
 20.770    647.000    670.419    -23.419    664.840    666.323    668.936    664.840    664.840
 20.870    677.008    669.959      7.049    664.260    665.762    668.457    664.260    664.260
 20.970    718.733    669.509     49.224    663.684    665.207    667.986    663.684    663.684
 21.070    662.000    669.069     -7.069    663.114    664.658    667.525    663.114    663.114
 21.170    695.000    668.640     26.360    662.548    664.116    667.073    662.548    662.548
 21.270    684.000    668.231     15.769    661.987    663.587    666.630    661.987    661.987
 21.370    660.000    667.830     -7.830    661.430    663.063    666.197    661.430    661.430
 21.470    690.000    667.434     22.566    660.879    662.540    665.773    660.879    660.879
 21.570    660.000    667.051     -7.051    660.332    662.023    665.360    660.332    660.332
 21.670    678.000    666.681     11.319    659.790    661.514    664.956    659.790    659.790
 21.770    633.000    666.322    -33.322    659.252    661.011    664.563    659.252    659.252
 21.870    640.000    665.976    -25.976    658.719    660.514    664.181    658.719    658.719
 21.970    718.000    665.645     52.355    658.191    660.025    663.811    658.191    658.191
 22.070    714.580    665.328     49.252    657.667    659.543    663.452    657.667    657.667
 22.170    616.376    665.027    -48.650    657.148    659.070    663.105    657.148    657.148
 22.270    659.000    664.742     -5.742    656.634    658.605    662.771    656.634    656.634
 22.370    687.158    664.475     22.684    656.124    658.149    662.450    656.124    656.124
 22.470    661.000    664.226     -3.226    655.619    657.703    662.143    655.619    655.619
 22.570    645.000    663.999    -18.999    655.118    657.267    661.850    655.118    655.118
 22.670    627.000    663.797    -36.797    654.622    656.846    661.574    654.622    654.622
 22.770    630.000    663.617    -33.617    654.131    656.437    661.312    654.131    654.131
 22.870    639.000    663.460    -24.460    653.643    656.039    661.065    653.643    653.643
 22.970    666.000    663.329      2.671    653.161    655.655    660.835    653.161    653.161
 23.070    683.000    663.230     19.770    652.683    655.290    660.623    652.683    652.683
 23.170    673.000    663.164      9.836    652.209    654.944    660.430    652.209    652.209
 23.270    630.000    663.137    -33.137    651.739    654.621    660.256    651.739    651.739
 23.370    670.117    663.154      6.963    651.275    654.326    660.104    651.275    651.275
 23.470    645.677    663.222    -17.545    650.814    654.063    659.974    650.814    650.814
 23.570    656.000    663.350     -7.350    650.358    653.841    659.868    650.358    650.358
 23.670    670.607    663.550      7.057    649.906    653.670    659.787    649.906    649.906
 23.770    681.000    663.833     17.167    649.459    653.560    659.733    649.459    649.459
 23.870    640.000    664.222    -24.222    649.015    653.532    659.707    649.015    649.015
 23.970    646.000    664.747    -18.747    648.576    653.613    659.712    648.576    648.576
 24.070    712.726    665.453     47.274    648.142    653.847    659.751    648.142    648.142
 24.170    640.000    666.424    -26.424    647.712    654.314    659.824    647.712    647.712
 24.270    637.000    667.829    -30.829    647.286    655.182    659.936    647.286    647.286
 24.370    633.926    670.024    -36.099    646.864    656.804    660.090    646.864    646.864
 24.470    630.562    673.696    -43.134    646.446    659.861    660.289    646.446    646.446
 24.570    663.435    679.942    -16.507    646.033    665.450    660.537    646.033    646.033
 24.670    758.000    690.064     67.936    645.624    674.867    660.839    645.624    645.624
 24.770    692.000    704.834    -12.834    645.219    688.882    661.199    645.219    645.219
 24.870    721.479    723.140     -1.661    644.818    706.375    661.624    644.818    644.818
 24.970    756.000    740.142     15.858    644.421    722.497    662.120    644.421    644.421
 25.070    762.372    747.270     15.102    644.028    728.662    662.694    644.028    644.028
 25.170    721.000    739.724    -18.724    643.640    720.061    663.355    643.640    643.640
 25.270    748.617    723.359     25.258    643.255    702.540    664.113    643.255    643.255
 25.370    670.408    706.687    -36.280    642.875    684.609    664.980    642.875    642.875
 25.470    696.000    694.000      2.000    642.498    670.548    665.968    642.498    642.498
 25.570    705.136    686.040     19.097    642.126    661.084    667.092    642.126    642.126
 25.670    689.955    681.901      8.054    641.758    655.294    668.371    641.758    641.758
 25.770    695.000    680.298     14.702    641.393    651.869    669.827    641.393    641.393
 25.870    673.000    680.218     -7.218    641.033    649.766    671.488    641.033    641.033
 25.970    681.000    681.056     -0.056    640.677    648.358    673.378    640.677    640.677
 26.070    714.000    682.524     31.476    640.324    647.320    675.530    640.324    640.324
 26.170    718.699    684.527     34.172    639.976    646.512    677.992    639.976    639.976
 26.270    642.426    687.048    -44.621    639.631    645.864    680.816    639.631    639.631
 26.370    709.000    690.112     18.888    639.290    645.338    684.065    639.290    639.290
 26.470    741.775    693.779     47.996    638.953    644.913    687.819    638.953    638.953
 26.570    661.982    698.133    -36.151    638.620    644.576    692.176    638.620    638.620
 26.670    666.208    703.293    -37.086    638.291    644.320    697.263    638.291    638.291
 26.770    667.000    709.418    -42.418    637.966    644.143    703.239    637.966    637.966
 26.870    715.000    716.715     -1.715    637.644    644.047    710.311    637.644    637.644
 26.970    727.154    725.465      1.689    637.327    644.040    718.749    637.327    637.327
 27.070    746.281    736.042     10.239    637.013    644.133    728.917    637.013    637.013
 27.170    689.000    748.960    -59.960    636.702    644.348    741.309    636.702    636.702
 27.270    734.015    764.930    -30.916    636.396    644.711    756.609    636.396    636.396
 27.370    763.000    784.951    -21.951    636.093    645.263    775.774    636.093    636.093
 27.470    777.190    810.518    -33.328    635.794    646.066    800.236    635.794    635.794
 27.570    856.390    844.019     12.371    635.498    647.220    832.284    635.498    635.498
 27.670    925.515    890.216     35.298    635.207    648.925    876.480    635.207    635.207
 27.770    947.000    962.084    -15.084    634.919    651.717    945.257    634.919    634.919
 27.870   1110.000   1100.059      9.941    634.634    657.270   1077.370    634.634    634.634
 27.970   1389.000   1415.345    -26.345    634.353    670.174   1379.408    634.353    634.353
 28.070   2106.000   2136.058    -30.058    634.076    699.843   2070.028    634.076    634.076
 28.170   3321.000   3553.473   -232.473    633.802    758.302   3428.451    633.802    633.802
 28.270   5253.000   5746.392   -493.392    633.532    848.832   5530.254    633.532    633.532
 28.370   7990.000   8176.220   -186.220    633.266    949.308   7859.166    633.266    633.266
 28.470   9736.000   9599.484    136.516    633.002   1008.658   9223.026    633.002    633.002
 28.570   9127.859   9046.992     80.867    632.743    987.383   8692.089    632.743    632.743
 28.670   7142.303   7106.444     35.859    632.487    910.694   6828.402    632.487    632.487
 28.770   5304.207   5170.655    133.552    632.234    837.636   4965.537    632.234    632.234
 28.870   4072.101   4169.043    -96.942    631.985    808.170   3993.069    631.985    631.985
 28.970   4281.000   4222.997     58.003    631.739    827.260   4027.606    631.739    631.739
 29.070   4978.000   4855.740    122.260    631.497    871.297   4616.096    631.497    631.497
 29.170   5468.000   5301.201    166.799    631.258    900.190   5032.582    631.258    631.258
 29.270   5072.000   4988.322     83.678    631.023    883.320   4736.516    631.023    631.023
 29.370   4110.000   4026.761     83.239    630.791    828.121   3829.966    630.791    630.791
 29.470   2914.000   2914.193     -0.193    630.562    763.885   2781.308    630.562    630.562
 29.570   1917.000   2018.433   -101.433    630.337    712.121   1936.942    630.337    630.337
 29.670   1468.000   1443.745     24.255    630.114    678.949   1395.080    630.114    630.114
 29.770   1223.000   1129.044     93.956    629.896    660.851   1098.178    629.896    629.896
 29.870   1020.672    969.909     50.763    629.680    651.780    947.856    629.680    629.680
 29.970    952.000    886.946     65.054    629.468    647.143    869.299    629.468    629.468
 30.070    925.000    837.848     87.152    629.259    644.498    822.627    629.259    629.259
 30.170    900.000    804.561     95.439    629.053    642.822    790.805    629.053    629.053
 30.270    851.000    780.091     70.909    628.851    641.743    767.207    628.851    628.851
 30.370    738.000    761.591    -23.591    628.651    641.171    749.078    628.651    628.651
