neutron_powder_diffraction_0138
R_wp: 3.881
Temperature (K): 1076.038
Counts: 83369.00
Wavelength (Ã…): 2.52098
COMMENTS
Test file for demonstrating the .xyy file format in Reel1.0
END OF HEADER
   tth       Y_obs     Y_calc      Y_res    Background    Phase_1_Nuc    Phase_1_Mag    Phase_2_Nuc    Phase_2_Mag
  9.970    586.000    569.773     16.227    568.826    569.685    568.826    568.914    568.826
 10.070    574.939    569.985      4.955    568.963    569.896    568.963    569.051    568.963
 10.170    604.000    570.201     33.799    569.093    570.112    569.093    569.181    569.093
 10.270    597.000    570.423     26.577    569.217    570.334    569.217    569.305    569.217
 10.370    586.000    570.655     15.345    569.334    570.566    569.334    569.422    569.334
 10.470    615.000    570.900     44.100    569.444    570.811    569.444    569.533    569.444
 10.570    580.000    571.163      8.837    569.548    571.073    569.548    569.637    569.548
 10.670    583.139    571.450     11.689    569.645    571.360    569.645    569.735    569.645
 10.770    623.000    571.770     51.230    569.736    571.679    569.736    569.827    569.736
 10.870    526.642    572.134    -45.493    569.821    572.043    569.821    569.912    569.821
 10.970    562.000    572.559    -10.559    569.900    572.466    569.900    569.991    569.900
 11.070    558.000    573.066    -15.066    569.972    572.973    569.972    570.064    569.972
 11.170    533.000    573.689    -40.689    570.039    573.595    570.039    570.130    570.039
 11.270    554.000    574.481    -20.481    570.099    574.386    570.099    570.191    570.099
 11.370    570.586    575.537     -4.951    570.153    575.441    570.153    570.246    570.153
 11.470    613.000    577.072     35.928    570.202    576.976    570.202    570.295    570.202
 11.570    595.000    579.633     15.367    570.244    579.535    570.244    570.338    570.244
 11.670    593.000    584.519      8.481    570.281    584.417    570.281    570.375    570.281
 11.770    637.000    594.208     42.792    570.312    594.101    570.312    570.406    570.312
 11.870    578.999    611.985    -32.986    570.337    611.868    570.337    570.432    570.337
 11.970    623.000    639.640    -16.640    570.357    639.508    570.357    570.452    570.357
 12.070    705.643    673.091     32.551    570.371    672.940    570.371    570.466    570.371
 12.170    709.000    698.515     10.485    570.379    698.349    570.379    570.475    570.379
 12.270    684.090    699.250    -15.160    570.382    699.083    570.382    570.478    570.382
 12.370    628.228    674.677    -46.449    570.379    674.523    570.379    570.476    570.379
 12.470    643.696    641.176      2.519    570.372    641.041    570.372    570.469    570.372
 12.570    569.522    613.074    -43.553    570.358    612.954    570.358    570.456    570.358
 12.670    582.000    594.854    -12.854    570.340    594.743    570.340    570.438    570.340
 12.770    585.966    584.877      1.090    570.316    584.770    570.316    570.415    570.316
 12.870    572.000    579.854     -7.854    570.288    579.750    570.288    570.387    570.288
 12.970    545.000    577.239    -32.239    570.254    577.136    570.254    570.353    570.254
 13.070    577.685    575.687      1.998    570.215    575.584    570.215    570.315    570.215
 13.170    584.000    574.629      9.371    570.171    574.526    570.171    570.271    570.171
 13.270    549.000    573.842    -24.842    570.122    573.739    570.122    570.223    570.122
 13.370    607.423    573.228     34.195    570.068    573.125    570.068    570.170    570.068
 13.470    568.000    572.733     -4.733    570.010    572.630    570.010    570.112    570.010
 13.570    574.000    572.324      1.676    569.946    572.220    569.946    570.049    569.946
 13.670    567.459    571.977     -4.518    569.878    571.873    569.878    569.981    569.878
 13.770    570.000    571.677     -1.677    569.806    571.573    569.806    569.909    569.806
 13.870    603.214    571.411     31.803    569.728    571.307    569.728    569.832    569.728
 13.970    606.000    571.173     34.827    569.646    571.068    569.646    569.751    569.646
 14.070    575.070    570.954      4.116    569.560    570.849    569.560    569.665    569.560
 14.170    616.029    570.751     45.278    569.469    570.645    569.469    569.574    569.469
 14.270    608.125    570.559     37.566    569.374    570.452    569.374    569.480    569.374
 14.370    605.257    570.376     34.881    569.274    570.269    569.274    569.380    569.274
 14.470    526.986    570.200    -43.214    569.170    570.092    569.170    569.277    569.170
 14.570    577.471    570.029      7.443    569.062    569.921    569.062    569.169    569.062
 14.670    542.000    569.861    -27.861    568.949    569.753    568.949    569.057    568.949
 14.770    560.442    569.696     -9.254    568.833    569.587    568.833    568.941    568.833
 14.870    566.000    569.532     -3.532    568.712    569.423    568.712    568.821    568.712
 14.970    542.000    569.369    -27.369    568.587    569.259    568.587    568.697    568.587
 15.070    570.000    569.207      0.793    568.458    569.096    568.458    568.568    568.458
 15.170    536.000    569.044    -33.044    568.325    568.933    568.325    568.436    568.325
 15.270    587.000    568.880     18.120    568.188    568.769    568.188    568.300    568.188
 15.370    578.000    568.718      9.282    568.048    568.606    568.048    568.160    568.048
 15.470    574.000    568.553      5.447    567.903    568.440    567.903    568.016    567.903
 15.570    596.000    568.385     27.615    567.755    568.272    567.755    567.868    567.755
 15.670    580.315    568.216     12.099    567.603    568.102    567.603    567.717    567.603
 15.770    592.000    568.044     23.956    567.447    567.930    567.447    567.562    567.447
 15.870    572.736    567.871      4.866    567.288    567.755    567.288    567.403    567.288
 15.970    575.000    567.695      7.305    567.125    567.579    567.125    567.241    567.125
 16.070    568.693    567.517      1.176    566.959    567.401    566.959    567.075    566.959
 16.170    530.000    567.337    -37.337    566.789    567.220    566.789    566.906    566.789
 16.270    555.979    567.155    -11.176    566.615    567.037    566.615    566.733    566.615
 16.370    518.000    566.971    -48.971    566.439    566.852    566.439    566.557    566.439
 16.470    568.000    566.784      1.216    566.258    566.665    566.258    566.378    566.258
 16.570    591.000    566.594     24.406    566.075    566.474    566.075    566.195    566.075
 16.670    556.000    566.402    -10.402    565.888    566.281    565.888    566.009    565.888
 16.770    595.065    566.208     28.858    565.698    566.086    565.698    565.820    565.698
 16.870    578.000    566.010     11.990    565.505    565.888    565.505    565.627    565.505
 16.970    574.000    565.810      8.190    565.309    565.687    565.309    565.432    565.309
 17.070    524.899    565.607    -40.709    565.109    565.483    565.109    565.233    565.109
 17.170    552.000    565.402    -13.402    564.907    565.277    564.907    565.031    564.907
 17.270    574.000    565.194      8.806    564.701    565.069    564.701    564.827    564.701
 17.370    574.000    564.984      9.016    564.493    564.858    564.493    564.619    564.493
 17.470    544.000    564.772    -20.772    564.281    564.645    564.281    564.408    564.281
 17.570    550.162    564.557    -14.395    564.067    564.429    564.067    564.195    564.067
 17.670    521.780    564.339    -42.559    563.850    564.210    563.850    563.979    563.850
 17.770    551.000    564.121    -13.121    563.630    563.991    563.630    563.760    563.630
 17.870    569.000    563.914      5.086    563.407    563.783    563.407    563.538    563.407
 17.970    605.000    563.700     41.300    563.182    563.568    563.182    563.313    563.182
 18.070    540.000    563.474    -23.474    562.954    563.342    562.954    563.086    562.954
 18.170    552.000    563.245    -11.245    562.723    563.112    562.723    562.857    562.723
 18.270    533.788    563.014    -29.226    562.490    562.880    562.490    562.624    562.490
 18.370    526.530    562.781    -36.251    562.254    562.646    562.254    562.389    562.254
 18.470    535.000    562.545    -27.545    562.016    562.409    562.016    562.152    562.016
 18.570    595.000    562.308     32.692    561.775    562.171    561.775    561.912    561.775
 18.670    537.000    562.068    -25.068    561.532    561.930    561.532    561.670    561.532
 18.770    592.000    561.826     30.174    561.286    561.687    561.286    561.425    561.286
 18.870    559.000    561.583     -2.583    561.038    561.442    561.038    561.179    561.038
 18.970    530.000    561.337    -31.337    560.788    561.196    560.788    560.929    560.788
 19.070    565.213    561.089      4.123    560.536    560.947    560.536    560.678    560.536
 19.170    565.000    560.840      4.160    560.281    560.697    560.281    560.424    560.281
 19.270    563.395    560.589      2.806    560.024    560.444    560.024    560.168    560.024
 19.370    563.000    560.336      2.664    559.765    560.190    559.765    559.911    559.765
 19.470    544.000    560.082    -16.082    559.504    559.935    559.504    559.651    559.504
 19.570    540.000    559.825    -19.825    559.240    559.677    559.240    559.388    559.240
 19.670    568.000    559.568      8.432    558.975    559.418    558.975    559.124    558.975
 19.770    555.429    559.308     -3.879    558.708    559.158    558.708    558.858    558.708
 19.870    592.000    559.047     32.953    558.438    558.895    558.438    558.590    558.438
 19.970    558.000    558.785     -0.785    558.167    558.632    558.167    558.320    558.167
 20.070    590.000    558.523     31.477    557.894    558.368    557.894    558.049    557.894
 20.170    561.542    558.272      3.270    557.619    558.116    557.619    557.775    557.619
 20.270    543.000    558.096    -15.096    557.342    557.939    557.342    557.500    557.342
 20.370    522.000    557.849    -35.849    557.064    557.690    557.064    557.223    557.064
 20.470    513.417    557.582    -44.165    556.784    557.422    556.784    556.944    556.784
 20.570    561.000    557.313      3.687    556.502    557.152    556.502    556.663    556.502
 20.670    588.000    557.044     30.956    556.218    556.880    556.218    556.381    556.218
 20.770    580.806    556.773     24.033    555.933    556.608    555.933    556.098    555.933
 20.870    564.000    556.502      7.498    555.646    556.335    555.646    555.812    555.646
 20.970    587.386    556.230     31.156    555.357    556.062    555.357    555.525    555.357
 21.070    562.000    555.957      6.043    555.067    555.788    555.067    555.237    555.067
 21.170    558.000    555.689      2.311    554.776    555.518    554.776    554.947    554.776
 21.270    594.522    555.465     39.058    554.483    555.291    554.483    554.656    554.483
 21.370    556.000    555.211      0.789    554.188    555.036    554.188    554.364    554.188
 21.470    543.000    554.940    -11.940    553.893    554.763    553.893    554.070    553.893
 21.570    554.000    554.668     -0.668    553.595    554.489    553.595    553.775    553.595
 21.670    555.000    554.397      0.603    553.297    554.216    553.297    553.478    553.297
 21.770    559.000    554.127      4.873    552.997    553.943    552.997    553.181    552.997
 21.870    555.000    553.857      1.143    552.696    553.672    552.696    552.882    552.696
 21.970    531.167    553.592    -22.425    552.394    553.404    552.394    552.582    552.394
 22.070    534.000    553.348    -19.348    552.090    553.158    552.090    552.281    552.090
 22.170    541.296    553.110    -11.814    551.786    552.918    551.786    551.979    551.786
 22.270    548.413    552.852     -4.440    551.480    552.658    551.480    551.675    551.480
 22.370    544.000    552.595     -8.595    551.173    552.398    551.173    551.371    551.173
 22.470    535.000    552.343    -17.343    550.865    552.143    550.865    551.066    550.865
 22.570    572.000    552.095     19.905    550.556    551.893    550.556    550.759    550.556
 22.670    560.000    551.854      8.146    550.247    551.649    550.247    550.452    550.247
 22.770    535.000    551.624    -16.624    549.936    551.416    549.936    550.144    549.936
 22.870    518.000    551.400    -33.400    549.624    551.189    549.624    549.836    549.624
 22.970    531.000    551.187    -20.187    549.311    550.973    549.311    549.526    549.311
 23.070    569.000    550.990     18.010    548.997    550.772    548.997    549.216    548.997
 23.170    571.000    550.818     20.182    548.683    550.597    548.683    548.904    548.683
 23.270    525.000    550.662    -25.662    548.368    550.438    548.368    548.593    548.368
 23.370    541.397    550.533     -9.136    548.051    550.305    548.051    548.280    548.051
 23.470    549.000    550.441     -1.441    547.735    550.210    547.735    547.967    547.735
 23.570    525.000    550.399    -25.399    547.417    550.164    547.417    547.654    547.417
 23.670    577.000    550.424     26.576    547.099    550.184    547.099    547.340    547.099
 23.770    593.000    550.540     42.460    546.780    550.296    546.780    547.025    546.780
 23.870    595.708    550.789     44.920    546.460    550.541    546.460    546.710    546.460
 23.970    490.000    551.252    -61.252    546.140    551.000    546.140    546.394    546.140
 24.070    528.000    552.130    -24.130    545.819    551.874    545.819    546.079    545.819
 24.170    587.000    553.907     33.093    545.498    553.648    545.498    545.762    545.498
 24.270    559.000    557.580      1.420    545.176    557.318    545.176    545.446    545.176
 24.370    551.000    564.907    -13.907    544.853    564.644    544.853    545.129    544.853
 24.470    532.990    577.887    -44.897    544.531    577.628    544.531    544.813    544.531
 24.570    615.000    596.984     18.016    544.207    596.733    544.207    544.496    544.207
 24.670    584.220    618.349    -34.129    543.884    618.107    543.884    544.179    543.884
 24.770    590.617    632.061    -41.444    543.559    631.822    543.559    543.862    543.559
 24.870    657.485    628.578     28.907    543.235    628.329    543.235    543.545    543.235
 24.970    594.526    610.528    -16.003    542.910    610.259    542.910    543.228    542.910
 25.070    583.000    588.734     -5.734    542.585    588.441    542.585    542.911    542.585
 25.170    597.000    571.046     25.954    542.260    570.730    542.260    542.595    542.260
 25.270    547.185    559.580    -12.396    541.934    559.247    541.934    542.279    541.934
 25.370    568.576    553.154     15.422    541.608    552.806    541.608    541.963    541.608
 25.470    537.000    549.760    -12.760    541.282    549.399    541.282    541.647    541.282
 25.570    538.000    547.846     -9.846    540.956    547.472    540.956    541.333    540.956
 25.670    549.000    546.618      2.382    540.629    546.231    540.629    541.019    540.629
 25.770    566.000    545.726     20.274    540.303    545.325    540.303    540.705    540.303
 25.870    587.360    545.024     42.336    539.976    544.609    539.976    540.393    539.976
 25.970    537.142    544.453     -7.311    539.649    544.021    539.649    540.081    539.649
 26.070    521.053    543.990    -22.937    539.322    543.542    539.322    539.771    539.322
 26.170    514.000    543.598    -29.598    538.995    543.132    538.995    539.462    538.995
 26.270    564.000    543.262     20.738    538.668    542.777    538.668    539.154    538.668
 26.370    513.000    542.984    -29.984    538.342    542.477    538.342    538.849    538.342
 26.470    592.000    542.763     49.237    538.015    542.233    538.015    538.545    538.015
 26.570    518.000    542.598    -24.598    537.688    542.043    537.688    538.243    537.688
 26.670    539.000    542.494     -3.494    537.361    541.912    537.361    537.943    537.361
 26.770    550.000    542.460      7.540    537.035    541.848    537.035    537.647    537.035
 26.870    579.227    542.494     36.733    536.708    541.849    536.708    537.353    536.708
 26.970    574.000    542.620     31.380    536.382    541.939    536.382    537.064    536.382
 27.070    565.000    542.864     22.136    536.056    542.142    536.056    536.778    536.056
 27.170    535.292    543.260     -7.968    535.730    542.493    535.730    536.497    535.730
 27.270    502.885    543.860    -40.975    535.404    543.041    535.404    536.222    535.404
 27.370    588.000    544.740     43.260    535.079    543.865    535.079    535.953    535.079
 27.470    548.927    546.050      2.877    534.754    545.110    534.754    535.692    534.754
 27.570    574.000    548.178     25.822    534.429    547.165    534.429    535.439    534.429
 27.670    584.000    552.521     31.479    534.104    551.425    534.104    535.197    534.104
 27.770    552.000    563.832    -11.832    533.780    562.638    533.780    534.967    533.780
 27.870    606.000    594.097     11.903    533.456    592.784    533.456    534.752    533.456
 27.970    645.996    661.776    -15.780    533.133    660.316    533.133    534.555    533.133
 28.070    801.320    774.656     26.665    532.810    773.015    532.810    534.381    532.810
 28.170    949.029    900.264     48.765    532.487    898.419    532.487    534.235    532.487
 28.270    920.582    961.852    -41.270    532.165    959.798    532.165    534.126    532.165
 28.370    924.309    909.708     14.601    531.843    907.429    531.843    534.064    531.843
 28.470    846.186    797.514     48.672    531.522    794.947    531.522    534.066    531.522
 28.570    696.108    711.041    -14.933    531.201    708.079    531.201    534.153    531.201
 28.670    675.000    694.036    -19.036    530.881    690.551    530.881    534.352    530.881
 28.770    759.522    740.363     19.159    530.561    736.210    530.561    534.697    530.561
 28.870    842.000    808.955     33.045    530.242    803.957    530.242    535.229    530.242
 28.970    815.000    840.882    -25.882    529.923    834.818    529.923    535.991    529.923
 29.070    750.000    801.897    -51.897    529.605    794.492    529.605    537.024    529.605
 29.170    714.000    721.700     -7.700    529.287    712.648    529.287    538.353    529.287
 29.270    647.000    646.546      0.454    528.971    635.562    528.971    539.963    528.971
 29.370    576.000    597.906    -21.906    528.654    584.812    528.654    541.753    528.654
 29.470    608.942    573.911     35.032    528.339    558.771    528.339    543.479    528.339
 29.570    561.000    564.003     -3.003    528.024    547.288    528.024    544.738    528.024
 29.670    554.000    559.560     -5.560    527.710    542.185    527.710    545.084    527.710
 29.770    520.916    556.379    -35.463    527.397    539.478    527.397    544.295    527.397
 29.870    545.718    553.194     -7.476    527.084    537.738    527.084    542.537    527.084
 29.970    543.000    549.991     -6.991    526.772    536.524    526.772    540.237    526.772
 30.070    590.419    547.051     43.368    526.461    535.695    526.461    537.815    526.461
 30.170    538.000    544.627     -6.627    526.151    535.234    526.151    535.541    526.151
 30.270    498.651    542.968    -44.317    525.841    535.268    525.841    533.538    525.841
 30.370    538.000    542.575     -4.575    525.533    536.273    525.533    531.831    525.533
