neutron_powder_diffraction_0125
R_wp: 3.841
Temperature (K): 1011.849
Counts: 83765.00
Wavelength (Ã…): 2.52098
COMMENTS
Test file for demonstrating the .xyy file format in Reel1.0
END OF HEADER
   tth       Y_obs     Y_calc      Y_res    Background    Phase_1_Nuc    Phase_1_Mag    Phase_2_Nuc    Phase_2_Mag
  9.970    590.000    558.988     31.012    557.936    558.869    557.936    558.054    557.936
 10.070    579.000    559.431     19.569    558.298    559.312    558.298    558.416    558.298
 10.170    578.779    559.877     18.902    558.651    559.757    558.651    558.769    558.651
 10.270    582.000    560.327     21.673    558.994    560.207    558.994    559.114    558.994
 10.370    570.520    560.786      9.734    559.329    560.666    559.329    559.449    559.329
 10.470    589.000    561.257     27.743    559.655    561.136    559.655    559.776    559.655
 10.570    628.000    561.745     66.255    559.972    561.623    559.972    560.093    559.972
 10.670    553.000    562.257     -9.257    560.280    562.135    560.280    560.402    560.280
 10.770    571.435    562.802      8.633    560.580    562.679    560.580    560.702    560.580
 10.870    554.315    563.391     -9.077    560.871    563.268    560.871    560.993    560.871
 10.970    576.000    564.043     11.957    561.153    563.918    561.153    561.276    561.153
 11.070    597.000    564.779     32.221    561.427    564.654    561.427    561.551    561.427
 11.170    535.000    565.636    -30.636    561.693    565.510    561.693    561.817    561.693
 11.270    597.000    566.669     30.331    561.950    566.542    561.950    562.074    561.950
 11.370    540.554    567.977    -27.423    562.199    567.849    562.199    562.324    562.199
 11.470    569.429    569.783     -0.355    562.439    569.654    562.439    562.565    562.439
 11.570    608.680    572.628     36.052    562.672    572.496    562.672    562.798    562.672
 11.670    571.000    577.726     -6.726    562.897    577.591    562.897    563.023    562.897
 11.770    560.837    587.306    -26.469    563.113    587.165    563.113    563.240    563.113
 11.870    648.000    604.250     43.750    563.322    604.099    563.322    563.450    563.322
 11.970    589.867    630.190    -40.323    563.523    630.024    563.523    563.651    563.523
 12.070    680.000    661.831     18.169    563.716    661.647    563.716    563.845    563.716
 12.170    678.948    687.359     -8.410    563.901    687.160    563.901    564.031    563.901
 12.270    653.000    691.073    -38.073    564.079    690.872    564.079    564.209    564.079
 12.370    665.000    670.042     -5.042    564.249    669.852    564.249    564.380    564.249
 12.470    603.000    638.600    -35.600    564.412    638.428    564.412    564.543    564.412
 12.570    633.166    610.906     22.260    564.567    610.749    564.567    564.699    564.567
 12.670    591.000    592.123     -1.123    564.715    591.976    564.715    564.847    564.715
 12.770    584.000    581.389      2.611    564.856    581.247    564.856    564.989    564.856
 12.870    589.797    575.837     13.960    564.989    575.697    564.989    565.123    564.989
 12.970    600.058    572.976     27.082    565.115    572.837    565.115    565.250    565.115
 13.070    550.000    571.359    -21.359    565.235    571.221    565.235    565.370    565.235
 13.170    544.969    570.325    -25.357    565.347    570.187    565.347    565.482    565.347
 13.270    605.525    569.604     35.921    565.452    569.465    565.452    565.588    565.452
 13.370    574.532    569.077      5.456    565.550    568.938    565.550    565.687    565.550
 13.470    548.000    568.682    -20.682    565.642    568.543    565.642    565.780    565.642
 13.570    575.000    568.382      6.618    565.727    568.242    565.727    565.865    565.727
 13.670    571.768    568.150      3.618    565.805    568.010    565.805    565.944    565.805
 13.770    542.000    567.968    -25.968    565.876    567.828    565.876    566.016    565.876
 13.870    560.997    567.824     -6.827    565.941    567.683    565.941    566.082    565.941
 13.970    577.700    567.708      9.991    566.000    567.566    566.000    566.141    566.000
 14.070    563.461    567.613     -4.152    566.052    567.471    566.052    566.194    566.052
 14.170    570.000    567.534      2.466    566.098    567.391    566.098    566.240    566.098
 14.270    594.000    567.467     26.533    566.137    567.323    566.137    566.280    566.137
 14.370    571.000    567.410      3.590    566.170    567.265    566.170    566.314    566.170
 14.470    530.000    567.358    -37.358    566.197    567.213    566.197    566.342    566.197
 14.570    569.413    567.310      2.104    566.218    567.164    566.218    566.364    566.218
 14.670    584.424    567.263     17.161    566.233    567.117    566.233    566.379    566.233
 14.770    594.605    567.219     27.386    566.242    567.072    566.242    566.389    566.242
 14.870    531.000    567.175    -36.175    566.245    567.027    566.245    566.393    566.245
 14.970    608.000    567.132     40.868    566.242    566.983    566.242    566.391    566.242
 15.070    533.000    567.087    -34.087    566.233    566.937    566.233    566.383    566.233
 15.170    527.143    567.039    -39.896    566.219    566.889    566.219    566.369    566.219
 15.270    546.000    566.989    -20.989    566.199    566.838    566.199    566.350    566.199
 15.370    560.766    566.937     -6.171    566.173    566.785    566.173    566.325    566.173
 15.470    549.000    566.882    -17.882    566.142    566.729    566.142    566.294    566.142
 15.570    551.529    566.824    -15.295    566.105    566.670    566.105    566.259    566.105
 15.670    569.571    566.762      2.808    566.063    566.608    566.063    566.217    566.063
 15.770    562.535    566.698     -4.163    566.015    566.542    566.015    566.170    566.015
 15.870    510.000    566.629    -56.629    565.963    566.473    565.963    566.118    565.963
 15.970    536.000    566.557    -30.557    565.904    566.400    565.904    566.061    565.904
 16.070    571.977    566.481      5.496    565.841    566.323    565.841    565.999    565.841
 16.170    553.276    566.401    -13.125    565.773    566.243    565.773    565.931    565.773
 16.270    592.000    566.318     25.682    565.699    566.158    565.699    565.858    565.699
 16.370    592.000    566.230     25.770    565.620    566.069    565.620    565.781    565.620
 16.470    609.000    566.138     42.862    565.537    565.977    565.537    565.698    565.537
 16.570    538.000    566.043    -28.043    565.448    565.881    565.448    565.611    565.448
 16.670    565.000    565.950     -0.950    565.355    565.787    565.355    565.518    565.355
 16.770    578.000    565.866     12.134    565.257    565.702    565.257    565.421    565.257
 16.870    543.000    565.761    -22.761    565.154    565.595    565.154    565.319    565.154
 16.970    577.978    565.649     12.329    565.046    565.483    565.046    565.213    565.046
 17.070    577.000    565.534     11.466    564.934    565.366    564.934    565.101    564.934
 17.170    539.000    565.414    -26.414    564.817    565.245    564.817    564.986    564.817
 17.270    571.000    565.291      5.709    564.696    565.121    564.696    564.865    564.696
 17.370    536.312    565.163    -28.851    564.570    564.992    564.570    564.741    564.570
 17.470    577.000    565.032     11.968    564.440    564.860    564.440    564.612    564.440
 17.570    557.000    564.897     -7.897    564.305    564.724    564.305    564.478    564.305
 17.670    598.651    564.758     33.894    564.166    564.583    564.166    564.340    564.166
 17.770    559.000    564.615     -5.615    564.023    564.439    564.023    564.198    564.023
 17.870    524.992    564.468    -39.476    563.876    564.292    563.876    564.052    563.876
 17.970    586.030    564.318     21.712    563.724    564.140    563.724    563.902    563.724
 18.070    522.000    564.164    -42.164    563.569    563.986    563.569    563.748    563.569
 18.170    564.798    564.010      0.787    563.409    563.830    563.409    563.589    563.409
 18.270    531.135    563.849    -32.715    563.245    563.668    563.245    563.427    563.245
 18.370    605.749    563.685     42.065    563.078    563.502    563.078    563.260    563.078
 18.470    553.000    563.516    -10.516    562.906    563.332    562.906    563.090    562.906
 18.570    580.651    563.345     17.306    562.731    563.159    562.731    562.916    562.731
 18.670    603.110    563.170     39.941    562.552    562.983    562.552    562.739    562.552
 18.770    553.000    563.002    -10.002    562.369    562.814    562.369    562.557    562.369
 18.870    586.000    562.920     23.080    562.183    562.731    562.183    562.372    562.183
 18.970    545.000    562.746    -17.746    561.992    562.555    561.992    562.183    561.992
 19.070    550.000    562.563    -12.563    561.799    562.371    561.799    561.991    561.799
 19.170    572.618    562.374     10.244    561.601    562.180    561.601    561.795    561.601
 19.270    596.084    562.180     33.904    561.401    561.984    561.401    561.596    561.401
 19.370    527.000    561.983    -34.983    561.196    561.786    561.196    561.393    561.196
 19.470    537.000    561.783    -24.783    560.989    561.584    560.989    561.187    560.989
 19.570    497.000    561.580    -64.580    560.778    561.380    560.778    560.978    560.778
 19.670    585.000    561.374     23.626    560.564    561.172    560.564    560.766    560.564
 19.770    560.000    561.166     -1.166    560.346    560.962    560.346    560.550    560.346
 19.870    572.000    560.954     11.046    560.126    560.749    560.126    560.331    560.126
 19.970    521.000    560.741    -39.741    559.902    560.534    559.902    560.109    559.902
 20.070    566.000    560.525      5.475    559.675    560.316    559.675    559.884    559.675
 20.170    593.477    560.306     33.171    559.445    560.095    559.445    559.656    559.445
 20.270    599.000    560.085     38.915    559.212    559.873    559.212    559.424    559.212
 20.370    523.477    559.866    -36.389    558.976    559.651    558.976    559.190    558.976
 20.470    547.649    559.672    -12.022    558.737    559.455    558.737    558.954    558.737
 20.570    551.000    559.483     -8.483    558.495    559.264    558.495    558.714    558.495
 20.670    544.000    559.257    -15.257    558.251    559.036    558.251    558.471    558.251
 20.770    521.788    559.026    -37.238    558.003    558.803    558.003    558.226    558.003
 20.870    588.000    558.793     29.207    557.753    558.569    557.753    557.978    557.753
 20.970    585.294    558.559     26.735    557.501    558.332    557.501    557.728    557.501
 21.070    574.000    558.324     15.676    557.245    558.094    557.245    557.475    557.245
 21.170    575.000    558.088     16.912    556.987    557.856    556.987    557.219    556.987
 21.270    581.462    557.853     23.609    556.726    557.618    556.726    556.961    556.726
 21.370    571.758    557.614     14.145    556.463    557.377    556.463    556.700    556.463
 21.470    594.000    557.374     36.626    556.198    557.134    556.198    556.437    556.198
 21.570    525.162    557.134    -31.972    555.930    556.892    555.930    556.172    555.930
 21.670    532.000    556.904    -24.904    555.659    556.659    555.659    555.904    555.659
 21.770    552.641    556.700     -4.059    555.387    556.453    555.387    555.634    555.387
 21.870    561.113    556.464      4.650    555.112    556.213    555.112    555.362    555.112
 21.970    554.109    556.224     -2.115    554.834    555.971    554.834    555.088    554.834
 22.070    566.000    555.986     10.014    554.555    555.729    554.555    554.812    554.555
 22.170    551.181    555.754     -4.573    554.273    555.494    554.273    554.533    554.273
 22.270    569.000    555.526     13.474    553.989    555.263    553.989    554.253    553.989
 22.370    572.000    555.304     16.696    553.703    555.038    553.703    553.970    553.703
 22.470    539.000    555.091    -16.091    553.416    554.821    553.416    553.686    553.416
 22.570    597.000    554.869     42.131    553.126    554.595    553.126    553.399    553.126
 22.670    555.000    554.657      0.343    552.834    554.379    552.834    553.111    552.834
 22.770    542.665    554.451    -11.786    552.540    554.170    552.540    552.821    552.540
 22.870    554.000    554.250     -0.250    552.244    553.965    552.244    552.529    552.244
 22.970    573.000    554.059     18.941    551.946    553.770    551.946    552.236    551.946
 23.070    516.297    553.883    -37.586    551.647    553.589    551.647    551.941    551.647
 23.170    522.000    553.724    -31.724    551.346    553.426    551.346    551.644    551.346
 23.270    592.144    553.589     38.555    551.043    553.287    551.043    551.346    551.043
 23.370    569.000    553.492     15.508    550.738    553.185    550.738    551.046    550.738
 23.470    551.000    553.442     -2.442    550.432    553.130    550.432    550.745    550.432
 23.570    548.000    553.442     -5.442    550.124    553.125    550.124    550.443    550.124
 23.670    562.000    553.505      8.495    549.815    553.183    549.815    550.139    549.815
 23.770    574.000    553.650     20.350    549.504    553.323    549.504    549.833    549.504
 23.870    533.095    553.940    -20.845    549.191    553.606    549.191    549.527    549.191
 23.970    562.000    554.479      7.521    548.877    554.140    548.877    549.219    548.877
 24.070    529.000    555.377    -26.377    548.562    555.032    548.562    548.910    548.562
 24.170    599.179    557.101     42.078    548.245    556.750    548.245    548.600    548.245
 24.270    581.000    560.556     20.444    547.927    560.201    547.927    548.290    547.927
 24.370    596.000    567.228     28.772    547.607    566.870    547.607    547.978    547.607
 24.470    628.000    578.852     49.148    547.286    578.495    547.286    547.665    547.286
 24.570    629.000    595.970     33.030    546.964    595.617    546.964    547.351    546.964
 24.670    618.000    615.854      2.146    546.641    615.506    546.641    547.037    546.641
 24.770    601.000    630.617    -29.617    546.317    630.271    546.317    546.722    546.317
 24.870    634.000    631.006      2.994    545.991    630.651    545.991    546.406    545.991
 24.970    584.000    616.510    -32.510    545.664    616.134    545.664    546.090    545.664
 25.070    640.467    596.094     44.373    545.337    595.693    545.337    545.773    545.337
 25.170    564.000    578.072    -14.072    545.008    577.647    545.008    545.456    545.008
 25.270    592.000    565.537     26.463    544.678    565.090    544.678    545.138    544.678
 25.370    565.000    558.040      6.960    544.347    557.574    544.347    544.821    544.347
 25.470    572.000    553.904     18.096    544.016    553.422    544.016    544.503    544.016
 25.570    543.000    551.584     -8.584    543.683    551.085    543.683    544.185    543.683
 25.670    558.722    550.137      8.585    543.350    549.622    543.350    543.868    543.350
 25.770    597.000    549.116     47.884    543.015    548.583    543.015    543.551    543.015
 25.870    646.000    548.329     97.671    542.680    547.777    542.680    543.234    542.680
 25.970    507.407    547.694    -40.286    542.344    547.122    542.344    542.917    542.344
 26.070    551.000    547.170      3.830    542.007    546.577    542.007    542.602    542.007
 26.170    535.000    546.730    -11.730    541.670    546.114    541.670    542.287    541.670
 26.270    567.606    546.361     21.245    541.332    545.720    541.332    541.973    541.332
 26.370    539.000    546.055     -7.055    540.993    545.387    540.993    541.661    540.993
 26.470    582.715    545.807     36.909    540.654    545.111    540.654    541.351    540.654
 26.570    504.000    545.617    -41.617    540.314    544.889    540.314    541.042    540.314
 26.670    553.000    545.487      7.513    539.974    544.726    539.974    540.735    539.974
 26.770    544.000    545.425     -1.425    539.633    544.627    539.633    540.432    539.633
 26.870    530.000    545.443    -15.443    539.291    544.603    539.291    540.131    539.291
 26.970    551.000    545.552      5.448    538.949    544.668    538.949    539.833    538.949
 27.070    552.000    545.776      6.224    538.607    544.843    538.607    539.540    538.607
 27.170    527.475    546.149    -18.675    538.264    545.161    538.264    539.252    538.264
 27.270    602.000    546.721     55.279    537.921    545.672    537.921    538.969    537.921
 27.370    549.000    547.568      1.432    537.578    546.452    537.578    538.693    537.578
 27.470    605.000    548.832     56.168    537.234    547.640    537.234    538.425    537.234
 27.570    551.000    550.887      0.113    536.890    549.609    536.890    538.165    536.890
 27.670    540.310    555.045    -14.736    536.545    553.670    536.545    537.917    536.545
 27.770    595.000    565.701     29.299    536.201    564.213    536.201    537.681    536.201
 27.870    595.000    593.819      1.181    535.856    592.197    535.856    537.461    535.856
 27.970    622.538    656.460    -33.922    535.511    654.674    535.511    537.258    535.511
 28.070    805.236    761.987     43.249    535.166    760.005    535.166    537.078    535.166
 28.170    897.000    883.479     13.521    534.821    881.281    534.821    536.922    534.821
 28.270    953.000    952.270      0.730    534.475    949.852    534.475    536.797    534.475
 28.370    890.000    916.860    -26.860    534.130    914.220    534.130    536.707    534.130
 28.470    774.113    815.347    -41.234    533.785    812.445    533.785    536.658    533.785
 28.570    761.707    726.749     34.957    533.439    723.521    533.439    536.658    533.439
 28.670    708.000    699.636      8.364    533.094    696.008    533.094    536.711    533.094
 28.770    745.000    735.043      9.957    532.748    730.948    532.748    536.824    532.748
 28.870    794.000    797.882     -3.882    532.403    793.261    532.403    537.002    532.403
 28.970    785.717    833.309    -47.592    532.058    828.106    532.058    537.247    532.058
 29.070    803.363    804.457     -1.094    531.713    798.620    531.713    537.553    531.713
 29.170    700.000    731.251    -31.251    531.368    724.727    531.368    537.905    531.368
 29.270    631.616    655.985    -24.369    531.023    648.747    531.023    538.276    531.023
 29.370    639.777    602.883     36.894    530.678    594.954    530.678    538.617    530.678
 29.470    550.000    573.870    -23.870    530.334    565.344    530.334    538.866    530.334
 29.570    577.000    560.491     16.509    529.990    551.533    529.990    538.950    529.990
 29.670    563.741    554.487      9.254    529.646    545.327    529.646    538.807    529.646
 29.770    520.619    551.268    -30.649    529.302    542.166    529.302    538.406    529.302
 29.870    579.000    549.016     29.984    528.959    540.219    528.959    537.756    528.959
 29.970    581.000    547.172     33.828    528.616    538.883    528.616    536.906    528.616
 30.070    562.000    545.616     16.384    528.274    537.966    528.274    535.923    528.274
 30.170    537.000    544.383     -7.383    527.932    537.435    527.932    534.879    527.932
 30.270    563.000    543.652     19.348    527.590    537.412    527.590    533.828    527.590
 30.370    547.000    543.894      3.106    527.248    538.329    527.248    532.811    527.248
