neutron_powder_diffraction_0235
R_wp: 4.047
Temperature (K): 1031.714
Counts: 83900.00
Wavelength (Ã…): 2.52098
COMMENTS
Test file for demonstrating the .xyy file format in Reel1.0
END OF HEADER
   tth       Y_obs     Y_calc      Y_res    Background    Phase_1_Nuc    Phase_1_Mag    Phase_2_Nuc    Phase_2_Mag
  9.970    600.000    566.627     33.373    566.082    566.596    566.082    566.113    566.082
 10.070    615.000    566.868     48.132    566.277    566.836    566.277    566.309    566.277
 10.170    616.000    567.110     48.890    566.466    567.078    566.466    566.497    566.466
 10.270    563.000    567.366     -4.366    566.647    567.334    566.647    566.679    566.647
 10.370    569.000    567.616      1.384    566.822    567.583    566.822    566.855    566.822
 10.470    543.000    567.866    -24.866    566.990    567.832    566.990    567.024    566.990
 10.570    583.000    568.123     14.877    567.151    568.089    567.151    567.185    567.151
 10.670    599.522    568.393     31.129    567.305    568.357    567.305    567.340    567.305
 10.770    605.000    568.679     36.321    567.453    568.643    567.453    567.489    567.453
 10.870    591.000    568.989     22.011    567.593    568.952    567.593    567.630    567.593
 10.970    579.000    569.333      9.667    567.728    569.295    567.728    567.765    567.728
 11.070    553.000    569.734    -16.734    567.855    569.686    567.855    567.902    567.855
 11.170    623.000    570.198     52.802    567.977    570.145    567.977    568.028    567.977
 11.270    610.000    570.757     39.243    568.091    570.704    568.091    568.143    568.091
 11.370    549.741    571.467    -21.725    568.200    571.413    568.200    568.252    568.200
 11.470    633.000    572.436     60.564    568.302    572.382    568.302    568.354    568.302
 11.570    601.000    573.974     27.026    568.398    573.918    568.398    568.451    568.398
 11.670    597.000    577.055     19.945    568.488    576.998    568.488    568.541    568.488
 11.770    624.051    584.285     39.766    568.572    584.223    568.572    568.625    568.572
 11.870    638.000    600.530     37.470    568.649    600.459    568.649    568.703    568.649
 11.970    653.000    630.568     22.432    568.721    630.480    568.721    568.775    568.721
 12.070    727.998    671.761     56.237    568.787    671.646    568.787    568.845    568.787
 12.170    703.196    706.487     -3.290    568.846    706.350    568.846    568.908    568.846
 12.270    698.000    710.272    -12.272    568.900    710.133    568.900    568.962    568.900
 12.370    651.000    679.653    -28.653    568.948    679.530    568.948    569.010    568.948
 12.470    611.000    637.700    -26.700    568.991    637.600    568.991    569.053    568.991
 12.570    599.000    605.059     -6.059    569.028    604.977    569.028    569.090    569.028
 12.670    613.000    586.713     26.287    569.059    586.641    569.059    569.122    569.059
 12.770    544.581    578.458    -33.877    569.084    578.390    569.084    569.148    569.084
 12.870    554.000    575.049    -21.049    569.105    574.982    569.105    569.168    569.105
 12.970    579.000    573.471      5.529    569.119    573.405    569.119    569.183    569.119
 13.070    533.000    572.552    -39.552    569.128    572.486    569.128    569.193    569.128
 13.170    589.892    571.922     17.970    569.132    571.856    569.132    569.197    569.132
 13.270    597.000    571.457     25.543    569.131    571.391    569.131    569.196    569.131
 13.370    570.000    571.099     -1.099    569.124    571.032    569.124    569.189    569.124
 13.470    566.000    570.814     -4.814    569.112    570.748    569.112    569.178    569.112
 13.570    542.000    570.583    -28.583    569.095    570.516    569.095    569.161    569.095
 13.670    537.000    570.388    -33.388    569.073    570.321    569.073    569.140    569.073
 13.770    529.963    570.220    -40.257    569.046    570.153    569.046    569.113    569.046
 13.870    534.000    570.073    -36.073    569.014    570.005    569.014    569.082    569.014
 13.970    608.992    569.942     39.050    568.977    569.872    568.977    569.047    568.977
 14.070    560.132    569.820     -9.688    568.936    569.748    568.936    569.007    568.936
 14.170    575.312    569.706      5.606    568.889    569.633    568.889    568.962    568.889
 14.270    570.045    569.596      0.449    568.837    569.522    568.837    568.911    568.837
 14.370    537.000    569.490    -32.490    568.781    569.415    568.781    568.856    568.781
 14.470    618.979    569.386     49.594    568.721    569.310    568.721    568.796    568.721
 14.570    536.949    569.282    -32.333    568.655    569.206    568.655    568.731    568.655
 14.670    593.000    569.179     23.821    568.585    569.103    568.585    568.661    568.585
 14.770    569.000    569.076     -0.076    568.511    568.999    568.511    568.587    568.511
 14.870    536.000    568.971    -32.971    568.432    568.894    568.432    568.509    568.432
 14.970    505.000    568.865    -63.865    568.348    568.787    568.348    568.426    568.348
 15.070    517.754    568.757    -51.003    568.260    568.679    568.260    568.338    568.260
 15.170    514.000    568.649    -54.649    568.168    568.571    568.168    568.247    568.168
 15.270    568.000    568.539     -0.539    568.072    568.461    568.072    568.151    568.072
 15.370    565.323    568.425     -3.102    567.971    568.346    567.971    568.050    567.971
 15.470    568.000    568.308     -0.308    567.866    568.228    567.866    567.946    567.866
 15.570    519.565    568.187    -48.623    567.758    568.107    567.758    567.838    567.758
 15.670    626.000    568.064     57.936    567.645    567.984    567.645    567.725    567.645
 15.770    574.000    567.939      6.061    567.528    567.857    567.528    567.609    567.528
 15.870    582.000    567.811     14.189    567.407    567.729    567.407    567.488    567.407
 15.970    579.000    567.680     11.320    567.282    567.598    567.282    567.364    567.282
 16.070    542.000    567.545    -25.545    567.153    567.463    567.153    567.235    567.153
 16.170    555.000    567.407    -12.407    567.020    567.324    567.020    567.103    567.020
 16.270    555.000    567.266    -12.266    566.883    567.182    566.883    566.967    566.883
 16.370    558.000    567.121     -9.121    566.743    567.037    566.743    566.827    566.743
 16.470    542.323    566.975    -24.652    566.599    566.889    566.599    566.685    566.599
 16.570    560.000    566.825     -6.825    566.452    566.737    566.452    566.539    566.452
 16.670    521.611    566.671    -45.060    566.300    566.583    566.300    566.388    566.300
 16.770    583.000    566.514     16.486    566.146    566.425    566.146    566.234    566.146
 16.870    537.524    566.353    -28.830    565.987    566.265    565.987    566.076    565.987
 16.970    541.000    566.190    -25.190    565.825    566.101    565.825    565.915    565.825
 17.070    548.000    566.024    -18.024    565.660    565.934    565.660    565.750    565.660
 17.170    545.000    565.854    -20.854    565.491    565.764    565.491    565.582    565.491
 17.270    556.961    565.682     -8.721    565.319    565.591    565.319    565.410    565.319
 17.370    595.192    565.507     29.686    565.144    565.415    565.144    565.236    565.144
 17.470    615.435    565.328     50.107    564.965    565.236    564.965    565.058    564.965
 17.570    542.000    565.147    -23.147    564.784    565.054    564.784    564.877    564.784
 17.670    568.000    564.963      3.037    564.599    564.869    564.599    564.692    564.599
 17.770    571.952    564.776      7.176    564.410    564.682    564.410    564.505    564.410
 17.870    530.245    564.588    -34.342    564.219    564.493    564.219    564.314    564.219
 17.970    599.000    564.396     34.604    564.025    564.300    564.025    564.121    564.025
 18.070    572.617    564.201      8.416    563.828    564.104    563.828    563.924    563.828
 18.170    543.000    564.003    -21.003    563.627    563.906    563.627    563.724    563.627
 18.270    580.000    563.802     16.198    563.424    563.704    563.424    563.522    563.424
 18.370    558.000    563.599     -5.599    563.218    563.500    563.218    563.317    563.218
 18.470    547.000    563.393    -16.393    563.009    563.293    563.009    563.108    563.009
 18.570    585.000    563.184     21.816    562.797    563.084    562.797    562.898    562.797
 18.670    480.000    562.976    -82.976    562.583    562.872    562.583    562.687    562.583
 18.770    558.000    562.767     -4.767    562.366    562.658    562.366    562.475    562.366
 18.870    517.639    562.551    -44.912    562.146    562.441    562.146    562.256    562.146
 18.970    598.789    562.333     36.455    561.923    562.222    561.923    562.034    561.923
 19.070    507.000    562.113    -55.113    561.698    562.001    561.698    561.810    561.698
 19.170    597.000    561.890     35.110    561.470    561.778    561.470    561.583    561.470
 19.270    609.134    561.665     47.469    561.240    561.552    561.240    561.354    561.240
 19.370    608.585    561.438     47.147    561.007    561.323    561.007    561.122    561.007
 19.470    556.000    561.208     -5.208    560.772    561.093    560.772    560.888    560.772
 19.570    585.095    560.977     24.119    560.535    560.860    560.535    560.651    560.535
 19.670    596.150    560.744     35.407    560.295    560.626    560.295    560.412    560.295
 19.770    535.000    560.508    -25.508    560.053    560.389    560.053    560.171    560.053
 19.870    511.000    560.271    -49.271    559.808    560.151    559.808    559.928    559.808
 19.970    565.649    560.033      5.616    559.561    559.912    559.561    559.682    559.561
 20.070    560.497    559.792      0.705    559.312    559.670    559.312    559.434    559.312
 20.170    587.000    559.549     27.451    559.061    559.426    559.061    559.184    559.061
 20.270    551.000    559.304     -8.304    558.808    559.180    558.808    558.932    558.808
 20.370    558.000    559.058     -1.058    558.552    558.933    558.552    558.677    558.552
 20.470    548.000    558.819    -10.819    558.295    558.693    558.295    558.421    558.295
 20.570    607.340    558.584     48.756    558.035    558.456    558.035    558.163    558.035
 20.670    578.412    558.334     20.078    557.774    558.206    557.774    557.903    557.774
 20.770    586.000    558.082     27.918    557.510    557.952    557.510    557.640    557.510
 20.870    579.000    557.829     21.171    557.245    557.698    557.245    557.376    557.245
 20.970    526.000    557.575    -31.575    556.978    557.442    556.978    557.110    556.978
 21.070    549.000    557.319     -8.319    556.709    557.185    556.709    556.843    556.709
 21.170    564.000    557.063      6.937    556.438    556.927    556.438    556.573    556.438
 21.270    616.000    556.805     59.195    556.165    556.668    556.165    556.302    556.165
 21.370    577.957    556.547     21.410    555.891    556.409    555.891    556.029    555.891
 21.470    533.174    556.288    -23.114    555.614    556.149    555.614    555.754    555.614
 21.570    569.000    556.029     12.971    555.337    555.888    555.337    555.478    555.337
 21.670    591.000    555.774     35.226    555.057    555.631    555.057    555.200    555.057
 21.770    570.276    555.568     14.708    554.776    555.423    554.776    554.921    554.776
 21.870    563.000    555.416      7.584    554.493    555.270    554.493    554.640    554.493
 21.970    560.000    555.168      4.832    554.209    555.019    554.209    554.357    554.209
 22.070    518.623    554.909    -36.286    553.924    554.759    553.924    554.074    553.924
 22.170    582.314    554.652     27.662    553.636    554.500    553.636    553.788    553.636
 22.270    528.000    554.396    -26.396    553.348    554.242    553.348    553.502    553.348
 22.370    602.831    554.141     48.690    553.058    553.986    553.058    553.214    553.058
 22.470    550.000    553.889     -3.889    552.766    553.731    552.766    552.924    552.766
 22.570    512.266    553.639    -41.374    552.474    553.479    552.474    552.634    552.474
 22.670    581.000    553.395     27.605    552.180    553.231    552.180    552.344    552.180
 22.770    538.000    553.154    -15.154    551.884    552.986    551.884    552.053    551.884
 22.870    551.305    552.922     -1.616    551.588    552.751    551.588    551.759    551.588
 22.970    542.682    552.730    -10.048    551.290    552.557    551.290    551.464    551.290
 23.070    569.000    552.538     16.462    550.991    552.362    550.991    551.167    550.991
 23.170    554.000    552.330      1.670    550.691    552.152    550.691    550.870    550.691
 23.270    577.443    552.134     25.309    550.390    551.952    550.390    550.571    550.390
 23.370    550.000    551.954     -1.954    550.087    551.770    550.087    550.272    550.087
 23.470    556.813    551.798      5.014    549.784    551.611    549.784    549.972    549.784
 23.570    553.000    551.674      1.326    549.480    551.483    549.480    549.671    549.480
 23.670    542.000    551.590     -9.590    549.174    551.397    549.174    549.369    549.174
 23.770    513.000    551.562    -38.562    548.868    551.365    548.868    549.066    548.868
 23.870    546.000    551.613     -5.613    548.561    551.413    548.561    548.762    548.561
 23.970    587.657    551.786     35.871    548.252    551.583    548.252    548.458    548.252
 24.070    539.000    552.179    -13.179    547.943    551.971    547.943    548.153    547.943
 24.170    566.000    553.075     12.925    547.633    552.864    547.633    547.847    547.633
 24.270    550.000    555.310     -5.310    547.323    555.097    547.323    547.541    547.323
 24.370    557.000    560.844     -3.844    547.011    560.630    547.011    547.234    547.011
 24.470    579.323    572.786      6.537    546.699    572.576    546.699    546.926    546.699
 24.570    590.000    593.343     -3.343    546.386    593.143    546.386    546.619    546.386
 24.670    601.000    619.312    -18.312    546.072    619.126    546.072    546.310    546.072
 24.770    605.679    638.665    -32.986    545.758    638.487    545.758    546.002    545.758
 24.870    633.000    637.611     -4.611    545.443    637.427    545.443    545.693    545.443
 24.970    557.000    616.849    -59.849    545.127    616.644    545.127    545.383    545.127
 25.070    606.000    590.490     15.510    544.811    590.258    544.811    545.074    544.811
 25.170    590.000    569.987     20.013    544.494    569.734    544.494    544.764    544.494
 25.270    599.000    558.040     40.960    544.176    557.770    544.176    544.455    544.176
 25.370    562.000    552.272      9.728    543.858    551.990    543.858    544.145    543.858
 25.470    540.000    549.660     -9.660    543.540    549.368    543.540    543.835    543.540
 25.570    554.607    548.323      6.285    543.221    548.020    543.221    543.526    543.221
 25.670    583.000    547.458     35.542    542.902    547.145    542.902    543.217    542.902
 25.770    539.000    546.807     -7.807    542.582    546.483    542.582    542.908    542.582
 25.870    571.000    546.285     24.715    542.262    545.949    542.262    542.599    542.262
 25.970    538.000    545.857     -7.857    541.942    545.508    541.942    542.291    541.942
 26.070    520.000    545.500    -25.500    541.621    545.138    541.621    541.984    541.621
 26.170    509.305    545.202    -35.897    541.300    544.825    541.300    541.677    541.300
 26.270    501.000    544.953    -43.953    540.979    544.560    540.979    541.372    540.979
 26.370    574.000    544.753     29.247    540.657    544.342    540.657    541.067    540.657
 26.470    501.588    544.601    -43.013    540.335    544.172    540.335    540.764    540.335
 26.570    596.000    544.502     51.498    540.013    544.052    540.013    540.463    540.013
 26.670    561.054    544.461     16.593    539.691    543.989    539.691    540.163    539.691
 26.770    572.476    544.489     27.987    539.369    543.993    539.369    539.865    539.369
 26.870    551.000    544.614      6.386    539.046    544.090    539.046    539.570    539.046
 26.970    497.908    544.859    -46.951    538.724    544.305    538.724    539.277    538.724
 27.070    576.000    545.202     30.798    538.401    544.614    538.401    538.988    538.401
 27.170    542.070    545.713     -3.643    538.078    545.087    538.078    538.703    538.078
 27.270    549.000    546.454      2.546    537.755    545.787    537.755    538.422    537.755
 27.370    582.000    547.531     34.469    537.433    546.815    537.433    538.146    537.433
 27.470    571.000    549.092     21.908    537.110    548.323    537.110    537.877    537.110
 27.570    510.909    551.568    -40.659    536.787    550.737    536.787    537.615    536.787
 27.670    535.000    556.402    -21.402    536.465    555.500    536.465    537.362    536.465
 27.770    573.000    568.177      4.823    536.142    567.191    536.142    537.120    536.142
 27.870    619.000    598.019     20.981    535.819    596.929    535.819    536.891    535.819
 27.970    662.000    662.595     -0.595    535.497    661.375    535.497    536.677    535.497
 28.070    775.000    769.427      5.573    535.175    768.048    535.175    536.484    535.175
 28.170    930.000    890.734     39.266    534.853    889.176    534.853    536.315    534.853
 28.270    987.000    956.421     30.579    534.531    954.680    534.531    536.177    534.531
 28.370    968.000    915.289     52.711    534.209    913.358    534.209    536.079    534.209
 28.470    836.000    810.859     25.141    533.888    808.686    533.888    536.035    533.888
 28.570    669.000    723.487    -54.487    533.567    720.979    533.567    536.064    533.567
 28.670    713.000    699.936     13.064    533.246    696.968    533.246    536.203    533.246
 28.770    715.000    740.643    -25.643    532.925    737.036    532.925    536.513    532.925
 28.870    791.504    809.117    -17.613    532.605    804.592    532.605    537.105    532.605
 28.970    871.728    846.049     25.679    532.285    840.151    532.285    538.167    532.285
 29.070    833.000    812.381     20.619    531.965    804.375    531.965    539.972    531.965
 29.170    709.000    734.393    -25.393    531.646    723.191    531.646    542.860    531.646
 29.270    643.244    659.787    -16.543    531.327    643.988    531.327    547.139    531.327
 29.370    601.000    612.620    -11.620    531.009    590.738    531.009    552.898    531.009
 29.470    558.798    591.941    -33.143    530.691    562.964    530.691    559.670    530.691
 29.570    623.000    586.103     36.897    530.373    550.553    530.373    565.922    530.373
 29.670    637.000    583.996     53.004    530.056    545.000    530.056    569.050    530.056
 29.770    530.691    579.514    -48.823    529.740    542.053    529.740    567.198    529.740
 29.870    616.000    572.022     43.978    529.424    540.155    529.424    561.288    529.424
 29.970    571.323    563.594      7.729    529.108    538.813    529.108    553.887    529.108
 30.070    537.449    556.070    -18.621    528.793    537.866    528.793    546.995    528.793
 30.170    598.592    550.259     48.333    528.479    537.271    528.479    541.464    528.479
 30.270    565.778    546.348     19.430    528.165    537.115    528.165    537.395    528.165
 30.370    553.000    544.486      8.514    527.852    537.790    527.852    534.544    527.852
