neutron_powder_diffraction_0166
R_wp: 3.836
Temperature (K): 1074.000
Counts: 83929.00
Wavelength (Ã…): 2.52098
COMMENTS
Test file for demonstrating the .xyy file format in Reel1.0
END OF HEADER
   tth       Y_obs     Y_calc      Y_res    Background    Phase_1_Nuc    Phase_1_Mag    Phase_2_Nuc    Phase_2_Mag
  9.970    616.000    576.914     39.086    576.194    576.891    576.194    576.216    576.194
 10.070    587.000    576.956     10.044    576.176    576.933    576.176    576.198    576.176
 10.170    590.000    577.003     12.997    576.153    576.980    576.153    576.176    576.153
 10.270    619.360    577.056     42.304    576.126    577.032    576.126    576.149    576.126
 10.370    614.000    577.117     36.883    576.093    577.093    576.093    576.117    576.093
 10.470    571.000    577.190     -6.190    576.057    577.165    576.057    576.081    576.057
 10.570    617.000    577.278     39.722    576.015    577.252    576.015    576.040    576.015
 10.670    622.735    577.386     45.350    575.969    577.359    575.969    575.994    575.969
 10.770    602.000    577.520     24.480    575.918    577.494    575.918    575.944    575.918
 10.870    549.000    577.693    -28.693    575.863    577.666    575.863    575.889    575.863
 10.970    577.000    577.915     -0.915    575.804    577.888    575.804    575.830    575.804
 11.070    615.000    578.214     36.786    575.740    578.177    575.740    575.775    575.740
 11.170    540.000    578.600    -38.600    575.672    578.562    575.672    575.708    575.672
 11.270    613.000    579.123     33.877    575.599    579.084    575.599    575.636    575.599
 11.370    612.314    579.858     32.456    575.522    579.819    575.522    575.559    575.522
 11.470    572.000    580.969     -8.969    575.441    580.929    575.441    575.478    575.441
 11.570    599.000    582.903     16.097    575.356    582.861    575.356    575.393    575.356
 11.670    559.369    586.868    -27.499    575.267    586.824    575.267    575.304    575.267
 11.770    590.794    595.513     -4.719    575.174    595.464    575.174    575.211    575.174
 11.870    587.747    612.868    -25.121    575.076    612.808    575.076    575.114    575.076
 11.970    674.997    641.787     33.210    574.975    641.706    574.975    575.017    574.975
 12.070    651.000    678.324    -27.324    574.870    678.221    574.870    574.913    574.870
 12.170    702.000    706.752     -4.752    574.761    706.633    574.761    574.804    574.761
 12.270    742.096    707.566     34.530    574.648    707.445    574.648    574.691    574.648
 12.370    690.809    679.944     10.865    574.531    679.839    574.531    574.575    574.531
 12.470    659.000    643.047     15.953    574.410    642.963    574.410    574.454    574.410
 12.570    643.350    613.287     30.063    574.286    613.221    574.286    574.330    574.286
 12.670    637.680    595.140     42.540    574.158    595.084    574.158    574.202    574.158
 12.770    560.962    585.934    -24.972    574.026    585.883    574.026    574.071    574.026
 12.870    551.705    581.594    -29.889    573.891    581.545    573.891    573.936    573.891
 12.970    567.000    579.378    -12.378    573.753    579.329    573.753    573.798    573.753
 13.070    578.295    578.020      0.275    573.610    577.972    573.610    573.656    573.610
 13.170    594.000    577.051     16.949    573.465    577.004    573.465    573.510    573.465
 13.270    565.000    576.300    -11.300    573.316    576.253    573.316    573.361    573.316
 13.370    565.000    575.690    -10.690    573.163    575.643    573.163    573.209    573.163
 13.470    588.000    575.179     12.821    573.007    575.132    573.007    573.054    573.007
 13.570    568.651    574.739     -6.088    572.848    574.691    572.848    572.895    572.848
 13.670    598.000    574.351     23.649    572.686    574.303    572.686    572.733    572.686
 13.770    560.000    574.003    -14.003    572.520    573.955    572.520    572.567    572.520
 13.870    599.000    573.682     25.318    572.351    573.633    572.351    572.399    572.351
 13.970    578.000    573.385      4.615    572.180    573.334    572.180    572.230    572.180
 14.070    580.000    573.103      6.897    572.005    573.052    572.005    572.055    572.005
 14.170    589.000    572.837     16.163    571.827    572.785    571.827    571.878    571.827
 14.270    520.000    572.580    -52.580    571.645    572.527    571.645    571.698    571.645
 14.370    557.228    572.329    -15.101    571.461    572.276    571.461    571.514    571.461
 14.470    588.066    572.084     15.982    571.274    572.030    571.274    571.328    571.274
 14.570    548.000    571.843    -23.843    571.085    571.789    571.085    571.138    571.085
 14.670    520.000    571.606    -51.606    570.892    571.552    570.892    570.946    570.892
 14.770    562.000    571.371     -9.371    570.696    571.317    570.696    570.750    570.696
 14.870    581.000    571.138      9.862    570.498    571.084    570.498    570.552    570.498
 14.970    548.157    570.906    -22.749    570.297    570.852    570.297    570.352    570.297
 15.070    591.000    570.675     20.325    570.093    570.620    570.093    570.148    570.093
 15.170    526.928    570.445    -43.516    569.887    570.389    569.887    569.942    569.887
 15.270    581.000    570.214     10.786    569.678    570.158    569.678    569.733    569.678
 15.370    553.613    569.983    -16.370    569.466    569.926    569.466    569.522    569.466
 15.470    558.092    569.751    -11.659    569.252    569.694    569.252    569.308    569.252
 15.570    537.339    569.518    -32.179    569.035    569.462    569.035    569.091    569.035
 15.670    593.000    569.285     23.715    568.816    569.228    568.816    568.872    568.816
 15.770    553.000    569.051    -16.051    568.594    568.993    568.594    568.651    568.594
 15.870    571.000    568.815      2.185    568.370    568.757    568.370    568.427    568.370
 15.970    578.000    568.578      9.422    568.143    568.520    568.143    568.201    568.143
 16.070    548.847    568.341    -19.493    567.914    568.282    567.914    567.973    567.914
 16.170    548.000    568.101    -20.101    567.683    568.043    567.683    567.742    567.683
 16.270    522.107    567.860    -45.754    567.450    567.801    567.450    567.509    567.450
 16.370    556.000    567.618    -11.618    567.214    567.559    567.214    567.274    567.214
 16.470    586.735    567.376     19.360    566.977    567.315    566.977    567.038    566.977
 16.570    577.000    567.131      9.869    566.737    567.069    566.737    566.798    566.737
 16.670    557.000    566.886     -9.886    566.494    566.824    566.494    566.556    566.494
 16.770    524.000    566.639    -42.639    566.250    566.576    566.250    566.313    566.250
 16.870    570.000    566.389      3.611    566.004    566.326    566.004    566.067    566.004
 16.970    554.000    566.138    -12.138    565.756    566.074    565.756    565.819    565.756
 17.070    564.599    565.885     -1.286    565.506    565.821    565.506    565.569    565.506
 17.170    534.000    565.630    -31.630    565.253    565.566    565.253    565.317    565.253
 17.270    535.000    565.375    -30.375    564.999    565.310    564.999    565.063    564.999
 17.370    520.823    565.117    -44.294    564.743    565.052    564.743    564.808    564.743
 17.470    580.000    564.858     15.142    564.485    564.793    564.485    564.550    564.485
 17.570    549.000    564.599    -15.599    564.226    564.533    564.226    564.291    564.226
 17.670    570.000    564.338      5.662    563.964    564.272    563.964    564.030    563.964
 17.770    566.000    564.076      1.924    563.701    564.010    563.701    563.767    563.701
 17.870    530.000    563.812    -33.812    563.436    563.745    563.436    563.503    563.436
 17.970    591.978    563.546     28.432    563.169    563.479    563.169    563.237    563.169
 18.070    545.000    563.279    -18.279    562.901    563.211    562.901    562.969    562.901
 18.170    550.685    563.010    -12.325    562.631    562.942    562.631    562.699    562.631
 18.270    601.725    562.741     38.985    562.359    562.672    562.359    562.428    562.359
 18.370    570.300    562.469      7.831    562.086    562.400    562.086    562.156    562.086
 18.470    590.392    562.197     28.195    561.812    562.127    561.812    561.882    561.812
 18.570    591.464    561.924     29.540    561.535    561.853    561.535    561.606    561.535
 18.670    544.000    561.653    -17.653    561.258    561.578    561.258    561.333    561.258
 18.770    592.773    561.378     31.394    560.979    561.301    560.979    561.056    560.979
 18.870    563.000    561.101      1.899    560.698    561.024    560.698    560.776    560.698
 18.970    518.095    560.823    -42.729    560.417    560.745    560.417    560.495    560.417
 19.070    544.000    560.546    -16.546    560.133    560.467    560.133    560.212    560.133
 19.170    571.000    560.279     10.721    559.849    560.200    559.849    559.928    559.849
 19.270    595.000    560.009     34.991    559.563    559.928    559.563    559.643    559.563
 19.370    568.000    559.728      8.272    559.276    559.647    559.276    559.357    559.276
 19.470    588.000    559.445     28.555    558.988    559.363    558.988    559.069    558.988
 19.570    553.000    559.161     -6.161    558.698    559.079    558.698    558.780    558.698
 19.670    584.000    558.877     25.123    558.408    558.794    558.408    558.491    558.408
 19.770    522.000    558.592    -36.592    558.116    558.508    558.116    558.199    558.116
 19.870    569.000    558.306     10.694    557.823    558.222    557.823    557.907    557.823
 19.970    588.000    558.020     29.980    557.529    557.935    557.529    557.614    557.529
 20.070    554.000    557.733     -3.733    557.234    557.647    557.234    557.320    557.234
 20.170    559.141    557.445      1.696    556.938    557.359    556.938    557.025    556.938
 20.270    565.000    557.157      7.843    556.641    557.070    556.641    556.728    556.641
 20.370    565.590    556.869      8.721    556.343    556.780    556.343    556.431    556.343
 20.470    527.000    556.580    -29.580    556.044    556.491    556.044    556.133    556.044
 20.570    529.963    556.291    -26.327    555.744    556.201    555.744    555.834    555.744
 20.670    562.271    556.001      6.270    555.443    555.911    555.443    555.534    555.443
 20.770    525.000    555.720    -30.720    555.142    555.628    555.142    555.233    555.142
 20.870    593.658    555.514     38.144    554.839    555.422    554.839    554.932    554.839
 20.970    573.254    555.247     18.008    554.536    555.153    554.536    554.629    554.536
 21.070    538.000    554.959    -16.959    554.232    554.864    554.232    554.326    554.232
 21.170    539.000    554.670    -15.670    553.927    554.575    553.927    554.023    553.927
 21.270    588.000    554.381     33.619    553.622    554.285    553.622    553.718    553.622
 21.370    598.000    554.093     43.907    553.315    553.996    553.315    553.413    553.315
 21.470    539.000    553.808    -14.808    553.008    553.709    553.008    553.107    553.008
 21.570    541.000    553.526    -12.526    552.701    553.426    552.701    552.801    552.701
 21.670    546.000    553.243     -7.243    552.393    553.143    552.393    552.494    552.393
 21.770    562.000    552.959      9.041    552.084    552.857    552.084    552.186    552.084
 21.870    563.000    552.676     10.324    551.775    552.573    551.775    551.878    551.775
 21.970    553.000    552.395      0.605    551.465    552.290    551.465    551.569    551.465
 22.070    600.000    552.117     47.883    551.154    552.011    551.154    551.260    551.154
 22.170    537.000    551.865    -14.865    550.843    551.758    550.843    550.951    550.843
 22.270    590.000    551.663     38.337    550.532    551.555    550.532    550.641    550.532
 22.370    574.741    551.414     23.327    550.220    551.304    550.220    550.330    550.220
 22.470    561.000    551.149      9.851    549.908    551.038    549.908    550.020    549.908
 22.570    592.788    550.888     41.901    549.595    550.775    549.595    549.709    549.595
 22.670    549.000    550.634     -1.634    549.282    550.517    549.282    549.399    549.282
 22.770    536.619    550.385    -13.767    548.969    550.267    548.969    549.088    548.969
 22.870    559.000    550.145      8.855    548.655    550.024    548.655    548.776    548.655
 22.970    532.476    549.914    -17.438    548.341    549.792    548.341    548.464    548.341
 23.070    512.552    549.696    -37.144    548.027    549.572    548.027    548.151    548.027
 23.170    518.000    549.494    -31.494    547.713    549.368    547.713    547.839    547.713
 23.270    543.000    549.310     -6.310    547.398    549.182    547.398    547.526    547.398
 23.370    563.000    549.150     13.850    547.083    549.020    547.083    547.213    547.083
 23.470    538.000    549.022    -11.022    546.768    548.890    546.768    546.900    546.768
 23.570    529.000    548.935    -19.935    546.452    548.801    546.452    546.587    546.452
 23.670    578.738    548.904     29.834    546.137    548.768    546.137    546.274    546.137
 23.770    533.000    548.949    -15.949    545.821    548.811    545.821    545.961    545.821
 23.870    589.000    549.105     39.895    545.506    548.964    545.506    545.648    545.506
 23.970    583.332    549.433     33.900    545.190    549.290    545.190    545.335    545.190
 24.070    523.000    550.085    -27.085    544.874    549.940    544.874    545.022    544.874
 24.170    562.000    551.469     10.531    544.558    551.323    544.558    544.709    544.558
 24.270    549.000    554.596     -5.596    544.242    554.449    544.242    544.396    544.242
 24.370    557.611    561.403     -3.792    543.926    561.257    543.926    544.083    543.926
 24.470    547.287    574.346    -27.059    543.610    574.206    543.610    543.771    543.610
 24.570    606.708    594.338     12.370    543.295    594.209    543.295    543.459    543.295
 24.670    655.536    617.380     38.156    542.979    617.263    542.979    543.147    542.979
 24.770    640.000    632.422      7.578    542.663    632.312    542.663    542.835    542.663
 24.870    622.000    628.731     -6.731    542.348    628.614    542.348    542.524    542.348
 24.970    620.000    609.195     10.805    542.032    609.060    542.032    542.213    542.032
 25.070    605.000    585.919     19.081    541.717    585.763    541.717    541.903    541.717
 25.170    552.000    567.621    -15.621    541.402    567.447    541.402    541.593    541.402
 25.270    574.958    556.354     18.604    541.087    556.167    541.087    541.283    541.087
 25.370    523.000    550.419    -27.419    540.773    550.223    540.773    540.975    540.773
 25.470    573.000    547.450     25.550    540.458    547.245    540.458    540.666    540.458
 25.570    569.489    545.836     23.654    540.144    545.623    540.144    540.359    540.144
 25.670    534.216    544.805    -10.588    539.830    544.585    539.830    540.052    539.830
 25.770    566.591    544.033     22.558    539.516    543.805    539.516    539.746    539.516
 25.870    559.000    543.423     15.577    539.203    543.186    539.203    539.441    539.203
 25.970    568.562    542.928     25.633    538.890    542.683    538.890    539.137    538.890
 26.070    553.000    542.533     10.467    538.577    542.278    538.577    538.833    538.577
 26.170    584.000    542.199     41.801    538.265    541.934    538.265    538.531    538.265
 26.270    546.000    541.900      4.100    537.953    541.623    537.953    538.231    537.953
 26.370    519.611    541.651    -22.039    537.642    541.362    537.642    537.931    537.642
 26.470    589.000    541.451     47.549    537.331    541.148    537.331    537.633    537.331
 26.570    561.000    541.302     19.698    537.020    540.985    537.020    537.337    537.020
 26.670    547.000    541.209      5.791    536.710    540.876    536.710    537.043    536.710
 26.770    538.000    541.189     -3.189    536.400    540.839    536.400    536.750    536.400
 26.870    565.000    541.255     23.745    536.091    540.885    536.091    536.460    536.091
 26.970    553.165    541.389     11.776    535.782    540.998    535.782    536.173    535.782
 27.070    571.214    541.634     29.579    535.474    541.219    535.474    535.889    535.474
 27.170    559.000    542.027     16.973    535.166    541.585    535.166    535.607    535.166
 27.270    557.000    542.619     14.381    534.859    542.147    534.859    535.330    534.859
 27.370    518.689    543.491    -24.802    534.552    542.985    534.552    535.057    534.552
 27.470    578.000    544.792     33.208    534.247    544.247    534.247    534.789    534.247
 27.570    544.000    546.897     -2.897    533.941    546.309    533.941    534.527    533.941
 27.670    559.000    551.191      7.809    533.636    550.552    533.636    534.272    533.636
 27.770    554.000    562.375     -8.375    533.332    561.675    533.332    534.025    533.332
 27.870    585.374    592.414     -7.040    533.029    591.637    533.029    533.788    533.029
 27.970    641.000    659.957    -18.957    532.726    659.081    532.726    533.562    532.726
 28.070    750.000    773.163    -23.163    532.424    772.162    532.424    533.352    532.424
 28.170    835.000    899.643    -64.643    532.122    898.504    532.122    533.160    532.122
 28.270    921.000    961.846    -40.846    531.822    960.578    531.822    532.991    531.822
 28.370    923.000    909.020     13.980    531.522    907.627    531.522    532.851    531.522
 28.470    796.072    795.152      0.920    531.223    793.598    531.223    532.750    531.223
 28.570    753.388    706.982     46.406    530.924    705.189    530.924    532.704    530.924
 28.670    729.580    689.217     40.364    530.626    687.090    530.626    532.738    530.626
 28.770    747.920    736.434     11.486    530.330    733.845    530.330    532.898    530.330
 28.870    834.000    807.111     26.889    530.033    803.863    530.033    533.266    530.033
 28.970    819.000    840.373    -21.373    529.738    836.131    529.738    533.980    529.738
 29.070    755.459    800.578    -45.119    529.444    794.793    529.444    535.239    529.444
 29.170    769.000    718.970     50.030    529.150    710.849    529.150    537.282    529.150
 29.270    603.560    644.038    -40.478    528.857    632.582    528.857    540.320    528.857
 29.370    580.000    597.854    -17.854    528.565    582.027    528.565    544.393    528.565
 29.470    572.000    577.614     -5.614    528.274    556.766    528.274    549.121    528.274
 29.570    554.262    571.290    -17.028    527.984    545.934    527.984    553.337    527.984
 29.670    590.164    568.648     21.516    527.695    541.200    527.695    555.140    527.695
 29.770    564.420    564.617     -0.197    527.407    538.682    527.407    553.339    527.407
 29.870    598.000    558.776     39.224    527.119    537.051    527.119    548.841    527.119
 29.970    559.000    552.615      6.385    526.833    535.907    526.833    543.539    526.833
 30.070    618.000    547.315     70.685    526.548    535.122    526.548    538.738    526.548
 30.170    545.000    543.350      1.650    526.263    534.674    526.263    534.936    526.263
 30.270    567.000    540.851     26.149    525.980    534.677    525.980    532.150    525.980
 30.370    557.000    540.078     16.922    525.697    535.580    525.697    530.191    525.697
