neutron_powder_diffraction_0022
R_wp: 3.629
Temperature (K): 505.672
Counts: 82764.00
Wavelength (Ã…): 2.52098
COMMENTS
Test file for demonstrating the .xyy file format in Reel1.0
END OF HEADER
   tth       Y_obs     Y_calc      Y_res    Background    Phase_1_Nuc    Phase_1_Mag    Phase_2_Nuc    Phase_2_Mag
  9.970    731.000    703.560     27.440    701.854    702.922    702.492    701.854    701.854
 10.070    747.374    702.821     44.553    701.023    702.176    701.668    701.023    701.023
 10.170    714.957    702.097     12.859    700.195    701.446    700.846    700.195    700.195
 10.270    712.000    701.391     10.609    699.370    700.732    700.028    699.370    699.370
 10.370    747.481    700.704     46.777    698.548    700.038    699.213    698.548    698.548
 10.470    724.194    700.041     24.153    697.728    699.367    698.401    697.728    697.728
 10.570    721.000    699.406     21.594    696.912    698.725    697.591    696.912    696.912
 10.670    732.000    698.805     33.195    696.098    698.117    696.785    696.098    696.098
 10.770    713.000    698.246     14.754    695.288    697.550    695.982    695.288    695.288
 10.870    737.000    697.739     39.261    694.480    697.035    695.182    694.480    694.480
 10.970    720.987    697.299     23.688    693.675    696.587    694.385    693.675    693.675
 11.070    713.000    696.944     16.056    692.873    696.224    693.591    692.873    692.873
 11.170    725.000    696.703     28.297    692.074    695.975    692.801    692.074    692.074
 11.270    744.000    696.617     47.383    691.278    695.880    692.013    691.278    691.278
 11.370    719.259    696.750     22.509    690.486    696.004    691.228    690.486    690.486
 11.470    650.925    697.226    -46.301    689.696    696.471    690.447    689.696    689.696
 11.570    732.000    698.308     33.692    688.909    697.543    689.669    688.909    688.909
 11.670    772.000    700.573     71.427    688.124    699.797    688.894    688.124    688.124
 11.770    757.000    705.190     51.810    687.343    704.403    688.121    687.343    687.343
 11.870    762.601    714.083     48.518    686.565    713.281    687.353    686.565    686.565
 11.970    773.000    729.527     43.473    685.790    728.707    686.587    685.790    685.790
 12.070    830.000    752.713     77.287    685.018    751.869    685.824    685.018    685.018
 12.170    841.000    780.580     60.420    684.249    779.710    685.065    684.249    684.249
 12.270    859.000    803.507     55.493    683.483    802.614    684.309    683.483    683.483
 12.370    828.000    807.811     20.189    682.720    806.906    683.555    682.720    682.720
 12.470    820.000    789.512     30.488    681.960    788.606    682.806    681.960    681.960
 12.570    758.000    760.276     -2.276    681.203    759.376    682.059    681.203    681.203
 12.670    770.013    732.955     37.058    680.449    732.060    681.315    680.449    680.449
 12.770    688.000    712.917    -24.917    679.698    712.022    680.575    679.698    679.698
 12.870    737.101    700.187     36.914    678.950    699.288    679.838    678.950    678.950
 12.970    653.240    692.673    -39.433    678.205    691.767    679.104    678.205    678.205
 13.070    666.000    688.187    -22.187    677.463    687.271    678.374    677.463    677.463
 13.170    718.767    685.251     33.516    676.724    684.325    677.647    676.724    676.724
 13.270    618.000    683.088    -65.088    675.989    682.151    676.922    675.989    675.989
 13.370    728.392    681.342     47.050    675.256    680.393    676.202    675.256    675.256
 13.470    656.000    679.852    -23.852    674.526    678.892    675.484    674.526    674.526
 13.570    643.380    678.539    -35.158    673.800    677.566    674.770    673.800    673.800
 13.670    632.000    677.352    -45.352    673.076    676.367    674.059    673.076    673.076
 13.770    688.000    676.262     11.738    672.355    675.264    673.352    672.355    672.355
 13.870    650.000    675.245    -25.245    671.638    674.234    672.648    671.638    671.638
 13.970    665.000    674.287     -9.287    670.924    673.263    671.947    670.924    670.924
 14.070    685.000    673.377     11.623    670.212    672.339    671.249    670.212    670.212
 14.170    723.000    672.518     50.482    669.504    671.466    670.556    669.504    669.504
 14.270    672.662    671.686      0.976    668.799    670.619    669.865    668.799    668.799
 14.370    628.000    670.867    -42.867    668.097    669.786    669.178    668.097    668.097
 14.470    643.357    670.069    -26.712    667.398    668.973    668.494    667.398    667.398
 14.570    626.000    669.290    -43.290    666.702    668.178    667.813    666.702    666.702
 14.670    640.000    668.527    -28.527    666.009    667.399    667.136    666.009    666.009
 14.770    678.202    667.778     10.425    665.320    666.635    666.462    665.320    665.320
 14.870    627.857    667.045    -39.188    664.633    665.885    665.792    664.633    664.633
 14.970    598.000    666.321    -68.321    663.949    665.145    665.125    663.949    663.949
 15.070    711.171    665.606     45.565    663.269    664.413    664.461    663.269    663.269
 15.170    668.478    664.899      3.579    662.592    663.689    663.801    662.592    662.592
 15.270    680.675    664.201     16.474    661.917    662.973    663.145    661.917    661.917
 15.370    634.264    663.511    -29.248    661.246    662.265    662.492    661.246    661.246
 15.470    651.000    662.829    -11.829    660.578    661.564    661.842    660.578    660.578
 15.570    664.000    662.153      1.847    659.913    660.869    661.196    659.913    659.913
 15.670    673.000    661.484     11.516    659.251    660.181    660.554    659.251    659.251
 15.770    667.000    660.821      6.179    658.593    659.498    659.915    658.593    658.593
 15.870    648.000    660.164    -12.164    657.937    658.821    659.280    657.937    657.937
 15.970    647.405    659.513    -12.107    657.285    658.149    658.648    657.285    657.285
 16.070    632.111    658.867    -26.756    656.635    657.482    658.020    656.635    656.635
 16.170    672.000    658.226     13.774    655.989    656.819    657.396    655.989    655.989
 16.270    642.679    657.591    -14.912    655.346    656.162    656.775    655.346    655.346
 16.370    670.000    656.961     13.039    654.706    655.509    656.158    654.706    654.706
 16.470    652.000    656.336     -4.336    654.069    654.861    655.544    654.069    654.069
 16.570    634.000    655.720    -21.720    653.435    654.221    654.934    653.435    653.435
 16.670    662.000    655.108      6.892    652.804    653.584    654.328    652.804    652.804
 16.770    635.000    654.498    -19.498    652.177    652.949    653.726    652.177    652.177
 16.870    682.417    653.893     28.524    651.552    652.318    653.127    651.552    651.552
 16.970    692.344    653.297     39.047    650.931    651.695    652.532    650.931    650.931
 17.070    598.000    652.712    -54.712    650.313    651.082    651.942    650.313    650.313
 17.170    618.810    652.140    -33.330    649.697    650.482    651.355    649.697    649.697
 17.270    662.317    651.613     10.704    649.085    649.924    650.774    649.085    649.085
 17.370    639.901    651.036    -11.135    648.477    649.318    650.195    648.477    648.477
 17.470    658.000    650.458      7.542    647.871    648.710    649.619    647.871    647.871
 17.570    656.000    649.886      6.114    647.268    648.107    649.048    647.268    647.268
 17.670    632.000    649.335    -17.335    646.669    647.524    648.480    646.669    646.669
 17.770    573.000    648.785    -75.785    646.072    646.941    647.916    646.072    646.072
 17.870    635.000    648.226    -13.226    645.479    646.349    647.356    645.479    645.479
 17.970    672.864    647.671     25.193    644.889    645.759    646.801    644.889    644.889
 18.070    666.620    647.121     19.500    644.302    645.173    646.249    644.302    644.302
 18.170    617.000    646.575    -29.575    643.718    644.591    645.702    643.718    643.718
 18.270    675.000    646.033     28.967    643.137    644.012    645.158    643.137    643.137
 18.370    648.236    645.497      2.739    642.559    643.437    644.619    642.559    642.559
 18.470    640.000    644.965     -4.965    641.985    642.865    644.084    641.985    641.985
 18.570    669.000    644.438     24.562    641.413    642.297    643.554    641.413    641.413
 18.670    616.000    643.919    -27.919    640.845    641.736    643.027    640.845    640.845
 18.770    647.000    643.411      3.589    640.280    641.185    642.506    640.280    640.280
 18.870    663.749    642.899     20.850    639.718    640.629    641.988    639.718    639.718
 18.970    643.555    642.392      1.163    639.159    640.075    641.475    639.159    639.159
 19.070    623.000    641.889    -18.889    638.603    639.525    640.967    638.603    638.603
 19.170    661.281    641.391     19.890    638.050    638.978    640.463    638.050    638.050
 19.270    623.000    640.898    -17.898    637.500    638.435    639.964    637.500    637.500
 19.370    662.000    640.418     21.582    636.954    637.901    639.471    636.954    636.954
 19.470    613.000    640.008    -27.008    636.410    637.420    638.998    636.410    636.410
 19.570    599.000    639.564    -40.564    635.870    636.913    638.520    635.870    635.870
 19.670    613.185    639.096    -25.911    635.333    636.388    638.041    635.333    635.333
 19.770    644.059    638.633      5.426    634.798    635.864    637.566    634.798    634.798
 19.870    649.147    638.173     10.974    634.267    635.344    637.097    634.267    634.267
 19.970    599.000    637.721    -38.721    633.739    634.828    636.633    633.739    633.739
 20.070    645.000    637.294      7.706    633.215    634.331    636.178    633.215    633.215
 20.170    602.872    636.909    -34.037    632.693    633.857    635.744    632.693    632.693
 20.270    650.000    636.492     13.508    632.174    633.366    635.300    632.174    632.174
 20.370    612.000    636.113    -24.113    631.658    632.912    634.859    631.658    631.658
 20.470    649.719    635.716     14.003    631.146    632.440    634.423    631.146    631.146
 20.570    598.146    635.326    -37.180    630.637    631.970    633.992    630.637    630.637
 20.670    636.000    634.925      1.075    630.130    631.488    633.568    630.130    630.130
 20.770    650.000    634.566     15.434    629.627    631.042    633.150    629.627    629.627
 20.870    628.658    634.179     -5.521    629.127    630.568    632.738    629.127    629.127
 20.970    646.052    633.794     12.258    628.630    630.091    632.332    628.630    628.630
 21.070    603.000    633.420    -30.420    628.135    629.622    631.933    628.135    628.135
 21.170    666.916    633.066     33.849    627.645    629.164    631.547    627.645    627.645
 21.270    618.784    632.708    -13.924    627.157    628.702    631.163    627.157    627.157
 21.370    630.000    632.360     -2.360    626.672    628.247    630.785    626.672    626.672
 21.470    608.435    632.029    -23.594    626.190    627.805    630.414    626.190    626.190
 21.570    608.000    631.696    -23.696    625.711    627.356    630.051    625.711    625.711
 21.670    629.000    631.372     -2.372    625.235    626.911    629.696    625.235    625.235
 21.770    602.453    631.058    -28.605    624.763    626.472    629.349    624.763    624.763
 21.870    614.000    630.757    -16.757    624.293    626.040    629.011    624.293    624.293
 21.970    627.000    630.466     -3.466    623.827    625.612    628.681    623.827    623.827
 22.070    651.000    630.187     20.813    623.363    625.189    628.361    623.363    623.363
 22.170    608.000    629.920    -21.920    622.903    624.773    628.050    622.903    622.903
 22.270    587.569    629.668    -42.100    622.445    624.365    627.749    622.445    622.445
 22.370    606.852    629.433    -22.581    621.991    623.965    627.459    621.991    621.991
 22.470    658.000    629.211     28.789    621.540    623.571    627.180    621.540    621.540
 22.570    666.686    629.006     37.680    621.091    623.186    626.912    621.091    621.091
 22.670    652.305    628.821     23.484    620.646    622.811    626.656    620.646    620.646
 22.770    636.000    628.662      7.338    620.204    622.452    626.414    620.204    620.204
 22.870    622.914    628.520     -5.606    619.764    622.100    626.184    619.764    619.764
 22.970    564.000    628.401    -64.401    619.328    621.761    625.968    619.328    619.328
 23.070    653.129    628.309     24.820    618.895    621.437    625.767    618.895    618.895
 23.170    622.366    628.248     -5.882    618.464    621.132    625.581    618.464    618.464
 23.270    631.150    628.223      2.927    618.037    620.848    625.413    618.037    618.037
 23.370    626.000    628.238     -2.238    617.613    620.590    625.261    617.613    617.613
 23.470    665.358    628.299     37.059    617.192    620.363    625.128    617.192    617.192
 23.570    605.183    628.415    -23.232    616.773    620.175    625.015    616.773    616.773
 23.670    674.799    628.598     46.201    616.358    620.035    624.922    616.358    616.358
 23.770    606.000    628.863    -22.863    615.946    619.956    624.853    615.946    615.946
 23.870    670.729    629.229     41.500    615.536    619.959    624.808    615.536    615.536
 23.970    620.749    629.729     -8.980    615.130    620.072    624.789    615.130    615.130
 24.070    630.118    630.413     -0.294    614.726    620.342    624.800    614.726    614.726
 24.170    650.000    631.365     18.635    614.326    620.854    624.840    614.326    614.326
 24.270    658.487    632.780     25.707    613.928    621.799    624.912    613.928    613.928
 24.370    683.000    635.069     47.931    613.534    623.587    625.021    613.534    613.534
 24.470    696.000    639.035     56.965    613.142    627.016    625.169    613.142    613.142
 24.570    627.000    645.951    -18.951    612.753    633.358    625.359    612.753    612.753
 24.670    674.000    657.256     16.744    612.368    644.049    625.596    612.368    612.368
 24.770    692.000    673.585     18.415    611.985    659.718    625.884    611.985    611.985
 24.870    717.000    693.044     23.956    611.605    678.467    626.227    611.605    611.605
 24.970    707.000    709.389     -2.389    611.228    694.040    626.633    611.228    611.228
 25.070    766.000    713.746     52.254    610.854    697.552    627.108    610.854    610.854
 25.170    750.075    703.210     46.865    610.483    686.086    627.659    610.483    610.483
 25.270    694.994    685.091      9.902    610.114    666.949    628.295    610.114    610.114
 25.370    704.000    667.890     36.110    609.749    648.639    629.025    609.749    609.749
 25.470    706.000    655.417     50.583    609.386    634.955    629.863    609.386    609.386
 25.570    661.000    647.939     13.061    609.027    626.153    630.822    609.027    609.027
 25.670    688.721    644.216     44.505    608.670    620.974    631.917    608.670    608.670
 25.770    720.000    642.827     77.173    608.316    617.979    633.167    608.316    608.316
 25.870    629.262    642.766    -13.504    607.965    616.138    634.596    607.965    607.965
 25.970    555.000    643.494    -88.494    607.617    614.883    636.230    607.617    607.617
 26.070    639.000    644.782     -5.782    607.272    613.950    638.104    607.272    607.272
 26.170    631.538    646.549    -15.011    606.930    613.225    640.253    606.930    606.930
 26.270    675.069    648.769     26.300    606.590    612.636    642.722    606.590    606.590
 26.370    631.000    651.479    -20.479    606.253    612.159    645.572    606.253    606.253
 26.470    643.000    654.732    -11.732    605.919    611.776    648.874    605.919    605.919
 26.570    621.000    658.607    -37.607    605.588    611.476    652.718    605.588    605.588
 26.670    621.629    663.214    -41.585    605.260    611.253    657.218    605.260    605.260
 26.770    625.731    668.698    -42.966    604.935    611.109    662.520    604.935    604.935
 26.870    691.093    675.251     15.842    604.612    611.046    668.813    604.612    604.612
 26.970    736.000    683.131     52.869    604.292    611.073    676.345    604.292    604.292
 27.070    661.000    692.685    -31.685    603.975    611.205    685.449    603.975    603.975
 27.170    676.000    704.389    -28.389    603.661    611.463    696.579    603.661    603.661
 27.270    686.000    718.906    -32.906    603.350    611.879    710.367    603.350    603.350
 27.370    743.000    737.192      5.808    603.041    612.500    727.721    603.041    603.041
 27.470    709.000    760.631    -51.631    602.735    613.392    749.959    602.735    602.735
 27.570    808.000    791.515     16.485    602.432    614.669    779.259    602.432    602.432
 27.670    816.000    834.519    -18.519    602.132    616.560    820.062    602.132    602.132
 27.770    911.000    902.686      8.314    601.834    619.704    884.769    601.834    601.834
 27.870    977.783   1036.703    -58.920    601.540    626.081   1012.064    601.540    601.540
 27.970   1285.000   1346.412    -61.412    601.248    641.035   1306.413    601.248    601.248
 28.070   1963.000   2049.064    -86.064    600.958    675.131   1974.474    600.958    600.958
 28.170   3191.000   3400.870   -209.870    600.672    740.836   3260.022    600.672    600.672
 28.270   5239.000   5418.889   -179.889    600.388    839.022   5179.380    600.388    600.388
 28.370   7621.907   7517.964    103.943    600.107    941.350   7175.921    600.107    600.107
 28.470   8441.000   8507.538    -66.538    599.828    990.190   8116.721    599.828    599.828
 28.570   7500.298   7649.457   -149.159    599.552    950.209   7298.678    599.552    599.552
 28.670   5753.746   5773.760    -20.014    599.279    862.882   5510.185    599.279    599.279
 28.770   4451.000   4172.091    278.909    599.009    792.809   3978.317    599.009    599.009
 28.870   3482.000   3512.933    -30.933    598.741    774.173   3337.467    598.741    598.741
 28.970   3733.544   3753.468    -19.924    598.476    804.410   3547.460    598.476    598.476
 29.070   4275.000   4384.995   -109.995    598.214    853.705   4129.465    598.214    598.214
 29.170   4693.000   4699.807     -6.807    597.954    877.740   4420.113    597.954    597.954
 29.270   4269.000   4261.237      7.763    597.697    848.672   4010.520    597.697    597.697
 29.370   3258.658   3318.016    -59.359    597.442    784.412   3131.376    597.442    597.442
 29.470   2273.000   2351.816    -78.816    597.191    718.352   2230.940    597.191    597.191
 29.570   1576.000   1633.494    -57.494    596.941    669.223   1561.408    596.941    596.941
 29.670   1223.000   1201.699     21.301    596.695    639.733   1158.771    596.695    596.695
 29.770    957.331    976.723    -19.392    596.451    624.433    948.797    596.451    596.451
 29.870    912.500    864.920     47.580    596.209    616.903    844.254    596.209    596.209
 29.970    808.450    805.012      3.439    595.971    612.948    788.049    595.971    595.971
 30.070    783.000    767.746     15.254    595.735    610.576    752.912    595.735    595.735
 30.170    782.736    741.540     41.197    595.501    609.016    728.029    595.501    595.501
 30.270    749.000    721.968     27.032    595.270    608.003    709.237    595.270    595.270
 30.370    763.000    707.155     55.845    595.041    607.490    694.707    595.041    595.041
