neutron_powder_diffraction_0070
R_wp: 5.034
Temperature (K): 745.416
Counts: 83799.00
Wavelength (Ã…): 2.52098
COMMENTS
Test file for demonstrating the .xyy file format in Reel1.0
END OF HEADER
   tth       Y_obs     Y_calc      Y_res    Background    Phase_1_Nuc    Phase_1_Mag    Phase_2_Nuc    Phase_2_Mag
  9.970    641.866    607.728     34.139    606.723    607.727    606.723    606.723    606.723
 10.070    559.075    608.816    -49.741    607.733    608.816    607.733    607.733    607.733
 10.170    663.000    609.899     53.101    608.725    609.898    608.725    608.725    608.725
 10.270    700.000    610.977     89.023    609.701    610.977    609.701    609.701    609.701
 10.370    657.000    612.055     44.945    610.660    612.055    610.660    610.660    610.660
 10.470    609.641    613.136     -3.495    611.601    613.135    611.601    611.601    611.601
 10.570    615.299    614.224      1.076    612.527    614.223    612.527    612.527    612.527
 10.670    683.000    615.325     67.675    613.435    615.324    613.435    613.435    613.435
 10.770    598.369    616.450    -18.081    614.327    616.449    614.327    614.327    614.327
 10.870    660.000    617.607     42.393    615.203    617.606    615.203    615.203    615.203
 10.970    686.000    618.828     67.172    616.063    618.827    616.063    616.063    616.063
 11.070    701.000    620.244     80.756    616.906    620.242    616.906    616.906    616.906
 11.170    649.000    621.623     27.377    617.734    621.621    617.734    617.734    617.734
 11.270    569.987    623.128    -53.141    618.546    623.125    618.546    618.546    618.546
 11.370    623.787    624.841     -1.054    619.342    624.838    619.342    619.342    619.342
 11.470    658.382    626.898     31.484    620.122    626.894    620.122    620.122    620.122
 11.570    670.000    629.613     40.387    620.888    629.608    620.888    620.888    620.888
 11.670    571.018    633.798    -62.780    621.637    633.791    621.637    621.637    621.637
 11.770    688.000    641.313     46.687    622.372    641.302    622.372    622.372    622.372
 11.870    603.093    655.455    -52.362    623.091    655.437    623.091    623.091    623.091
 11.970    643.571    679.976    -36.404    623.795    679.945    623.795    623.795    623.795
 12.070    665.062    715.611    -50.550    624.485    715.560    624.485    624.485    624.485
 12.170    682.716    754.528    -71.812    625.159    754.456    625.159    625.159    625.159
 12.270    798.516    777.102     21.415    625.819    777.017    625.819    625.819    625.819
 12.370    747.000    766.815    -19.815    626.465    766.736    626.465    626.465    626.465
 12.470    753.000    732.946     20.054    627.096    732.887    627.096    627.096    627.096
 12.570    691.000    696.183     -5.183    627.713    696.145    627.713    627.713    627.713
 12.670    666.000    668.646     -2.646    628.315    668.623    628.315    628.315    628.315
 12.770    698.953    652.225     46.728    628.904    652.212    628.904    628.904    628.904
 12.870    685.324    643.866     41.458    629.478    643.858    629.478    629.478    629.478
 12.970    631.000    639.942     -8.942    630.039    639.937    630.039    630.039    630.039
 13.070    603.000    638.076    -35.076    630.586    638.072    630.586    630.586    630.586
 13.170    612.000    637.118    -25.118    631.119    637.115    631.119    631.119    631.119
 13.270    610.448    636.603    -26.155    631.638    636.601    631.638    631.638    631.638
 13.370    624.367    636.344    -11.977    632.145    636.342    632.145    632.145    632.145
 13.470    680.603    636.252     44.351    632.638    636.250    632.638    632.638    632.638
 13.570    582.000    636.293    -54.293    633.117    636.292    633.117    633.117    633.117
 13.670    610.000    636.401    -26.401    633.584    636.400    633.584    633.584    633.584
 13.770    622.000    636.559    -14.559    634.038    636.558    634.038    634.038    634.038
 13.870    683.899    636.757     47.143    634.479    636.756    634.479    634.479    634.479
 13.970    600.308    636.983    -36.675    634.907    636.982    634.907    634.907    634.907
 14.070    634.000    637.230     -3.230    635.322    637.229    635.322    635.322    635.322
 14.170    622.000    637.490    -15.490    635.725    637.490    635.725    635.725    635.725
 14.270    616.442    637.760    -21.317    636.115    637.759    636.115    636.115    636.115
 14.370    618.123    638.034    -19.910    636.493    638.033    636.493    636.493    636.493
 14.470    605.000    638.310    -33.310    636.859    638.309    636.859    636.859    636.859
 14.570    589.673    638.586    -48.914    637.213    638.586    637.213    637.213    637.213
 14.670    592.007    638.865    -46.858    637.554    638.864    637.554    637.554    637.554
 14.770    573.409    639.136    -65.727    637.884    639.136    637.884    637.884    637.884
 14.870    593.134    639.402    -46.268    638.202    639.402    638.202    638.202    638.202
 14.970    598.000    639.662    -41.662    638.508    639.662    638.508    638.508    638.508
 15.070    626.000    639.918    -13.918    638.802    639.918    638.802    638.802    638.802
 15.170    685.616    640.192     45.424    639.085    640.191    639.085    639.085    639.085
 15.270    667.918    640.490     27.428    639.357    640.490    639.357    639.357    639.357
 15.370    670.491    640.728     29.763    639.617    640.728    639.617    639.617    639.617
 15.470    641.000    640.952      0.048    639.866    640.952    639.866    639.866    639.866
 15.570    583.000    641.171    -58.171    640.104    641.171    640.104    640.104    640.104
 15.670    651.956    641.412     10.543    640.331    641.412    640.331    640.331    640.331
 15.770    604.000    641.650    -37.650    640.547    641.650    640.547    640.547    640.547
 15.870    656.000    641.844     14.156    640.752    641.844    640.752    640.752    640.752
 15.970    614.000    642.025    -28.025    640.947    642.025    640.947    640.947    640.947
 16.070    607.000    642.198    -35.198    641.130    642.198    641.130    641.130    641.130
 16.170    620.029    642.368    -22.339    641.304    642.368    641.304    641.304    641.304
 16.270    658.000    642.524     15.476    641.467    642.524    641.467    641.467    641.467
 16.370    635.305    642.670     -7.365    641.619    642.670    641.619    641.619    641.619
 16.470    689.423    642.806     46.616    641.762    642.806    641.762    641.762    641.762
 16.570    619.616    642.933    -23.317    641.894    642.933    641.894    641.894    641.894
 16.670    640.192    643.056     -2.865    642.016    643.056    642.016    642.016    642.016
 16.770    622.000    643.174    -21.174    642.128    643.174    642.128    642.128    642.128
 16.870    594.000    643.275    -49.275    642.230    643.275    642.230    642.230    642.230
 16.970    598.000    643.366    -45.366    642.323    643.366    642.323    642.323    642.323
 17.070    605.000    643.447    -38.447    642.406    643.447    642.406    642.406    642.406
 17.170    576.000    643.520    -67.520    642.479    643.520    642.479    642.479    642.479
 17.270    645.093    643.586      1.507    642.543    643.586    642.543    642.543    642.543
 17.370    609.152    643.663    -34.511    642.598    643.663    642.598    642.598    642.598
 17.470    619.000    643.728    -24.728    642.643    643.728    642.643    642.643    642.643
 17.570    613.000    643.770    -30.770    642.679    643.770    642.679    642.679    642.679
 17.670    661.000    643.800     17.200    642.706    643.800    642.706    642.706    642.706
 17.770    702.750    643.827     58.923    642.723    643.827    642.723    642.723    642.723
 17.870    617.907    643.881    -25.974    642.732    643.881    642.732    642.732    642.732
 17.970    651.742    643.912      7.829    642.732    643.912    642.732    642.732    642.732
 18.070    580.000    643.911    -63.911    642.724    643.911    642.724    642.724    642.724
 18.170    655.000    643.903     11.097    642.706    643.903    642.706    642.706    642.706
 18.270    623.932    643.888    -19.957    642.680    643.888    642.680    642.680    642.680
 18.370    579.000    643.874    -64.874    642.646    643.874    642.646    642.646    642.646
 18.470    621.680    643.840    -22.160    642.603    643.840    642.603    642.603    642.603
 18.570    695.252    643.799     51.453    642.552    643.799    642.552    642.552    642.552
 18.670    630.260    643.778    -13.518    642.492    643.778    642.492    642.492    642.492
 18.770    606.000    643.762    -37.762    642.425    643.762    642.425    642.425    642.425
 18.870    591.865    643.706    -51.841    642.349    643.706    642.349    642.349    642.349
 18.970    610.000    643.652    -33.652    642.266    643.652    642.266    642.266    642.266
 19.070    638.000    643.574     -5.574    642.174    643.574    642.174    642.174    642.174
 19.170    563.000    643.489    -80.489    642.075    643.489    642.075    642.075    642.075
 19.270    603.000    643.411    -40.411    641.968    643.411    641.968    641.968    641.968
 19.370    620.000    643.321    -23.321    641.853    643.321    641.853    641.853    641.853
 19.470    606.000    643.251    -37.251    641.731    643.251    641.731    641.731    641.731
 19.570    606.000    643.148    -37.148    641.602    643.148    641.602    641.602    641.602
 19.670    603.371    643.030    -39.658    641.465    643.029    641.465    641.465    641.465
 19.770    601.119    642.902    -41.783    641.320    642.902    641.320    641.320    641.320
 19.870    638.473    642.766     -4.294    641.169    642.766    641.169    641.169    641.169
 19.970    620.000    642.624    -22.624    641.010    642.624    641.010    641.010    641.010
 20.070    618.000    642.476    -24.476    640.845    642.476    640.845    640.845    640.845
 20.170    682.460    642.327     40.132    640.672    642.327    640.672    640.672    640.672
 20.270    587.000    642.169    -55.169    640.492    642.169    640.492    640.492    640.492
 20.370    639.017    642.004     -2.988    640.306    642.004    640.306    640.306    640.306
 20.470    674.673    641.835     32.839    640.113    641.835    640.113    640.113    640.113
 20.570    661.000    641.661     19.339    639.913    641.661    639.913    639.913    639.913
 20.670    602.000    641.479    -39.479    639.706    641.479    639.706    639.706    639.706
 20.770    608.000    641.290    -33.290    639.494    641.290    639.494    639.494    639.494
 20.870    621.000    641.095    -20.095    639.274    641.095    639.274    639.274    639.274
 20.970    640.489    640.895     -0.407    639.049    640.895    639.049    639.049    639.049
 21.070    580.000    640.691    -60.691    638.817    640.691    638.817    638.817    638.817
 21.170    608.634    640.483    -31.850    638.578    640.483    638.578    638.578    638.578
 21.270    619.000    640.270    -21.270    638.334    640.270    638.334    638.334    638.334
 21.370    653.000    640.051     12.949    638.084    640.051    638.084    638.084    638.084
 21.470    666.920    639.829     27.091    637.828    639.829    637.828    637.828    637.828
 21.570    650.000    639.603     10.397    637.565    639.603    637.565    637.565    637.565
 21.670    634.005    639.373     -5.368    637.298    639.374    637.298    637.298    637.298
 21.770    602.000    639.142    -37.142    637.024    639.142    637.024    637.024    637.024
 21.870    624.000    638.905    -14.905    636.744    638.906    636.744    636.744    636.744
 21.970    612.000    638.666    -26.666    636.459    638.667    636.459    636.459    636.459
 22.070    611.000    638.425    -27.425    636.169    638.425    636.169    636.169    636.169
 22.170    691.319    638.183     53.136    635.873    638.183    635.873    635.873    635.873
 22.270    609.676    637.939    -28.262    635.572    637.939    635.572    635.572    635.572
 22.370    703.258    637.695     65.563    635.265    637.695    635.265    635.265    635.265
 22.470    625.000    637.452    -12.452    634.953    637.452    634.953    634.953    634.953
 22.570    695.482    637.209     58.274    634.636    637.209    634.636    634.636    634.636
 22.670    627.000    636.968     -9.968    634.314    636.968    634.314    634.314    634.314
 22.770    598.000    636.730    -38.730    633.987    636.730    633.987    633.987    633.987
 22.870    641.641    636.497      5.144    633.655    636.498    633.655    633.655    633.655
 22.970    612.000    636.272    -24.272    633.318    636.273    633.318    633.318    633.318
 23.070    605.996    636.057    -30.061    632.976    636.057    632.976    632.976    632.976
 23.170    636.000    635.852      0.148    632.629    635.853    632.629    632.629    632.629
 23.270    589.000    635.665    -46.665    632.278    635.665    632.278    632.278    632.278
 23.370    597.000    635.497    -38.497    631.922    635.498    631.922    631.922    631.922
 23.470    594.947    635.358    -40.411    631.562    635.358    631.562    631.562    631.562
 23.570    642.000    635.254      6.746    631.197    635.255    631.197    631.197    631.197
 23.670    655.000    635.200     19.800    630.828    635.201    630.828    630.828    630.828
 23.770    680.000    635.213     44.787    630.454    635.215    630.454    630.454    630.454
 23.870    675.248    635.317     39.930    630.076    635.319    630.076    630.076    630.076
 23.970    636.000    635.552      0.448    629.694    635.554    629.694    629.694    629.694
 24.070    586.853    635.995    -49.142    629.308    635.998    629.308    629.308    629.308
 24.170    610.962    636.796    -25.835    628.918    636.800    628.918    628.918    628.918
 24.270    656.000    638.352     17.648    628.523    638.357    628.523    628.523    628.523
 24.370    660.000    641.563     18.437    628.125    641.570    628.125    628.125    628.125
 24.470    632.205    648.103    -15.899    627.723    648.116    627.723    627.723    627.723
 24.570    639.000    660.203    -21.203    627.317    660.224    627.317    627.317    627.317
 24.670    745.893    679.255     66.639    626.907    679.289    626.907    626.907    626.907
 24.770    688.644    703.092    -14.449    626.494    703.144    626.494    626.494    626.494
 24.870    694.021    723.242    -29.221    626.077    723.309    626.077    626.077    626.077
 24.970    730.000    727.504      2.496    625.656    727.574    625.656    625.656    625.656
 25.070    696.000    712.156    -16.156    625.232    712.216    625.232    625.232    625.232
 25.170    695.000    687.573      7.427    624.804    687.615    624.804    624.804    624.804
 25.270    692.000    665.163     26.837    624.373    665.189    624.373    624.373    624.373
 25.370    647.792    649.540     -1.748    623.939    649.556    623.939    623.939    623.939
 25.470    622.000    640.367    -18.367    623.501    640.376    623.501    623.501    623.501
 25.570    589.000    635.465    -46.465    623.060    635.470    623.060    623.060    623.060
 25.670    662.621    632.817     29.804    622.616    632.821    622.616    622.616    622.616
 25.770    629.000    631.219     -2.219    622.169    631.222    622.169    622.169    622.169
 25.870    652.000    630.117     21.883    621.719    630.119    621.719    621.719    621.719
 25.970    666.000    629.287     36.713    621.266    629.288    621.266    621.266    621.266
 26.070    651.143    628.637     22.505    620.810    628.639    620.810    620.810    620.810
 26.170    660.576    628.125     32.450    620.352    628.126    620.352    620.352    620.352
 26.270    693.000    627.727     65.273    619.890    627.727    619.890    619.890    619.890
 26.370    571.741    627.429    -55.688    619.426    627.430    619.426    619.426    619.426
 26.470    562.600    627.229    -64.628    618.959    627.229    618.959    618.959    618.959
 26.570    579.012    627.127    -48.115    618.489    627.127    618.489    618.489    618.489
 26.670    669.000    627.131     41.869    618.017    627.131    618.017    618.017    618.017
 26.770    700.000    627.255     72.745    617.542    627.254    617.542    617.542    617.542
 26.870    555.987    627.519    -71.532    617.065    627.518    617.065    617.065    617.065
 26.970    731.000    627.954    103.046    616.585    627.953    616.585    616.585    616.585
 27.070    585.906    628.601    -42.695    616.103    628.599    616.103    616.103    616.103
 27.170    794.000    629.520    164.480    615.619    629.518    615.619    615.619    615.619
 27.270    648.234    630.798     17.436    615.132    630.796    615.132    615.132    615.132
 27.370    710.000    632.565     77.435    614.644    632.563    614.644    614.644    614.644
 27.470    579.665    635.047    -55.383    614.153    635.044    614.153    614.153    614.153
 27.570    611.464    638.710    -27.247    613.660    638.706    613.660    613.660    613.660
 27.670    628.594    644.667    -16.073    613.165    644.661    613.165    613.165    613.165
 27.770    757.000    655.519    101.481    612.668    655.509    612.668    612.668    612.668
 27.870    799.000    676.405    122.595    612.169    676.389    612.169    612.169    612.169
 27.970    814.000    714.935     99.065    611.668    714.908    611.668    611.668    611.668
 28.070    832.887    777.767     55.120    611.166    777.721    611.166    611.166    611.166
 28.170    953.000    862.897     90.103    610.662    862.829    610.662    610.662    610.662
 28.270   1054.000    949.546    104.454    610.156    949.461    610.156    610.156    610.156
 28.370   1154.000    995.436    158.564    609.648    995.352    609.648    609.648    609.648
 28.470   1096.000    972.272    123.728    609.138    972.211    609.138    609.138    609.138
 28.570    984.124    908.343     75.781    608.628    908.306    608.628    608.628    608.628
 28.670    955.000    851.972    103.028    608.115    851.949    608.115    608.115    608.115
 28.770    930.000    830.838     99.162    607.601    830.819    607.601    607.601    607.601
 28.870    917.802    846.903     70.899    607.086    846.883    607.086    607.086    607.086
 28.970   1037.000    880.254    156.746    606.569    880.233    606.569    606.569    606.569
 29.070    865.136    895.768    -30.631    606.051    895.752    606.051    606.051    606.051
 29.170    854.141    868.879    -14.738    605.532    868.875    605.532    605.532    605.532
 29.270    842.907    811.512     31.395    605.011    811.516    605.011    605.011    605.011
 29.370    924.000    750.172    173.828    604.489    750.179    604.489    604.489    604.489
 29.470    809.000    700.872    108.128    603.966    700.878    603.966    603.966    603.966
 29.570    780.000    667.515    112.485    603.442    667.518    603.442    603.442    603.442
 29.670    722.000    647.377     74.623    602.917    647.378    602.917    602.917    602.917
 29.770    752.000    635.844    116.156    602.391    635.844    602.391    602.391    602.391
 29.870    801.000    629.100    171.900    601.864    629.098    601.864    601.864    601.864
 29.970    580.995    624.846    -43.851    601.336    624.844    601.336    601.336    601.336
 30.070    691.000    621.962     69.038    600.807    621.959    600.807    600.807    600.807
 30.170    764.000    619.983    144.017    600.278    619.980    600.278    600.278    600.278
 30.270    695.000    618.792     76.208    599.747    618.788    599.747    599.747    599.747
 30.370    681.000    618.528     62.472    599.216    618.523    599.216    599.216    599.216
