neutron_powder_diffraction_0157
R_wp: 3.984
Temperature (K): 1074.000
Counts: 82919.00
Wavelength (Ã…): 2.52098
COMMENTS
Test file for demonstrating the .xyy file format in Reel1.0
END OF HEADER
   tth       Y_obs     Y_calc      Y_res    Background    Phase_1_Nuc    Phase_1_Mag    Phase_2_Nuc    Phase_2_Mag
  9.970    581.000    571.929      9.071    571.253    571.887    571.253    571.296    571.253
 10.070    619.000    572.060     46.940    571.328    572.015    571.328    571.373    571.328
 10.170    547.000    572.192    -25.192    571.397    572.146    571.397    571.443    571.397
 10.270    608.000    572.327     35.673    571.461    572.281    571.461    571.506    571.461
 10.370    594.278    572.468     21.810    571.518    572.421    571.518    571.564    571.518
 10.470    577.000    572.617      4.383    571.570    572.571    571.570    571.617    571.570
 10.570    557.292    572.779    -15.487    571.617    572.732    571.617    571.664    571.617
 10.670    570.000    572.958     -2.958    571.658    572.910    571.658    571.705    571.658
 10.770    550.819    573.160    -22.342    571.693    573.112    571.693    571.741    571.693
 10.870    592.908    573.393     19.515    571.724    573.345    571.724    571.771    571.724
 10.970    595.000    573.669     21.331    571.748    573.620    571.748    571.796    571.748
 11.070    608.000    574.005     33.995    571.768    573.956    571.768    571.816    571.768
 11.170    576.000    574.425      1.575    571.782    574.376    571.782    571.830    571.782
 11.270    578.000    574.968      3.032    571.791    574.918    571.791    571.840    571.791
 11.370    599.000    575.697     23.303    571.795    575.646    571.795    571.844    571.795
 11.470    610.000    576.754     33.246    571.794    576.703    571.794    571.843    571.794
 11.570    619.000    578.536     40.464    571.788    578.483    571.788    571.837    571.788
 11.670    633.000    582.201     50.799    571.777    582.146    571.777    571.826    571.777
 11.770    592.000    590.528      1.472    571.761    590.468    571.761    571.811    571.761
 11.870    647.888    608.130     39.758    571.740    608.060    571.740    571.790    571.740
 11.970    641.873    638.736      3.137    571.714    638.649    571.714    571.764    571.714
 12.070    653.705    678.501    -24.796    571.684    678.390    571.684    571.734    571.684
 12.170    680.000    709.913    -29.913    571.649    709.785    571.649    571.699    571.649
 12.270    669.977    710.902    -40.925    571.609    710.773    571.609    571.659    571.609
 12.370    639.000    680.534    -41.534    571.564    680.421    571.564    571.615    571.564
 12.470    634.000    640.497     -6.497    571.515    640.406    571.515    571.566    571.515
 12.570    602.000    609.094     -7.094    571.461    609.021    571.461    571.513    571.461
 12.670    557.000    590.792    -33.792    571.403    590.730    571.403    571.455    571.403
 12.770    593.000    582.044     10.956    571.340    581.986    571.340    571.392    571.340
 12.870    559.000    578.159    -19.159    571.273    578.103    571.273    571.326    571.273
 12.970    544.642    576.249    -31.608    571.202    576.193    571.202    571.256    571.202
 13.070    543.497    575.096    -31.598    571.126    575.040    571.126    571.180    571.126
 13.170    550.000    574.281    -24.281    571.046    574.225    571.046    571.101    571.046
 13.270    517.000    573.658    -56.658    570.962    573.602    570.962    571.017    570.962
 13.370    566.000    573.161     -7.161    570.874    573.105    570.874    570.929    570.874
 13.470    561.000    572.751    -11.751    570.782    572.695    570.782    570.837    570.782
 13.570    559.000    572.403    -13.403    570.685    572.347    570.685    570.741    570.685
 13.670    569.000    572.101     -3.101    570.585    572.045    570.585    570.640    570.585
 13.770    603.369    571.833     31.536    570.480    571.776    570.480    570.536    570.480
 13.870    546.000    571.591    -25.591    570.372    571.534    570.372    570.428    570.372
 13.970    613.000    571.365     41.635    570.260    571.308    570.260    570.316    570.260
 14.070    551.000    571.154    -20.154    570.143    571.097    570.143    570.200    570.143
 14.170    588.000    570.956     17.044    570.024    570.898    570.024    570.081    570.024
 14.270    593.243    570.765     22.479    569.900    570.707    569.900    569.957    569.900
 14.370    547.000    570.578    -23.578    569.772    570.520    569.772    569.830    569.772
 14.470    590.063    570.395     19.668    569.641    570.337    569.641    569.699    569.641
 14.570    609.538    570.215     39.323    569.507    570.157    569.507    569.565    569.507
 14.670    609.000    570.038     38.962    569.369    569.979    569.369    569.427    569.369
 14.770    589.032    569.862     19.171    569.227    569.802    569.227    569.286    569.227
 14.870    524.635    569.686    -45.051    569.081    569.626    569.081    569.141    569.081
 14.970    595.148    569.510     25.638    568.933    569.450    568.933    568.992    568.933
 15.070    580.947    569.334     11.613    568.781    569.274    568.781    568.841    568.781
 15.170    505.000    569.157    -64.157    568.625    569.097    568.625    568.685    568.625
 15.270    606.792    568.980     37.813    568.466    568.919    568.466    568.527    568.466
 15.370    595.000    568.801     26.199    568.304    568.740    568.304    568.365    568.304
 15.470    576.000    568.620      7.380    568.139    568.559    568.139    568.200    568.139
 15.570    572.000    568.438      3.562    567.971    568.376    567.971    568.032    567.971
 15.670    544.000    568.254    -24.254    567.799    568.192    567.799    567.861    567.799
 15.770    550.000    568.069    -18.069    567.624    568.006    567.624    567.687    567.624
 15.870    603.000    567.885     35.115    567.446    567.818    567.446    567.513    567.446
 15.970    583.000    567.697     15.303    567.266    567.628    567.266    567.334    567.266
 16.070    543.366    567.505    -24.140    567.082    567.437    567.082    567.150    567.082
 16.170    553.000    567.312    -14.312    566.895    567.243    566.895    566.964    566.895
 16.270    613.417    567.116     46.301    566.705    567.047    566.705    566.775    566.705
 16.370    555.000    566.918    -11.918    566.513    566.848    566.513    566.583    566.513
 16.470    572.000    566.718      5.282    566.317    566.648    566.317    566.388    566.317
 16.570    529.742    566.516    -36.774    566.119    566.445    566.119    566.190    566.119
 16.670    558.000    566.312     -8.312    565.918    566.240    565.918    565.989    565.918
 16.770    561.521    566.107     -4.586    565.715    566.035    565.715    565.786    565.715
 16.870    584.729    565.899     18.830    565.508    565.827    565.508    565.580    565.508
 16.970    554.000    565.688    -11.688    565.299    565.615    565.299    565.372    565.299
 17.070    538.853    565.475    -26.622    565.088    565.401    565.088    565.161    565.088
 17.170    588.000    565.259     22.741    564.874    565.186    564.874    564.947    564.874
 17.270    582.000    565.042     16.958    564.657    564.968    564.657    564.731    564.657
 17.370    556.000    564.822     -8.822    564.438    564.748    564.438    564.513    564.438
 17.470    573.000    564.601      8.399    564.217    564.526    564.217    564.292    564.217
 17.570    582.000    564.378     17.622    563.993    564.302    563.993    564.068    563.993
 17.670    607.308    564.152     43.156    563.766    564.076    563.766    563.842    563.766
 17.770    554.000    563.924     -9.924    563.538    563.848    563.538    563.614    563.538
 17.870    610.188    563.695     46.493    563.307    563.617    563.307    563.384    563.307
 17.970    535.835    563.463    -27.628    563.074    563.385    563.074    563.151    563.074
 18.070    537.364    563.229    -25.865    562.838    563.151    562.838    562.916    562.838
 18.170    541.000    562.994    -21.994    562.601    562.915    562.601    562.679    562.601
 18.270    556.050    562.756     -6.706    562.361    562.677    562.361    562.440    562.361
 18.370    600.237    562.517     37.720    562.119    562.437    562.119    562.199    562.119
 18.470    548.000    562.276    -14.276    561.875    562.195    561.875    561.956    561.875
 18.570    604.245    562.033     42.212    561.629    561.952    561.629    561.710    561.629
 18.670    585.000    561.789     23.211    561.381    561.708    561.381    561.463    561.381
 18.770    538.000    561.544    -23.544    561.132    561.462    561.132    561.214    561.132
 18.870    579.000    561.296     17.704    560.880    561.214    560.880    560.963    560.880
 18.970    554.000    561.047     -7.047    560.626    560.964    560.626    560.709    560.626
 19.070    497.000    560.796    -63.796    560.370    560.712    560.370    560.454    560.370
 19.170    561.000    560.545      0.455    560.113    560.460    560.113    560.198    560.113
 19.270    550.000    560.304    -10.304    559.854    560.219    559.854    559.939    559.854
 19.370    525.000    560.059    -35.059    559.593    559.973    559.593    559.679    559.593
 19.470    584.309    559.804     24.505    559.330    559.717    559.330    559.417    559.330
 19.570    558.000    559.545     -1.545    559.065    559.458    559.065    559.153    559.065
 19.670    577.000    559.286     17.714    558.799    559.198    558.799    558.888    558.799
 19.770    526.707    559.026    -32.319    558.532    558.936    558.532    558.621    558.532
 19.870    555.213    558.764     -3.551    558.262    558.674    558.262    558.352    558.262
 19.970    570.000    558.501     11.499    557.991    558.410    557.991    558.082    557.991
 20.070    547.000    558.237    -11.237    557.719    558.145    557.719    557.810    557.719
 20.170    535.000    557.972    -22.972    557.445    557.880    557.445    557.537    557.445
 20.270    563.000    557.715      5.285    557.170    557.622    557.170    557.263    557.170
 20.370    591.000    557.538     33.462    556.893    557.444    556.893    556.987    556.893
 20.470    598.000    557.294     40.706    556.614    557.199    556.614    556.710    556.614
 20.570    542.000    557.029    -15.029    556.335    556.932    556.335    556.432    556.335
 20.670    554.235    556.761     -2.525    556.054    556.662    556.054    556.153    556.054
 20.770    528.655    556.491    -27.837    555.772    556.391    555.772    555.872    555.772
 20.870    595.000    556.221     38.779    555.488    556.120    555.488    555.589    555.488
 20.970    541.605    555.951    -14.346    555.203    555.848    555.203    555.306    555.203
 21.070    551.000    555.680     -4.680    554.917    555.576    554.917    555.021    554.917
 21.170    549.000    555.411     -6.411    554.630    555.306    554.630    554.734    554.630
 21.270    555.000    555.163     -0.163    554.342    555.057    554.342    554.447    554.342
 21.370    617.000    554.922     62.078    554.052    554.815    554.052    554.159    554.052
 21.470    577.000    554.654     22.346    553.762    554.546    553.762    553.869    553.762
 21.570    570.003    554.383     15.620    553.470    554.274    553.470    553.579    553.470
 21.670    555.000    554.115      0.885    553.177    554.005    553.177    553.287    553.177
 21.770    599.000    553.851     45.149    552.883    553.739    552.883    552.995    552.883
 21.870    518.241    553.590    -35.349    552.589    553.478    552.589    552.702    552.589
 21.970    581.505    553.370     28.134    552.293    553.256    552.293    552.407    552.293
 22.070    520.000    553.124    -33.124    551.997    553.008    551.997    552.112    551.997
 22.170    569.000    552.862     16.138    551.699    552.745    551.699    551.816    551.699
 22.270    540.623    552.601    -11.978    551.401    552.482    551.401    551.519    551.401
 22.370    550.000    552.342     -2.342    551.102    552.222    551.102    551.222    551.102
 22.470    533.000    552.087    -19.087    550.802    551.965    550.802    550.923    550.802
 22.570    555.000    551.835      3.165    550.501    551.712    550.501    550.624    550.501
 22.670    544.000    551.589     -7.589    550.199    551.464    550.199    550.324    550.199
 22.770    572.000    551.348     20.652    549.897    551.222    549.897    550.024    549.897
 22.870    550.000    551.115     -1.115    549.594    550.986    549.594    549.723    549.594
 22.970    545.000    550.890     -5.890    549.290    550.760    549.290    549.421    549.290
 23.070    573.646    550.676     22.971    548.986    550.544    548.986    549.119    548.986
 23.170    610.000    550.475     59.525    548.681    550.341    548.681    548.816    548.681
 23.270    533.000    550.292    -17.292    548.376    550.156    548.376    548.512    548.376
 23.370    563.548    550.130     13.418    548.069    549.992    548.069    548.208    548.069
 23.470    575.030    549.997     25.033    547.763    549.857    547.763    547.904    547.763
 23.570    552.000    549.901      2.099    547.456    549.758    547.456    547.599    547.456
 23.670    530.000    549.855    -19.855    547.148    549.710    547.148    547.294    547.148
 23.770    546.000    549.879     -3.879    546.840    549.731    546.840    546.989    546.840
 23.870    511.979    550.001    -38.022    546.531    549.851    546.531    546.683    546.531
 23.970    487.000    550.277    -63.277    546.222    550.124    546.222    546.377    546.222
 24.070    525.787    550.838    -25.051    545.913    550.683    545.913    546.071    545.913
 24.170    588.000    552.061     35.939    545.603    551.904    545.603    545.764    545.603
 24.270    566.000    554.967     11.033    545.293    554.809    545.293    545.457    545.293
 24.370    593.000    561.627     31.373    544.983    561.471    544.983    545.151    544.983
 24.470    587.000    574.910     12.090    544.672    574.759    544.672    544.844    544.672
 24.570    562.000    596.170    -34.170    544.361    596.031    544.361    544.537    544.361
 24.670    627.842    621.204      6.639    544.050    621.078    544.050    544.229    544.050
 24.770    638.000    637.729      0.271    543.739    637.611    543.739    543.922    543.739
 24.870    604.000    633.683    -29.683    543.427    633.558    543.427    543.615    543.427
 24.970    650.741    612.335     38.407    543.115    612.190    543.115    543.308    543.115
 25.070    594.000    587.261      6.739    542.803    587.094    542.803    543.002    542.803
 25.170    511.000    568.062    -57.062    542.491    567.875    542.491    542.695    542.491
 25.270    549.000    556.703     -7.703    542.179    556.502    542.179    542.389    542.179
 25.370    535.120    551.010    -15.890    541.867    550.799    541.867    542.083    541.867
 25.470    560.000    548.284     11.716    541.555    548.065    541.555    541.777    541.555
 25.570    509.000    546.829    -37.829    541.242    546.602    541.242    541.472    541.242
 25.670    579.788    545.898     33.889    540.930    545.663    540.930    541.167    540.930
 25.770    594.000    545.245     48.755    540.618    545.001    540.618    540.863    540.618
 25.870    547.000    544.722      2.278    540.305    544.469    540.305    540.559    540.305
 25.970    571.000    544.280     26.720    539.993    544.018    539.993    540.256    539.993
 26.070    566.000    543.909     22.091    539.681    543.636    539.681    539.954    539.681
 26.170    588.887    543.601     45.286    539.369    543.317    539.369    539.653    539.369
 26.270    564.000    543.351     20.649    539.057    543.055    539.057    539.353    539.057
 26.370    504.943    543.153    -38.211    538.745    542.844    538.745    539.054    538.745
 26.470    582.000    543.010     38.990    538.433    542.687    538.433    538.757    538.433
 26.570    554.927    542.935     11.992    538.122    542.596    538.122    538.460    538.122
 26.670    577.582    542.935     34.646    537.810    542.579    537.810    538.166    537.810
 26.770    536.000    542.985     -6.985    537.499    542.611    537.499    537.874    537.499
 26.870    535.982    543.120     -7.138    537.188    542.724    537.188    537.583    537.188
 26.970    562.000    543.362     18.638    536.878    542.944    536.878    537.295    536.878
 27.070    580.000    543.742     36.258    536.567    543.298    536.567    537.010    536.567
 27.170    560.000    544.302     15.698    536.257    543.829    536.257    536.729    536.257
 27.270    537.000    545.105     -8.105    535.947    544.601    535.947    536.451    535.947
 27.370    567.000    546.253     20.747    535.638    545.712    535.638    536.177    535.638
 27.470    565.000    547.934     17.066    535.329    547.353    535.329    535.908    535.329
 27.570    525.000    550.624    -25.624    535.020    549.996    535.020    535.646    535.020
 27.670    536.000    555.935    -19.935    534.712    555.252    534.712    535.390    534.712
 27.770    543.772    568.780    -25.009    534.404    568.033    534.404    535.143    534.404
 27.870    601.000    600.454      0.546    534.097    599.626    534.097    534.906    534.097
 27.970    679.000    666.917     12.083    533.790    665.986    533.790    534.681    533.790
 28.070    772.000    773.402     -1.402    533.483    772.344    533.483    534.472    533.483
 28.170    838.277    889.982    -51.704    533.177    888.783    533.177    534.281    533.177
 28.270    912.851    947.398    -34.547    532.872    946.063    532.872    534.115    532.872
 28.370    826.000    900.000    -74.000    532.567    898.529    532.567    533.979    532.567
 28.470    779.000    797.006    -18.006    532.262    795.357    532.262    533.885    532.262
 28.570    742.900    716.348     26.552    531.958    714.445    531.958    533.849    531.958
 28.670    709.000    698.791     10.209    531.655    696.532    531.655    533.899    531.655
 28.770    715.675    740.771    -25.096    531.352    738.021    531.352    534.083    531.352
 28.870    757.000    805.006    -48.006    531.050    801.564    531.050    534.479    531.050
 28.970    877.131    835.019     42.112    530.749    830.566    530.749    535.204    530.749
 29.070    776.000    797.053    -21.053    530.448    791.103    530.448    536.410    530.448
 29.170    744.272    719.822     24.451    530.148    711.717    530.148    538.265    530.148
 29.270    650.000    647.942      2.058    529.848    636.902    529.848    540.896    529.848
 29.370    596.000    601.966     -5.966    529.549    587.229    529.549    544.288    529.549
 29.470    551.001    580.149    -29.148    529.251    561.305    529.251    548.095    529.251
 29.570    573.000    572.007      0.993    528.954    549.580    528.954    551.379    528.954
 29.670    605.543    568.277     37.266    528.657    544.218    528.657    552.714    528.657
 29.770    530.840    564.199    -33.359    528.361    541.316    528.361    551.243    528.361
 29.870    520.000    558.986    -38.986    528.066    539.435    528.066    547.615    528.066
 29.970    583.000    553.586     29.414    527.772    538.116    527.772    543.239    527.772
 30.070    587.000    548.883     38.117    527.478    537.208    527.478    539.151    527.478
 30.170    576.000    545.286     30.714    527.185    536.681    527.185    535.787    527.185
 30.270    515.237    542.974    -27.737    526.893    536.656    526.893    533.209    526.893
 30.370    585.000    542.298     42.702    526.602    537.590    526.602    531.306    526.602
