neutron_powder_diffraction_0089
R_wp: 4.093
Temperature (K): 835.685
Counts: 83459.00
Wavelength (Ã…): 2.52098
COMMENTS
Test file for demonstrating the .xyy file format in Reel1.0
END OF HEADER
   tth       Y_obs     Y_calc      Y_res    Background    Phase_1_Nuc    Phase_1_Mag    Phase_2_Nuc    Phase_2_Mag
  9.970    628.000    547.102     80.898    545.277    546.360    545.277    545.800    545.496
 10.070    590.828    547.960     42.867    546.040    547.214    546.040    546.565    546.261
 10.170    555.205    548.817      6.387    546.789    548.067    546.789    547.316    547.013
 10.270    562.000    549.677     12.323    547.524    548.922    547.524    548.053    547.750
 10.370    603.000    550.540     52.460    548.245    549.780    548.245    548.776    548.473
 10.470    563.755    551.411     12.344    548.952    550.648    548.952    549.485    549.182
 10.570    594.000    552.297     41.703    549.645    551.529    549.645    550.181    549.877
 10.670    555.000    553.205      1.795    550.324    552.432    550.324    550.862    550.558
 10.770    592.000    554.143     37.857    550.990    553.365    550.990    551.530    551.226
 10.870    577.000    555.124     21.876    551.642    554.342    551.642    552.184    551.881
 10.970    586.000    556.166     29.834    552.281    555.378    552.281    552.825    552.522
 11.070    578.000    557.291     20.709    552.906    556.499    552.906    553.453    553.150
 11.170    552.722    558.535     -5.813    553.519    557.738    553.519    554.068    553.764
 11.270    580.197    559.950     20.247    554.118    559.148    554.118    554.669    554.366
 11.370    592.000    561.628     30.372    554.704    560.820    554.704    555.258    554.955
 11.470    578.000    563.756     14.244    555.277    562.943    555.277    555.833    555.531
 11.570    581.000    566.758     14.242    555.838    565.938    555.838    556.396    556.094
 11.670    587.000    571.552     15.448    556.386    570.725    556.386    556.947    556.644
 11.770    582.000    579.832      2.168    556.921    578.995    556.921    557.484    557.182
 11.870    600.000    593.940      6.060    557.444    593.091    557.444    558.010    557.708
 11.970    649.000    615.766     33.234    557.954    614.900    557.954    558.523    558.221
 12.070    649.516    644.357      5.159    558.453    643.470    558.453    559.023    558.722
 12.170    679.000    672.410      6.590    558.939    671.503    558.939    559.512    559.211
 12.270    655.000    685.043    -30.043    559.413    684.123    559.413    559.989    559.688
 12.370    636.076    672.671    -36.594    559.875    671.752    559.875    560.453    560.153
 12.470    634.000    645.305    -11.305    560.325    644.396    560.325    560.906    560.607
 12.570    618.000    617.779      0.221    560.764    616.880    560.764    561.347    561.048
 12.670    590.000    597.154     -7.154    561.191    596.261    561.191    561.777    561.478
 12.770    585.000    584.229      0.771    561.606    583.338    561.606    562.195    561.897
 12.870    592.000    577.061     14.939    562.010    576.168    562.010    562.601    562.304
 12.970    559.000    573.310    -14.310    562.402    572.414    562.402    562.997    562.700
 13.070    578.000    571.310      6.690    562.784    570.409    562.784    563.381    563.084
 13.170    587.000    570.162     16.838    563.154    569.255    563.154    563.754    563.458
 13.270    561.000    569.456     -8.456    563.513    568.543    563.513    564.116    563.820
 13.370    592.000    569.010     22.990    563.861    568.091    563.861    564.467    564.172
 13.470    506.000    568.735    -62.735    564.199    567.811    564.199    564.807    564.513
 13.570    582.000    568.580     13.420    564.525    567.649    564.525    565.136    564.843
 13.670    541.000    568.510    -27.510    564.841    567.573    564.841    565.455    565.163
 13.770    614.419    568.503     45.916    565.146    567.559    565.146    565.764    565.472
 13.870    586.298    568.542     17.756    565.441    567.592    565.441    566.061    565.770
 13.970    585.000    568.616     16.384    565.726    567.659    565.726    566.349    566.059
 14.070    538.000    568.712    -30.712    566.000    567.748    566.000    566.626    566.337
 14.170    560.000    568.827     -8.827    566.264    567.856    566.264    566.893    566.605
 14.270    532.000    568.954    -36.954    566.518    567.976    566.518    567.150    566.863
 14.370    566.848    569.091     -2.243    566.762    568.105    566.762    567.397    567.111
 14.470    533.000    569.238    -36.238    566.996    568.245    566.996    567.635    567.350
 14.570    545.000    569.405    -24.405    567.220    568.405    567.220    567.862    567.578
 14.670    540.840    569.608    -28.768    567.435    568.600    567.435    568.080    567.797
 14.770    570.632    569.835      0.797    567.639    568.819    567.639    568.288    568.006
 14.870    523.000    569.987    -46.987    567.835    568.963    567.835    568.487    568.206
 14.970    560.434    570.129     -9.695    568.021    569.097    568.021    568.676    568.397
 15.070    547.000    570.267    -23.267    568.197    569.227    568.197    568.856    568.578
 15.170    622.000    570.401     51.599    568.364    569.353    568.364    569.026    568.750
 15.270    542.494    570.530    -28.037    568.522    569.474    568.522    569.188    568.913
 15.370    526.000    570.655    -44.655    568.671    569.589    568.671    569.340    569.067
 15.470    578.911    570.774      8.137    568.811    569.699    568.811    569.484    569.212
 15.570    567.141    570.887     -3.746    568.942    569.804    568.942    569.619    569.349
 15.670    583.000    570.994     12.006    569.064    569.902    569.064    569.744    569.476
 15.770    551.000    571.095    -20.095    569.178    569.993    569.178    569.862    569.595
 15.870    547.000    571.189    -24.189    569.282    570.078    569.282    569.970    569.705
 15.970    575.000    571.277      3.723    569.379    570.157    569.379    570.070    569.807
 16.070    610.943    571.358     39.585    569.466    570.228    569.466    570.162    569.901
 16.170    571.000    571.433     -0.433    569.546    570.293    569.546    570.245    569.986
 16.270    526.000    571.501    -45.501    569.617    570.351    569.617    570.320    570.063
 16.370    562.000    571.562     -9.562    569.679    570.402    569.679    570.387    570.132
 16.470    564.958    571.617     -6.659    569.734    570.446    569.734    570.445    570.193
 16.570    535.000    571.665    -36.665    569.780    570.483    569.780    570.496    570.246
 16.670    566.000    571.705     -5.705    569.819    570.513    569.819    570.539    570.291
 16.770    590.000    571.740     18.260    569.850    570.537    569.850    570.574    570.329
 16.870    569.000    571.772     -2.772    569.872    570.557    569.872    570.601    570.359
 16.970    547.000    571.794    -24.794    569.888    570.568    569.888    570.620    570.381
 17.070    527.154    571.814    -44.661    569.895    570.576    569.895    570.632    570.396
 17.170    567.000    571.822     -4.822    569.895    570.573    569.895    570.637    570.403
 17.270    576.000    571.823      4.177    569.887    570.561    569.887    570.634    570.403
 17.370    564.647    571.818     -7.171    569.872    570.543    569.872    570.623    570.396
 17.470    537.700    571.806    -34.106    569.850    570.518    569.850    570.606    570.381
 17.570    570.000    571.787     -1.787    569.820    570.487    569.820    570.581    570.360
 17.670    529.000    571.762    -42.762    569.783    570.449    569.783    570.549    570.332
 17.770    549.869    571.731    -21.862    569.740    570.404    569.740    570.510    570.296
 17.870    541.000    571.694    -30.694    569.689    570.353    569.689    570.464    570.254
 17.970    558.000    571.663    -13.663    569.631    570.308    569.631    570.412    570.205
 18.070    576.065    571.673      4.391    569.566    570.304    569.566    570.352    570.150
 18.170    567.000    571.624     -4.624    569.495    570.240    569.495    570.286    570.088
 18.270    557.000    571.563    -14.563    569.417    570.164    569.417    570.213    570.019
 18.370    593.433    571.496     21.938    569.332    570.081    569.332    570.134    569.944
 18.470    602.413    571.423     30.990    569.240    569.993    569.240    570.048    569.863
 18.570    576.495    571.349      5.146    569.143    569.903    569.143    569.956    569.776
 18.670    533.000    571.274    -38.274    569.038    569.811    569.038    569.858    569.682
 18.770    552.000    571.185    -19.185    568.928    569.706    568.928    569.753    569.583
 18.870    581.000    571.092      9.908    568.811    569.595    568.811    569.642    569.477
 18.970    558.934    571.014    -12.080    568.688    569.499    568.688    569.525    569.366
 19.070    536.223    570.914    -34.691    568.559    569.382    568.559    569.403    569.249
 19.170    522.097    570.804    -48.707    568.424    569.253    568.424    569.274    569.126
 19.270    560.000    570.689    -10.689    568.283    569.118    568.283    569.139    568.997
 19.370    582.075    570.569     11.506    568.136    568.979    568.136    568.999    568.863
 19.470    586.000    570.452     15.548    567.983    568.843    567.983    568.853    568.724
 19.570    520.000    570.326    -50.326    567.825    568.696    567.825    568.701    568.579
 19.670    612.505    570.192     42.313    567.661    568.541    567.661    568.544    568.429
 19.770    597.000    570.054     26.946    567.491    568.382    567.491    568.381    568.273
 19.870    530.000    569.911    -39.911    567.316    568.216    567.316    568.213    568.113
 19.970    606.000    569.763     36.237    567.135    568.046    567.135    568.040    567.947
 20.070    546.000    569.611    -23.611    566.949    567.871    566.949    567.861    567.777
 20.170    547.000    569.465    -22.465    566.757    567.701    566.757    567.678    567.601
 20.270    599.370    569.346     30.025    566.561    567.557    566.561    567.489    567.421
 20.370    612.389    569.186     43.203    566.359    567.373    566.359    567.295    567.236
 20.470    595.285    569.019     26.266    566.152    567.180    566.152    567.097    567.047
 20.570    567.898    568.849     -0.951    565.940    566.983    565.940    566.893    566.853
 20.670    535.000    568.675    -33.675    565.723    566.782    565.723    566.685    566.655
 20.770    567.425    568.498     -1.073    565.501    566.577    565.501    566.472    566.452
 20.870    542.000    568.321    -26.321    565.274    566.370    565.274    566.254    566.245
 20.970    520.677    568.163    -47.487    565.043    566.183    565.043    566.032    566.034
 21.070    538.000    568.010    -30.010    564.806    565.998    564.806    565.805    565.819
 21.170    533.000    567.857    -34.857    564.566    565.814    564.566    565.574    565.600
 21.270    527.051    567.704    -40.653    564.320    565.629    564.320    565.338    565.378
 21.370    596.027    567.524     28.503    564.070    565.415    564.070    565.099    565.151
 21.470    524.813    567.353    -42.541    563.816    565.210    563.816    564.855    564.921
 21.570    556.426    567.166    -10.740    563.557    564.986    563.557    564.607    564.687
 21.670    571.000    567.011      3.989    563.294    564.795    563.294    564.355    564.450
 21.770    550.000    566.835    -16.835    563.026    564.581    563.026    564.099    564.209
 21.870    613.000    566.644     46.356    562.755    564.350    562.755    563.839    563.965
 21.970    582.000    566.451     15.549    562.479    564.117    562.479    563.576    563.718
 22.070    560.000    566.263     -6.263    562.199    563.887    562.199    563.308    563.468
 22.170    555.000    566.072    -11.072    561.916    563.652    561.916    563.037    563.215
 22.270    605.516    565.893     39.624    561.628    563.428    561.628    562.763    562.959
 22.370    545.000    565.708    -20.708    561.336    563.197    561.336    562.485    562.701
 22.470    528.000    565.527    -37.527    561.041    562.967    561.041    562.203    562.440
 22.570    554.000    565.347    -11.347    560.742    562.737    560.742    561.918    562.176
 22.670    607.000    565.173     41.827    560.439    562.511    560.439    561.630    561.910
 22.770    612.000    565.006     46.994    560.132    562.291    560.132    561.339    561.642
 22.870    564.000    564.849     -0.849    559.822    562.078    559.822    561.045    561.372
 22.970    537.000    564.703    -27.703    559.509    561.874    559.509    560.748    561.100
 23.070    548.000    564.572    -16.572    559.192    561.684    559.192    560.447    560.826
 23.170    563.000    564.459     -1.459    558.871    561.509    558.871    560.144    560.550
 23.270    536.000    564.370    -28.370    558.547    561.354    558.547    559.839    560.273
 23.370    601.113    564.311     36.802    558.220    561.228    558.220    559.530    559.995
 23.470    522.802    564.290    -41.488    557.890    561.137    557.890    559.219    559.715
 23.570    584.000    564.321     19.679    557.556    561.095    557.556    558.906    559.435
 23.670    541.391    564.412    -23.021    557.220    561.110    557.220    558.590    559.154
 23.770    556.778    564.587     -7.810    556.880    561.206    556.880    558.272    558.872
 23.870    515.000    564.882    -49.882    556.537    561.419    556.537    557.952    558.589
 23.970    552.000    565.354    -13.354    556.192    561.805    556.192    557.629    558.307
 24.070    525.592    566.119    -40.528    555.843    562.480    555.843    557.305    558.024
 24.170    627.000    567.434     59.566    555.492    563.702    555.492    556.979    557.742
 24.270    550.000    569.845    -19.845    555.138    566.016    555.138    556.651    557.460
 24.370    620.000    574.350     45.650    554.781    570.421    554.781    556.322    557.179
 24.470    580.000    582.350     -2.350    554.421    578.320    554.421    555.991    556.898
 24.570    643.111    595.084     48.027    554.059    590.950    554.059    555.659    556.620
 24.670    607.000    612.330     -5.330    553.694    608.089    553.694    555.325    556.342
 24.770    687.000    630.420     56.580    553.327    626.069    553.327    554.990    556.067
 24.870    628.317    641.107    -12.790    552.957    636.633    552.957    554.655    555.794
 24.970    685.000    637.262     47.738    552.585    632.648    552.585    554.318    555.523
 25.070    630.000    621.688      8.312    552.210    616.919    552.210    553.981    555.255
 25.170    581.000    603.030    -22.030    551.834    598.095    551.834    553.644    554.991
 25.270    586.000    587.377     -1.377    551.454    582.272    551.454    553.306    554.730
 25.370    597.000    576.575     20.425    551.073    571.293    551.073    552.968    554.474
 25.470    533.643    570.000    -36.358    550.690    564.536    550.690    552.630    554.223
 25.570    555.292    566.254    -10.962    550.304    560.600    550.304    552.292    553.977
 25.670    610.718    564.103     46.615    549.917    558.250    549.917    551.955    553.737
 25.770    584.000    562.775     21.225    549.527    556.712    549.527    551.618    553.503
 25.870    573.249    561.879     11.370    549.135    555.595    549.135    551.283    553.276
 25.970    579.000    561.236     17.764    548.742    554.718    548.742    550.948    553.057
 26.070    579.000    560.765     18.235    548.347    554.000    548.347    550.615    552.847
 26.170    531.000    560.427    -29.427    547.949    553.399    547.949    550.284    552.646
 26.270    547.594    560.195    -12.601    547.551    552.890    547.551    549.954    552.455
 26.370    550.000    560.058    -10.058    547.150    552.458    547.150    549.627    552.275
 26.470    562.189    560.008      2.181    546.748    552.096    546.748    549.303    552.107
 26.570    623.000    560.044     62.956    546.344    551.800    546.344    548.982    551.951
 26.670    593.000    560.167     32.833    545.938    551.572    545.938    548.664    551.810
 26.770    545.174    560.383    -15.209    545.531    551.415    545.531    548.349    551.684
 26.870    606.171    560.704     45.467    545.123    551.339    545.123    548.039    551.574
 26.970    589.000    561.145     27.855    544.713    551.358    544.713    547.733    551.481
 27.070    591.000    561.729     29.271    544.301    551.495    544.301    547.432    551.407
 27.170    614.282    562.491     51.792    543.889    551.781    543.889    547.136    551.352
 27.270    606.321    563.479     42.842    543.475    552.265    543.475    546.846    551.319
 27.370    561.000    564.764     -3.764    543.059    553.015    543.059    546.563    551.307
 27.470    585.472    566.475     18.997    542.643    554.158    542.643    546.285    551.319
 27.570    634.000    568.909     65.091    542.225    555.990    542.225    546.015    551.355
 27.670    599.000    572.957     26.043    541.807    559.401    541.807    545.752    551.416
 27.770    562.630    581.380    -18.751    541.387    567.151    541.387    545.496    551.504
 27.870    638.000    601.123     36.877    540.966    586.178    540.966    545.248    551.618
 27.970    671.000    644.387     26.613    540.544    628.683    540.544    545.007    551.758
 28.070    759.000    722.442     36.558    540.121    705.936    540.121    544.774    551.924
 28.170    847.000    828.799     18.201    539.698    811.458    539.698    544.548    552.115
 28.270    952.000    923.721     28.279    539.273    905.531    539.273    544.329    552.329
 28.370    908.395    950.039    -41.645    538.847    930.994    538.847    544.116    552.564
 28.470    901.000    892.007      8.993    538.421    872.091    538.421    543.908    552.816
 28.570    776.000    802.536    -26.536    537.994    781.724    537.994    543.703    553.079
 28.670    750.000    743.555      6.445    537.567    721.827    537.567    543.499    553.348
 28.770    728.000    740.732    -12.732    537.138    718.084    537.138    543.294    553.615
 28.870    799.000    781.654     17.346    536.709    758.100    536.709    543.085    553.871
 28.970    860.000    828.367     31.633    536.280    803.945    536.280    542.869    554.105
 29.070    842.000    837.636      4.364    535.849    812.393    535.849    542.642    554.305
 29.170    777.647    794.688    -17.041    535.419    768.681    535.419    542.401    554.459
 29.270    732.000    725.820      6.180    534.988    699.118    534.988    542.140    554.554
 29.370    646.000    662.949    -16.949    534.556    635.641    534.556    541.857    554.577
 29.470    599.000    620.122    -21.122    534.124    592.317    534.124    541.547    554.515
 29.570    630.000    596.325     33.675    533.692    568.148    533.692    541.208    554.359
 29.670    655.000    584.644     70.356    533.259    556.232    533.259    540.836    554.100
 29.770    630.444    578.896     51.548    532.826    550.390    532.826    540.430    553.734
 29.870    583.000    575.614      7.386    532.393    547.159    532.393    539.989    553.257
 29.970    588.000    573.341     14.659    531.960    545.079    531.960    539.514    552.671
 30.070    579.000    571.567      7.433    531.526    543.635    531.526    539.007    551.982
 30.170    526.602    570.145    -43.543    531.092    542.668    531.092    538.469    551.196
 30.270    550.569    569.107    -18.538    530.658    542.198    530.658    537.905    550.324
 30.370    598.000    568.702     29.298    530.224    542.458    530.224    537.317    549.379
