neutron_powder_diffraction_0219
R_wp: 4.004
Temperature (K): 1074.000
Counts: 83933.00
Wavelength (Ã…): 2.52098
COMMENTS
Test file for demonstrating the .xyy file format in Reel1.0
END OF HEADER
   tth       Y_obs     Y_calc      Y_res    Background    Phase_1_Nuc    Phase_1_Mag    Phase_2_Nuc    Phase_2_Mag
  9.970    620.000    572.980     47.020    572.290    572.952    572.290    572.318    572.290
 10.070    590.000    573.142     16.858    572.394    573.113    572.394    572.422    572.394
 10.170    603.000    573.306     29.694    572.492    573.277    572.492    572.520    572.492
 10.270    586.000    573.473     12.527    572.583    573.444    572.583    572.612    572.583
 10.370    623.000    573.646     49.354    572.669    573.617    572.669    572.698    572.669
 10.470    607.000    573.830     33.170    572.748    573.799    572.748    572.778    572.748
 10.570    566.000    574.025     -8.025    572.821    573.994    572.821    572.852    572.821
 10.670    544.505    574.238    -29.733    572.888    574.206    572.888    572.919    572.888
 10.770    613.000    574.475     38.525    572.949    574.442    572.949    572.980    572.949
 10.870    584.000    574.745      9.255    573.004    574.712    573.004    573.036    573.004
 10.970    629.000    575.060     53.940    573.053    575.027    573.053    573.086    573.053
 11.070    543.204    575.439    -32.235    573.097    575.405    573.097    573.130    573.097
 11.170    570.000    575.908     -5.908    573.135    575.872    573.135    573.169    573.135
 11.270    594.477    576.516     17.961    573.167    576.469    573.167    573.212    573.167
 11.370    554.000    577.312    -23.312    573.193    577.263    573.193    573.240    573.193
 11.470    621.382    578.458     42.924    573.214    578.408    573.214    573.261    573.214
 11.570    579.772    580.374     -0.602    573.229    580.323    573.229    573.276    573.229
 11.670    626.346    584.231     42.116    573.239    584.177    573.239    573.286    573.239
 11.770    579.456    592.699    -13.243    573.243    592.640    573.243    573.291    573.243
 11.870    658.000    610.002     47.998    573.242    609.933    573.242    573.290    573.242
 11.970    628.000    639.327    -11.327    573.235    639.242    573.235    573.284    573.235
 12.070    695.000    676.837     18.163    573.224    676.731    573.224    573.272    573.224
 12.170    657.000    706.252    -49.252    573.207    706.129    573.207    573.256    573.207
 12.270    679.000    707.195    -28.195    573.185    707.065    573.185    573.240    573.185
 12.370    670.000    678.795     -8.795    573.157    678.680    573.157    573.213    573.157
 12.470    575.000    641.082    -66.082    573.125    640.988    573.125    573.181    573.125
 12.570    588.000    611.060    -23.060    573.088    610.983    573.088    573.144    573.088
 12.670    568.000    593.132    -25.132    573.046    593.064    573.046    573.102    573.046
 12.770    631.282    584.288     46.994    572.999    584.225    572.999    573.056    572.999
 12.870    536.000    580.244    -44.244    572.947    580.183    572.947    573.004    572.947
 12.970    623.435    578.232     45.203    572.890    578.172    572.890    572.947    572.890
 13.070    599.193    577.024     22.169    572.828    576.964    572.828    572.886    572.828
 13.170    592.328    576.179     16.150    572.762    576.119    572.762    572.820    572.762
 13.270    540.000    575.537    -35.537    572.691    575.477    572.691    572.750    572.691
 13.370    565.307    575.028     -9.721    572.616    574.968    572.616    572.674    572.616
 13.470    585.459    574.611     10.847    572.536    574.551    572.536    572.595    572.536
 13.570    538.000    574.260    -36.260    572.451    574.200    572.451    572.511    572.451
 13.670    620.847    573.957     46.890    572.362    573.896    572.362    572.422    572.362
 13.770    528.000    573.689    -45.689    572.269    573.628    572.269    572.329    572.269
 13.870    562.935    573.446    -10.512    572.171    573.385    572.171    572.231    572.171
 13.970    610.000    573.224     36.776    572.069    573.163    572.069    572.130    572.069
 14.070    548.000    573.016    -25.016    571.962    572.955    571.962    572.024    571.962
 14.170    605.000    572.820     32.180    571.852    572.758    571.852    571.914    571.852
 14.270    514.000    572.634    -58.634    571.737    572.569    571.737    571.802    571.737
 14.370    551.000    572.452    -21.452    571.619    572.386    571.619    571.684    571.619
 14.470    577.000    572.275      4.725    571.496    572.208    571.496    571.563    571.496
 14.570    593.471    572.101     21.370    571.369    572.033    571.369    571.436    571.369
 14.670    555.000    571.931    -16.931    571.238    571.863    571.238    571.306    571.238
 14.770    540.000    571.761    -31.761    571.103    571.692    571.103    571.172    571.103
 14.870    567.139    571.590     -4.452    570.965    571.521    570.965    571.034    570.965
 14.970    532.000    571.419    -39.419    570.822    571.349    570.822    570.892    570.822
 15.070    533.764    571.247    -37.483    570.676    571.177    570.676    570.746    570.676
 15.170    585.265    571.074     14.191    570.526    571.003    570.526    570.596    570.526
 15.270    604.000    570.900     33.100    570.372    570.829    570.372    570.443    570.372
 15.370    606.317    570.725     35.592    570.215    570.653    570.215    570.286    570.215
 15.470    528.000    570.547    -42.547    570.054    570.475    570.054    570.126    570.054
 15.570    566.000    570.368     -4.368    569.889    570.296    569.889    569.962    569.889
 15.670    572.000    570.187      1.813    569.721    570.114    569.721    569.794    569.721
 15.770    560.000    570.004    -10.004    569.550    569.930    569.550    569.623    569.550
 15.870    529.076    569.818    -40.742    569.375    569.745    569.375    569.449    569.375
 15.970    538.606    569.630    -31.024    569.197    569.556    569.197    569.271    569.197
 16.070    548.000    569.440    -21.440    569.015    569.366    569.015    569.090    569.015
 16.170    540.000    569.248    -29.248    568.830    569.173    568.830    568.905    568.830
 16.270    577.000    569.053      7.947    568.642    568.977    568.642    568.718    568.642
 16.370    594.000    568.856     25.144    568.451    568.780    568.451    568.527    568.451
 16.470    568.212    568.658     -0.447    568.256    568.582    568.256    568.333    568.256
 16.570    549.000    568.456    -19.456    568.059    568.379    568.059    568.136    568.059
 16.670    595.000    568.252     26.748    567.858    568.174    567.858    567.936    567.858
 16.770    544.148    568.045    -23.898    567.654    567.966    567.654    567.734    567.654
 16.870    599.000    567.836     31.164    567.448    567.756    567.448    567.528    567.448
 16.970    590.000    567.623     22.377    567.238    567.543    567.238    567.319    567.238
 17.070    577.000    567.409      9.591    567.025    567.327    567.025    567.106    567.025
 17.170    567.000    567.191     -0.191    566.810    567.110    566.810    566.892    566.810
 17.270    524.341    566.972    -42.631    566.592    566.890    566.592    566.674    566.592
 17.370    542.125    566.752    -24.627    566.371    566.669    566.371    566.453    566.371
 17.470    562.910    566.528     -3.619    566.147    566.445    566.147    566.230    566.147
 17.570    544.232    566.302    -22.070    565.920    566.218    565.920    566.004    565.920
 17.670    521.000    566.073    -45.073    565.691    565.988    565.691    565.776    565.691
 17.770    602.942    565.842     37.100    565.459    565.756    565.459    565.544    565.459
 17.870    567.000    565.608      1.392    565.225    565.522    565.225    565.311    565.225
 17.970    523.877    565.372    -41.495    564.988    565.286    564.988    565.074    564.988
 18.070    573.000    565.134      7.866    564.749    565.047    564.749    564.836    564.749
 18.170    587.168    564.894     22.275    564.507    564.806    564.507    564.594    564.507
 18.270    527.284    564.651    -37.367    564.262    564.563    564.262    564.351    564.262
 18.370    606.296    564.407     41.889    564.016    564.318    564.016    564.105    564.016
 18.470    525.613    564.160    -38.547    563.767    564.070    563.767    563.856    563.767
 18.570    570.000    563.911      6.089    563.515    563.821    563.515    563.606    563.515
 18.670    563.000    563.661     -0.661    563.262    563.570    563.262    563.353    563.262
 18.770    609.337    563.409     45.928    563.006    563.317    563.006    563.098    563.006
 18.870    589.289    563.159     26.130    562.748    563.061    562.748    562.845    562.748
 18.970    561.000    562.905     -1.905    562.488    562.804    562.488    562.588    562.488
 19.070    581.341    562.647     18.694    562.225    562.546    562.225    562.326    562.225
 19.170    536.000    562.387    -26.387    561.961    562.285    561.961    562.063    561.961
 19.270    556.000    562.126     -6.126    561.694    562.024    561.694    561.797    561.694
 19.370    566.941    561.864      5.077    561.426    561.761    561.426    561.529    561.426
 19.470    520.000    561.599    -41.599    561.156    561.495    561.156    561.260    561.156
 19.570    561.000    561.333     -0.333    560.883    561.228    560.883    560.988    560.883
 19.670    539.000    561.065    -22.065    560.609    560.959    560.609    560.715    560.609
 19.770    581.466    560.796     20.670    560.333    560.689    560.333    560.440    560.333
 19.870    576.463    560.525     15.938    560.055    560.417    560.055    560.163    560.055
 19.970    552.000    560.254     -8.254    559.775    560.145    559.775    559.884    559.775
 20.070    564.000    559.994      4.006    559.493    559.884    559.493    559.603    559.493
 20.170    566.000    559.729      6.271    559.210    559.618    559.210    559.321    559.210
 20.270    566.710    559.454      7.256    558.925    559.342    558.925    559.037    558.925
 20.370    582.000    559.177     22.823    558.639    559.064    558.639    558.752    558.639
 20.470    519.000    558.899    -39.899    558.350    558.785    558.350    558.464    558.350
 20.570    563.000    558.619      4.381    558.061    558.504    558.061    558.176    558.061
 20.670    555.000    558.339     -3.339    557.769    558.223    557.769    557.886    557.769
 20.770    523.000    558.058    -35.058    557.476    557.941    557.476    557.594    557.476
 20.870    554.000    557.777     -3.777    557.182    557.658    557.182    557.301    557.182
 20.970    555.690    557.494     -1.804    556.886    557.375    556.886    557.006    556.886
 21.070    551.667    557.212     -5.544    556.589    557.091    556.589    556.710    556.589
 21.170    544.000    556.928    -12.928    556.290    556.806    556.290    556.413    556.290
 21.270    601.876    556.645     45.232    555.990    556.521    555.990    556.114    555.990
 21.370    559.248    556.361      2.888    555.689    556.236    555.689    555.814    555.689
 21.470    578.000    556.077     21.923    555.387    555.950    555.387    555.513    555.387
 21.570    559.000    555.793      3.207    555.083    555.665    555.083    555.211    555.083
 21.670    527.000    555.509    -28.509    554.778    555.380    554.778    554.907    554.778
 21.770    550.727    555.226     -4.499    554.471    555.096    554.471    554.602    554.471
 21.870    562.000    554.944      7.056    554.164    554.812    554.164    554.296    554.164
 21.970    532.000    554.663    -22.663    553.855    554.529    553.855    553.989    553.855
 22.070    555.679    554.383      1.296    553.546    554.247    553.546    553.681    553.546
 22.170    584.482    554.104     30.377    553.235    553.967    553.235    553.372    553.235
 22.270    583.279    553.828     29.451    552.923    553.689    552.923    553.063    552.923
 22.370    545.000    553.556     -8.556    552.611    553.415    552.611    552.752    552.611
 22.470    554.000    553.306      0.694    552.297    553.164    552.297    552.440    552.297
 22.570    530.000    553.081    -23.081    551.982    552.936    551.982    552.127    551.982
 22.670    507.907    552.951    -45.043    551.666    552.804    551.666    551.814    551.666
 22.770    598.502    552.735     45.767    551.350    552.586    551.350    551.499    551.350
 22.870    531.830    552.491    -20.661    551.033    552.338    551.033    551.186    551.033
 22.970    565.000    552.253     12.747    550.714    552.096    550.714    550.871    550.714
 23.070    577.000    552.025     24.975    550.396    551.866    550.396    550.555    550.396
 23.170    603.000    551.810     51.190    550.076    551.649    550.076    550.238    550.076
 23.270    575.000    551.613     23.387    549.755    551.449    549.755    549.920    549.755
 23.370    538.000    551.438    -13.438    549.434    551.271    549.434    549.601    549.434
 23.470    578.000    551.291     26.709    549.112    551.122    549.112    549.282    549.112
 23.570    548.000    551.183     -3.183    548.790    551.011    548.790    548.963    548.790
 23.670    553.000    551.127      1.873    548.467    550.952    548.467    548.643    548.467
 23.770    584.000    551.142     32.858    548.143    550.964    548.143    548.322    548.143
 23.870    563.000    551.260     11.740    547.818    551.079    547.818    548.001    547.818
 23.970    570.000    551.534     18.466    547.494    551.350    547.494    547.680    547.494
 24.070    524.535    552.098    -27.563    547.168    551.911    547.168    547.358    547.168
 24.170    556.000    553.324      2.676    546.842    553.135    546.842    547.036    546.842
 24.270    550.000    556.191     -6.191    546.516    556.000    546.516    546.714    546.516
 24.370    559.000    562.712     -3.712    546.189    562.522    546.189    546.391    546.189
 24.470    605.000    575.631     29.369    545.862    575.445    545.862    546.068    545.862
 24.570    624.000    596.254     27.746    545.534    596.079    545.534    545.745    545.534
 24.670    602.000    620.543    -18.543    545.206    620.381    545.206    545.422    545.206
 24.770    618.000    636.590    -18.590    544.878    636.434    544.878    545.099    544.878
 24.870    614.000    632.618    -18.618    544.550    632.454    544.550    544.776    544.550
 24.970    599.000    611.830    -12.830    544.221    611.646    544.221    544.453    544.221
 25.070    597.000    587.449      9.551    543.892    587.241    543.892    544.130    543.892
 25.170    541.966    568.737    -26.770    543.562    568.508    543.562    543.808    543.562
 25.270    594.000    557.584     36.416    543.233    557.341    543.233    543.485    543.233
 25.370    576.000    551.936     24.064    542.903    551.681    542.903    543.163    542.903
 25.470    521.000    549.190    -28.190    542.573    548.926    542.573    542.841    542.573
 25.570    501.776    547.694    -45.918    542.243    547.420    542.243    542.519    542.243
 25.670    551.066    546.712      4.354    541.913    546.429    541.913    542.198    541.913
 25.770    563.000    545.969     17.031    541.583    545.675    541.583    541.878    541.583
 25.870    578.000    545.372     32.628    541.252    545.068    541.252    541.558    541.252
 25.970    525.339    544.878    -19.539    540.922    544.562    540.922    541.239    540.922
 26.070    540.140    544.460     -4.320    540.592    544.131    540.592    540.921    540.592
 26.170    592.000    544.105     47.895    540.261    543.762    540.261    540.604    540.261
 26.270    572.000    543.806     28.194    539.931    543.449    539.931    540.288    539.931
 26.370    540.000    543.558     -3.558    539.601    543.186    539.601    539.974    539.601
 26.470    544.000    543.359      0.641    539.271    542.969    539.271    539.661    539.271
 26.570    549.000    543.236      5.764    538.941    542.827    538.941    539.350    538.941
 26.670    584.000    543.164     40.836    538.611    542.735    538.611    539.040    538.611
 26.770    564.000    543.134     20.866    538.281    542.682    538.281    538.733    538.281
 26.870    516.296    543.177    -26.881    537.952    542.700    537.952    538.428    537.952
 26.970    532.299    543.312    -11.013    537.622    542.807    537.622    538.126    537.622
 27.070    549.536    543.567      5.969    537.293    543.032    537.293    537.828    537.293
 27.170    587.968    543.979     43.989    536.964    543.409    536.964    537.533    536.964
 27.270    560.000    544.598     15.402    536.635    543.989    536.635    537.243    536.635
 27.370    550.000    545.523      4.477    536.307    544.871    536.307    536.958    536.307
 27.470    590.000    546.885     43.115    535.979    546.184    535.979    536.679    535.979
 27.570    552.255    549.042      3.214    535.651    548.283    535.651    536.407    535.651
 27.670    531.353    553.361    -22.007    535.323    552.537    535.323    536.144    535.323
 27.770    545.000    564.497    -19.497    534.996    563.596    534.996    535.891    534.996
 27.870    641.711    594.447     47.264    534.670    593.450    534.670    535.650    534.670
 27.970    697.000    662.227     34.773    534.343    661.108    534.343    535.424    534.343
 28.070    786.000    776.710      9.290    534.017    775.441    534.017    535.217    534.017
 28.170    918.629    905.554     13.075    533.692    904.116    533.692    535.033    533.692
 28.270    951.317    969.245    -17.927    533.367    967.640    533.367    534.878    533.367
 28.370    894.000    915.049    -21.049    533.042    913.273    533.042    534.761    533.042
 28.470    772.862    798.811    -25.949    532.718    796.813    532.718    534.694    532.718
 28.570    726.000    709.334     16.666    532.395    707.023    532.395    534.697    532.395
 28.670    721.428    691.683     29.745    532.072    688.939    532.072    534.803    532.072
 28.770    735.189    740.172     -4.984    531.749    736.834    531.749    535.071    531.749
 28.870    836.000    812.764     23.236    531.428    808.572    531.428    535.609    531.428
 28.970    792.000    847.217    -55.217    531.106    841.732    531.106    536.598    531.106
 29.070    772.000    806.817    -34.817    530.786    799.318    530.786    538.300    530.786
 29.170    696.000    724.164    -28.164    530.466    713.607    530.466    541.038    530.466
 29.270    694.744    649.188     45.556    530.146    634.248    530.146    545.095    530.146
 29.370    606.000    604.076      1.924    529.828    583.376    529.828    550.531    529.828
 29.470    561.000    585.468    -24.468    529.510    558.131    529.510    556.847    529.510
 29.570    596.000    580.636     15.364    529.192    547.326    529.192    562.501    529.192
 29.670    637.000    578.647     58.353    528.876    542.560    528.876    564.961    528.876
 29.770    566.000    574.060     -8.060    528.560    539.982    528.560    562.637    528.560
 29.870    613.004    566.786     46.217    528.245    538.289    528.245    556.741    528.245
 29.970    556.802    558.951     -2.149    527.931    537.087    527.931    549.793    527.931
 30.070    535.701    552.159    -16.458    527.617    536.251    527.617    543.523    527.617
 30.170    540.594    547.039     -6.445    527.304    535.755    527.304    538.586    527.304
 30.270    548.859    543.714      5.145    526.992    535.707    526.992    534.997    526.992
 30.370    525.000    542.359    -17.359    526.681    536.537    526.681    532.499    526.681
