neutron_powder_diffraction_0127
R_wp: 3.829
Temperature (K): 1022.134
Counts: 83940.00
Wavelength (Ã…): 2.52098
COMMENTS
Test file for demonstrating the .xyy file format in Reel1.0
END OF HEADER
   tth       Y_obs     Y_calc      Y_res    Background    Phase_1_Nuc    Phase_1_Mag    Phase_2_Nuc    Phase_2_Mag
  9.970    542.274    567.043    -24.768    565.987    566.938    565.987    566.091    565.987
 10.070    617.000    567.247     49.753    566.108    567.142    566.108    566.212    566.108
 10.170    545.000    567.457    -22.457    566.222    567.352    566.222    566.327    566.222
 10.270    629.000    567.676     61.324    566.330    567.570    566.330    566.435    566.330
 10.370    525.383    567.905    -42.522    566.431    567.798    566.431    566.537    566.431
 10.470    593.434    568.148     25.285    566.526    568.041    566.526    566.632    566.526
 10.570    584.528    568.412     16.116    566.614    568.304    566.614    566.721    566.614
 10.670    578.711    568.703     10.008    566.696    568.595    566.696    566.803    566.696
 10.770    551.863    569.030    -17.167    566.772    568.921    566.772    566.880    566.772
 10.870    586.000    569.406     16.594    566.842    569.297    566.842    566.950    566.842
 10.970    616.128    569.848     46.280    566.906    569.738    566.906    567.014    566.906
 11.070    563.222    570.381     -7.159    566.964    570.270    566.964    567.072    566.964
 11.170    607.000    571.039     35.961    567.015    570.928    567.015    567.125    567.015
 11.270    567.295    571.881     -4.586    567.061    571.768    567.061    567.171    567.061
 11.370    578.000    573.010      4.990    567.101    572.896    567.101    567.211    567.101
 11.470    650.000    574.657     75.343    567.135    574.542    567.135    567.246    567.135
 11.570    583.000    577.379      5.621    567.163    577.262    567.163    567.274    567.163
 11.670    622.000    582.425     39.575    567.186    582.305    567.186    567.297    567.186
 11.770    624.000    592.052     31.948    567.203    591.926    567.203    567.315    567.203
 11.870    614.000    609.141      4.859    567.214    609.005    567.214    567.327    567.214
 11.970    614.000    635.251    -21.251    567.220    635.100    567.220    567.333    567.220
 12.070    666.860    666.917     -0.057    567.220    666.748    567.220    567.334    567.220
 12.170    669.258    692.101    -22.842    567.215    691.917    567.215    567.329    567.215
 12.270    655.000    695.137    -40.137    567.204    694.951    567.204    567.319    567.204
 12.370    654.000    673.504    -19.504    567.188    673.330    567.188    567.304    567.188
 12.470    621.997    641.690    -19.694    567.167    641.533    567.167    567.283    567.167
 12.570    598.096    613.751    -15.655    567.141    613.609    567.141    567.257    567.141
 12.670    576.000    594.752    -18.752    567.110    594.620    567.110    567.226    567.110
 12.770    595.000    583.800     11.200    567.073    583.673    567.073    567.190    567.073
 12.870    555.000    578.031    -23.031    567.031    577.907    567.031    567.149    567.031
 12.970    581.854    574.962      6.891    566.985    574.839    566.985    567.103    566.985
 13.070    570.000    573.149     -3.149    566.933    573.027    566.933    567.052    566.933
 13.170    571.000    571.928     -0.928    566.877    571.806    566.877    566.996    566.877
 13.270    565.000    571.026     -6.026    566.815    570.903    566.815    566.935    566.815
 13.370    617.000    570.323     46.677    566.749    570.201    566.749    566.870    566.749
 13.470    547.000    569.758    -22.758    566.678    569.635    566.678    566.800    566.678
 13.570    620.000    569.290     50.710    566.603    569.167    566.603    566.725    566.603
 13.670    498.000    568.894    -70.894    566.523    568.770    566.523    566.645    566.523
 13.770    536.129    568.551    -32.422    566.438    568.427    566.438    566.561    566.438
 13.870    556.000    568.249    -12.249    566.349    568.125    566.349    566.473    566.349
 13.970    559.218    567.978     -8.759    566.255    567.853    566.255    566.379    566.255
 14.070    573.000    567.730      5.270    566.157    567.604    566.157    566.282    566.157
 14.170    591.000    567.500     23.500    566.055    567.373    566.055    566.180    566.055
 14.270    571.000    567.284      3.716    565.948    567.157    565.948    566.074    565.948
 14.370    608.300    567.081     41.220    565.837    566.953    565.837    565.963    565.837
 14.470    558.000    566.885     -8.885    565.721    566.757    565.721    565.849    565.721
 14.570    525.850    566.694    -40.844    565.602    566.566    565.602    565.730    565.602
 14.670    585.000    566.509     18.491    565.478    566.379    565.478    565.607    565.478
 14.770    564.000    566.326     -2.326    565.350    566.196    565.350    565.480    565.350
 14.870    537.514    566.146    -28.632    565.219    566.015    565.219    565.349    565.219
 14.970    563.699    565.968     -2.269    565.083    565.837    565.083    565.214    565.083
 15.070    561.487    565.790     -4.303    564.943    565.659    564.943    565.075    564.943
 15.170    602.234    565.613     36.621    564.800    565.480    564.800    564.932    564.800
 15.270    599.014    565.435     33.579    564.652    565.302    564.652    564.785    564.652
 15.370    535.000    565.259    -30.259    564.501    565.125    564.501    564.635    564.501
 15.470    554.000    565.079    -11.079    564.346    564.945    564.346    564.481    564.346
 15.570    570.713    564.899      5.814    564.188    564.764    564.188    564.323    564.188
 15.670    568.000    564.717      3.283    564.025    564.581    564.025    564.161    564.025
 15.770    537.738    564.533    -26.795    563.859    564.396    563.859    563.996    563.859
 15.870    548.000    564.348    -16.348    563.690    564.210    563.690    563.827    563.690
 15.970    530.000    564.160    -34.160    563.517    564.022    563.517    563.655    563.517
 16.070    524.000    563.971    -39.971    563.341    563.832    563.341    563.479    563.341
 16.170    565.000    563.779      1.221    563.161    563.639    563.161    563.300    563.161
 16.270    549.404    563.586    -14.182    562.977    563.445    562.977    563.118    562.977
 16.370    569.000    563.390      5.610    562.791    563.248    562.791    562.932    562.791
 16.470    571.476    563.191      8.284    562.601    563.049    562.601    562.743    562.601
 16.570    566.303    562.991      3.312    562.408    562.848    562.408    562.551    562.408
 16.670    579.766    562.788     16.978    562.212    562.644    562.212    562.356    562.212
 16.770    582.000    562.583     19.417    562.012    562.438    562.012    562.157    562.012
 16.870    588.000    562.384     25.616    561.810    562.238    561.810    561.955    561.810
 16.970    551.000    562.193    -11.193    561.604    562.046    561.604    561.751    561.604
 17.070    577.000    561.982     15.018    561.395    561.835    561.395    561.543    561.395
 17.170    534.000    561.768    -27.768    561.184    561.619    561.184    561.332    561.184
 17.270    506.000    561.551    -55.551    560.969    561.401    560.969    561.118    560.969
 17.370    563.503    561.331      2.172    560.752    561.181    560.752    560.902    560.752
 17.470    567.000    561.110      5.890    560.531    560.958    560.531    560.683    560.531
 17.570    569.000    560.886      8.114    560.308    560.733    560.308    560.460    560.308
 17.670    548.000    560.660    -12.660    560.082    560.506    560.082    560.236    560.082
 17.770    505.000    560.431    -55.431    559.854    560.277    559.854    560.008    559.854
 17.870    576.000    560.200     15.800    559.622    560.045    559.622    559.778    559.622
 17.970    604.000    559.967     44.033    559.388    559.811    559.388    559.545    559.388
 18.070    514.921    559.732    -44.811    559.152    559.574    559.152    559.309    559.152
 18.170    532.180    559.495    -27.315    558.912    559.336    558.912    559.071    558.912
 18.270    499.000    559.255    -60.255    558.671    559.095    558.671    558.831    558.671
 18.370    577.869    559.014     18.855    558.427    558.853    558.427    558.588    558.427
 18.470    553.000    558.772     -5.772    558.180    558.609    558.180    558.342    558.180
 18.570    596.000    558.531     37.469    557.931    558.367    557.931    558.094    557.931
 18.670    529.000    558.309    -29.309    557.680    558.144    557.680    557.844    557.680
 18.770    578.000    558.144     19.856    557.426    557.978    557.426    557.592    557.426
 18.870    560.182    557.901      2.282    557.170    557.734    557.170    557.337    557.170
 18.970    553.756    557.648     -3.892    556.912    557.480    556.912    557.080    556.912
 19.070    534.000    557.393    -23.393    556.651    557.223    556.651    556.821    556.651
 19.170    598.328    557.137     41.191    556.389    556.966    556.389    556.559    556.389
 19.270    548.000    556.885     -8.885    556.124    556.713    556.124    556.296    556.124
 19.370    574.738    556.626     18.113    555.857    556.452    555.857    556.031    555.857
 19.470    557.000    556.364      0.636    555.588    556.189    555.588    555.763    555.588
 19.570    571.000    556.101     14.899    555.317    555.925    555.317    555.494    555.317
 19.670    545.000    555.837    -10.837    555.044    555.659    555.044    555.222    555.044
 19.770    594.839    555.571     39.268    554.769    555.392    554.769    554.949    554.769
 19.870    536.481    555.304    -18.823    554.493    555.123    554.493    554.674    554.493
 19.970    563.124    555.035      8.089    554.214    554.853    554.214    554.397    554.214
 20.070    570.000    554.765     15.235    553.934    554.581    553.934    554.118    553.934
 20.170    566.102    554.494     11.607    553.651    554.309    553.651    553.837    553.651
 20.270    522.982    554.225    -31.244    553.367    554.038    553.367    553.555    553.367
 20.370    592.134    553.987     38.147    553.082    553.798    553.082    553.271    553.082
 20.470    559.000    553.748      5.252    552.794    553.557    552.794    552.985    552.794
 20.570    593.856    553.476     40.380    552.505    553.284    552.505    552.698    552.505
 20.670    550.000    553.201     -3.201    552.214    553.007    552.214    552.409    552.214
 20.770    518.000    552.925    -34.925    551.922    552.729    551.922    552.118    551.922
 20.870    581.542    552.649     28.893    551.628    552.450    551.628    551.826    551.628
 20.970    518.550    552.373    -33.823    551.333    552.173    551.333    551.533    551.333
 21.070    567.000    552.099     14.901    551.036    551.896    551.036    551.238    551.036
 21.170    591.399    551.824     39.575    550.738    551.619    550.738    550.942    550.738
 21.270    517.800    551.547    -33.747    550.438    551.340    550.438    550.644    550.438
 21.370    557.000    551.269      5.731    550.137    551.061    550.137    550.346    550.137
 21.470    566.000    550.993     15.007    549.834    550.782    549.834    550.045    549.834
 21.570    534.000    550.717    -16.717    549.530    550.504    549.530    549.744    549.530
 21.670    567.097    550.455     16.642    549.225    550.239    549.225    549.441    549.225
 21.770    562.379    550.215     12.164    548.919    549.996    548.919    549.137    548.919
 21.870    530.000    549.945    -19.945    548.612    549.725    548.612    548.832    548.612
 21.970    547.000    549.675     -2.675    548.303    549.452    548.303    548.526    548.303
 22.070    555.000    549.412      5.588    547.993    549.186    547.993    548.219    547.993
 22.170    602.000    549.152     52.848    547.682    548.923    547.682    547.911    547.682
 22.270    555.000    548.889      6.111    547.370    548.658    547.370    547.602    547.370
 22.370    544.000    548.630     -4.630    547.057    548.396    547.057    547.292    547.057
 22.470    540.000    548.378     -8.378    546.743    548.140    546.743    546.981    546.743
 22.570    567.000    548.150     18.850    546.427    547.909    546.427    546.669    546.427
 22.670    573.000    547.925     25.075    546.111    547.680    546.111    546.356    546.111
 22.770    506.000    547.693    -41.693    545.794    547.446    545.794    546.042    545.794
 22.870    539.000    547.471     -8.471    545.476    547.220    545.476    545.728    545.476
 22.970    548.000    547.261      0.739    545.157    547.006    545.157    545.413    545.157
 23.070    519.135    547.066    -27.931    544.838    546.807    544.838    545.097    544.838
 23.170    550.000    546.891      3.109    544.517    546.628    544.517    544.781    544.517
 23.270    543.721    546.751     -3.029    544.196    546.484    544.196    544.463    544.196
 23.370    541.000    546.646     -5.646    543.874    546.375    543.874    544.146    543.874
 23.470    527.107    546.572    -19.465    543.551    546.297    543.551    543.827    543.551
 23.570    594.000    546.558     47.442    543.228    546.278    543.228    543.509    543.228
 23.670    534.625    546.613    -11.989    542.904    546.329    542.904    543.190    542.904
 23.770    531.107    546.768    -15.661    542.579    546.479    542.579    542.870    542.579
 23.870    554.000    547.089      6.911    542.253    546.795    542.253    542.550    542.253
 23.970    582.589    547.595     34.994    541.927    547.296    541.927    542.229    541.927
 24.070    540.000    548.513     -8.513    541.601    548.208    541.601    541.909    541.601
 24.170    552.273    550.292      1.981    541.274    549.983    541.274    541.588    541.274
 24.270    577.000    553.852     23.148    540.946    553.540    540.946    541.267    540.946
 24.370    597.000    560.768     36.232    540.618    560.454    540.618    540.946    540.618
 24.470    566.664    572.719     -6.054    540.290    572.407    540.290    540.624    540.290
 24.570    558.594    590.283    -31.689    539.961    589.976    539.961    540.303    539.961
 24.670    605.000    610.541     -5.541    539.632    610.241    539.632    539.981    539.632
 24.770    633.000    625.190      7.810    539.302    624.892    539.302    539.660    539.302
 24.870    583.806    624.932    -41.126    538.972    624.626    538.972    539.339    538.972
 24.970    610.000    609.756      0.244    538.642    609.430    538.642    539.018    538.642
 25.070    574.000    588.967    -14.967    538.311    588.616    538.311    538.697    538.311
 25.170    572.000    570.850      1.150    537.981    570.476    537.981    538.377    537.981
 25.270    546.032    558.357    -12.325    537.649    557.963    537.649    538.057    537.649
 25.370    546.000    550.939     -4.939    537.318    550.528    537.318    537.737    537.318
 25.470    512.846    546.845    -33.999    536.987    546.419    536.987    537.418    536.987
 25.570    570.553    544.540     26.013    536.655    544.099    536.655    537.100    536.655
 25.670    528.790    543.099    -14.309    536.323    542.643    536.323    536.783    536.323
 25.770    566.000    542.079     23.921    535.992    541.607    535.992    536.466    535.992
 25.870    556.000    541.295     14.705    535.660    540.806    535.660    536.150    535.660
 25.970    573.000    540.661     32.339    535.328    540.154    535.328    535.836    535.328
 26.070    584.000    540.136     43.864    534.996    539.610    534.996    535.523    534.996
 26.170    574.000    539.699     34.301    534.664    539.152    534.664    535.211    534.664
 26.270    571.426    539.334     32.093    534.332    538.765    534.332    534.901    534.332
 26.370    576.000    539.032     36.968    534.000    538.439    534.000    534.593    534.000
 26.470    576.000    538.790     37.210    533.668    538.171    533.668    534.287    533.668
 26.570    572.000    538.607     33.393    533.336    537.959    533.336    533.984    533.336
 26.670    520.000    538.486    -18.486    533.004    537.807    533.004    533.683    533.004
 26.770    526.000    538.435    -12.435    532.672    537.723    532.672    533.385    532.672
 26.870    575.112    538.461     36.651    532.341    537.712    532.341    533.090    532.341
 26.970    541.000    538.581      2.419    532.010    537.791    532.010    532.800    532.010
 27.070    544.000    538.818      5.182    531.679    537.983    531.679    532.514    531.679
 27.170    572.000    539.207     32.793    531.348    538.321    531.348    532.232    531.348
 27.270    554.000    539.796     14.204    531.017    538.855    531.017    531.957    531.017
 27.370    533.000    540.665     -7.665    530.687    539.662    530.687    531.689    530.687
 27.470    574.000    541.957     32.043    530.357    540.885    530.357    531.428    530.357
 27.570    569.017    544.054     24.962    530.027    542.903    530.027    531.176    530.027
 27.670    552.000    548.308      3.692    529.697    547.066    529.697    530.936    529.697
 27.770    591.000    559.225     31.775    529.368    557.878    529.368    530.708    529.368
 27.870    602.000    588.025     13.975    529.039    586.552    529.039    530.495    529.039
 27.970    665.000    652.017     12.983    528.711    650.390    528.711    530.301    528.711
 28.070    711.841    759.315    -47.475    528.383    757.502    528.383    530.130    528.383
 28.170    864.000    881.826    -17.826    528.056    879.804    528.056    529.986    528.056
 28.270    966.488    949.443     17.045    527.728    947.207    527.728    529.875    527.728
 28.370    906.000    911.111     -5.111    527.402    908.653    527.402    529.804    527.402
 28.470    855.000    807.673     47.327    527.076    804.946    527.076    529.781    527.076
 28.570    743.000    719.376     23.624    526.750    716.303    526.750    529.816    526.750
 28.670    649.674    694.037    -44.363    526.425    690.536    526.425    529.919    526.425
 28.770    716.000    731.435    -15.435    526.100    727.420    526.100    530.100    526.100
 28.870    851.173    795.368     55.805    525.776    790.756    525.776    530.370    525.776
 28.970    814.000    830.216    -16.216    525.453    824.923    525.453    530.736    525.453
 29.070    777.000    799.519    -22.519    525.130    793.456    525.130    531.199    525.130
 29.170    722.000    724.923     -2.923    524.808    717.997    524.808    531.750    524.808
 29.270    656.000    649.394      6.606    524.486    641.541    524.486    532.355    524.486
 29.370    639.000    596.708     42.292    524.166    587.930    524.166    532.954    524.166
 29.470    575.000    568.249      6.751    523.845    558.646    523.845    533.454    523.845
 29.570    564.363    555.271      9.092    523.526    545.062    523.526    533.737    523.526
 29.670    587.000    549.457     37.543    523.207    538.966    523.207    533.698    523.207
 29.770    547.926    546.245      1.681    522.889    535.853    522.889    533.281    522.889
 29.870    530.517    543.872    -13.355    522.572    533.936    522.572    532.507    522.572
 29.970    558.000    541.835     16.165    522.255    532.625    522.255    531.464    522.255
 30.070    563.000    540.065     22.935    521.939    531.737    521.939    530.266    521.939
 30.170    563.000    538.638     24.362    521.624    531.240    521.624    529.021    521.624
 30.270    540.824    537.760      3.064    521.310    531.262    521.310    527.806    521.310
 30.370    583.331    537.919     45.411    520.997    532.247    520.997    526.666    520.997
