neutron_powder_diffraction_0203
R_wp: 3.961
Temperature (K): 1074.000
Counts: 84115.00
Wavelength (Ã…): 2.52098
COMMENTS
Test file for demonstrating the .xyy file format in Reel1.0
END OF HEADER
   tth       Y_obs     Y_calc      Y_res    Background    Phase_1_Nuc    Phase_1_Mag    Phase_2_Nuc    Phase_2_Mag
  9.970    602.000    570.780     31.220    570.079    570.747    570.079    570.112    570.079
 10.070    572.000    570.996      1.004    570.228    570.953    570.228    570.270    570.228
 10.170    610.000    571.205     38.795    570.369    571.160    570.369    570.413    570.369
 10.270    556.780    571.415    -14.635    570.503    571.371    570.503    570.548    570.503
 10.370    615.000    571.632     43.368    570.631    571.587    570.631    570.675    570.631
 10.470    581.709    571.856      9.852    570.752    571.811    570.752    570.796    570.752
 10.570    603.000    572.093     30.907    570.866    572.048    570.866    570.911    570.866
 10.670    547.079    572.347    -25.268    570.973    572.301    570.973    571.018    570.973
 10.770    599.000    572.625     26.375    571.073    572.579    571.073    571.119    571.073
 10.870    636.000    572.935     63.065    571.168    572.889    571.168    571.213    571.168
 10.970    544.477    573.291    -28.814    571.255    573.244    571.255    571.301    571.255
 11.070    573.000    573.715     -0.715    571.336    573.662    571.336    571.388    571.336
 11.170    572.000    574.223     -2.223    571.411    574.169    571.411    571.464    571.411
 11.270    570.000    574.861     -4.861    571.480    574.806    571.480    571.532    571.480
 11.370    612.000    575.698     36.302    571.542    575.643    571.542    571.595    571.542
 11.470    597.000    576.888     20.112    571.598    576.832    571.598    571.651    571.598
 11.570    603.000    578.855     24.145    571.648    578.797    571.648    571.701    571.648
 11.670    608.000    582.772     25.228    571.692    582.713    571.692    571.745    571.692
 11.770    614.000    591.303     22.697    571.729    591.238    571.729    571.783    571.729
 11.870    622.592    608.621     13.971    571.761    608.546    571.761    571.815    571.761
 11.970    635.796    637.844     -2.048    571.787    637.753    571.787    571.842    571.787
 12.070    649.000    675.125    -26.125    571.807    675.013    571.807    571.862    571.807
 12.170    700.000    704.329     -4.329    571.822    704.200    571.822    571.877    571.822
 12.270    696.000    705.288     -9.288    571.830    705.159    571.830    571.886    571.830
 12.370    647.000    677.153    -30.153    571.833    677.039    571.833    571.889    571.833
 12.470    626.253    639.735    -13.482    571.830    639.641    571.830    571.886    571.830
 12.570    606.498    609.885     -3.387    571.822    609.808    571.822    571.879    571.822
 12.670    638.339    592.008     46.331    571.809    591.940    571.809    571.866    571.809
 12.770    509.000    583.167    -74.167    571.790    583.100    571.790    571.850    571.790
 12.870    574.000    579.124     -5.124    571.765    579.058    571.765    571.827    571.765
 12.970    542.000    577.122    -35.122    571.735    577.057    571.735    571.797    571.735
 13.070    529.000    575.931    -46.931    571.700    575.867    571.700    571.763    571.700
 13.170    605.398    575.106     30.292    571.660    575.041    571.660    571.723    571.660
 13.270    557.000    574.486    -17.486    571.614    574.421    571.614    571.678    571.614
 13.370    564.000    573.999     -9.999    571.564    573.934    571.564    571.628    571.564
 13.470    576.000    573.605      2.395    571.508    573.540    571.508    571.573    571.508
 13.570    551.000    573.276    -22.276    571.448    573.210    571.448    571.512    571.448
 13.670    554.961    572.994    -18.034    571.382    572.929    571.382    571.447    571.382
 13.770    584.000    572.748     11.252    571.312    572.682    571.312    571.377    571.312
 13.870    549.000    572.527    -23.527    571.237    572.461    571.237    571.302    571.237
 13.970    554.000    572.326    -18.326    571.157    572.260    571.157    571.223    571.157
 14.070    547.775    572.139    -24.364    571.072    572.073    571.072    571.138    571.072
 14.170    595.756    571.963     23.793    570.983    571.896    570.983    571.050    570.983
 14.270    559.000    571.795    -12.795    570.889    571.728    570.889    570.956    570.889
 14.370    528.211    571.633    -43.422    570.791    571.565    570.791    570.858    570.791
 14.470    561.000    571.477    -10.477    570.688    571.409    570.688    570.755    570.688
 14.570    544.000    571.323    -27.323    570.580    571.255    570.580    570.648    570.580
 14.670    557.359    571.169    -13.810    570.468    571.100    570.468    570.537    570.468
 14.770    580.176    571.016      9.160    570.352    570.947    570.352    570.421    570.352
 14.870    535.000    570.862    -35.862    570.232    570.793    570.232    570.301    570.232
 14.970    520.000    570.709    -50.709    570.107    570.639    570.107    570.176    570.107
 15.070    552.136    570.554    -18.418    569.978    570.484    569.978    570.048    569.978
 15.170    621.000    570.398     50.602    569.845    570.327    569.845    569.915    569.845
 15.270    537.000    570.240    -33.240    569.708    570.169    569.708    569.779    569.708
 15.370    568.000    570.082     -2.082    569.567    570.009    569.567    569.639    569.567
 15.470    615.378    569.921     45.457    569.421    569.847    569.421    569.495    569.421
 15.570    585.000    569.758     15.242    569.272    569.684    569.272    569.346    569.272
 15.670    603.447    569.593     33.854    569.119    569.519    569.119    569.193    569.119
 15.770    543.000    569.425    -26.425    568.962    569.350    568.962    569.037    568.962
 15.870    575.000    569.253      5.747    568.802    569.178    568.802    568.877    568.802
 15.970    538.000    569.079    -31.079    568.637    569.004    568.637    568.713    568.637
 16.070    527.345    568.903    -41.557    568.469    568.827    568.469    568.545    568.469
 16.170    556.000    568.723    -12.723    568.298    568.647    568.298    568.374    568.298
 16.270    546.000    568.541    -22.541    568.122    568.464    568.122    568.199    568.122
 16.370    550.206    568.356    -18.150    567.943    568.279    567.943    568.021    567.943
 16.470    577.000    568.168      8.832    567.761    568.090    567.761    567.839    567.761
 16.570    575.000    567.978      7.022    567.575    567.899    567.575    567.653    567.575
 16.670    537.058    567.784    -30.726    567.386    567.705    567.386    567.464    567.386
 16.770    567.895    567.588      0.307    567.193    567.509    567.193    567.272    567.193
 16.870    574.655    567.389      7.266    566.997    567.309    566.997    567.077    566.997
 16.970    535.479    567.187    -31.709    566.798    567.107    566.798    566.878    566.798
 17.070    542.000    566.985    -24.985    566.595    566.904    566.595    566.676    566.595
 17.170    610.417    566.778     43.639    566.390    566.697    566.390    566.471    566.390
 17.270    581.284    566.568     14.716    566.181    566.486    566.181    566.263    566.181
 17.370    611.426    566.355     45.071    565.969    566.273    565.969    566.051    565.969
 17.470    520.000    566.139    -46.139    565.754    566.056    565.754    565.837    565.754
 17.570    535.000    565.921    -30.921    565.536    565.838    565.536    565.619    565.536
 17.670    601.499    565.701     35.798    565.315    565.616    565.315    565.400    565.315
 17.770    557.000    565.482     -8.482    565.091    565.392    565.091    565.181    565.091
 17.870    558.000    565.258     -7.258    564.865    565.166    564.865    564.956    564.865
 17.970    560.747    565.029     -4.283    564.635    564.937    564.635    564.728    564.635
 18.070    576.000    564.798     11.202    564.403    564.705    564.403    564.496    564.403
 18.170    578.000    564.565     13.435    564.168    564.471    564.168    564.262    564.168
 18.270    571.122    564.329      6.793    563.930    564.234    563.930    564.024    563.930
 18.370    568.000    564.091      3.909    563.689    563.996    563.689    563.785    563.689
 18.470    572.000    563.851      8.149    563.446    563.755    563.446    563.542    563.446
 18.570    571.023    563.608      7.415    563.201    563.511    563.201    563.298    563.201
 18.670    579.000    563.363     15.637    562.953    563.266    562.953    563.050    562.953
 18.770    558.285    563.117     -4.831    562.702    563.018    562.702    562.800    562.702
 18.870    589.000    562.868     26.132    562.449    562.769    562.449    562.548    562.449
 18.970    538.000    562.618    -24.618    562.194    562.518    562.194    562.293    562.194
 19.070    601.000    562.364     38.636    561.936    562.264    561.936    562.036    561.936
 19.170    577.000    562.109     14.891    561.676    562.008    561.676    561.777    561.676
 19.270    598.000    561.851     36.149    561.413    561.749    561.413    561.515    561.413
 19.370    525.140    561.592    -36.452    561.149    561.489    561.149    561.251    561.149
 19.470    532.278    561.331    -29.052    560.882    561.227    560.882    560.985    560.882
 19.570    593.000    561.068     31.932    560.613    560.963    560.613    560.717    560.613
 19.670    583.000    560.804     22.196    560.342    560.699    560.342    560.447    560.342
 19.770    583.000    560.551     22.449    560.068    560.445    560.068    560.175    560.068
 19.870    593.000    560.293     32.707    559.793    560.186    559.793    559.900    559.793
 19.970    578.000    560.024     17.976    559.516    559.916    559.516    559.624    559.516
 20.070    593.296    559.753     33.543    559.237    559.644    559.237    559.346    559.237
 20.170    547.379    559.481    -12.101    558.955    559.371    558.955    559.066    558.955
 20.270    583.629    559.207     24.422    558.672    559.096    558.672    558.783    558.672
 20.370    529.021    558.931    -29.910    558.387    558.819    558.387    558.500    558.387
 20.470    566.074    558.655      7.419    558.101    558.542    558.101    558.214    558.101
 20.570    560.000    558.377      1.623    557.812    558.263    557.812    557.926    557.812
 20.670    548.000    558.098    -10.098    557.522    557.983    557.522    557.637    557.522
 20.770    602.012    557.819     44.194    557.230    557.702    557.230    557.347    557.230
 20.870    568.000    557.538     10.462    556.936    557.420    556.936    557.054    556.936
 20.970    579.000    557.256     21.744    556.641    557.137    556.641    556.760    556.641
 21.070    540.000    556.974    -16.974    556.344    556.854    556.344    556.464    556.344
 21.170    599.984    556.691     43.293    556.046    556.570    556.046    556.167    556.046
 21.270    553.000    556.408     -3.408    555.746    556.285    555.746    555.869    555.746
 21.370    528.000    556.124    -28.124    555.445    556.000    555.445    555.569    555.445
 21.470    546.000    555.840     -9.840    555.142    555.715    555.142    555.267    555.142
 21.570    540.000    555.556    -15.556    554.838    555.429    554.838    554.964    554.838
 21.670    580.000    555.280     24.720    554.532    555.152    554.532    554.660    554.532
 21.770    523.000    555.081    -32.081    554.225    554.951    554.225    554.355    554.225
 21.870    521.000    554.820    -33.820    553.917    554.688    553.917    554.048    553.917
 21.970    566.000    554.541     11.459    553.607    554.406    553.607    553.742    553.607
 22.070    569.000    554.264     14.736    553.296    554.126    553.296    553.434    553.296
 22.170    583.932    554.008     29.924    552.984    553.868    552.984    553.124    552.984
 22.270    554.000    553.766      0.234    552.671    553.625    552.671    552.812    552.671
 22.370    577.805    553.540     24.265    552.357    553.397    552.357    552.500    552.357
 22.470    585.506    553.288     32.218    552.041    553.143    552.041    552.186    552.041
 22.570    538.000    553.022    -15.022    551.725    552.876    551.725    551.872    551.725
 22.670    522.502    552.760    -30.258    551.407    552.611    551.407    551.556    551.407
 22.770    573.995    552.504     21.491    551.089    552.353    551.089    551.240    551.089
 22.870    580.173    552.255     27.918    550.769    552.101    550.769    550.923    550.769
 22.970    583.000    552.014     30.986    550.449    551.859    550.449    550.604    550.449
 23.070    520.000    551.785    -31.785    550.127    551.628    550.127    550.285    550.127
 23.170    591.000    551.573     39.427    549.805    551.413    549.805    549.966    549.805
 23.270    599.006    551.375     47.632    549.482    551.212    549.482    549.645    549.482
 23.370    594.575    551.199     43.376    549.158    551.034    549.158    549.324    549.158
 23.470    533.000    551.053    -18.053    548.833    550.885    548.833    549.002    548.833
 23.570    540.000    550.945    -10.945    548.508    550.774    548.508    548.679    548.508
 23.670    536.483    550.889    -14.406    548.182    550.716    548.182    548.356    548.182
 23.770    558.000    550.905      7.095    547.855    550.729    547.855    548.032    547.855
 23.870    532.507    551.023    -18.517    547.527    550.844    547.527    547.708    547.527
 23.970    536.321    551.303    -14.981    547.199    551.120    547.199    547.383    547.199
 24.070    506.891    551.878    -44.987    546.870    551.693    546.870    547.058    546.870
 24.170    545.536    553.129     -7.593    546.541    552.941    546.541    546.732    546.541
 24.270    543.680    556.039    -12.359    546.211    555.849    546.211    546.406    546.211
 24.370    518.430    562.603    -44.173    545.880    562.414    545.880    546.080    545.880
 24.470    587.000    575.499     11.501    545.550    575.316    545.550    545.754    545.550
 24.570    608.771    595.954     12.817    545.218    595.781    545.218    545.427    545.218
 24.670    648.000    619.941     28.059    544.886    619.781    544.886    545.100    544.886
 24.770    676.000    635.755     40.245    544.554    635.601    544.554    544.773    544.554
 24.870    563.000    631.841    -68.841    544.222    631.679    544.222    544.446    544.222
 24.970    636.642    611.356     25.286    543.889    611.174    543.889    544.119    543.889
 25.070    578.065    587.253     -9.189    543.555    587.048    543.555    543.791    543.555
 25.170    545.000    568.655    -23.655    543.222    568.430    543.222    543.464    543.222
 25.270    565.000    557.492      7.508    542.888    557.252    542.888    543.138    542.888
 25.370    563.090    551.778     11.312    542.554    551.526    542.554    542.811    542.554
 25.470    567.000    548.967     18.033    542.220    548.706    542.220    542.484    542.220
 25.570    547.000    547.433     -0.433    541.885    547.162    541.885    542.158    541.885
 25.670    547.729    546.429      1.301    541.551    546.148    541.551    541.833    541.551
 25.770    589.901    545.673     44.228    541.216    545.383    541.216    541.508    541.216
 25.870    508.462    545.066    -36.604    540.881    544.765    540.881    541.183    540.881
 25.970    579.026    544.565     34.462    540.546    544.252    540.546    540.860    540.546
 26.070    541.000    544.143     -3.143    540.211    543.818    540.211    540.537    540.211
 26.170    533.000    543.785    -10.785    539.876    543.447    539.876    540.215    539.876
 26.270    520.000    543.507    -23.507    539.541    543.155    539.541    539.894    539.541
 26.370    553.000    543.277      9.723    539.206    542.909    539.206    539.574    539.206
 26.470    535.000    543.078     -8.078    538.872    542.693    538.872    539.256    538.872
 26.570    516.000    542.931    -26.931    538.537    542.528    538.537    538.940    538.537
 26.670    582.143    542.840     39.302    538.202    542.417    538.202    538.625    538.202
 26.770    514.894    542.821    -27.927    537.867    542.376    537.867    538.313    537.867
 26.870    547.000    542.866      4.134    537.533    542.396    537.533    538.003    537.533
 26.970    586.000    543.014     42.986    537.199    542.516    537.199    537.696    537.199
 27.070    544.000    543.293      0.707    536.865    542.765    536.865    537.392    536.865
 27.170    585.000    543.705     41.295    536.531    543.143    536.531    537.091    536.531
 27.270    597.000    544.324     52.676    536.197    543.724    536.197    536.796    536.197
 27.370    583.244    545.235     38.009    535.864    544.592    535.864    536.505    535.864
 27.470    560.000    546.590     13.410    535.531    545.899    535.531    536.220    535.531
 27.570    568.000    548.784     19.216    535.198    548.037    535.198    535.942    535.198
 27.670    577.000    553.199     23.801    534.865    552.388    534.865    535.672    534.865
 27.770    530.165    564.500    -34.336    534.533    563.613    534.533    535.413    534.533
 27.870    595.000    594.417      0.583    534.201    593.435    534.201    535.165    534.201
 27.970    710.404    661.041     49.364    533.870    659.939    533.870    534.932    533.870
 28.070    801.914    772.220     29.694    533.539    770.970    533.539    534.718    533.539
 28.170    938.771    896.455     42.316    533.209    895.039    533.209    534.525    533.209
 28.270    928.000    957.748    -29.748    532.879    956.167    532.879    534.362    532.879
 28.370    890.000    905.938    -15.938    532.549    904.190    532.549    534.235    532.549
 28.470    710.000    794.410    -84.410    532.220    792.447    532.220    534.158    532.220
 28.570    733.000    708.201     24.799    531.892    705.932    531.892    534.149    531.892
 28.670    686.000    690.893     -4.893    531.564    688.200    531.564    534.242    531.564
 28.770    725.069    737.352    -12.282    531.237    734.073    531.237    534.495    531.237
 28.870    734.000    807.077    -73.077    530.910    802.964    530.910    535.009    530.910
 28.970    838.000    840.061     -2.061    530.584    834.699    530.584    535.947    530.584
 29.070    769.000    800.896    -31.896    530.258    793.629    530.258    537.536    530.258
 29.170    668.077    720.673    -52.596    529.933    710.575    529.933    540.043    529.933
 29.270    610.000    647.297    -37.297    529.609    633.223    529.609    543.690    529.609
 29.370    559.000    602.361    -43.361    529.285    583.150    529.285    548.499    529.285
 29.470    620.000    583.023     36.977    528.963    557.972    528.963    554.013    528.963
 29.570    602.000    577.294     24.706    528.640    547.051    528.640    558.882    528.640
 29.670    643.000    574.839     68.161    528.319    542.200    528.319    560.955    528.319
 29.770    574.000    570.490      3.510    527.998    539.581    527.998    558.905    527.998
 29.870    586.000    563.930     22.070    527.679    537.865    527.679    553.742    527.679
 29.970    594.000    556.890     37.110    527.360    536.649    527.360    547.599    527.360
 30.070    543.000    550.744     -7.744    527.041    535.801    527.041    541.983    527.041
 30.170    588.000    546.059     41.941    526.724    535.298    526.724    537.483    526.724
 30.270    567.000    542.988     24.012    526.408    535.249    526.408    534.144    526.408
 30.370    563.905    541.771     22.134    526.092    536.092    526.092    531.767    526.092
