neutron_powder_diffraction_0227
R_wp: 3.947
Temperature (K): 1074.100
Counts: 84471.00
Wavelength (Ã…): 2.52098
COMMENTS
Test file for demonstrating the .xyy file format in Reel1.0
END OF HEADER
   tth       Y_obs     Y_calc      Y_res    Background    Phase_1_Nuc    Phase_1_Mag    Phase_2_Nuc    Phase_2_Mag
  9.970    615.000    575.974     39.026    575.387    575.952    575.387    575.409    575.387
 10.070    598.000    576.058     21.942    575.419    576.035    575.419    575.441    575.419
 10.170    649.000    576.139     72.861    575.445    576.117    575.445    575.467    575.445
 10.270    607.000    576.224     30.776    575.465    576.201    575.465    575.488    575.465
 10.370    580.000    576.314      3.686    575.481    576.291    575.481    575.503    575.481
 10.470    587.000    576.411     10.589    575.491    576.388    575.491    575.513    575.491
 10.570    575.729    576.519     -0.789    575.496    576.495    575.496    575.518    575.496
 10.670    595.000    576.641     18.359    575.495    576.618    575.495    575.518    575.495
 10.770    585.921    576.784      9.137    575.489    576.760    575.489    575.512    575.489
 10.870    597.000    576.954     20.046    575.479    576.930    575.479    575.501    575.479
 10.970    576.000    577.163     -1.163    575.463    577.139    575.463    575.486    575.463
 11.070    552.962    577.427    -24.465    575.442    577.402    575.442    575.466    575.442
 11.170    583.000    577.769      5.231    575.416    577.740    575.416    575.443    575.416
 11.270    603.000    578.217     24.783    575.385    578.188    575.385    575.413    575.385
 11.370    573.000    578.832     -5.832    575.350    578.802    575.350    575.377    575.350
 11.470    573.000    579.736     -6.736    575.309    579.706    575.309    575.337    575.309
 11.570    601.000    581.280     19.720    575.264    581.249    575.264    575.292    575.264
 11.670    596.000    584.539     11.461    575.214    584.506    575.214    575.242    575.214
 11.770    656.000    592.254     63.746    575.159    592.216    575.159    575.188    575.159
 11.870    618.000    609.255      8.745    575.100    609.207    575.100    575.129    575.100
 11.970    656.000    639.790     16.210    575.036    639.725    575.036    575.065    575.036
 12.070    689.000    680.292      8.708    574.968    680.204    574.968    574.997    574.968
 12.170    695.000    712.622    -17.622    574.895    712.514    574.895    574.926    574.895
 12.270    697.000    713.605    -16.605    574.818    713.496    574.818    574.849    574.818
 12.370    619.000    682.263    -63.263    574.736    682.172    574.736    574.768    574.736
 12.470    610.706    641.376    -30.670    574.650    641.307    574.650    574.682    574.650
 12.570    633.494    609.930     23.564    574.560    609.878    574.560    574.592    574.560
 12.670    585.000    592.146     -7.146    574.466    592.104    574.466    574.498    574.466
 12.770    585.000    583.948      1.052    574.367    583.910    574.367    574.399    574.367
 12.870    554.000    580.406    -26.406    574.264    580.370    574.264    574.296    574.264
 12.970    563.000    578.665    -15.665    574.157    578.630    574.157    574.190    574.157
 13.070    559.000    577.592    -18.592    574.046    577.557    574.046    574.079    574.046
 13.170    604.000    576.818     27.182    573.931    576.783    573.931    573.964    573.931
 13.270    534.439    576.216    -41.778    573.812    576.181    573.812    573.847    573.812
 13.370    543.000    575.738    -32.738    573.690    575.691    573.690    573.735    573.690
 13.470    563.440    575.328    -11.887    573.563    575.280    573.563    573.610    573.563
 13.570    591.866    574.972     16.894    573.432    574.924    573.432    573.480    573.432
 13.670    562.000    574.657    -12.657    573.298    574.608    573.298    573.346    573.298
 13.770    528.000    574.371    -46.371    573.160    574.323    573.160    573.208    573.160
 13.870    553.529    574.108    -20.579    573.018    574.059    573.018    573.066    573.018
 13.970    607.802    573.862     33.940    572.873    573.812    572.873    572.922    572.873
 14.070    616.373    573.628     42.745    572.724    573.577    572.724    572.773    572.724
 14.170    594.000    573.403     20.597    572.571    573.352    572.571    572.622    572.571
 14.270    590.000    573.191     16.809    572.415    573.134    572.415    572.471    572.415
 14.370    559.000    572.978    -13.978    572.255    572.921    572.255    572.313    572.255
 14.470    597.000    572.769     24.231    572.092    572.711    572.092    572.150    572.092
 14.570    546.000    572.563    -26.563    571.926    572.504    571.926    571.984    571.926
 14.670    588.000    572.358     15.642    571.756    572.299    571.756    571.814    571.756
 14.770    573.000    572.154      0.846    571.583    572.095    571.583    571.642    571.583
 14.870    539.136    571.951    -32.815    571.407    571.891    571.407    571.466    571.407
 14.970    539.000    571.750    -32.750    571.227    571.690    571.227    571.286    571.227
 15.070    561.000    571.547    -10.547    571.044    571.487    571.044    571.104    571.044
 15.170    613.269    571.343     41.926    570.858    571.282    570.858    570.919    570.858
 15.270    547.146    571.137    -23.991    570.669    571.076    570.669    570.730    570.669
 15.370    563.000    570.930     -7.930    570.477    570.869    570.477    570.538    570.477
 15.470    564.000    570.721     -6.721    570.282    570.660    570.282    570.344    570.282
 15.570    558.000    570.511    -12.511    570.084    570.450    570.084    570.146    570.084
 15.670    531.823    570.300    -38.477    569.883    570.238    569.883    569.945    569.883
 15.770    590.000    570.086     19.914    569.680    570.024    569.680    569.742    569.680
 15.870    568.000    569.871     -1.871    569.473    569.808    569.473    569.536    569.473
 15.970    588.000    569.654     18.346    569.263    569.591    569.263    569.326    569.263
 16.070    590.000    569.435     20.565    569.051    569.371    569.051    569.114    569.051
 16.170    606.954    569.214     37.740    568.836    569.150    568.836    568.900    568.836
 16.270    586.075    568.990     17.085    568.618    568.926    568.618    568.683    568.618
 16.370    552.892    568.765    -15.873    568.398    568.701    568.398    568.463    568.398
 16.470    569.661    568.538      1.123    568.175    568.473    568.175    568.240    568.175
 16.570    553.196    568.309    -15.113    567.949    568.243    567.949    568.015    567.949
 16.670    577.000    568.078      8.922    567.721    568.012    567.721    567.787    567.721
 16.770    579.000    567.845     11.155    567.491    567.778    567.491    567.558    567.491
 16.870    541.000    567.614    -26.614    567.257    567.543    567.257    567.328    567.257
 16.970    494.000    567.378    -73.378    567.022    567.307    567.022    567.093    567.022
 17.070    523.000    567.139    -44.139    566.784    567.068    566.784    566.856    566.784
 17.170    588.000    566.899     21.101    566.544    566.826    566.544    566.617    566.544
 17.270    581.000    566.656     14.344    566.301    566.582    566.301    566.375    566.301
 17.370    603.311    566.411     36.901    566.056    566.336    566.056    566.130    566.056
 17.470    541.000    566.164    -25.164    565.809    566.089    565.809    565.884    565.809
 17.570    554.000    565.915    -11.915    565.560    565.839    565.560    565.635    565.560
 17.670    536.679    565.664    -28.986    565.308    565.588    565.308    565.385    565.308
 17.770    556.594    565.414     -8.820    565.055    565.337    565.055    565.131    565.055
 17.870    555.744    565.160     -9.415    564.799    565.082    564.799    564.876    564.799
 17.970    581.375    564.904     16.472    564.541    564.826    564.541    564.619    564.541
 18.070    558.630    564.646     -6.016    564.281    564.567    564.281    564.360    564.281
 18.170    540.000    564.386    -24.386    564.019    564.307    564.019    564.099    564.019
 18.270    522.000    564.124    -42.124    563.756    564.045    563.756    563.835    563.756
 18.370    560.000    563.861     -3.861    563.490    563.781    563.490    563.570    563.490
 18.470    521.879    563.596    -41.718    563.222    563.515    563.222    563.303    563.222
 18.570    557.000    563.330     -6.330    562.953    563.248    562.953    563.034    562.953
 18.670    574.139    563.062     11.077    562.682    562.980    562.682    562.764    562.682
 18.770    553.480    562.793     -9.313    562.409    562.710    562.409    562.491    562.409
 18.870    571.000    562.522      8.478    562.134    562.438    562.134    562.217    562.134
 18.970    541.438    562.250    -20.811    561.857    562.165    561.857    561.942    561.857
 19.070    544.440    561.977    -17.537    561.579    561.890    561.579    561.666    561.579
 19.170    560.000    561.702     -1.702    561.299    561.615    561.299    561.387    561.299
 19.270    531.000    561.426    -30.426    561.018    561.338    561.018    561.106    561.018
 19.370    585.958    561.148     24.810    560.735    561.060    560.735    560.824    560.735
 19.470    527.000    560.869    -33.869    560.450    560.780    560.450    560.540    560.450
 19.570    557.474    560.589     -3.115    560.164    560.499    560.164    560.254    560.164
 19.670    582.474    560.308     22.166    559.876    560.217    559.876    559.967    559.876
 19.770    526.000    560.026    -34.026    559.587    559.934    559.587    559.679    559.587
 19.870    541.869    559.742    -17.873    559.297    559.649    559.297    559.390    559.297
 19.970    543.000    559.457    -16.457    559.005    559.364    559.005    559.099    559.005
 20.070    559.000    559.172     -0.172    558.712    559.077    558.712    558.806    558.712
 20.170    520.431    558.886    -38.455    558.417    558.790    558.417    558.512    558.417
 20.270    572.422    558.599     13.823    558.121    558.503    558.121    558.217    558.121
 20.370    556.274    558.313     -2.039    557.824    558.216    557.824    557.921    557.824
 20.470    562.000    558.038      3.962    557.526    557.940    557.526    557.624    557.526
 20.570    512.000    557.758    -45.758    557.226    557.659    557.226    557.326    557.226
 20.670    524.000    557.474    -33.474    556.925    557.369    556.925    557.030    556.925
 20.770    565.563    557.185      8.377    556.623    557.077    556.623    556.731    556.623
 20.870    576.145    556.895     19.250    556.320    556.786    556.320    556.430    556.320
 20.970    578.000    556.604     21.396    556.016    556.493    556.016    556.127    556.016
 21.070    566.000    556.312      9.688    555.711    556.201    555.711    555.823    555.711
 21.170    528.000    556.021    -28.021    555.405    555.908    555.405    555.518    555.405
 21.270    530.000    555.729    -25.729    555.098    555.615    555.098    555.212    555.098
 21.370    579.000    555.437     23.563    554.790    555.322    554.790    554.905    554.790
 21.470    582.000    555.146     26.854    554.480    555.030    554.480    554.597    554.480
 21.570    537.000    554.855    -17.855    554.170    554.737    554.170    554.288    554.170
 21.670    511.000    554.566    -43.566    553.860    554.447    553.860    553.979    553.860
 21.770    581.120    554.299     26.821    553.548    554.178    553.548    553.668    553.548
 21.870    612.000    554.048     57.952    553.235    553.926    553.235    553.357    553.235
 21.970    539.000    553.849    -14.849    552.922    553.725    552.922    553.045    552.922
 22.070    546.000    553.585     -7.585    552.608    553.460    552.608    552.733    552.608
 22.170    559.007    553.302      5.705    552.293    553.175    552.293    552.419    552.293
 22.270    586.000    553.019     32.981    551.977    552.891    551.977    552.105    551.977
 22.370    587.302    552.740     34.562    551.661    552.610    551.661    551.791    551.661
 22.470    564.000    552.463     11.537    551.344    552.331    551.344    551.476    551.344
 22.570    572.000    552.194     19.806    551.026    552.061    551.026    551.160    551.026
 22.670    584.775    551.970     32.805    550.708    551.835    550.708    550.844    550.708
 22.770    560.726    551.725      9.001    550.390    551.588    550.390    550.527    550.390
 22.870    549.443    551.470     -2.026    550.070    551.331    550.070    550.210    550.070
 22.970    536.000    551.221    -15.221    549.750    551.080    549.750    549.892    549.750
 23.070    594.902    550.984     43.918    549.430    550.840    549.430    549.574    549.430
 23.170    536.649    550.760    -14.111    549.109    550.615    549.109    549.255    549.109
 23.270    533.223    550.549    -17.325    548.788    550.401    548.788    548.936    548.788
 23.370    535.663    550.356    -14.693    548.466    550.206    548.466    548.617    548.466
 23.470    569.000    550.189     18.811    548.144    550.036    548.144    548.297    548.144
 23.570    549.000    550.055     -1.055    547.822    549.900    547.822    547.978    547.822
 23.670    566.000    549.965     16.035    547.499    549.808    547.499    547.658    547.499
 23.770    584.000    549.938     34.062    547.176    549.777    547.176    547.337    547.176
 23.870    504.000    549.997    -45.997    546.852    549.834    546.852    547.017    546.852
 23.970    536.513    550.191    -13.678    546.528    550.025    546.528    546.696    546.528
 24.070    534.000    550.628    -16.628    546.205    550.459    546.205    546.376    546.205
 24.170    554.000    551.633      2.367    545.880    551.461    545.880    546.055    545.880
 24.270    581.000    554.142     26.858    545.556    553.966    545.556    545.737    545.556
 24.370    531.908    560.270    -28.362    545.231    560.094    545.231    545.417    545.231
 24.470    566.000    573.209     -7.209    544.907    573.038    544.907    545.096    544.907
 24.570    596.000    594.836      1.164    544.582    594.677    544.582    544.776    544.582
 24.670    636.000    620.999     15.001    544.257    620.854    544.257    544.455    544.257
 24.770    661.421    638.505     22.916    543.932    638.368    543.932    544.135    543.932
 24.870    620.871    634.186    -13.315    543.606    634.042    543.606    543.815    543.606
 24.970    616.000    611.653      4.347    543.281    611.487    543.281    543.495    543.281
 25.070    551.000    585.642    -34.642    542.956    585.452    542.956    543.176    542.956
 25.170    589.628    566.321     23.307    542.631    566.111    542.631    542.857    542.631
 25.270    564.844    555.384      9.460    542.306    555.159    542.306    542.538    542.306
 25.370    530.410    550.150    -19.739    541.981    549.915    541.981    542.220    541.981
 25.470    575.000    547.716     27.284    541.655    547.472    541.655    541.902    541.655
 25.570    556.000    546.413      9.587    541.330    546.160    541.330    541.585    541.330
 25.670    560.039    545.552     14.486    541.006    545.291    541.006    541.268    541.006
 25.770    537.000    544.899     -7.899    540.681    544.629    540.681    540.953    540.681
 25.870    521.391    544.378    -22.986    540.356    544.097    540.356    540.638    540.356
 25.970    574.000    543.945     30.055    540.032    543.654    540.032    540.324    540.032
 26.070    557.000    543.581     13.419    539.708    543.278    539.708    540.011    539.708
 26.170    501.800    543.277    -41.477    539.384    542.962    539.384    539.699    539.384
 26.270    530.000    543.024    -13.024    539.060    542.695    539.060    539.389    539.060
 26.370    520.000    542.820    -22.820    538.736    542.477    538.736    539.079    538.736
 26.470    517.231    542.667    -25.435    538.413    542.308    538.413    538.772    538.413
 26.570    579.856    542.569     37.287    538.090    542.193    538.090    538.466    538.090
 26.670    517.179    542.556    -25.377    537.768    542.161    537.768    538.162    537.768
 26.770    504.000    542.609    -38.609    537.445    542.193    537.445    537.861    537.445
 26.870    547.044    542.723      4.321    537.124    542.284    537.124    537.562    537.124
 26.970    537.000    542.939     -5.939    536.802    542.474    536.802    537.266    536.802
 27.070    515.389    543.287    -27.897    536.481    542.794    536.481    536.973    536.481
 27.170    536.000    543.809     -7.809    536.160    543.284    536.160    536.684    536.160
 27.270    535.131    544.566     -9.435    535.840    544.006    535.840    536.399    535.840
 27.370    578.228    545.655     32.573    535.520    545.055    535.520    536.119    535.520
 27.470    576.700    547.254     29.446    535.201    546.608    535.201    535.845    535.201
 27.570    594.000    549.823     44.177    534.882    549.124    534.882    535.578    534.882
 27.670    598.000    554.871     43.129    534.563    554.111    534.563    535.318    534.563
 27.770    654.000    567.174     86.826    534.246    566.343    534.246    535.069    534.246
 27.870    584.000    598.166    -14.166    533.928    597.246    533.928    534.831    533.928
 27.970    666.000    664.603      1.397    533.611    663.568    533.611    534.607    533.611
 28.070    771.000    772.804     -1.804    533.295    771.629    533.295    534.400    533.295
 28.170    941.000    892.451     48.549    532.980    891.120    532.980    534.216    532.980
 28.270    922.000    951.514    -29.514    532.665    950.027    532.665    534.059    532.665
 28.370    871.000    902.109    -31.109    532.350    900.464    532.350    533.937    532.350
 28.470    837.065    795.472     41.593    532.037    793.622    532.037    533.862    532.037
 28.570    684.205    712.481    -28.276    531.724    710.342    531.724    533.850    531.724
 28.670    747.000    694.980     52.020    531.411    692.444    531.411    533.933    531.411
 28.770    709.797    739.038    -29.241    531.100    735.956    531.100    534.163    531.100
 28.870    797.000    806.153     -9.153    530.789    802.284    530.789    534.646    530.789
 28.970    885.000    837.836     47.164    530.479    832.749    530.479    535.569    530.479
 29.070    774.964    799.167    -24.204    530.169    792.118    530.169    537.231    530.169
 29.170    677.424    720.666    -43.242    529.860    710.513    529.860    540.027    529.860
 29.270    638.000    649.170    -11.170    529.553    634.391    529.553    544.342    529.553
 29.370    615.903    605.777     10.126    529.245    584.713    529.245    550.312    529.245
 29.470    665.000    587.856     77.144    528.939    559.364    528.939    557.431    528.939
 29.570    627.000    583.465     43.535    528.634    548.148    528.634    563.949    528.634
 29.670    613.000    581.601     31.399    528.329    543.069    528.329    566.859    528.329
 29.770    610.000    576.498     33.502    528.025    540.300    528.025    564.220    528.025
 29.870    582.000    568.288     13.712    527.722    538.486    527.722    557.522    527.722
 29.970    597.000    559.550     37.450    527.420    537.201    527.420    549.767    527.420
 30.070    595.000    552.127     42.873    527.119    536.307    527.119    542.937    527.119
 30.170    506.476    546.677    -40.201    526.819    535.772    526.819    537.722    526.819
 30.270    567.430    543.256     24.174    526.519    535.703    526.519    534.070    526.519
 30.370    537.000    541.938     -4.938    526.221    536.532    526.221    531.624    526.221
