neutron_powder_diffraction_0132
R_wp: 4.050
Temperature (K): 1048.092
Counts: 83410.00
Wavelength (Ã…): 2.52098
COMMENTS
Test file for demonstrating the .xyy file format in Reel1.0
END OF HEADER
   tth       Y_obs     Y_calc      Y_res    Background    Phase_1_Nuc    Phase_1_Mag    Phase_2_Nuc    Phase_2_Mag
  9.970    531.199    558.686    -27.487    557.730    558.610    557.730    557.805    557.730
 10.070    592.000    559.072     32.928    558.040    558.995    558.040    558.115    558.040
 10.170    608.000    559.460     48.540    558.341    559.383    558.341    558.417    558.341
 10.270    606.120    559.853     46.267    558.633    559.776    558.633    558.710    558.633
 10.370    595.000    560.254     34.746    558.917    560.177    558.917    558.994    558.917
 10.470    594.000    560.667     33.333    559.193    560.589    559.193    559.270    559.193
 10.570    598.000    561.096     36.904    559.461    561.017    559.461    559.538    559.461
 10.670    552.000    561.547     -9.547    559.720    561.469    559.720    559.797    559.720
 10.770    539.814    562.030    -22.216    559.971    561.951    559.971    560.049    559.971
 10.870    605.334    562.556     42.777    560.214    562.477    560.214    560.292    560.214
 10.970    605.000    563.144     41.856    560.449    563.064    560.449    560.527    560.449
 11.070    576.423    563.812     12.611    560.676    563.731    560.676    560.755    560.676
 11.170    590.000    564.594     25.406    560.895    564.513    560.895    560.974    560.895
 11.270    527.000    565.545    -38.545    561.106    565.463    561.106    561.186    561.106
 11.370    559.000    566.759     -7.759    561.309    566.676    561.309    561.390    561.309
 11.470    585.664    568.449     17.215    561.505    568.365    561.505    561.586    561.505
 11.570    606.000    571.154     34.846    561.694    571.069    561.694    561.774    561.694
 11.670    568.000    576.162     -8.162    561.874    576.073    561.874    561.955    561.874
 11.770    540.731    585.954    -45.223    562.048    585.859    562.048    562.129    562.048
 11.870    572.419    603.877    -31.458    562.213    603.772    562.213    562.295    562.213
 11.970    642.000    631.894     10.106    562.372    631.773    562.372    562.454    562.372
 12.070    715.000    666.173     48.827    562.523    666.033    562.523    562.606    562.523
 12.170    682.000    693.026    -11.026    562.667    692.871    562.667    562.750    562.667
 12.270    678.000    695.188    -17.188    562.804    695.031    562.804    562.888    562.804
 12.370    657.494    670.941    -13.448    562.934    670.798    562.934    563.018    562.934
 12.470    616.000    636.777    -20.777    563.057    636.652    563.057    563.141    563.057
 12.570    629.745    607.775     21.970    563.173    607.666    563.173    563.258    563.173
 12.670    579.000    588.872     -9.872    563.282    588.773    563.282    563.367    563.282
 12.770    555.000    578.533    -23.533    563.385    578.440    563.385    563.470    563.385
 12.870    619.949    573.385     46.564    563.480    573.294    563.480    563.566    563.480
 12.970    552.198    570.775    -18.576    563.569    570.685    563.569    563.655    563.569
 13.070    611.146    569.283     41.863    563.651    569.194    563.651    563.738    563.651
 13.170    589.000    568.309     20.691    563.727    568.219    563.727    563.814    563.727
 13.270    546.000    567.615    -21.615    563.797    567.526    563.797    563.884    563.797
 13.370    555.633    567.100    -11.467    563.859    567.010    563.859    563.947    563.859
 13.470    549.642    566.706    -17.065    563.916    566.617    563.916    564.004    563.916
 13.570    569.000    566.400      2.600    563.966    566.310    563.966    564.055    563.966
 13.670    566.000    566.157     -0.157    564.010    566.067    564.010    564.099    564.010
 13.770    577.000    565.960     11.040    564.048    565.870    564.048    564.138    564.048
 13.870    553.000    565.798    -12.798    564.080    565.708    564.080    564.170    564.080
 13.970    525.000    565.663    -40.663    564.106    565.572    564.106    564.196    564.106
 14.070    547.000    565.546    -18.546    564.126    565.455    564.126    564.216    564.126
 14.170    538.000    565.444    -27.444    564.140    565.353    564.140    564.231    564.140
 14.270    609.173    565.353     43.819    564.148    565.261    564.148    564.239    564.148
 14.370    552.000    565.270    -13.270    564.150    565.178    564.150    564.242    564.150
 14.470    596.331    565.193     31.139    564.146    565.100    564.146    564.239    564.146
 14.570    581.000    565.119     15.881    564.137    565.026    564.137    564.230    564.137
 14.670    531.000    565.048    -34.048    564.122    564.954    564.122    564.216    564.122
 14.770    610.357    564.978     45.380    564.102    564.883    564.102    564.196    564.102
 14.870    494.000    564.910    -70.910    564.076    564.815    564.076    564.171    564.076
 14.970    537.000    564.841    -27.841    564.045    564.746    564.045    564.140    564.045
 15.070    522.619    564.770    -42.151    564.009    564.674    564.009    564.104    564.009
 15.170    558.000    564.697     -6.697    563.967    564.601    563.967    564.063    563.967
 15.270    525.556    564.623    -39.067    563.919    564.526    563.919    564.016    563.919
 15.370    524.000    564.546    -40.546    563.867    564.449    563.867    563.964    563.867
 15.470    548.000    564.466    -16.466    563.810    564.369    563.810    563.907    563.810
 15.570    557.000    564.384     -7.384    563.747    564.286    563.747    563.845    563.747
 15.670    551.000    564.298    -13.298    563.679    564.200    563.679    563.778    563.679
 15.770    584.000    564.210     19.790    563.607    564.110    563.607    563.706    563.607
 15.870    541.000    564.118    -23.118    563.529    564.018    563.529    563.629    563.529
 15.970    572.172    564.022      8.150    563.447    563.922    563.447    563.547    563.447
 16.070    594.000    563.924     30.076    563.360    563.822    563.360    563.461    563.360
 16.170    542.738    563.822    -21.084    563.268    563.720    563.268    563.369    563.268
 16.270    552.000    563.717    -11.717    563.171    563.615    563.171    563.273    563.171
 16.370    536.000    563.608    -27.608    563.070    563.505    563.070    563.173    563.070
 16.470    558.000    563.494     -5.494    562.964    563.391    562.964    563.068    562.964
 16.570    566.000    563.378      2.622    562.854    563.273    562.854    562.958    562.854
 16.670    560.000    563.257     -3.257    562.739    563.152    562.739    562.844    562.739
 16.770    576.000    563.132     12.868    562.620    563.027    562.620    562.725    562.620
 16.870    546.000    563.004    -17.004    562.496    562.898    562.496    562.602    562.496
 16.970    562.000    562.873     -0.873    562.368    562.766    562.368    562.475    562.368
 17.070    599.000    562.737     36.263    562.236    562.630    562.236    562.344    562.236
 17.170    558.000    562.598     -4.598    562.100    562.490    562.100    562.208    562.100
 17.270    554.816    562.457     -7.641    561.959    562.348    561.959    562.068    561.959
 17.370    571.810    562.322      9.488    561.815    562.213    561.815    561.924    561.815
 17.470    610.060    562.187     47.873    561.666    562.077    561.666    561.776    561.666
 17.570    527.691    562.035    -34.344    561.514    561.924    561.514    561.624    561.514
 17.670    529.000    561.879    -32.879    561.357    561.767    561.357    561.468    561.357
 17.770    605.000    561.718     43.282    561.196    561.606    561.196    561.309    561.196
 17.870    570.000    561.555      8.445    561.032    561.442    561.032    561.145    561.032
 17.970    582.000    561.388     20.612    560.864    561.274    560.864    560.978    560.864
 18.070    570.000    561.217      8.783    560.692    561.103    560.692    560.807    560.692
 18.170    553.000    561.044     -8.044    560.517    560.928    560.517    560.632    560.517
 18.270    563.235    560.867      2.368    560.337    560.751    560.337    560.454    560.337
 18.370    555.000    560.686     -5.686    560.155    560.569    560.155    560.272    560.155
 18.470    518.284    560.503    -42.220    559.968    560.385    559.968    560.086    559.968
 18.570    598.000    560.322     37.678    559.778    560.204    559.778    559.897    559.778
 18.670    573.456    560.194     13.263    559.585    560.074    559.585    559.705    559.585
 18.770    540.000    560.054    -20.054    559.389    559.934    559.389    559.509    559.389
 18.870    590.565    559.864     30.701    559.188    559.742    559.188    559.310    559.188
 18.970    584.000    559.665     24.335    558.985    559.543    558.985    559.107    558.985
 19.070    542.954    559.465    -16.510    558.779    559.341    558.779    558.902    558.779
 19.170    518.000    559.264    -41.264    558.569    559.140    558.569    558.693    558.569
 19.270    526.273    559.058    -32.785    558.356    558.933    558.356    558.481    558.356
 19.370    492.000    558.849    -66.849    558.140    558.723    558.140    558.266    558.140
 19.470    562.271    558.637      3.634    557.921    558.510    557.921    558.048    557.921
 19.570    552.000    558.423     -6.423    557.699    558.295    557.699    557.827    557.699
 19.670    546.000    558.207    -12.207    557.473    558.078    557.473    557.603    557.473
 19.770    565.392    557.993      7.400    557.245    557.862    557.245    557.376    557.245
 19.870    565.510    557.772      7.739    557.014    557.640    557.014    557.146    557.014
 19.970    572.958    557.547     15.411    556.781    557.415    556.781    556.913    556.781
 20.070    556.000    557.321     -1.321    556.544    557.187    556.544    556.678    556.544
 20.170    564.000    557.093      6.907    556.305    556.958    556.305    556.440    556.305
 20.270    540.000    556.862    -16.862    556.063    556.726    556.063    556.199    556.063
 20.370    596.253    556.633     39.619    555.818    556.496    555.818    555.956    555.818
 20.470    534.480    556.442    -21.961    555.571    556.303    555.571    555.710    555.571
 20.570    541.000    556.233    -15.233    555.321    556.093    555.321    555.461    555.321
 20.670    544.000    555.997    -11.997    555.069    555.856    555.069    555.210    555.069
 20.770    543.000    555.758    -12.758    554.814    555.615    554.814    554.957    554.814
 20.870    540.000    555.517    -15.517    554.557    555.373    554.557    554.701    554.557
 20.970    537.577    555.275    -17.698    554.297    555.130    554.297    554.443    554.297
 21.070    514.158    555.032    -40.874    554.035    554.885    554.035    554.182    554.035
 21.170    546.054    554.789     -8.735    553.770    554.641    553.770    553.919    553.770
 21.270    531.989    554.562    -22.573    553.504    554.412    553.504    553.654    553.504
 21.370    564.460    554.348     10.112    553.235    554.197    553.235    553.387    553.235
 21.470    555.000    554.105      0.895    552.964    553.952    552.964    553.118    552.964
 21.570    545.000    553.862     -8.862    552.691    553.706    552.691    552.846    552.691
 21.670    540.891    553.616    -12.725    552.415    553.459    552.415    552.573    552.415
 21.770    546.781    553.371     -6.591    552.138    553.213    552.138    552.297    552.138
 21.870    538.000    553.125    -15.125    551.859    552.965    551.859    552.019    551.859
 21.970    529.000    552.880    -23.880    551.577    552.717    551.577    551.740    551.577
 22.070    527.000    552.636    -25.636    551.294    552.471    551.294    551.459    551.294
 22.170    551.000    552.393     -1.393    551.009    552.227    551.009    551.176    551.009
 22.270    522.000    552.153    -30.153    550.722    551.984    550.722    550.891    550.722
 22.370    561.592    551.916      9.676    550.433    551.745    550.433    550.604    550.433
 22.470    563.000    551.689     11.311    550.142    551.516    550.142    550.315    550.142
 22.570    571.904    551.463     20.440    549.850    551.288    549.850    550.025    549.850
 22.670    524.814    551.240    -26.426    549.555    551.062    549.555    549.734    549.555
 22.770    531.107    551.023    -19.916    549.260    550.843    549.260    549.440    549.260
 22.870    545.729    550.815     -5.087    548.962    550.633    548.962    549.146    548.962
 22.970    531.791    550.618    -18.827    548.663    550.433    548.663    548.849    548.663
 23.070    586.709    550.436     36.273    548.363    550.248    548.363    548.551    548.363
 23.170    554.000    550.283      3.717    548.060    550.092    548.060    548.252    548.060
 23.270    562.792    550.162     12.630    547.757    549.968    547.757    547.952    547.757
 23.370    597.000    550.067     46.933    547.452    549.870    547.452    547.650    547.452
 23.470    547.000    550.019     -3.019    547.145    549.818    547.145    547.347    547.145
 23.570    541.000    550.002     -9.002    546.837    549.799    546.837    547.042    546.837
 23.670    594.000    550.043     43.957    546.528    549.836    546.528    546.737    546.528
 23.770    520.734    550.172    -29.438    546.218    549.962    546.218    546.430    546.218
 23.870    597.670    550.436     47.234    545.906    550.222    545.906    546.122    545.906
 23.970    563.000    550.916     12.084    545.593    550.698    545.593    545.813    545.593
 24.070    592.369    551.803     40.565    545.279    551.582    545.279    545.503    545.279
 24.170    523.000    553.547    -30.547    544.963    553.323    544.963    545.192    544.963
 24.270    573.000    557.106     15.894    544.647    556.880    544.647    544.881    544.647
 24.370    602.746    564.242     38.504    544.329    564.016    544.329    544.568    544.329
 24.470    586.000    576.964      9.036    544.011    576.743    544.011    544.255    544.011
 24.570    582.611    595.899    -13.289    543.691    595.686    543.691    543.941    543.691
 24.670    592.000    617.562    -25.562    543.370    617.359    543.370    543.626    543.370
 24.770    690.000    632.422     57.578    543.049    632.224    543.049    543.310    543.049
 24.870    649.000    630.498     18.502    542.726    630.292    542.726    542.994    542.726
 24.970    583.373    613.175    -29.802    542.403    612.950    542.403    542.678    542.403
 25.070    611.000    591.046     19.954    542.079    590.798    542.079    542.361    542.079
 25.170    574.000    572.596      1.404    541.754    572.327    541.754    542.043    541.754
 25.270    564.000    560.401      3.599    541.428    560.115    541.428    541.726    541.428
 25.370    530.433    553.474    -23.041    541.101    553.174    541.101    541.408    541.101
 25.470    525.000    549.792    -24.792    540.774    549.481    540.774    541.090    540.774
 25.570    571.000    547.753     23.247    540.446    547.430    540.446    540.772    540.446
 25.670    549.823    546.478      3.345    540.117    546.144    540.117    540.454    540.117
 25.770    569.747    545.556     24.190    539.788    545.210    539.788    540.136    539.788
 25.870    560.000    544.840     15.160    539.458    544.481    539.458    539.818    539.458
 25.970    518.000    544.257    -26.257    539.127    543.884    539.127    539.501    539.127
 26.070    568.000    543.775     24.225    538.796    543.388    538.796    539.184    538.796
 26.170    537.000    543.374     -6.374    538.464    542.971    538.464    538.867    538.464
 26.270    528.000    543.042    -15.042    538.132    542.623    538.132    538.552    538.132
 26.370    569.000    542.773     26.227    537.800    542.336    537.800    538.237    537.800
 26.470    593.000    542.561     50.439    537.467    542.104    537.467    537.924    537.467
 26.570    542.000    542.409     -0.409    537.134    541.930    537.134    537.612    537.134
 26.670    587.000    542.320     44.680    536.800    541.818    536.800    537.302    536.800
 26.770    522.167    542.303    -20.136    536.466    541.776    536.466    536.993    536.466
 26.870    568.000    542.371     25.629    536.132    541.815    536.132    536.687    536.132
 26.970    540.000    542.542     -2.542    535.797    541.955    535.797    536.384    535.797
 27.070    552.444    542.843      9.601    535.462    542.221    535.462    536.083    535.462
 27.170    534.000    543.310     -9.310    535.127    542.650    535.127    535.787    535.127
 27.270    582.000    544.002     37.998    534.792    543.299    534.792    535.494    534.792
 27.370    519.302    545.009    -25.707    534.456    544.257    534.456    535.207    534.456
 27.470    560.375    546.498     13.877    534.121    545.692    534.121    534.925    534.121
 27.570    580.000    548.913     31.087    533.785    548.045    533.785    534.651    533.785
 27.670    596.957    553.770     43.187    533.449    552.831    533.449    534.385    533.449
 27.770    585.000    565.868     19.132    533.113    564.845    533.113    534.129    533.113
 27.870    617.000    596.519     20.481    532.778    595.394    532.778    533.885    532.778
 27.970    636.859    662.141    -25.282    532.442    660.888    532.442    533.656    532.442
 28.070    726.788    768.888    -42.100    532.106    767.479    532.106    533.445    532.106
 28.170    903.000    887.515     15.485    531.770    885.932    531.770    533.258    531.770
 28.270    945.354    949.090     -3.736    531.434    947.330    531.434    533.101    531.434
 28.370    955.148    906.326     48.821    531.099    904.382    531.099    532.983    531.099
 28.470    764.000    804.101    -40.101    530.763    801.924    530.763    532.915    530.763
 28.570    740.000    720.556     19.444    530.428    718.063    530.428    532.912    530.428
 28.670    750.000    699.224     50.776    530.093    696.313    530.093    532.994    530.093
 28.770    732.178    737.986     -5.808    529.758    734.546    529.758    533.180    529.758
 28.870    761.000    800.587    -39.587    529.423    796.492    529.423    533.498    529.423
 28.970    803.000    831.990    -28.990    529.089    827.096    529.089    533.970    529.089
 29.070    806.108    797.753      8.355    528.754    791.891    528.754    534.620    528.754
 29.170    676.149    722.590    -46.441    528.421    715.568    528.421    535.456    528.421
 29.270    621.000    649.230    -28.230    528.087    640.872    528.087    536.459    528.087
 29.370    591.000    599.302     -8.302    527.754    589.512    527.754    537.553    527.754
 29.470    577.000    572.911      4.089    527.421    561.759    527.421    538.578    527.421
 29.570    559.571    561.075     -1.504    527.088    548.877    527.088    539.288    527.088
 29.670    571.650    555.649     16.002    526.756    542.984    526.756    539.422    526.756
 29.770    552.271    552.295     -0.024    526.425    539.876    526.425    538.843    526.425
 29.870    565.000    549.450     15.550    526.094    537.915    526.094    537.629    526.094
 29.970    528.769    546.811    -18.042    525.763    536.558    525.763    536.016    525.763
 30.070    599.000    544.467     54.533    525.433    535.636    525.433    534.263    525.433
 30.170    549.000    542.580      6.420    525.103    535.121    525.103    532.560    525.103
 30.270    548.161    541.380      6.781    524.774    535.145    524.774    531.007    524.774
 30.370    555.000    541.389     13.611    524.445    536.193    524.445    529.637    524.445
