neutron_powder_diffraction_0093
R_wp: 4.011
Temperature (K): 854.074
Counts: 83645.00
Wavelength (Ã…): 2.52098
COMMENTS
Test file for demonstrating the .xyy file format in Reel1.0
END OF HEADER
   tth       Y_obs     Y_calc      Y_res    Background    Phase_1_Nuc    Phase_1_Mag    Phase_2_Nuc    Phase_2_Mag
  9.970    608.000    555.703     52.297    554.430    555.509    554.430    554.599    554.455
 10.070    559.000    556.278      2.722    554.915    556.083    554.915    555.084    554.940
 10.170    570.387    556.855     13.532    555.388    556.659    555.388    555.559    555.414
 10.270    601.625    557.438     44.187    555.852    557.241    555.852    556.023    555.877
 10.370    588.000    558.028     29.972    556.305    557.830    556.305    556.476    556.331
 10.470    567.575    558.631      8.943    556.747    558.432    556.747    556.920    556.774
 10.570    588.000    559.252     28.748    557.180    559.052    557.180    557.353    557.206
 10.670    613.000    559.898     53.102    557.603    559.697    557.603    557.777    557.629
 10.770    582.873    560.578     22.296    558.015    560.375    558.015    558.190    558.042
 10.870    555.000    561.304     -6.304    558.418    561.101    558.418    558.593    558.445
 10.970    574.000    562.095     11.905    558.811    561.890    558.811    558.987    558.838
 11.070    529.649    562.974    -33.325    559.194    562.768    559.194    559.370    559.221
 11.170    611.000    563.974     47.026    559.567    563.767    559.567    559.745    559.595
 11.270    521.835    565.150    -43.315    559.931    564.941    559.931    560.109    559.959
 11.370    551.703    566.595    -14.893    560.285    566.385    560.285    560.464    560.314
 11.470    566.158    568.502     -2.344    560.630    568.290    560.630    560.810    560.659
 11.570    609.000    571.310     37.690    560.965    571.095    560.965    561.146    560.995
 11.670    621.000    575.984     45.016    561.292    575.766    561.292    561.473    561.321
 11.770    658.000    584.312     73.688    561.609    584.087    561.609    561.791    561.638
 11.870    661.000    598.771     62.229    561.917    598.537    561.917    562.100    561.947
 11.970    677.000    621.317     55.683    562.215    621.069    562.215    562.399    562.246
 12.070    668.000    650.767     17.233    562.505    650.502    562.505    562.690    562.536
 12.170    646.137    679.163    -33.026    562.786    678.880    562.786    562.972    562.817
 12.270    652.000    691.063    -39.063    563.058    690.772    563.058    563.245    563.090
 12.370    662.000    677.205    -15.205    563.322    676.920    563.322    563.509    563.353
 12.470    618.000    648.405    -30.405    563.577    648.136    563.577    563.764    563.609
 12.570    635.000    619.924     15.076    563.823    619.671    563.823    564.011    563.855
 12.670    585.993    598.839    -12.846    564.060    598.597    564.060    564.250    564.093
 12.770    540.000    585.762    -45.762    564.290    585.526    564.290    564.480    564.323
 12.870    578.000    578.541     -0.541    564.510    578.309    564.510    564.702    564.544
 12.970    563.000    574.724    -11.724    564.723    574.493    564.723    564.915    564.757
 13.070    545.000    572.617    -27.617    564.927    572.386    564.927    565.120    564.961
 13.170    590.000    571.334     18.666    565.123    571.102    565.123    565.317    565.158
 13.270    520.000    570.479    -50.479    565.311    570.246    565.311    565.506    565.346
 13.370    581.000    569.878     11.122    565.491    569.645    565.491    565.687    565.527
 13.470    565.487    569.447     -3.960    565.664    569.213    565.664    565.860    565.699
 13.570    544.000    569.136    -25.136    565.828    568.900    565.828    566.026    565.864
 13.670    571.000    568.910      2.090    565.984    568.674    565.984    566.183    566.021
 13.770    529.000    568.750    -39.750    566.133    568.512    566.133    566.333    566.170
 13.870    587.785    568.636     19.149    566.274    568.397    566.274    566.475    566.312
 13.970    553.223    568.556    -15.334    566.408    568.316    566.408    566.609    566.446
 14.070    563.873    568.503     -4.631    566.534    568.262    566.534    566.736    566.572
 14.170    573.000    568.471      4.529    566.652    568.228    566.652    566.856    566.691
 14.270    553.000    568.457    -15.457    566.763    568.213    566.763    566.968    566.803
 14.370    588.000    568.475     19.525    566.867    568.229    566.867    567.073    566.907
 14.470    545.000    568.481    -23.481    566.964    568.234    566.964    567.171    567.004
 14.570    567.000    568.488     -1.488    567.054    568.239    567.054    567.261    567.094
 14.670    529.000    568.497    -39.497    567.136    568.247    567.136    567.345    567.177
 14.770    539.238    568.509    -29.271    567.211    568.257    567.211    567.421    567.253
 14.870    548.227    568.521    -20.294    567.280    568.268    567.280    567.491    567.322
 14.970    544.000    568.533    -24.533    567.341    568.278    567.341    567.553    567.384
 15.070    575.696    568.544      7.152    567.396    568.287    567.396    567.609    567.439
 15.170    552.805    568.562    -15.757    567.444    568.304    567.444    567.658    567.488
 15.270    547.261    568.665    -21.405    567.485    568.405    567.485    567.701    567.530
 15.370    569.960    568.704      1.256    567.520    568.442    567.520    567.737    567.565
 15.470    571.000    568.708      2.292    567.548    568.444    567.548    567.766    567.594
 15.570    577.000    568.705      8.295    567.569    568.440    567.569    567.789    567.616
 15.670    535.200    568.698    -33.499    567.585    568.431    567.585    567.805    567.632
 15.770    578.000    568.688      9.312    567.593    568.419    567.593    567.815    567.641
 15.870    535.969    568.673    -32.704    567.596    568.402    567.596    567.819    567.644
 15.970    529.000    568.654    -39.654    567.592    568.382    567.592    567.816    567.641
 16.070    624.000    568.631     55.369    567.582    568.356    567.582    567.807    567.632
 16.170    527.000    568.603    -41.603    567.566    568.326    567.566    567.793    567.616
 16.270    604.933    568.570     36.362    567.544    568.292    567.544    567.772    567.595
 16.370    564.000    568.533     -4.533    567.516    568.252    567.516    567.745    567.568
 16.470    541.000    568.491    -27.491    567.482    568.208    567.482    567.712    567.534
 16.570    549.000    568.444    -19.444    567.442    568.160    567.442    567.674    567.495
 16.670    616.171    568.395     47.776    567.396    568.108    567.396    567.630    567.450
 16.770    539.000    568.344    -29.344    567.345    568.055    567.345    567.580    567.400
 16.870    605.496    568.283     37.213    567.288    567.992    567.288    567.524    567.343
 16.970    550.933    568.218    -17.284    567.225    567.924    567.225    567.463    567.281
 17.070    569.000    568.147      0.853    567.157    567.851    567.157    567.396    567.214
 17.170    590.920    568.074     22.847    567.083    567.775    567.083    567.324    567.141
 17.270    554.000    567.997    -13.997    567.004    567.696    567.004    567.246    567.063
 17.370    569.000    567.912      1.088    566.919    567.609    566.919    567.163    566.979
 17.470    549.000    567.823    -18.823    566.829    567.517    566.829    567.075    566.890
 17.570    553.000    567.729    -14.729    566.734    567.421    566.734    566.981    566.796
 17.670    588.000    567.632     20.368    566.634    567.321    566.634    566.882    566.697
 17.770    570.983    567.551      3.432    566.529    567.237    566.529    566.779    566.592
 17.870    490.000    567.495    -77.495    566.418    567.179    566.418    566.670    566.483
 17.970    524.588    567.388    -42.800    566.302    567.070    566.302    566.556    566.368
 18.070    571.257    567.272      3.985    566.182    566.951    566.182    566.437    566.249
 18.170    497.000    567.152    -70.152    566.056    566.827    566.056    566.313    566.125
 18.270    569.548    567.027      2.522    565.926    566.699    565.926    566.185    565.995
 18.370    542.000    566.897    -24.897    565.791    566.567    565.791    566.052    565.861
 18.470    585.000    566.764     18.236    565.651    566.431    565.651    565.914    565.723
 18.570    599.698    566.626     33.072    565.507    566.290    565.507    565.771    565.580
 18.670    562.000    566.486     -4.486    565.358    566.146    565.358    565.624    565.432
 18.770    530.000    566.357    -36.357    565.204    566.014    565.204    565.472    565.279
 18.870    568.384    566.231      2.153    565.046    565.885    565.046    565.316    565.123
 18.970    553.000    566.080    -13.080    564.883    565.730    564.883    565.155    564.961
 19.070    578.000    565.922     12.078    564.716    565.569    564.716    564.990    564.796
 19.170    555.210    565.761    -10.551    564.545    565.405    564.545    564.821    564.626
 19.270    541.000    565.599    -24.599    564.369    565.239    564.369    564.648    564.451
 19.370    528.000    565.442    -37.442    564.189    565.078    564.189    564.470    564.273
 19.470    564.607    565.271     -0.664    564.005    564.903    564.005    564.288    564.091
 19.570    533.000    565.095    -32.095    563.817    564.724    563.817    564.102    563.904
 19.670    520.000    564.917    -44.917    563.625    564.542    563.625    563.912    563.713
 19.770    571.374    564.751      6.623    563.428    564.371    563.428    563.718    563.519
 19.870    557.061    564.603     -7.543    563.228    564.220    563.228    563.520    563.320
 19.970    553.000    564.419    -11.419    563.024    564.031    563.024    563.318    563.118
 20.070    586.000    564.227     21.773    562.816    563.835    562.816    563.113    562.911
 20.170    564.000    564.032     -0.032    562.604    563.635    562.604    562.903    562.701
 20.270    526.000    563.835    -37.835    562.388    563.433    562.388    562.690    562.488
 20.370    586.069    563.634     22.435    562.169    563.228    562.169    562.474    562.270
 20.470    577.000    563.432     13.568    561.946    563.021    561.946    562.254    562.049
 20.570    541.137    563.226    -22.090    561.719    562.810    561.719    562.030    561.825
 20.670    566.000    563.018      2.982    561.489    562.597    561.489    561.802    561.597
 20.770    564.000    562.813      1.187    561.255    562.386    561.255    561.572    561.365
 20.870    589.000    562.627     26.373    561.018    562.195    561.018    561.337    561.131
 20.970    545.000    562.421    -17.421    560.777    561.983    560.777    561.100    560.892
 21.070    542.367    562.255    -19.889    560.533    561.812    560.533    560.859    560.651
 21.170    540.000    562.088    -22.088    560.286    561.639    560.286    560.615    560.406
 21.270    522.000    561.892    -39.892    560.035    561.437    560.035    560.368    560.158
 21.370    518.788    561.674    -42.886    559.781    561.212    559.781    560.118    559.907
 21.470    572.000    561.462     10.538    559.524    560.994    559.524    559.864    559.653
 21.570    531.000    561.274    -30.274    559.264    560.799    559.264    559.608    559.396
 21.670    580.000    561.054     18.946    559.001    560.572    559.001    559.349    559.136
 21.770    522.000    560.830    -38.830    558.735    560.341    558.735    559.086    558.873
 21.870    583.440    560.607     22.833    558.466    560.111    558.466    558.821    558.608
 21.970    592.000    560.394     31.606    558.194    559.890    558.194    558.553    558.339
 22.070    569.000    560.201      8.799    557.919    559.689    557.919    558.282    558.068
 22.170    532.736    559.983    -27.247    557.641    559.464    557.641    558.009    557.794
 22.270    557.000    559.767     -2.767    557.360    559.239    557.360    557.733    557.517
 22.370    519.404    559.551    -40.148    557.077    559.015    557.077    557.454    557.238
 22.470    566.215    559.339      6.876    556.791    558.793    556.791    557.173    556.956
 22.570    556.000    559.132     -3.132    556.502    558.577    556.502    556.889    556.671
 22.670    547.000    558.932    -11.932    556.211    558.367    556.211    556.603    556.385
 22.770    528.412    558.736    -30.324    555.917    558.161    555.917    556.314    556.095
 22.870    533.000    558.550    -25.550    555.620    557.965    555.620    556.024    555.804
 22.970    564.000    558.375      5.625    555.321    557.779    555.321    555.730    555.510
 23.070    574.980    558.214     16.765    555.020    557.607    555.020    555.435    555.214
 23.170    568.000    558.072      9.928    554.716    557.452    554.716    555.137    554.916
 23.270    590.848    557.957     32.891    554.410    557.325    554.410    554.838    554.616
 23.370    528.443    557.865    -29.422    554.102    557.221    554.102    554.536    554.314
 23.470    567.000    557.811      9.189    553.791    557.153    553.791    554.232    554.009
 23.570    578.118    557.804     20.314    553.478    557.133    553.478    553.926    553.703
 23.670    512.177    557.863    -45.686    553.163    557.177    553.163    553.619    553.395
 23.770    576.000    558.008     17.992    552.846    557.308    552.846    553.309    553.085
 23.870    575.357    558.272     17.085    552.527    557.556    552.527    552.998    552.774
 23.970    527.000    558.715    -31.715    552.205    557.983    552.205    552.685    552.460
 24.070    605.000    559.460     45.540    551.882    558.712    551.882    552.371    552.146
 24.170    576.000    560.779     15.221    551.556    560.013    551.556    552.055    551.829
 24.270    570.000    563.254      6.746    551.229    562.471    551.229    551.737    551.511
 24.370    560.360    567.955     -7.595    550.900    567.155    550.900    551.418    551.192
 24.470    614.000    576.371     37.629    550.569    575.556    550.569    551.098    550.872
 24.570    560.000    589.769    -29.769    550.236    588.942    550.236    550.776    550.550
 24.670    613.407    607.779      5.628    549.901    606.941    549.901    550.453    550.227
 24.770    614.000    626.272    -12.272    549.565    625.422    549.565    550.129    549.903
 24.870    641.000    636.322      4.678    549.227    635.454    549.227    549.804    549.578
 24.970    584.090    630.866    -46.776    548.887    629.967    548.887    549.478    549.252
 25.070    626.000    613.900     12.100    548.546    612.960    548.546    549.151    548.925
 25.170    640.000    594.632     45.368    548.203    593.648    548.203    548.823    548.598
 25.270    624.000    578.914     45.086    547.859    577.887    547.859    548.495    548.270
 25.370    611.000    568.272     42.728    547.513    567.202    547.513    548.166    547.941
 25.470    516.826    561.870    -45.044    547.165    560.760    547.165    547.837    547.613
 25.570    590.000    558.217     31.783    546.816    557.065    546.816    547.507    547.284
 25.670    549.000    556.073     -7.073    546.466    554.878    546.466    547.177    546.955
 25.770    620.000    554.693     65.307    546.115    553.453    546.115    546.847    546.626
 25.870    582.000    553.711     28.289    545.762    552.423    545.762    546.518    546.297
 25.970    601.000    552.963     48.037    545.408    551.624    545.408    546.188    545.969
 26.070    589.000    552.374     36.626    545.052    550.981    545.052    545.859    545.641
 26.170    600.560    551.906     48.654    544.696    550.454    544.696    545.531    545.314
 26.270    554.000    551.536      2.464    544.338    550.021    544.338    545.203    544.989
 26.370    562.000    551.252     10.748    543.979    549.669    543.979    544.877    544.665
 26.470    571.000    551.046     19.954    543.619    549.391    543.619    544.552    544.342
 26.570    589.621    550.918     38.703    543.258    549.184    543.258    544.229    544.022
 26.670    524.398    550.871    -26.473    542.896    549.052    542.896    543.908    543.704
 26.770    505.158    550.912    -45.754    542.533    549.001    542.533    543.589    543.388
 26.870    565.000    551.054     13.946    542.168    549.042    542.168    543.274    543.076
 26.970    528.000    551.316    -23.316    541.803    549.194    541.803    542.961    542.768
 27.070    622.000    551.724     70.276    541.438    549.482    541.438    542.653    542.464
 27.170    578.766    552.319     26.447    541.071    549.946    541.071    542.349    542.166
 27.270    601.000    553.160     47.840    540.703    550.643    540.703    542.050    541.873
 27.370    583.000    554.331     28.669    540.335    551.656    540.335    541.757    541.587
 27.470    557.000    555.990      1.010    539.966    553.142    539.966    541.471    541.308
 27.570    570.000    558.503     11.497    539.596    555.461    539.596    541.192    541.039
 27.670    558.029    562.942     -4.913    539.225    559.687    539.225    540.923    540.779
 27.770    577.000    572.434      4.566    538.854    568.942    538.854    540.664    540.530
 27.870    604.105    594.274      9.830    538.482    590.513    538.482    540.415    540.294
 27.970    699.000    640.311     58.689    538.110    636.245    538.110    540.180    540.072
 28.070    717.000    720.030     -3.030    537.736    715.623    537.736    539.959    539.866
 28.170    814.000    824.530    -10.530    537.363    819.746    537.363    539.753    539.678
 28.270    852.540    913.269    -60.728    536.989    908.088    536.989    539.566    539.509
 28.370    973.000    932.521     40.479    536.614    926.926    536.614    539.397    539.362
 28.470    861.280    872.749    -11.469    536.239    866.701    536.239    539.249    539.237
 28.570    804.831    787.299     17.531    535.864    780.744    535.864    539.122    539.137
 28.670    718.000    733.666    -15.666    535.488    726.543    535.488    539.019    539.062
 28.770    699.000    733.892    -34.892    535.112    726.147    535.112    538.937    539.012
 28.870    832.258    774.420     57.837    534.735    766.010    534.735    538.876    538.984
 28.970    795.156    817.478    -22.323    534.358    808.373    534.358    538.832    538.976
 29.070    810.000    821.795    -11.795    533.981    811.977    533.981    538.800    538.981
 29.170    759.000    776.231    -17.231    533.604    765.690    533.604    538.771    538.988
 29.270    730.000    707.762     22.238    533.226    696.510    533.226    538.731    538.985
 29.370    675.000    646.458     28.542    532.849    634.543    532.849    538.667    538.954
 29.470    612.000    604.819      7.181    532.471    592.330    532.471    538.561    538.876
 29.570    600.000    581.453     18.547    532.093    568.518    532.093    538.394    538.731
 29.670    596.000    569.736     26.264    531.715    556.518    531.715    538.150    538.500
 29.770    609.054    563.801     45.252    531.337    550.485    531.337    537.819    538.173
 29.870    525.324    560.317    -34.994    530.958    547.095    530.958    537.397    537.744
 29.970    576.000    557.858     18.142    530.580    544.915    530.580    536.888    537.217
 30.070    628.000    555.924     72.076    530.202    543.420    530.202    536.303    536.606
 30.170    524.092    554.386    -30.294    529.824    542.450    529.824    535.657    535.928
 30.270    575.690    553.311     22.379    529.446    542.030    529.446    534.969    535.203
 30.370    546.000    552.996     -6.996    529.067    542.423    529.067    534.257    534.450
