neutron_powder_diffraction_0213
R_wp: 3.959
Temperature (K): 1074.100
Counts: 83947.00
Wavelength (Ã…): 2.52098
COMMENTS
Test file for demonstrating the .xyy file format in Reel1.0
END OF HEADER
   tth       Y_obs     Y_calc      Y_res    Background    Phase_1_Nuc    Phase_1_Mag    Phase_2_Nuc    Phase_2_Mag
  9.970    571.517    574.360     -2.843    573.677    574.340    573.677    573.696    573.677
 10.070    649.000    574.482     74.518    573.742    574.462    573.742    573.761    573.742
 10.170    598.000    574.607     23.393    573.801    574.587    573.801    573.820    573.801
 10.270    642.000    574.735     67.265    573.854    574.715    573.854    573.874    573.854
 10.370    617.000    574.871     42.129    573.902    574.850    573.902    573.921    573.902
 10.470    588.000    575.015     12.985    573.943    574.995    573.943    573.963    573.943
 10.570    583.000    575.172      7.828    573.979    575.152    573.979    573.999    573.979
 10.670    579.000    575.348      3.652    574.009    575.327    574.009    574.029    574.009
 10.770    593.000    575.547     17.453    574.034    575.526    574.034    574.054    574.034
 10.870    612.000    575.780     36.220    574.053    575.759    574.053    574.073    574.053
 10.970    586.000    576.059      9.941    574.067    576.038    574.067    574.087    574.067
 11.070    603.000    576.401     26.599    574.075    576.379    574.075    574.095    574.075
 11.170    540.614    576.832    -36.219    574.078    576.810    574.078    574.098    574.078
 11.270    589.000    577.393     11.607    574.075    577.370    574.075    574.095    574.075
 11.370    568.000    578.151    -10.151    574.067    578.128    574.067    574.088    574.067
 11.470    614.000    579.258     34.742    574.054    579.235    574.054    574.075    574.054
 11.570    588.000    581.132      6.868    574.035    581.107    574.035    574.056    574.035
 11.670    568.824    584.945    -16.121    574.012    584.918    574.012    574.033    574.012
 11.770    590.000    593.386     -3.386    573.983    593.353    573.983    574.005    573.983
 11.870    611.503    610.731      0.772    573.950    610.688    573.950    573.971    573.950
 11.970    676.000    640.237     35.763    573.911    640.178    573.911    573.933    573.911
 12.070    641.303    678.060    -36.757    573.868    677.979    573.868    573.889    573.868
 12.170    713.000    707.743      5.257    573.819    707.644    573.819    573.841    573.819
 12.270    684.000    708.654    -24.654    573.766    708.555    573.766    573.788    573.766
 12.370    659.000    679.929    -20.929    573.708    679.847    573.708    573.730    573.708
 12.470    692.341    641.837     50.504    573.645    641.776    573.645    573.667    573.645
 12.570    577.000    611.566    -34.566    573.578    611.522    573.578    573.600    573.578
 12.670    570.000    593.531    -23.531    573.506    593.497    573.506    573.528    573.506
 12.770    568.008    584.651    -16.643    573.429    584.622    573.429    573.452    573.429
 12.870    525.000    580.589    -55.589    573.348    580.562    573.348    573.371    573.348
 12.970    543.000    578.557    -35.557    573.262    578.531    573.262    573.285    573.262
 13.070    546.368    577.324    -30.956    573.172    577.299    573.172    573.195    573.172
 13.170    574.000    576.454     -2.454    573.078    576.428    573.078    573.102    573.078
 13.270    581.000    575.789      5.211    572.979    575.761    572.979    573.006    572.979
 13.370    601.151    575.254     25.897    572.876    575.226    572.876    572.903    572.876
 13.470    564.000    574.813    -10.813    572.769    574.783    572.769    572.797    572.769
 13.570    606.000    574.436     31.564    572.657    574.405    572.657    572.687    572.657
 13.670    543.000    574.107    -31.107    572.541    574.076    572.541    572.571    572.541
 13.770    546.000    573.812    -27.812    572.422    573.782    572.422    572.452    572.422
 13.870    606.701    573.545     33.157    572.298    573.514    572.298    572.328    572.298
 13.970    540.841    573.297    -32.455    572.170    573.266    572.170    572.200    572.170
 14.070    508.000    573.064    -65.064    572.038    573.033    572.038    572.069    572.038
 14.170    546.000    572.842    -26.842    571.902    572.811    571.902    571.933    571.902
 14.270    546.828    572.629    -25.802    571.763    572.598    571.763    571.794    571.763
 14.370    555.000    572.426    -17.426    571.620    572.394    571.620    571.651    571.620
 14.470    578.000    572.225      5.775    571.472    572.194    571.472    571.504    571.472
 14.570    549.000    572.027    -23.027    571.322    571.995    571.322    571.353    571.322
 14.670    584.000    571.830     12.170    571.167    571.798    571.167    571.199    571.167
 14.770    540.113    571.635    -31.522    571.009    571.603    571.009    571.041    571.009
 14.870    543.000    571.442    -28.442    570.847    571.408    570.847    570.880    570.847
 14.970    574.283    571.258      3.025    570.682    571.214    570.682    570.726    570.682
 15.070    532.000    571.065    -39.065    570.513    571.019    570.513    570.558    570.513
 15.170    553.750    570.870    -17.120    570.341    570.824    570.341    570.386    570.341
 15.270    603.813    570.674     33.139    570.165    570.628    570.165    570.211    570.165
 15.370    562.000    570.477     -8.477    569.986    570.430    569.986    570.032    569.986
 15.470    566.325    570.278     -3.953    569.803    570.231    569.803    569.850    569.803
 15.570    556.165    570.078    -13.913    569.618    570.031    569.618    569.665    569.618
 15.670    594.000    569.876     24.124    569.429    569.828    569.429    569.477    569.429
 15.770    542.596    569.677    -27.082    569.237    569.624    569.237    569.290    569.237
 15.870    586.000    569.472     16.528    569.041    569.418    569.041    569.096    569.041
 15.970    594.470    569.264     25.205    568.843    569.210    568.843    568.898    568.843
 16.070    553.000    569.055    -16.055    568.641    568.999    568.641    568.697    568.641
 16.170    560.000    568.844     -8.844    568.437    568.788    568.437    568.493    568.437
 16.270    575.000    568.632      6.368    568.229    568.575    568.229    568.286    568.229
 16.370    549.000    568.415    -19.415    568.019    568.358    568.019    568.076    568.019
 16.470    531.000    568.197    -37.197    567.806    568.139    567.806    567.863    567.806
 16.570    514.000    567.976    -53.976    567.589    567.918    567.589    567.647    567.589
 16.670    592.989    567.753     25.237    567.370    567.694    567.370    567.428    567.370
 16.770    562.000    567.527     -5.527    567.148    567.469    567.148    567.207    567.148
 16.870    574.000    567.300      6.700    566.924    567.240    566.924    566.983    566.924
 16.970    564.000    567.070     -3.070    566.697    567.010    566.697    566.756    566.697
 17.070    573.000    566.838      6.162    566.467    566.778    566.467    566.526    566.467
 17.170    535.450    566.606    -31.156    566.234    566.546    566.234    566.294    566.234
 17.270    604.008    566.370     37.637    565.999    566.309    565.999    566.060    565.999
 17.370    567.000    566.132      0.868    565.761    566.070    565.761    565.822    565.761
 17.470    545.132    565.891    -20.758    565.521    565.829    565.521    565.582    565.521
 17.570    551.247    565.648    -14.401    565.278    565.586    565.278    565.340    565.278
 17.670    538.077    565.403    -27.326    565.033    565.340    565.033    565.096    565.033
 17.770    520.647    565.156    -44.508    564.786    565.093    564.786    564.849    564.786
 17.870    552.000    564.907    -12.907    564.536    564.843    564.536    564.599    564.536
 17.970    568.000    564.656      3.344    564.284    564.592    564.284    564.347    564.284
 18.070    594.055    564.402     29.653    564.029    564.338    564.029    564.093    564.029
 18.170    563.000    564.147     -1.147    563.772    564.083    563.772    563.837    563.772
 18.270    564.063    563.890      0.172    563.514    563.825    563.514    563.579    563.514
 18.370    558.000    563.632     -5.632    563.252    563.566    563.252    563.318    563.252
 18.470    585.889    563.371     22.518    562.989    563.304    562.989    563.056    562.989
 18.570    538.000    563.108    -25.108    562.724    563.041    562.724    562.791    562.724
 18.670    571.000    562.844      8.156    562.457    562.777    562.457    562.524    562.457
 18.770    580.000    562.579     17.421    562.187    562.510    562.187    562.255    562.187
 18.870    571.710    562.312      9.399    561.916    562.242    561.916    561.985    561.916
 18.970    546.000    562.045    -16.045    561.643    561.972    561.643    561.715    561.643
 19.070    555.000    561.775     -6.775    561.367    561.701    561.367    561.441    561.367
 19.170    588.000    561.503     26.497    561.090    561.429    561.090    561.165    561.090
 19.270    602.456    561.230     41.226    560.811    561.154    560.811    560.887    560.811
 19.370    560.000    560.955     -0.955    560.531    560.879    560.531    560.607    560.531
 19.470    602.000    560.680     41.320    560.248    560.602    560.248    560.325    560.248
 19.570    560.269    560.401     -0.133    559.964    560.323    559.964    560.042    559.964
 19.670    557.638    560.122     -2.483    559.678    560.043    559.678    559.757    559.678
 19.770    534.000    559.842    -25.842    559.390    559.763    559.390    559.470    559.390
 19.870    535.899    559.574    -23.675    559.101    559.494    559.101    559.181    559.101
 19.970    531.805    559.301    -27.496    558.810    559.220    558.810    558.891    558.810
 20.070    520.103    559.017    -38.914    558.518    558.936    558.518    558.599    558.518
 20.170    571.000    558.732     12.268    558.224    558.649    558.224    558.306    558.224
 20.270    518.519    558.446    -39.927    557.928    558.362    557.928    558.012    557.928
 20.370    590.000    558.158     31.842    557.631    558.074    557.631    557.715    557.631
 20.470    594.604    557.870     36.734    557.333    557.785    557.333    557.418    557.333
 20.570    550.000    557.581     -7.581    557.033    557.495    557.033    557.119    557.033
 20.670    545.000    557.291    -12.291    556.732    557.205    556.732    556.819    556.732
 20.770    517.000    557.001    -40.001    556.430    556.914    556.430    556.517    556.430
 20.870    574.000    556.711     17.289    556.126    556.622    556.126    556.215    556.126
 20.970    574.000    556.420     17.580    555.821    556.329    555.821    555.912    555.821
 21.070    552.205    556.129     -3.924    555.515    556.037    555.515    555.607    555.515
 21.170    534.000    555.837    -21.837    555.207    555.744    555.207    555.300    555.207
 21.270    538.000    555.545    -17.545    554.898    555.450    554.898    554.993    554.898
 21.370    594.000    555.252     38.748    554.589    555.157    554.589    554.684    554.589
 21.470    554.845    554.960     -0.115    554.278    554.864    554.278    554.374    554.278
 21.570    586.000    554.669     31.331    553.966    554.571    553.966    554.063    553.966
 21.670    548.000    554.377     -6.377    553.653    554.279    553.653    553.751    553.653
 21.770    604.000    554.087     49.913    553.338    553.987    553.338    553.438    553.338
 21.870    525.000    553.797    -28.797    553.023    553.696    553.023    553.124    553.023
 21.970    536.000    553.519    -17.519    552.707    553.416    552.707    552.810    552.707
 22.070    552.105    553.338     -1.233    552.390    553.234    552.390    552.494    552.390
 22.170    581.000    553.112     27.888    552.072    553.003    552.072    552.182    552.072
 22.270    608.000    552.882     55.118    551.754    552.769    551.754    551.866    551.754
 22.370    526.000    552.623    -26.623    551.434    552.509    551.434    551.548    551.434
 22.470    540.964    552.353    -11.389    551.114    552.237    551.114    551.230    551.114
 22.570    519.000    552.081    -33.081    550.792    551.964    550.792    550.910    550.792
 22.670    545.000    551.814     -6.814    550.470    551.695    550.470    550.590    550.470
 22.770    552.000    551.553      0.447    550.148    551.432    550.148    550.269    550.148
 22.870    523.418    551.299    -27.881    549.824    551.177    549.824    549.947    549.824
 22.970    585.000    551.054     33.946    549.500    550.930    549.500    549.625    549.500
 23.070    547.000    550.821     -3.821    549.175    550.694    549.175    549.302    549.175
 23.170    573.000    550.601     22.399    548.850    550.473    548.850    548.978    548.850
 23.270    532.000    550.398    -18.398    548.524    550.268    548.524    548.655    548.524
 23.370    586.043    550.218     35.825    548.197    550.086    548.197    548.330    548.197
 23.470    534.702    550.068    -15.366    547.870    549.933    547.870    548.005    547.870
 23.570    517.000    549.957    -32.957    547.543    549.821    547.543    547.680    547.543
 23.670    515.000    549.896    -34.896    547.215    549.757    547.215    547.354    547.215
 23.770    600.000    549.905     50.095    546.886    549.764    546.886    547.028    546.886
 23.870    562.000    550.015     11.985    546.557    549.872    546.557    546.702    546.557
 23.970    506.396    550.283    -43.887    546.228    550.137    546.228    546.376    546.228
 24.070    570.000    550.839     19.161    545.898    550.690    545.898    546.049    545.898
 24.170    546.000    552.053     -6.053    545.568    551.902    545.568    545.722    545.568
 24.270    564.000    554.906      9.094    545.237    554.755    545.237    545.394    545.237
 24.370    519.815    561.432    -41.617    544.906    561.282    544.906    545.067    544.906
 24.470    577.750    574.425      3.325    544.575    574.280    544.575    544.740    544.575
 24.570    603.000    595.245      7.755    544.244    595.112    544.244    544.412    544.244
 24.670    558.000    619.828    -61.828    543.913    619.708    543.913    544.085    543.913
 24.770    655.000    636.082     18.918    543.581    635.970    543.581    543.757    543.581
 24.870    629.759    632.055     -2.297    543.249    631.936    543.249    543.430    543.249
 24.970    612.000    611.026      0.974    542.917    610.887    542.917    543.102    542.917
 25.070    522.000    586.395    -64.395    542.585    586.234    542.585    542.775    542.585
 25.170    531.973    567.548    -35.575    542.252    567.368    542.252    542.448    542.252
 25.270    515.798    556.358    -40.560    541.920    556.165    541.920    542.122    541.920
 25.370    578.000    550.700     27.300    541.587    550.495    541.587    541.797    541.587
 25.470    561.000    547.949     13.051    541.255    547.735    541.255    541.472    541.255
 25.570    555.180    546.452      8.728    540.922    546.231    540.922    541.146    540.922
 25.670    567.000    545.470     21.530    540.590    545.240    540.590    540.821    540.590
 25.770    571.000    544.732     26.268    540.257    544.494    540.257    540.497    540.257
 25.870    556.000    544.143     11.857    539.925    543.896    539.925    540.173    539.925
 25.970    525.020    543.658    -18.638    539.593    543.401    539.593    539.850    539.593
 26.070    557.000    543.251     13.749    539.260    542.984    539.260    539.527    539.260
 26.170    573.000    542.933     30.067    538.928    542.656    538.928    539.206    538.928
 26.270    522.000    542.668    -20.668    538.596    542.379    538.596    538.886    538.596
 26.370    520.858    542.433    -21.575    538.264    542.131    538.264    538.567    538.264
 26.470    555.274    542.248     13.027    537.933    541.932    537.933    538.249    537.933
 26.570    505.356    542.119    -36.763    537.601    541.787    537.601    537.933    537.601
 26.670    558.000    542.052     15.948    537.270    541.704    537.270    537.618    537.270
 26.770    555.000    542.047     12.953    536.939    541.681    536.939    537.305    536.939
 26.870    581.878    542.124     39.754    536.609    541.737    536.609    536.995    536.609
 26.970    537.000    542.318     -5.318    536.278    541.908    536.278    536.687    536.278
 27.070    543.000    542.659      0.341    535.948    542.225    535.948    536.382    535.948
 27.170    539.632    543.132     -3.500    535.618    542.670    535.618    536.080    535.618
 27.270    541.000    543.827     -2.827    535.289    543.333    535.289    535.782    535.289
 27.370    582.591    544.836     37.755    534.960    544.307    534.960    535.488    534.960
 27.470    550.000    546.326      3.674    534.631    545.756    534.631    535.199    534.631
 27.570    564.000    548.720     15.280    534.303    548.104    534.303    534.917    534.303
 27.670    589.000    553.478     35.522    533.975    552.808    533.975    534.641    533.975
 27.770    528.334    565.391    -37.056    533.648    564.656    533.648    534.374    533.648
 27.870    612.004    596.240     15.764    533.321    595.426    533.321    534.118    533.321
 27.970    691.748    663.818     27.930    532.995    662.899    532.995    533.873    532.995
 28.070    832.000    775.462     56.538    532.669    774.414    532.669    533.645    532.669
 28.170    932.999    899.740     33.259    532.344    898.549    532.344    533.436    532.344
 28.270    940.000    961.126    -21.126    532.019    959.798    532.019    533.251    532.019
 28.370    932.000    909.528     22.472    531.695    908.064    531.695    533.097    531.695
 28.470    737.000    798.377    -61.377    531.371    796.736    531.371    532.986    531.371
 28.570    726.508    712.245     14.263    531.048    710.351    531.048    532.930    531.048
 28.670    668.000    694.401    -26.401    530.726    692.155    530.726    532.957    530.726
 28.770    759.184    739.952     19.232    530.404    737.224    530.404    533.112    530.404
 28.870    774.000    808.817    -34.817    530.083    805.397    530.083    533.490    530.083
 28.970    808.950    841.247    -32.297    529.763    836.741    529.763    534.270    529.763
 29.070    777.819    801.848    -24.029    529.443    795.542    529.443    535.760    529.443
 29.170    670.000    721.761    -51.761    529.124    712.500    529.124    538.397    529.124
 29.270    649.000    648.810      0.190    528.805    634.989    528.805    542.634    528.805
 29.370    599.000    604.640     -5.640    528.488    584.444    528.488    548.685    528.488
 29.470    544.723    586.615    -41.892    528.171    558.716    528.171    556.069    528.171
 29.570    573.000    582.480     -9.480    527.855    547.381    527.855    562.950    527.855
 29.670    592.405    580.807     11.598    527.540    542.279    527.540    566.064    527.540
 29.770    591.000    575.545     15.455    527.225    539.513    527.225    563.254    527.225
 29.870    574.422    566.975      7.447    526.912    537.705    526.912    556.179    526.912
 29.970    635.000    557.944     77.056    526.599    536.428    526.599    548.113    526.599
 30.070    566.000    550.405     15.595    526.287    535.542    526.287    541.149    526.287
 30.170    568.000    545.012     22.988    525.976    535.020    525.976    535.966    525.976
 30.270    569.000    541.756     27.244    525.666    534.976    525.666    532.443    525.666
 30.370    568.000    540.651     27.349    525.357    535.855    525.357    530.149    525.357
