neutron_powder_diffraction_0044
R_wp: 3.796
Temperature (K): 612.498
Counts: 83858.00
Wavelength (Ã…): 2.52098
COMMENTS
Test file for demonstrating the .xyy file format in Reel1.0
END OF HEADER
   tth       Y_obs     Y_calc      Y_res    Background    Phase_1_Nuc    Phase_1_Mag    Phase_2_Nuc    Phase_2_Mag
  9.970    736.000    680.629     55.371    679.192    680.190    679.631    679.192    679.192
 10.070    626.437    680.059    -53.622    678.536    679.615    678.980    678.536    678.536
 10.170    698.000    679.501     18.499    677.881    679.052    678.330    677.881    677.881
 10.270    707.000    678.957     28.043    677.227    678.503    677.680    677.227    677.227
 10.370    639.615    678.429    -38.814    676.574    677.971    677.032    676.574    676.574
 10.470    646.000    677.923    -31.923    675.921    677.459    676.384    675.921    675.921
 10.570    732.000    677.441     54.559    675.269    676.972    675.737    675.269    675.269
 10.670    644.821    676.989    -32.168    674.618    676.515    675.091    674.618    674.618
 10.770    688.000    676.577     11.423    673.968    676.097    674.446    673.968    673.968
 10.870    647.000    676.212    -29.212    673.318    675.727    673.802    673.318    673.318
 10.970    668.000    675.911     -7.911    672.669    675.420    673.158    672.669    672.669
 11.070    665.607    675.691    -10.084    672.021    675.194    672.516    672.021    672.021
 11.170    659.835    675.580    -15.746    671.374    675.078    671.874    671.374    671.374
 11.270    702.000    675.620     26.380    670.728    675.112    671.234    670.728    670.728
 11.370    639.277    675.876    -36.599    670.083    675.362    670.594    670.083    670.083
 11.470    699.000    676.476     22.524    669.439    675.955    669.956    669.439    669.439
 11.570    714.530    677.703     36.826    668.795    677.175    669.319    668.795    668.795
 11.670    686.000    680.218      5.782    668.153    679.682    668.682    668.153    668.153
 11.770    680.000    685.392     -5.392    667.511    684.846    668.047    667.511    667.511
 11.870    775.000    695.495     79.505    666.871    694.938    667.413    666.871    666.871
 11.970    770.000    713.094     56.906    666.231    712.520    666.780    666.231    666.231
 12.070    816.000    739.042     76.958    665.593    738.446    666.148    665.593    665.593
 12.170    888.000    769.023    118.977    664.956    768.405    665.518    664.956    664.956
 12.270    883.000    790.653     92.347    664.319    790.015    664.888    664.319    664.319
 12.370    785.000    789.899     -4.899    663.684    789.255    664.260    663.684    663.684
 12.470    791.000    766.869     24.131    663.050    766.230    663.633    663.050    663.050
 12.570    694.000    735.636    -41.636    662.417    735.006    663.007    662.417    662.417
 12.670    736.409    708.508     27.901    661.785    707.886    662.383    661.785    661.785
 12.770    659.000    689.738    -30.738    661.155    689.118    661.759    661.155    661.155
 12.870    661.000    678.447    -17.447    660.525    677.826    661.137    660.525    660.525
 12.970    648.000    672.135    -24.135    659.897    671.508    660.517    659.897    659.897
 13.070    658.000    668.451    -10.451    659.270    667.818    659.898    659.270    659.270
 13.170    617.157    665.985    -48.828    658.644    665.346    659.280    658.644    658.644
 13.270    656.000    664.137     -8.137    658.020    663.491    658.663    658.020    658.020
 13.370    677.812    662.632     15.180    657.396    661.978    658.048    657.396    657.396
 13.470    653.447    661.343     -7.896    656.774    660.681    657.435    656.774    656.774
 13.570    613.787    660.205    -46.418    656.153    659.534    656.823    656.153    656.153
 13.670    625.000    659.176    -34.176    655.534    658.497    656.212    655.534    655.534
 13.770    673.903    658.229     15.674    654.916    657.541    655.603    654.916    654.916
 13.870    640.000    657.346    -17.346    654.299    656.648    654.995    654.299    654.299
 13.970    607.591    656.513    -48.921    653.684    655.806    654.389    653.684    653.684
 14.070    705.000    655.731     49.269    653.069    655.015    653.785    653.069    653.069
 14.170    685.423    654.982     30.441    652.457    654.256    653.182    652.457    652.457
 14.270    662.000    654.245      7.755    651.845    653.509    652.581    651.845    651.845
 14.370    632.000    653.528    -21.528    651.236    652.782    651.981    651.236    651.236
 14.470    620.000    652.829    -32.829    650.627    652.072    651.383    650.627    650.627
 14.570    653.000    652.145      0.855    650.020    651.377    650.787    650.020    650.020
 14.670    657.807    651.473      6.334    649.415    650.695    650.192    649.415    649.415
 14.770    631.000    650.813    -19.813    648.810    650.024    649.599    648.810    648.810
 14.870    638.169    650.162    -11.993    648.208    649.362    649.008    648.208    648.208
 14.970    666.000    649.521     16.479    647.607    648.709    648.418    647.607    647.607
 15.070    622.874    648.886    -26.013    647.007    648.063    647.830    647.007    647.007
 15.170    646.000    648.259     -2.259    646.409    647.424    647.244    646.409    646.409
 15.270    692.899    647.638     45.261    645.813    646.790    646.660    645.813    645.813
 15.370    650.000    647.023      2.977    645.218    646.163    646.078    645.218    645.218
 15.470    635.000    646.413    -11.413    644.624    645.540    645.497    644.624    644.624
 15.570    658.312    645.808     12.504    644.033    644.922    644.919    644.033    644.033
 15.670    662.000    645.207     16.793    643.442    644.308    644.342    643.442    643.442
 15.770    641.000    644.611     -3.611    642.854    643.698    643.767    642.854    642.854
 15.870    619.279    644.019    -24.740    642.267    643.092    643.194    642.267    642.267
 15.970    674.774    643.431     31.343    641.682    642.489    642.623    641.682    641.682
 16.070    690.103    642.847     47.256    641.098    641.890    642.054    641.098    641.098
 16.170    598.512    642.270    -43.758    640.516    641.298    641.488    640.516    640.516
 16.270    587.000    641.696    -54.696    639.936    640.709    640.923    639.936    639.936
 16.370    667.111    641.127     25.984    639.357    640.124    640.360    639.357    639.357
 16.470    641.000    640.557      0.443    638.780    639.538    639.799    638.780    638.780
 16.570    640.000    639.990      0.010    638.205    638.954    639.241    638.205    638.205
 16.670    630.000    639.425     -9.425    637.631    638.372    638.685    637.631    637.631
 16.770    601.000    638.864    -37.864    637.059    637.793    638.130    637.059    637.059
 16.870    622.000    638.306    -16.306    636.489    637.217    637.578    636.489    636.489
 16.970    623.000    637.751    -14.751    635.921    636.643    637.028    635.921    635.921
 17.070    610.774    637.199    -26.425    635.355    636.073    636.481    635.355    635.355
 17.170    630.000    636.650     -6.650    634.790    635.505    635.935    634.790    634.790
 17.270    625.000    636.104    -11.104    634.227    634.938    635.392    634.227    634.227
 17.370    576.000    635.560    -59.560    633.666    634.375    634.852    633.666    633.666
 17.470    599.443    635.022    -35.578    633.107    633.815    634.313    633.107    633.107
 17.570    621.000    634.504    -13.504    632.549    633.276    633.778    632.549    632.549
 17.670    604.669    633.981    -29.312    631.993    632.730    633.244    631.993    631.993
 17.770    656.009    633.460     22.548    631.440    632.187    632.713    631.440    631.440
 17.870    663.283    633.000     30.284    630.888    631.702    632.186    630.888    630.888
 17.970    608.000    632.482    -24.482    630.338    631.160    631.660    630.338    630.338
 18.070    603.330    631.961    -28.631    629.789    630.614    631.136    629.789    629.789
 18.170    620.465    631.448    -10.982    629.243    630.076    630.615    629.243    629.243
 18.270    605.675    630.940    -25.265    628.699    629.542    630.097    628.699    628.699
 18.370    599.000    630.428    -31.428    628.156    629.003    629.581    628.156    628.156
 18.470    630.000    629.918      0.082    627.616    628.466    629.068    627.616    627.616
 18.570    612.000    629.412    -17.412    627.077    627.931    628.558    627.077    627.077
 18.670    604.901    628.909    -24.008    626.540    627.398    628.050    626.540    626.540
 18.770    620.000    628.408     -8.408    626.005    626.868    627.546    626.005    626.005
 18.870    623.854    627.912     -4.058    625.473    626.340    627.044    625.473    625.473
 18.970    630.000    627.418      2.582    624.942    625.815    626.545    624.942    624.942
 19.070    637.404    626.928     10.476    624.413    625.292    626.050    624.413    624.413
 19.170    585.000    626.445    -41.445    623.886    624.773    625.557    623.886    623.886
 19.270    641.915    625.996     15.920    623.361    624.281    625.075    623.361    623.361
 19.370    587.000    625.558    -38.558    622.838    623.799    624.598    622.838    622.838
 19.470    641.460    625.096     16.364    622.317    623.298    624.115    622.317    622.317
 19.570    617.000    624.625     -7.625    621.798    622.788    623.635    621.798    621.798
 19.670    612.000    624.158    -12.158    621.282    622.281    623.159    621.282    621.282
 19.770    593.494    623.694    -30.200    620.767    621.776    622.685    620.767    620.767
 19.870    601.000    623.235    -22.235    620.254    621.273    622.215    620.254    620.254
 19.970    592.492    622.779    -30.287    619.743    620.773    621.749    619.743    619.743
 20.070    624.000    622.328      1.672    619.235    620.276    621.286    619.235    619.235
 20.170    587.000    621.881    -34.881    618.728    619.782    620.827    618.728    618.728
 20.270    615.000    621.439     -6.439    618.223    619.291    620.372    618.223    618.223
 20.370    614.000    621.005     -7.005    617.721    618.806    619.920    617.721    617.721
 20.470    572.384    620.572    -48.188    617.221    618.320    619.473    617.221    617.221
 20.570    667.000    620.147     46.853    616.722    617.840    619.030    616.722    616.722
 20.670    605.000    619.765    -14.765    616.226    617.395    618.597    616.226    616.226
 20.770    617.000    619.381     -2.381    615.732    616.942    618.171    615.732    615.732
 20.870    604.782    618.976    -14.194    615.240    616.475    617.741    615.240    615.240
 20.970    571.000    618.600    -47.600    614.750    616.035    617.315    614.750    614.750
 21.070    557.000    618.255    -61.255    614.263    615.623    616.895    614.263    614.263
 21.170    634.000    617.883     16.117    613.777    615.182    616.478    613.777    613.777
 21.270    599.000    617.505    -18.505    613.294    614.732    616.066    613.294    613.294
 21.370    620.000    617.125      2.875    612.812    614.277    615.660    612.812    612.812
 21.470    598.000    616.760    -18.760    612.333    613.835    615.259    612.333    612.333
 21.570    620.000    616.444      3.556    611.856    613.437    614.864    611.856    611.856
 21.670    627.000    616.091     10.909    611.382    612.999    614.473    611.382    611.382
 21.770    600.180    615.740    -15.559    610.909    612.560    614.089    610.909    610.909
 21.870    651.010    615.399     35.611    610.439    612.126    613.712    610.439    610.439
 21.970    618.000    615.074      2.926    609.970    611.701    613.343    609.970    609.970
 22.070    587.000    614.752    -27.752    609.504    611.279    612.978    609.504    609.504
 22.170    629.036    614.439     14.598    609.040    610.861    612.619    609.040    609.040
 22.270    575.000    614.138    -39.138    608.579    610.450    612.267    608.579    608.579
 22.370    596.000    613.847    -17.847    608.119    610.043    611.923    608.119    608.119
 22.470    635.000    613.568     21.432    607.662    609.644    611.587    607.662    607.662
 22.570    643.029    613.303     29.726    607.207    609.252    611.259    607.207    607.207
 22.670    628.000    613.054     14.946    606.754    608.869    610.939    606.754    606.754
 22.770    621.000    612.829      8.171    606.304    608.503    610.631    606.304    606.304
 22.870    584.000    612.617    -28.617    605.856    608.143    610.330    605.856    605.856
 22.970    566.000    612.424    -46.424    605.410    607.795    610.039    605.410    605.410
 23.070    665.000    612.254     52.746    604.966    607.461    609.759    604.966    604.966
 23.170    637.376    612.111     25.265    604.524    607.146    609.490    604.524    604.524
 23.270    580.707    612.001    -31.294    604.085    606.854    609.232    604.085    604.085
 23.370    592.000    611.925    -19.925    603.648    606.586    608.988    603.648    603.648
 23.470    600.000    611.892    -11.892    603.213    606.349    608.756    603.213    603.213
 23.570    658.179    611.910     46.269    602.780    606.152    608.539    602.780    602.780
 23.670    587.981    611.991    -24.010    602.350    606.004    608.338    602.350    602.350
 23.770    608.000    612.151     -4.151    601.922    605.922    608.153    601.922    601.922
 23.870    612.524    612.412      0.112    601.496    605.925    607.985    601.496    601.496
 23.970    598.000    612.808    -14.808    601.073    606.046    607.837    601.073    601.073
 24.070    612.941    613.397     -0.456    600.652    606.342    607.709    600.652    600.652
 24.170    658.000    614.294     43.706    600.233    606.927    607.603    600.233    600.233
 24.270    625.000    615.759      9.241    599.816    608.059    607.521    599.816    599.816
 24.370    662.000    618.352     43.648    599.402    610.295    607.464    599.402    599.402
 24.470    630.269    623.110      7.160    598.990    614.673    607.436    598.990    598.990
 24.570    673.609    631.513     42.096    598.580    622.670    607.439    598.580    598.580
 24.670    682.095    644.891     37.204    598.173    635.614    607.475    598.173    598.173
 24.770    642.907    663.069    -20.161    597.768    653.326    607.549    597.768    597.768
 24.870    635.891    682.338    -46.447    597.365    672.091    607.663    597.365    597.365
 24.970    648.175    694.330    -46.154    596.964    683.532    607.823    596.964    596.964
 25.070    717.000    691.537     25.463    596.566    680.130    608.032    596.566    596.566
 25.170    661.000    676.288    -15.288    596.170    664.208    608.297    596.170    596.170
 25.270    668.000    657.385     10.615    595.777    644.571    608.624    595.777    595.777
 25.370    625.688    641.443    -15.755    595.386    627.829    609.021    595.386    595.386
 25.470    630.000    630.644     -0.644    594.997    616.157    609.496    594.997    594.997
 25.570    637.000    624.444     12.556    594.610    609.002    610.060    594.610    594.610
 25.670    591.000    621.383    -30.383    594.226    604.889    610.725    594.226    594.226
 25.770    593.207    620.142    -26.935    593.844    602.486    611.504    593.844    593.844
 25.870    667.122    619.900     47.222    593.464    600.952    612.414    593.464    593.464
 25.970    586.000    620.250    -34.250    593.087    599.863    613.476    593.087    593.087
 26.070    628.000    621.026      6.974    592.712    599.025    614.714    592.712    592.712
 26.170    655.852    622.171     33.682    592.340    598.354    616.157    592.340    592.340
 26.270    573.330    623.678    -50.349    591.969    597.806    617.841    591.969    591.969
 26.370    631.016    625.569      5.447    591.601    597.359    619.811    591.601    591.601
 26.470    619.000    627.894     -8.894    591.236    597.005    622.124    591.236    591.236
 26.570    644.000    630.698     13.302    590.873    596.725    624.845    590.873    590.873
 26.670    579.000    634.071    -55.071    590.512    596.518    628.063    590.512    590.512
 26.770    647.500    638.131      9.368    590.153    596.390    631.892    590.153    590.153
 26.870    649.000    643.035      5.965    589.797    596.347    636.482    589.797    589.797
 26.970    671.704    648.992     22.712    589.443    596.401    642.030    589.443    589.443
 27.070    682.000    656.285     25.715    589.092    596.570    648.801    589.092    589.092
 27.170    624.574    665.308    -40.734    588.742    596.881    657.163    588.742    588.742
 27.270    663.000    676.616    -13.616    588.395    597.373    667.632    588.395    588.395
 27.370    645.455    691.017    -45.562    588.051    598.102    680.957    588.051    588.051
 27.470    752.000    709.766     42.234    587.709    599.159    698.304    587.709    587.709
 27.570    765.000    735.151     29.849    587.369    600.708    721.799    587.369    587.369
 27.670    813.924    772.733     41.191    587.032    603.141    756.602    587.032    587.032
 27.770    832.000    838.924     -6.924    586.697    607.622    817.963    586.697    586.697
 27.870    949.000    979.710    -30.710    586.364    617.399    948.602    586.364    586.364
 27.970   1236.000   1297.241    -61.241    586.033    639.681   1243.437    586.033    586.033
 28.070   2020.976   1947.044     73.931    585.705    685.447   1846.998    585.705    585.705
 28.170   2872.000   3038.031   -166.031    585.380    762.402   2860.518    585.380    585.380
 28.270   4391.153   4425.250    -34.097    585.056    860.384   4149.310    585.056    585.056
 28.370   5708.830   5556.322    152.507    584.735    940.580   5199.948    584.735    584.735
 28.470   5936.000   5741.889    194.111    584.417    954.706   5371.344    584.417    584.417
 28.570   5036.000   4892.886    143.114    584.100    897.218   4579.748    584.100    584.100
 28.670   3760.000   3695.575     64.425    583.786    817.895   3461.522    583.786    583.786
 28.770   2839.000   2861.460    -22.460    583.475    768.713   2676.242    583.475    583.475
 28.870   2552.716   2658.013   -105.297    583.165    769.467   2471.677    583.165    583.165
 28.970   2966.000   2936.500     29.500    582.858    807.501   2711.822    582.858    582.858
 29.070   3380.000   3294.764     85.236    582.554    847.512   3029.859    582.554    582.554
 29.170   3383.851   3308.387     75.463    582.251    850.737   3040.083    582.251    582.251
 29.270   2834.000   2855.185    -21.185    581.951    806.645   2630.731    581.951    581.951
 29.370   2187.000   2184.388      2.612    581.654    740.565   2025.688    581.654    581.654
 29.470   1546.000   1581.152    -35.152    581.358    681.008   1481.646    581.358    581.358
 29.570   1211.595   1166.895     44.701    581.066    640.109   1107.934    581.066    581.066
 29.670    916.000    930.849    -14.849    580.775    616.841    894.823    580.775    580.775
 29.770    855.000    810.755     44.245    580.487    605.052    786.209    580.487    580.487
 29.870    841.000    750.016     90.984    580.201    599.145    731.082    580.201    580.201
 29.970    743.000    715.725     27.275    579.917    595.873    699.775    579.917    579.917
 30.070    744.000    693.280     50.720    579.636    593.807    679.113    579.636    579.636
 30.170    716.719    677.070     39.650    579.357    592.418    664.010    579.357    579.357
 30.270    717.000    664.902     52.098    579.080    591.537    652.446    579.080    579.080
 30.370    653.000    655.861     -2.861    578.806    591.176    643.489    578.806    578.806
