neutron_powder_diffraction_0145
R_wp: 4.006
Temperature (K): 1074.000
Counts: 83534.00
Wavelength (Ã…): 2.52098
COMMENTS
Test file for demonstrating the .xyy file format in Reel1.0
END OF HEADER
   tth       Y_obs     Y_calc      Y_res    Background    Phase_1_Nuc    Phase_1_Mag    Phase_2_Nuc    Phase_2_Mag
  9.970    631.000    569.513     61.487    568.719    569.439    568.719    568.793    568.719
 10.070    571.000    569.610      1.390    568.753    569.535    568.753    568.828    568.753
 10.170    575.473    569.711      5.762    568.782    569.635    568.782    568.857    568.782
 10.270    548.853    569.818    -20.965    568.806    569.743    568.806    568.881    568.806
 10.370    614.000    569.934     44.066    568.824    569.858    568.824    568.900    568.824
 10.470    588.000    570.060     17.940    568.838    569.983    568.838    568.914    568.838
 10.570    576.383    570.201      6.182    568.846    570.124    568.846    568.923    568.846
 10.670    568.000    570.363     -2.363    568.850    570.286    568.850    568.926    568.850
 10.770    523.943    570.553    -46.610    568.849    570.475    568.849    568.925    568.849
 10.870    560.280    570.780    -10.500    568.843    570.702    568.843    568.920    568.843
 10.970    608.000    571.058     36.942    568.832    570.979    568.832    568.909    568.832
 11.070    578.000    571.406      6.594    568.816    571.326    568.816    568.893    568.816
 11.170    533.578    571.852    -38.273    568.795    571.772    568.795    568.873    568.795
 11.270    573.000    572.439      0.561    568.770    572.359    568.770    568.848    568.770
 11.370    604.000    573.245     30.755    568.740    573.164    568.740    568.819    568.740
 11.470    596.000    574.439     21.561    568.706    574.356    568.706    568.785    568.706
 11.570    560.000    576.480    -16.480    568.667    576.396    568.667    568.746    568.667
 11.670    647.000    580.587     66.413    568.624    580.501    568.624    568.703    568.624
 11.770    547.691    589.381    -41.689    568.576    589.289    568.576    568.656    568.576
 11.870    560.911    606.768    -45.856    568.524    606.666    568.524    568.604    568.524
 11.970    693.000    635.429     57.571    568.467    635.312    568.467    568.548    568.467
 12.070    670.796    671.418     -0.622    568.406    671.280    568.406    568.487    568.406
 12.170    720.000    699.345     20.655    568.341    699.192    568.341    568.423    568.341
 12.270    655.000    700.184    -45.184    568.272    700.029    568.272    568.354    568.272
 12.370    610.000    673.134    -63.134    568.198    672.994    568.198    568.281    568.198
 12.470    637.696    636.884      0.812    568.121    636.763    568.121    568.203    568.121
 12.570    630.000    607.483     22.517    568.039    607.378    568.039    568.122    568.039
 12.670    580.000    589.402     -9.402    567.953    589.307    567.953    568.037    567.953
 12.770    582.000    580.138      1.862    567.864    580.047    567.864    567.948    567.864
 12.870    560.498    575.741    -15.243    567.770    575.653    567.770    567.854    567.770
 12.970    559.000    573.504    -14.504    567.673    573.416    567.673    567.758    567.673
 13.070    579.000    572.152      6.848    567.571    572.062    567.571    567.659    567.571
 13.170    545.751    571.201    -25.449    567.466    571.111    567.466    567.555    567.466
 13.270    583.118    570.473     12.645    567.357    570.383    567.357    567.446    567.357
 13.370    526.914    569.892    -42.978    567.245    569.801    567.245    567.334    567.245
 13.470    556.000    569.412    -13.412    567.129    569.321    567.129    567.218    567.129
 13.570    607.145    569.003     38.142    567.009    568.912    567.009    567.099    567.009
 13.670    597.000    568.647     28.353    566.885    568.556    566.885    566.976    566.885
 13.770    537.471    568.333    -30.862    566.758    568.241    566.758    566.849    566.758
 13.870    575.000    568.047      6.953    566.628    567.955    566.628    566.719    566.628
 13.970    557.749    567.782    -10.034    566.494    567.690    566.494    566.586    566.494
 14.070    583.000    567.535     15.465    566.356    567.442    566.356    566.449    566.356
 14.170    569.067    567.300      1.766    566.216    567.207    566.216    566.308    566.216
 14.270    591.675    567.076     24.599    566.072    566.983    566.072    566.165    566.072
 14.370    558.000    566.860     -8.860    565.924    566.766    565.924    566.018    565.924
 14.470    563.000    566.649     -3.649    565.774    566.555    565.774    565.868    565.774
 14.570    612.000    566.443     45.557    565.620    566.348    565.620    565.714    565.620
 14.670    566.000    566.241     -0.241    565.463    566.145    565.463    565.558    565.463
 14.770    588.999    566.041     22.958    565.303    565.945    565.303    565.398    565.303
 14.870    572.284    565.842      6.442    565.139    565.746    565.139    565.235    565.139
 14.970    548.000    565.644    -17.644    564.973    565.547    564.973    565.070    564.973
 15.070    597.565    565.447     32.118    564.804    565.350    564.804    564.901    564.804
 15.170    564.825    565.250     -0.425    564.632    565.152    564.632    564.729    564.632
 15.270    549.875    565.053    -15.177    564.456    564.954    564.456    564.555    564.456
 15.370    552.000    564.855    -12.855    564.278    564.756    564.278    564.377    564.278
 15.470    550.235    564.657    -14.422    564.097    564.557    564.097    564.197    564.097
 15.570    581.077    564.457     16.620    563.914    564.357    563.914    564.013    563.914
 15.670    538.000    564.256    -26.256    563.727    564.156    563.727    563.828    563.727
 15.770    561.000    564.054     -3.054    563.538    563.953    563.538    563.639    563.538
 15.870    562.000    563.851     -1.851    563.346    563.749    563.346    563.447    563.346
 15.970    551.000    563.646    -12.646    563.151    563.544    563.151    563.253    563.151
 16.070    562.443    563.439     -0.996    562.954    563.337    562.954    563.057    562.954
 16.170    558.000    563.232     -5.232    562.754    563.128    562.754    562.858    562.754
 16.270    578.000    563.024     14.976    562.552    562.920    562.552    562.656    562.552
 16.370    533.373    562.813    -29.440    562.347    562.709    562.347    562.452    562.347
 16.470    522.860    562.600    -39.740    562.140    562.495    562.140    562.245    562.140
 16.570    582.000    562.385     19.615    561.930    562.279    561.930    562.036    561.930
 16.670    569.517    562.169      7.349    561.718    562.062    561.718    561.824    561.718
 16.770    507.000    561.950    -54.950    561.503    561.843    561.503    561.611    561.503
 16.870    546.170    561.730    -15.560    561.287    561.623    561.287    561.394    561.287
 16.970    544.000    561.509    -17.509    561.067    561.400    561.067    561.176    561.067
 17.070    568.000    561.285      6.715    560.846    561.176    560.846    560.955    560.846
 17.170    571.000    561.059      9.941    560.622    560.950    560.622    560.732    560.622
 17.270    517.000    560.832    -43.832    560.397    560.722    560.397    560.507    560.397
 17.370    582.000    560.604     21.396    560.169    560.493    560.169    560.280    560.169
 17.470    555.877    560.373     -4.496    559.939    560.261    559.939    560.051    559.939
 17.570    576.000    560.141     15.859    559.707    560.029    559.707    559.819    559.707
 17.670    585.000    559.908     25.092    559.472    559.795    559.472    559.586    559.472
 17.770    530.854    559.673    -28.819    559.236    559.559    559.236    559.350    559.236
 17.870    533.000    559.436    -26.436    558.998    559.321    558.998    559.113    558.998
 17.970    551.259    559.197     -7.938    558.758    559.082    558.758    558.874    558.758
 18.070    584.684    558.957     25.727    558.516    558.840    558.516    558.633    558.516
 18.170    572.000    558.715     13.285    558.272    558.597    558.272    558.390    558.272
 18.270    558.648    558.471      0.177    558.027    558.353    558.027    558.145    558.027
 18.370    530.000    558.226    -28.226    557.779    558.107    557.779    557.898    557.779
 18.470    569.000    557.980     11.020    557.530    557.860    557.530    557.650    557.530
 18.570    581.000    557.732     23.268    557.279    557.611    557.279    557.399    557.279
 18.670    586.184    557.484     28.700    557.026    557.362    557.026    557.148    557.026
 18.770    571.277    557.247     14.030    556.772    557.124    556.772    556.894    556.772
 18.870    534.000    557.005    -23.005    556.516    556.882    556.516    556.639    556.516
 18.970    535.215    556.753    -21.539    556.258    556.629    556.258    556.382    556.258
 19.070    567.124    556.499     10.625    555.999    556.373    555.999    556.124    555.999
 19.170    508.964    556.243    -47.279    555.738    556.117    555.738    555.864    555.738
 19.270    550.000    555.986     -5.986    555.476    555.859    555.476    555.603    555.476
 19.370    592.000    555.728     36.272    555.212    555.600    555.212    555.340    555.212
 19.470    535.000    555.469    -20.469    554.947    555.340    554.947    555.076    554.947
 19.570    517.000    555.209    -38.209    554.680    555.079    554.680    554.811    554.680
 19.670    555.350    554.948      0.402    554.412    554.817    554.412    554.544    554.412
 19.770    510.000    554.686    -44.686    554.143    554.554    554.143    554.275    554.143
 19.870    526.000    554.423    -28.423    553.872    554.290    553.872    554.006    553.872
 19.970    523.000    554.160    -31.160    553.600    554.025    553.600    553.735    553.600
 20.070    566.770    553.895     12.875    553.327    553.759    553.327    553.463    553.327
 20.170    519.000    553.630    -34.630    553.052    553.492    553.052    553.189    553.052
 20.270    594.091    553.364     40.727    552.776    553.225    552.776    552.915    552.776
 20.370    567.000    553.106     13.894    552.499    552.966    552.499    552.639    552.499
 20.470    515.000    552.925    -37.925    552.221    552.784    552.221    552.363    552.221
 20.570    554.000    552.680      1.320    551.942    552.537    551.942    552.085    551.942
 20.670    542.000    552.414    -10.414    551.662    552.270    551.662    551.806    551.662
 20.770    533.000    552.146    -19.146    551.380    552.000    551.380    551.526    551.380
 20.870    541.000    551.877    -10.877    551.098    551.731    551.098    551.245    551.098
 20.970    575.000    551.609     23.391    550.815    551.461    550.815    550.963    550.815
 21.070    549.000    551.341     -2.341    550.530    551.191    550.530    550.680    550.530
 21.170    511.000    551.075    -40.075    550.245    550.923    550.245    550.396    550.245
 21.270    556.000    550.811      5.189    549.959    550.658    549.959    550.112    549.959
 21.370    538.000    550.547    -12.547    549.672    550.392    549.672    549.826    549.672
 21.470    552.000    550.280      1.720    549.384    550.123    549.384    549.540    549.384
 21.570    577.000    550.013     26.987    549.095    549.855    549.095    549.253    549.095
 21.670    549.000    549.754     -0.754    548.805    549.594    548.805    548.965    548.805
 21.770    534.000    549.557    -15.557    548.515    549.395    548.515    548.676    548.515
 21.870    552.193    549.341      2.852    548.223    549.177    548.223    548.387    548.223
 21.970    546.000    549.084     -3.084    547.932    548.918    547.932    548.097    547.932
 22.070    576.859    548.825     28.034    547.639    548.657    547.639    547.807    547.639
 22.170    595.000    548.568     46.432    547.346    548.398    547.346    547.515    547.346
 22.270    547.015    548.314     -1.299    547.052    548.142    547.052    547.224    547.052
 22.370    511.000    548.063    -37.063    546.757    547.889    546.757    546.931    546.757
 22.470    564.000    547.816     16.184    546.462    547.640    546.462    546.638    546.462
 22.570    517.000    547.574    -30.574    546.166    547.396    546.166    546.345    546.166
 22.670    520.484    547.338    -26.854    545.870    547.157    545.870    546.051    545.870
 22.770    534.503    547.108    -12.606    545.573    546.924    545.573    545.757    545.573
 22.870    568.000    546.887     21.113    545.275    546.700    545.275    545.462    545.275
 22.970    558.000    546.675     11.325    544.978    546.486    544.978    545.167    544.978
 23.070    569.000    546.477     22.523    544.679    546.285    544.679    544.872    544.679
 23.170    561.000    546.294     14.706    544.381    546.099    544.381    544.576    544.381
 23.270    537.000    546.131     -9.131    544.081    545.933    544.081    544.280    544.081
 23.370    566.877    545.992     20.885    543.782    545.791    543.782    543.984    543.782
 23.470    507.000    545.885    -38.885    543.482    545.680    543.482    543.687    543.482
 23.570    554.000    545.820      8.180    543.182    545.612    543.182    543.391    543.182
 23.670    576.000    545.811     30.189    542.881    545.600    542.881    543.094    542.881
 23.770    531.351    545.881    -14.530    542.581    545.666    542.581    542.797    542.581
 23.870    587.070    546.067     41.004    542.280    545.848    542.280    542.500    542.280
 23.970    526.925    546.432    -19.507    541.978    546.210    541.978    542.203    541.978
 24.070    544.499    547.121     -2.622    541.677    546.895    541.677    541.906    541.677
 24.170    546.567    548.549     -1.982    541.375    548.320    541.375    541.609    541.375
 24.270    565.000    551.722     13.278    541.073    551.490    541.073    541.312    541.073
 24.370    564.652    558.552      6.100    540.771    558.320    540.771    541.015    540.771
 24.470    559.405    571.462    -12.057    540.469    571.234    540.469    540.718    540.469
 24.570    548.324    591.289    -42.965    540.167    591.070    540.167    540.422    540.167
 24.670    593.888    614.088    -20.200    539.865    613.880    539.865    540.126    539.865
 24.770    632.768    628.974      3.794    539.562    628.771    539.562    539.830    539.562
 24.870    592.000    625.329    -33.329    539.260    625.117    539.260    539.534    539.260
 24.970    557.000    606.018    -49.018    538.958    605.785    538.958    539.238    538.958
 25.070    582.247    583.004     -0.756    538.655    582.746    538.655    538.944    538.655
 25.170    539.000    564.882    -25.882    538.353    564.603    538.353    538.649    538.353
 25.270    543.850    553.691     -9.842    538.051    553.397    538.051    538.355    538.051
 25.370    575.264    547.771     27.493    537.748    547.463    537.748    538.062    537.748
 25.470    543.000    544.824     -1.824    537.446    544.504    537.446    537.769    537.446
 25.570    565.461    543.230     22.231    537.144    542.899    537.144    537.478    537.144
 25.670    561.000    542.194     18.806    536.842    541.852    536.842    537.187    536.842
 25.770    552.000    541.433     10.567    536.540    541.079    536.540    536.897    536.540
 25.870    557.000    540.834     16.166    536.239    540.467    536.239    536.608    536.239
 25.970    576.926    540.347     36.579    535.937    539.966    535.937    536.320    535.937
 26.070    513.190    539.945    -26.755    535.636    539.548    535.636    536.034    535.636
 26.170    575.253    539.612     35.641    535.335    539.200    535.335    535.749    535.335
 26.270    501.520    539.350    -37.830    535.035    538.920    535.035    535.465    535.035
 26.370    519.541    539.156    -19.614    534.734    538.707    534.734    535.183    534.734
 26.470    521.317    538.991    -17.674    534.434    538.521    534.434    534.904    534.434
 26.570    562.000    538.877     23.123    534.134    538.386    534.134    534.626    534.134
 26.670    510.886    538.823    -27.938    533.835    538.307    533.835    534.351    533.835
 26.770    563.000    538.836     24.164    533.535    538.293    533.535    534.079    533.535
 26.870    534.667    538.929     -4.262    533.237    538.356    533.237    533.809    533.237
 26.970    543.000    539.124      3.876    532.938    538.518    532.938    533.544    532.938
 27.070    518.000    539.450    -21.450    532.640    538.807    532.640    533.282    532.640
 27.170    552.000    539.934     12.066    532.343    539.251    532.343    533.025    532.343
 27.270    530.000    540.625    -10.625    532.045    539.897    532.045    532.773    532.045
 27.370    557.000    541.619     15.381    531.749    540.839    531.749    532.527    531.749
 27.470    528.000    543.080    -15.080    531.452    542.243    531.452    532.288    531.452
 27.570    565.000    545.426     19.574    531.157    544.523    531.157    532.058    531.157
 27.670    522.000    550.098    -28.098    530.861    549.119    530.861    531.837    530.861
 27.770    520.119    561.885    -41.766    530.567    560.817    530.567    531.628    530.567
 27.870    611.000    592.482     18.518    530.272    591.304    530.272    531.432    530.272
 27.970    628.184    659.395    -31.211    529.979    658.081    529.979    531.254    529.979
 28.070    782.000    769.530     12.470    529.686    768.051    529.686    531.096    529.686
 28.170    904.000    891.561     12.439    529.393    889.895    529.393    530.964    529.393
 28.270    967.725    951.647     16.078    529.101    949.791    529.101    530.865    529.101
 28.370    960.000    901.384     58.616    528.810    899.325    528.810    530.810    528.810
 28.470    796.000    792.539      3.461    528.519    790.220    528.519    530.815    528.519
 28.570    715.211    707.768      7.443    528.229    705.086    528.229    530.902    528.229
 28.670    710.554    689.753     20.801    527.940    686.578    527.940    531.102    527.940
 28.770    726.000    733.621     -7.621    527.651    729.795    527.651    531.460    527.651
 28.870    775.220    800.069    -24.849    527.363    795.390    527.363    532.031    527.363
 28.970    806.000    831.295    -25.295    527.076    825.495    527.076    532.880    527.076
 29.070    831.027    793.200     37.827    526.790    785.930    526.790    534.074    526.790
 29.170    698.000    714.938    -16.938    526.504    705.790    526.504    535.666    526.504
 29.270    616.000    641.937    -25.937    526.219    630.495    526.219    537.669    526.219
 29.370    626.398    595.088     31.310    525.935    581.036    525.935    539.990    525.935
 29.470    569.121    572.380     -3.259    525.651    555.692    525.651    542.340    525.651
 29.570    571.000    563.301      7.699    525.369    544.505    525.369    544.164    525.369
 29.670    577.565    559.216     18.349    525.087    539.510    525.087    544.791    525.087
 29.770    569.000    555.906     13.094    524.806    536.846    524.806    543.864    524.806
 29.870    593.684    552.255     41.428    524.526    535.132    524.526    541.647    524.526
 29.970    595.002    548.484     46.518    524.247    533.939    524.247    538.790    524.247
 30.070    556.793    545.045     11.748    523.968    533.131    523.968    535.880    523.968
 30.170    545.000    542.248      2.752    523.691    532.685    523.691    533.251    523.691
 30.270    581.467    540.339     41.129    523.414    532.726    523.414    531.023    523.414
 30.370    575.000    539.789     35.211    523.138    533.723    523.138    529.201    523.138
