neutron_powder_diffraction_0215
R_wp: 4.049
Temperature (K): 1074.000
Counts: 83812.00
Wavelength (Ã…): 2.52098
COMMENTS
Test file for demonstrating the .xyy file format in Reel1.0
END OF HEADER
   tth       Y_obs     Y_calc      Y_res    Background    Phase_1_Nuc    Phase_1_Mag    Phase_2_Nuc    Phase_2_Mag
  9.970    583.449    576.354      7.095    575.714    576.296    575.714    575.771    575.714
 10.070    601.000    576.398     24.602    575.706    576.340    575.706    575.764    575.706
 10.170    598.000    576.445     21.555    575.693    576.387    575.693    575.751    575.693
 10.270    616.893    576.497     40.396    575.676    576.438    575.676    575.734    575.676
 10.370    578.000    576.555      1.445    575.653    576.496    575.653    575.712    575.653
 10.470    576.478    576.623     -0.145    575.627    576.563    575.627    575.686    575.627
 10.570    575.000    576.706     -1.706    575.595    576.642    575.595    575.658    575.595
 10.670    599.000    576.806     22.194    575.559    576.740    575.559    575.624    575.559
 10.770    549.000    576.942    -27.942    575.518    576.876    575.518    575.583    575.518
 10.870    622.000    577.096     44.904    575.473    577.030    575.473    575.539    575.473
 10.970    571.791    577.290     -5.500    575.424    577.223    575.424    575.490    575.424
 11.070    584.000    577.543      6.457    575.370    577.476    575.370    575.437    575.370
 11.170    591.000    577.879     13.121    575.312    577.810    575.312    575.379    575.312
 11.270    603.000    578.333     24.667    575.249    578.265    575.249    575.316    575.249
 11.370    584.144    578.970      5.174    575.183    578.901    575.183    575.250    575.183
 11.470    542.134    579.925    -37.791    575.112    579.854    575.112    575.179    575.112
 11.570    594.000    581.579     12.421    575.037    581.508    575.037    575.105    575.037
 11.670    562.512    585.040    -22.528    574.957    584.966    574.957    575.026    574.957
 11.770    560.353    592.937    -32.584    574.874    592.858    574.874    574.943    574.874
 11.870    661.000    609.606     51.394    574.787    609.517    574.787    574.856    574.787
 11.970    644.000    638.526      5.474    574.695    638.421    574.695    574.765    574.695
 12.070    676.000    676.049     -0.049    574.600    675.922    574.600    574.670    574.600
 12.170    676.000    705.664    -29.664    574.501    705.520    574.501    574.571    574.501
 12.270    683.000    706.532    -23.532    574.398    706.388    574.398    574.468    574.398
 12.370    710.563    677.774     32.789    574.291    677.646    574.291    574.362    574.291
 12.470    654.000    639.865     14.135    574.181    639.757    574.181    574.252    574.181
 12.570    651.581    610.064     41.516    574.066    609.973    574.066    574.138    574.066
 12.670    576.539    592.604    -16.066    573.948    592.522    573.948    574.020    573.948
 12.770    601.706    584.178     17.528    573.827    584.100    573.827    573.899    573.827
 12.870    595.000    580.378     14.622    573.702    580.302    573.702    573.774    573.702
 12.970    543.000    578.470    -35.470    573.573    578.395    573.573    573.645    573.573
 13.070    550.000    577.293    -27.293    573.441    577.217    573.441    573.514    573.441
 13.170    572.520    576.444     -3.924    573.305    576.369    573.305    573.378    573.305
 13.270    615.464    575.783     39.682    573.166    575.707    573.166    573.240    573.166
 13.370    598.000    575.245     22.755    573.023    575.168    573.023    573.099    573.023
 13.470    547.000    574.791    -27.791    572.877    574.714    572.877    572.953    572.877
 13.570    595.416    574.399     21.018    572.728    574.321    572.728    572.805    572.728
 13.670    576.000    574.050      1.950    572.575    573.972    572.575    572.653    572.575
 13.770    581.000    573.735      7.265    572.420    573.657    572.420    572.497    572.420
 13.870    534.168    573.444    -39.276    572.261    573.365    572.261    572.339    572.261
 13.970    539.024    573.172    -34.147    572.099    573.093    572.099    572.177    572.099
 14.070    575.085    572.914      2.170    571.934    572.835    571.934    572.012    571.934
 14.170    535.189    572.667    -37.479    571.765    572.588    571.765    571.844    571.765
 14.270    600.229    572.429     27.801    571.594    572.349    571.594    571.674    571.594
 14.370    571.312    572.196     -0.885    571.420    572.116    571.420    571.500    571.420
 14.470    581.000    571.969      9.031    571.243    571.888    571.243    571.323    571.243
 14.570    544.201    571.745    -27.544    571.063    571.664    571.063    571.143    571.063
 14.670    555.175    571.524    -16.348    570.880    571.442    570.880    570.961    570.880
 14.770    588.488    571.304     17.184    570.694    571.222    570.694    570.775    570.694
 14.870    614.049    571.086     42.963    570.505    571.003    570.505    570.587    570.505
 14.970    571.000    570.868      0.132    570.314    570.785    570.314    570.396    570.314
 15.070    540.308    570.650    -30.342    570.120    570.567    570.120    570.203    570.120
 15.170    594.770    570.433     24.337    569.923    570.349    569.923    570.006    569.923
 15.270    571.804    570.215      1.590    569.723    570.131    569.723    569.807    569.723
 15.370    523.000    569.996    -46.996    569.521    569.912    569.521    569.606    569.521
 15.470    535.000    569.780    -34.780    569.317    569.694    569.317    569.402    569.317
 15.570    610.049    569.560     40.489    569.110    569.475    569.110    569.195    569.110
 15.670    528.085    569.339    -41.254    568.900    569.253    568.900    568.986    568.900
 15.770    534.000    569.116    -35.116    568.688    569.030    568.688    568.774    568.688
 15.870    568.022    568.892     -0.870    568.473    568.805    568.473    568.560    568.473
 15.970    536.000    568.666    -32.666    568.256    568.579    568.256    568.344    568.256
 16.070    525.047    568.440    -43.393    568.037    568.351    568.037    568.125    568.037
 16.170    562.000    568.216     -6.216    567.815    568.122    567.815    567.909    567.815
 16.270    595.000    567.988     27.012    567.591    567.891    567.591    567.688    567.591
 16.370    561.681    567.756     -6.075    567.365    567.659    567.365    567.462    567.365
 16.470    526.775    567.523    -40.748    567.137    567.425    567.137    567.234    567.137
 16.570    582.000    567.288     14.712    566.906    567.190    566.906    567.005    566.906
 16.670    567.000    567.052     -0.052    566.674    566.953    566.674    566.772    566.674
 16.770    562.102    566.814     -4.712    566.439    566.714    566.439    566.538    566.439
 16.870    606.000    566.574     39.426    566.202    566.474    566.202    566.302    566.202
 16.970    544.573    566.333    -21.760    565.963    566.232    565.963    566.064    565.963
 17.070    544.000    566.090    -22.090    565.722    565.989    565.722    565.823    565.722
 17.170    569.000    565.845      3.155    565.479    565.743    565.479    565.581    565.479
 17.270    573.000    565.599      7.401    565.234    565.497    565.234    565.337    565.234
 17.370    574.000    565.352      8.648    564.988    565.248    564.988    565.091    564.988
 17.470    546.000    565.103    -19.103    564.739    564.999    564.739    564.843    564.739
 17.570    537.000    564.853    -27.853    564.488    564.748    564.488    564.593    564.488
 17.670    547.000    564.602    -17.602    564.236    564.497    564.236    564.341    564.236
 17.770    498.000    564.349    -66.349    563.982    564.243    563.982    564.088    563.982
 17.870    584.029    564.093     19.936    563.726    563.987    563.726    563.833    563.726
 17.970    520.000    563.837    -43.837    563.469    563.729    563.469    563.576    563.469
 18.070    549.000    563.579    -14.579    563.210    563.471    563.210    563.318    563.210
 18.170    551.000    563.320    -12.320    562.949    563.211    562.949    563.058    562.949
 18.270    575.000    563.061     11.939    562.686    562.952    562.686    562.796    562.686
 18.370    558.958    562.800     -3.842    562.422    562.689    562.422    562.533    562.422
 18.470    556.803    562.536     -5.733    562.156    562.425    562.156    562.268    562.156
 18.570    574.000    562.272     11.728    561.889    562.160    561.889    562.001    561.889
 18.670    605.582    562.006     43.576    561.621    561.893    561.621    561.734    561.621
 18.770    559.000    561.739     -2.739    561.351    561.625    561.351    561.464    561.351
 18.870    551.698    561.471     -9.773    561.079    561.356    561.079    561.194    561.079
 18.970    527.080    561.201    -34.121    560.806    561.086    560.806    560.922    560.806
 19.070    561.000    560.931      0.069    560.532    560.815    560.532    560.648    560.532
 19.170    605.952    560.659     45.293    560.256    560.542    560.256    560.373    560.256
 19.270    523.000    560.387    -37.387    559.979    560.269    559.979    560.097    559.979
 19.370    582.183    560.113     22.070    559.701    559.994    559.701    559.820    559.701
 19.470    529.000    559.839    -30.839    559.421    559.719    559.421    559.542    559.421
 19.570    512.869    559.564    -46.695    559.141    559.443    559.141    559.262    559.141
 19.670    582.000    559.289     22.711    558.859    559.167    558.859    558.981    558.859
 19.770    530.000    559.013    -29.013    558.576    558.890    558.576    558.699    558.576
 19.870    557.000    558.735     -1.735    558.291    558.611    558.291    558.416    558.291
 19.970    609.000    558.457     50.543    558.006    558.331    558.006    558.131    558.006
 20.070    533.000    558.178    -25.178    557.720    558.051    557.720    557.846    557.720
 20.170    530.066    557.898    -27.832    557.432    557.770    557.432    557.560    557.432
 20.270    556.819    557.617     -0.799    557.144    557.488    557.144    557.273    557.144
 20.370    575.833    557.336     18.496    556.854    557.206    556.854    556.984    556.854
 20.470    562.000    557.055      4.945    556.564    556.923    556.564    556.695    556.564
 20.570    523.000    556.773    -33.773    556.272    556.640    556.272    556.405    556.272
 20.670    570.000    556.491     13.509    555.980    556.357    555.980    556.114    555.980
 20.770    584.659    556.212     28.447    555.687    556.074    555.687    555.824    555.687
 20.870    545.000    555.943    -10.943    555.393    555.803    555.393    555.533    555.393
 20.970    510.000    555.670    -45.670    555.098    555.528    555.098    555.239    555.098
 21.070    578.000    555.388     22.612    554.802    555.245    554.802    554.945    554.802
 21.170    569.700    555.105     14.594    554.505    554.961    554.505    554.650    554.505
 21.270    579.000    554.823     24.177    554.208    554.677    554.208    554.354    554.208
 21.370    562.000    554.541      7.459    553.910    554.393    553.910    554.058    553.910
 21.470    530.879    554.259    -23.380    553.611    554.110    553.611    553.761    553.611
 21.570    568.460    553.978     14.482    553.312    553.827    553.312    553.463    553.312
 21.670    556.000    553.698      2.302    553.012    553.545    553.012    553.165    553.012
 21.770    524.000    553.418    -29.418    552.711    553.264    552.711    552.866    552.711
 21.870    539.100    553.140    -14.040    552.410    552.984    552.410    552.566    552.410
 21.970    589.644    552.863     36.782    552.108    552.705    552.108    552.266    552.108
 22.070    579.590    552.587     27.002    551.806    552.428    551.806    551.966    551.806
 22.170    556.000    552.314      3.686    551.503    552.152    551.503    551.665    551.503
 22.270    579.710    552.043     27.667    551.200    551.879    551.200    551.364    551.200
 22.370    585.718    551.782     33.936    550.896    551.616    550.896    551.062    550.896
 22.470    580.040    551.595     28.445    550.591    551.426    550.591    550.760    550.591
 22.570    532.000    551.354    -19.354    550.287    551.183    550.287    550.457    550.287
 22.670    558.000    551.099      6.901    549.982    550.926    549.982    550.155    549.982
 22.770    536.000    550.848    -14.848    549.676    550.673    549.676    549.851    549.676
 22.870    550.000    550.607     -0.607    549.370    550.429    549.370    549.548    549.370
 22.970    533.000    550.391    -17.391    549.064    550.210    549.064    549.244    549.064
 23.070    559.000    550.191      8.809    548.757    550.008    548.757    548.941    548.757
 23.170    550.000    549.982      0.018    548.450    549.797    548.450    548.637    548.450
 23.270    547.182    549.791     -2.609    548.143    549.603    548.143    548.333    548.143
 23.370    550.000    549.659      0.341    547.836    549.468    547.836    548.028    547.836
 23.470    563.000    549.531     13.469    547.528    549.336    547.528    547.724    547.528
 23.570    616.000    549.424     66.576    547.221    549.226    547.221    547.419    547.221
 23.670    585.000    549.361     35.639    546.913    549.159    546.913    547.115    546.913
 23.770    542.000    549.362     -7.362    546.605    549.157    546.605    546.811    546.605
 23.870    563.993    549.457     14.537    546.296    549.248    546.296    546.506    546.296
 23.970    567.000    549.696     17.304    545.988    549.484    545.988    546.202    545.988
 24.070    550.179    550.199     -0.019    545.680    549.983    545.680    545.898    545.680
 24.170    577.000    551.308     25.692    545.371    551.089    545.371    545.594    545.371
 24.270    526.525    553.960    -27.434    545.062    553.738    545.062    545.290    545.062
 24.370    553.000    560.159     -7.159    544.754    559.937    544.754    544.986    544.754
 24.470    618.000    572.754     45.246    544.445    572.536    544.445    544.682    544.445
 24.570    554.000    593.235    -39.235    544.137    593.026    544.137    544.379    544.137
 24.670    641.000    617.623     23.377    543.828    617.427    543.828    544.076    543.828
 24.770    598.000    633.828    -35.828    543.520    633.637    543.520    543.774    543.520
 24.870    631.000    629.832      1.168    543.211    629.633    543.211    543.472    543.211
 24.970    583.000    608.905    -25.905    542.903    608.684    542.903    543.170    542.903
 25.070    620.325    584.520     35.804    542.595    584.275    542.595    542.869    542.595
 25.170    545.000    566.055    -21.055    542.287    565.789    542.287    542.569    542.287
 25.270    589.000    555.268     33.732    541.979    554.986    541.979    542.269    541.979
 25.370    527.000    549.918    -22.918    541.671    549.624    541.671    541.970    541.671
 25.470    585.000    547.357     37.643    541.364    547.052    541.364    541.671    541.364
 25.570    530.000    545.969    -15.969    541.057    545.654    541.057    541.374    541.057
 25.670    557.000    545.056     11.944    540.750    544.730    540.750    541.077    540.750
 25.770    521.000    544.374    -23.374    540.443    544.037    540.443    540.782    540.443
 25.870    586.000    543.836     42.164    540.136    543.486    540.136    540.487    540.136
 25.970    567.000    543.380     23.620    539.830    543.016    539.830    540.194    539.830
 26.070    541.000    543.007     -2.007    539.524    542.629    539.524    539.902    539.524
 26.170    550.961    542.688      8.274    539.219    542.295    539.219    539.612    539.219
 26.270    551.000    542.403      8.597    538.913    541.993    538.913    539.323    538.913
 26.370    535.000    542.162     -7.162    538.608    541.734    538.608    539.036    538.608
 26.470    546.000    541.966      4.034    538.304    541.519    538.304    538.751    538.304
 26.570    556.922    541.816     15.106    538.000    541.347    538.000    538.468    538.000
 26.670    545.318    541.713      3.604    537.696    541.221    537.696    538.188    537.696
 26.770    568.000    541.667     26.333    537.393    541.149    537.393    537.911    537.393
 26.870    540.036    541.683     -1.647    537.090    541.137    537.090    537.636    537.090
 26.970    598.000    541.778     56.222    536.788    541.200    536.788    537.365    536.788
 27.070    534.000    541.974     -7.974    536.486    541.361    536.486    537.099    536.486
 27.170    573.000    542.303     30.697    536.185    541.651    536.185    536.836    536.185
 27.270    538.939    542.832     -3.893    535.884    542.135    535.884    536.579    535.884
 27.370    598.000    543.603     54.397    535.584    542.857    535.584    536.328    535.584
 27.470    582.288    544.725     37.563    535.284    543.923    535.284    536.085    535.284
 27.570    538.953    546.540     -7.587    534.985    545.674    534.985    535.849    534.985
 27.670    595.584    550.269     45.315    534.686    549.328    534.686    535.623    534.686
 27.770    587.000    560.378     26.622    534.388    559.350    534.388    535.409    534.388
 27.870    599.185    589.054     10.131    534.091    587.919    534.091    535.210    534.091
 27.970    687.817    656.692     31.124    533.794    655.420    533.794    535.027    533.794
 28.070    793.000    773.952     19.048    533.498    772.511    533.498    534.865    533.498
 28.170    912.066    907.357      4.709    533.203    905.725    533.203    534.729    533.203
 28.270    982.000    973.130      8.870    532.908    971.307    532.908    534.627    532.908
 28.370    868.353    916.223    -47.869    532.614    914.205    532.614    534.567    532.614
 28.470    788.397    794.476     -6.080    532.321    792.207    532.321    534.564    532.321
 28.570    708.000    701.160      6.840    532.028    698.536    532.028    534.642    532.028
 28.670    718.808    683.612     35.196    531.736    680.494    531.736    534.839    531.736
 28.770    734.000    735.462     -1.462    531.445    731.665    531.445    535.221    531.445
 28.870    753.000    812.329    -59.329    531.155    807.570    531.155    535.898    531.155
 28.970    828.330    849.017    -20.687    530.865    842.847    530.865    537.035    530.865
 29.070    773.000    807.478    -34.478    530.576    799.213    530.576    538.852    530.576
 29.170    679.000    721.896    -42.896    530.288    710.605    530.288    541.591    530.288
 29.270    641.000    644.868     -3.868    530.001    629.437    530.001    545.439    530.001
 29.370    597.000    599.416     -2.416    529.715    578.750    529.715    550.383    529.715
 29.470    603.000    581.109     21.891    529.430    554.604    529.430    555.933    529.430
 29.570    575.863    576.394     -0.531    529.145    544.780    529.145    560.755    529.145
 29.670    603.000    574.570     28.430    528.861    540.625    528.861    562.803    528.861
 29.770    582.000    570.678     11.322    528.578    538.413    528.578    560.840    528.578
 29.870    608.000    564.468     43.532    528.297    536.957    528.297    555.804    528.297
 29.970    545.000    557.628    -12.628    528.016    535.924    528.016    549.717    528.016
 30.070    571.000    551.531     19.469    527.736    535.206    527.736    544.058    527.736
 30.170    602.000    546.769     55.231    527.456    534.781    527.456    539.442    527.456
 30.270    556.000    543.517     12.483    527.178    534.744    527.178    535.949    527.178
 30.370    521.000    542.020    -21.020    526.901    535.500    526.901    533.418    526.901
