neutron_powder_diffraction_0054
R_wp: 3.988
Temperature (K): 667.055
Counts: 83454.00
Wavelength (Ã…): 2.52098
COMMENTS
Test file for demonstrating the .xyy file format in Reel1.0
END OF HEADER
   tth       Y_obs     Y_calc      Y_res    Background    Phase_1_Nuc    Phase_1_Mag    Phase_2_Nuc    Phase_2_Mag
  9.970    676.534    657.921     18.613    656.591    657.567    656.944    656.591    656.591
 10.070    678.207    657.491     20.716    656.079    657.133    656.436    656.079    656.079
 10.170    663.494    657.072      6.422    655.566    656.710    655.927    655.566    655.566
 10.270    671.173    656.665     14.508    655.053    656.299    655.418    655.053    655.053
 10.370    717.000    656.273     60.727    654.539    655.903    654.907    654.539    654.539
 10.470    669.000    655.899     13.101    654.023    655.526    654.396    654.023    654.023
 10.570    686.072    655.549     30.523    653.508    655.171    653.885    653.508    653.508
 10.670    657.000    655.227      1.773    652.991    654.845    653.372    652.991    652.991
 10.770    686.600    654.941     31.659    652.474    654.555    652.859    652.474    652.474
 10.870    655.891    654.703      1.188    651.956    654.312    652.346    651.956    651.956
 10.970    653.000    654.524     -1.524    651.438    654.129    651.832    651.438    651.438
 11.070    678.077    654.425     23.652    650.919    654.025    651.317    650.919    650.919
 11.170    617.000    654.434    -37.434    650.399    654.029    650.802    650.399    650.399
 11.270    630.247    654.591    -24.345    649.879    654.181    650.286    649.879    649.879
 11.370    720.000    654.964     65.036    649.358    654.549    649.770    649.358    649.358
 11.470    622.718    655.680    -32.962    648.837    655.260    649.254    648.837    648.837
 11.570    623.999    657.034    -33.035    648.315    656.608    648.737    648.315    648.315
 11.670    686.000    659.722     26.278    647.793    659.289    648.220    647.793    647.793
 11.770    683.000    665.224     17.776    647.270    664.782    647.702    647.270    647.270
 11.870    620.637    676.000    -55.363    646.747    675.547    647.184    646.747    646.747
 11.970    793.000    694.774     98.226    646.224    694.305    646.666    646.224    646.224
 12.070    797.000    722.230     74.770    645.700    721.740    646.148    645.700    645.700
 12.170    753.934    753.146      0.788    645.176    752.633    645.629    645.176    645.176
 12.270    814.000    773.553     40.447    644.652    773.023    645.111    644.652    644.652
 12.370    773.073    769.446      3.628    644.128    768.912    644.592    644.128    644.128
 12.470    753.804    743.767     10.037    643.603    743.242    644.073    643.603    643.603
 12.570    698.877    711.922    -13.046    643.078    711.409    643.553    643.078    643.078
 12.670    644.000    685.536    -41.536    642.553    685.031    643.034    642.553    642.553
 12.770    652.000    667.959    -15.959    642.028    667.457    642.515    642.028    642.028
 12.870    597.000    657.722    -60.722    641.502    657.220    641.995    641.502    641.502
 12.970    632.000    652.068    -20.068    640.977    651.562    641.476    640.977    640.977
 13.070    645.000    648.894     -3.894    640.451    648.384    640.957    640.451    640.451
 13.170    646.000    646.718     -0.718    639.925    646.202    640.438    639.925    639.925
 13.270    663.444    645.070     18.374    639.399    644.548    639.918    639.399    639.399
 13.370    669.000    643.726     25.274    638.874    643.198    639.399    638.874    638.874
 13.470    625.000    642.580    -17.580    638.348    642.045    638.880    638.348    638.348
 13.570    589.000    641.570    -52.570    637.822    641.029    638.362    637.822    637.822
 13.670    633.000    640.663     -7.663    637.296    640.115    637.843    637.296    637.296
 13.770    628.000    639.833    -11.833    636.771    639.278    637.325    636.771    636.771
 13.870    640.000    639.057      0.943    636.245    638.495    636.807    636.245    636.245
 13.970    599.000    638.325    -39.325    635.720    637.755    636.289    635.720    635.720
 14.070    600.027    637.629    -37.601    635.194    637.051    635.771    635.194    635.194
 14.170    605.000    636.960    -31.960    634.669    636.375    635.254    634.669    634.669
 14.270    641.000    636.315      4.685    634.144    635.722    634.737    634.144    634.144
 14.370    678.000    635.691     42.309    633.620    635.089    634.220    633.620    633.620
 14.470    658.000    635.106     22.894    633.095    634.495    633.705    633.095    633.095
 14.570    598.000    634.510    -36.510    632.571    633.892    633.189    632.571    632.571
 14.670    628.000    633.923     -5.923    632.047    633.296    632.674    632.047    632.047
 14.770    590.000    633.347    -43.347    631.523    632.711    632.159    631.523    631.523
 14.870    651.000    632.778     18.222    631.000    632.133    631.645    631.000    631.000
 14.970    627.329    632.215     -4.886    630.477    631.560    631.131    630.477    630.477
 15.070    650.000    631.659     18.341    629.954    630.994    630.618    629.954    629.954
 15.170    682.207    631.108     51.100    629.432    630.433    630.105    629.432    629.432
 15.270    592.000    630.561    -38.561    628.910    629.877    629.593    628.910    628.910
 15.370    621.000    630.019     -9.019    628.388    629.325    629.082    628.388    628.388
 15.470    659.000    629.481     29.519    627.867    628.776    628.571    627.867    627.867
 15.570    601.000    628.946    -27.946    627.346    628.231    628.061    627.346    627.346
 15.670    614.000    628.415    -14.415    626.826    627.689    627.552    626.826    626.826
 15.770    603.000    627.887    -24.887    626.307    627.149    627.044    626.307    626.307
 15.870    678.831    627.361     51.469    625.787    626.612    626.536    625.787    625.787
 15.970    638.744    626.838     11.905    625.269    626.078    626.029    625.269    625.269
 16.070    641.953    626.319     15.634    624.751    625.546    625.523    624.751    624.751
 16.170    612.000    625.805    -13.805    624.233    625.020    625.018    624.233    624.233
 16.270    606.041    625.290    -19.249    623.716    624.493    624.514    623.716    623.716
 16.370    661.000    624.776     36.224    623.200    623.966    624.010    623.200    623.200
 16.470    635.000    624.265     10.735    622.684    623.441    623.508    622.684    622.684
 16.570    645.000    623.755     21.245    622.169    622.918    623.006    622.169    622.169
 16.670    563.000    623.248    -60.248    621.655    622.397    622.506    621.655    621.655
 16.770    633.000    622.744     10.256    621.142    621.878    622.007    621.142    621.142
 16.870    546.000    622.246    -76.246    620.629    621.366    621.508    620.629    620.629
 16.970    631.000    621.748      9.252    620.116    620.853    621.011    620.116    620.116
 17.070    638.018    621.290     16.728    619.605    620.379    620.515    619.605    619.605
 17.170    556.000    620.828    -64.828    619.094    619.902    620.020    619.094    619.094
 17.270    607.000    620.335    -13.335    618.584    619.393    619.527    618.584    618.584
 17.370    589.000    619.841    -30.841    618.075    618.882    619.034    618.075    618.075
 17.470    646.750    619.349     27.401    617.567    618.373    618.543    617.567    617.567
 17.570    602.000    618.858    -16.858    617.059    617.865    618.053    617.059    617.059
 17.670    633.000    618.369     14.631    616.553    617.358    617.564    616.553    616.553
 17.770    657.045    617.883     39.162    616.047    616.853    617.076    616.047    616.047
 17.870    613.781    617.398     -3.617    615.542    616.350    616.590    615.542    615.542
 17.970    572.000    616.923    -44.923    615.038    615.855    616.106    615.038    615.038
 18.070    582.033    616.449    -34.416    614.535    615.361    615.623    614.535    614.535
 18.170    619.997    615.970      4.027    614.033    614.861    615.141    614.033    614.033
 18.270    644.090    615.493     28.597    613.531    614.363    614.661    613.531    613.531
 18.370    663.897    615.026     48.871    613.031    613.873    614.184    613.031    613.031
 18.470    618.000    614.635      3.365    612.532    613.450    613.717    612.532    612.532
 18.570    624.000    614.184      9.816    612.033    612.973    613.244    612.033    612.033
 18.670    627.000    613.717     13.283    611.536    612.482    612.771    611.536    611.536
 18.770    604.828    613.251     -8.422    611.040    611.991    612.299    611.040    611.040
 18.870    602.000    612.788    -10.788    610.545    611.503    611.829    610.545    610.545
 18.970    616.976    612.336      4.639    610.050    611.025    611.361    610.050    610.050
 19.070    593.545    611.880    -18.335    609.557    610.542    610.895    609.557    609.557
 19.170    581.000    611.423    -30.423    609.065    610.057    610.431    609.065    609.065
 19.270    595.000    610.969    -15.969    608.574    609.574    609.969    608.574    608.574
 19.370    587.000    610.517    -23.517    608.084    609.093    609.509    608.084    608.084
 19.470    635.000    610.067     24.933    607.596    608.613    609.050    607.596    607.596
 19.570    559.000    609.621    -50.621    607.108    608.134    608.594    607.108    607.108
 19.670    557.000    609.177    -52.177    606.622    607.658    608.141    606.622    606.622
 19.770    616.002    608.736      7.265    606.136    607.184    607.689    606.136    606.136
 19.870    575.632    608.308    -32.676    605.652    606.720    607.241    605.652    605.652
 19.970    569.000    607.897    -38.897    605.170    606.270    606.797    605.170    605.170
 20.070    614.000    607.477      6.523    604.688    605.808    606.357    604.688    604.688
 20.170    584.000    607.069    -23.069    604.208    605.359    605.917    604.208    604.208
 20.270    638.960    606.660     32.300    603.728    604.911    605.478    603.728    603.728
 20.370    623.000    606.258     16.742    603.250    604.467    605.042    603.250    603.250
 20.470    617.000    605.883     11.117    602.774    604.048    604.609    602.774    602.774
 20.570    614.153    605.504      8.650    602.298    603.624    604.178    602.298    602.298
 20.670    563.888    605.097    -41.209    601.824    603.171    603.751    601.824    601.824
 20.770    612.000    604.698      7.302    601.351    602.724    603.326    601.351    601.351
 20.870    598.000    604.319     -6.319    600.880    602.294    602.904    600.880    600.880
 20.970    623.000    603.935     19.065    600.410    601.859    602.486    600.410    600.410
 21.070    584.000    603.578    -19.578    599.941    601.447    602.072    599.941    599.941
 21.170    553.964    603.203    -49.239    599.474    601.015    601.661    599.474    599.474
 21.270    627.122    602.821     24.300    599.008    600.575    601.253    599.008    599.008
 21.370    576.000    602.443    -26.443    598.543    600.137    600.849    598.543    598.543
 21.470    615.175    602.072     13.103    598.080    599.702    600.450    598.080    598.080
 21.570    588.000    601.714    -13.714    597.618    599.275    600.056    597.618    597.618
 21.670    597.069    601.355     -4.286    597.157    598.847    599.665    597.157    597.157
 21.770    562.245    601.006    -38.761    596.698    598.426    599.278    596.698    596.698
 21.870    565.146    600.667    -35.520    596.240    598.011    598.896    596.240    596.240
 21.970    604.000    600.331      3.669    595.784    597.597    598.519    595.784    595.784
 22.070    575.712    600.006    -24.294    595.330    597.188    598.147    595.330    595.330
 22.170    546.000    599.684    -53.684    594.876    596.781    597.780    594.876    594.876
 22.270    627.056    599.372     27.684    594.425    596.378    597.418    594.425    594.425
 22.370    577.422    599.069    -21.647    593.974    595.981    597.062    593.974    593.974
 22.470    651.000    598.779     52.221    593.525    595.592    596.712    593.525    593.525
 22.570    551.949    598.500    -46.551    593.078    595.209    596.369    593.078    593.078
 22.670    611.947    598.233     13.713    592.632    594.834    596.032    592.632    592.632
 22.770    641.360    597.984     43.377    592.188    594.470    595.702    592.188    592.188
 22.870    589.000    597.750     -8.750    591.746    594.116    595.380    591.746    591.746
 22.970    598.000    597.534      0.466    591.304    593.773    595.066    591.304    591.304
 23.070    643.656    597.339     46.317    590.865    593.444    594.760    590.865    590.865
 23.170    595.000    597.169     -2.169    590.427    593.133    594.463    590.427    590.427
 23.270    559.884    597.027    -37.143    589.991    592.842    594.176    589.991    589.991
 23.370    630.641    596.919     33.722    589.556    592.577    593.898    589.556    589.556
 23.470    605.000    596.851      8.149    589.123    592.342    593.632    589.123    589.123
 23.570    605.000    596.831      8.169    588.691    592.146    593.378    588.691    588.691
 23.670    596.000    596.873     -0.873    588.261    591.999    593.136    588.261    588.261
 23.770    559.759    596.990    -37.231    587.833    591.918    592.907    587.833    587.833
 23.870    600.000    597.207      2.793    587.406    591.922    592.692    587.406    587.406
 23.970    596.000    597.556     -1.556    586.981    592.046    592.492    586.981    586.981
 24.070    571.042    598.097    -27.054    586.558    592.347    592.310    586.558    586.558
 24.170    597.000    598.947     -1.947    586.136    592.941    592.145    586.136    586.136
 24.270    644.000    600.381     43.619    585.716    594.101    592.000    585.716    585.716
 24.370    645.000    603.021     41.979    585.297    596.449    591.876    585.297    585.297
 24.470    626.000    608.061     17.939    584.881    601.177    591.775    584.881    584.881
 24.570    614.000    617.242     -3.242    584.466    610.024    591.700    584.466    584.466
 24.670    657.000    632.072     24.928    584.052    624.499    591.652    584.052    584.052
 24.770    654.000    652.084      1.916    583.641    644.131    591.635    583.641    583.641
 24.870    686.000    672.333     13.667    583.231    663.968    591.651    583.231    583.231
 24.970    699.504    682.388     17.115    582.823    673.569    591.705    582.823    582.823
 25.070    634.651    674.827    -40.176    582.416    665.500    591.801    582.416    582.416
 25.170    675.000    655.728     19.272    582.012    645.841    591.943    582.012    582.012
 25.270    652.000    635.669     16.331    581.609    625.171    592.136    581.609    581.609
 25.370    676.000    620.376     55.624    581.208    609.215    592.387    581.208    581.208
 25.470    587.999    610.839    -22.841    580.808    598.955    592.703    580.808    580.808
 25.570    631.000    605.743     25.257    580.411    593.066    593.094    580.411    580.411
 25.670    576.891    603.343    -26.452    580.015    589.794    593.568    580.015    580.015
 25.770    641.000    602.374     38.626    579.621    587.859    594.138    579.621    579.621
 25.870    594.904    602.161     -7.256    579.229    586.572    594.819    579.229    579.229
 25.970    576.034    602.413    -26.379    578.838    585.624    595.628    578.838    578.838
 26.070    616.000    603.017     12.983    578.450    584.882    596.585    578.450    578.450
 26.170    629.000    603.939     25.061    578.063    584.289    597.714    578.063    578.063
 26.270    560.834    605.175    -44.341    577.678    583.807    599.046    577.678    577.678
 26.370    587.431    606.742    -19.311    577.295    583.418    600.619    577.295    577.295
 26.470    579.681    608.680    -28.999    576.913    583.113    602.480    576.913    576.913
 26.570    584.000    611.045    -27.045    576.534    582.888    604.689    576.534    576.534
 26.670    566.362    613.913    -47.551    576.156    582.745    607.322    576.156    576.156
 26.770    668.000    617.388     50.612    575.780    582.689    610.477    575.780    575.780
 26.870    641.000    621.608     19.392    575.406    582.729    614.283    575.406    575.406
 26.970    616.617    626.762    -10.145    575.034    582.882    618.911    575.034    575.034
 27.070    589.810    633.109    -43.300    574.664    583.173    624.596    574.664    574.664
 27.170    697.000    640.995     56.005    574.296    583.634    631.651    574.296    574.296
 27.270    658.000    650.927      7.073    573.929    584.316    640.534    573.929    573.929
 27.370    687.413    663.645     23.767    573.565    585.292    651.910    573.565    573.565
 27.470    635.048    680.329    -45.281    573.202    586.681    666.840    573.202    573.202
 27.570    697.000    703.252     -6.252    572.841    588.709    687.370    572.841    572.841
 27.670    754.000    738.099     15.901    572.482    591.942    718.620    572.482    572.482
 27.770    791.000    800.865     -9.865    572.125    597.960    774.996    572.125    572.125
 27.870    933.000    932.081      0.919    571.770    610.770    893.017    571.770    571.770
 27.970   1081.000   1210.917   -129.917    571.417    638.189   1144.015    571.417    571.417
 28.070   1671.542   1738.580    -67.039    571.065    690.215   1619.192    571.065    571.065
 28.170   2655.127   2554.659    100.468    570.716    770.784   2354.217    570.716    570.716
 28.270   3465.000   3501.658    -36.658    570.368    864.439   3207.126    570.368    570.368
 28.370   4178.000   4156.200     21.800    570.023    929.599   3796.222    570.023    570.023
 28.470   4272.000   4105.272    166.728    569.679    925.930   3748.816    569.679    569.679
 28.570   3436.000   3445.394     -9.394    569.337    863.789   3150.910    569.337    569.337
 28.670   2604.000   2675.488    -71.488    568.997    793.777   2450.737    568.997    568.997
 28.770   2104.000   2202.809    -98.809    568.660    757.567   2013.912    568.660    568.660
 28.870   1976.000   2138.263   -162.263    568.324    766.357   1940.203    568.324    568.324
 28.970   2280.000   2343.691    -63.691    567.990    803.543   2108.107    567.990    567.990
 29.070   2496.000   2533.241    -37.241    567.658    833.641   2267.281    567.658    567.658
 29.170   2492.000   2451.154     40.846    567.328    824.156   2194.430    567.328    567.328
 29.270   2093.000   2087.067      5.933    566.999    774.968   1879.244    566.999    566.999
 29.370   1546.609   1627.275    -80.666    566.673    712.226   1481.853    566.673    566.673
 29.470   1229.695   1236.521     -6.826    566.349    658.798   1144.164    566.349    566.349
 29.570   1004.000    972.996     31.004    566.027    622.775    916.301    566.027    566.027
 29.670    888.000    821.271     66.729    565.707    602.079    784.926    565.707    565.707
 29.770    821.000    741.162     79.838    565.388    591.206    715.357    565.388    565.388
 29.870    738.314    698.373     39.940    565.072    585.459    677.993    565.072    565.072
 29.970    742.000    673.007     68.993    564.757    582.120    655.647    564.757    564.757
 30.070    608.571    655.963    -47.392    564.445    579.962    640.447    564.445    564.445
 30.170    719.000    643.563     75.437    564.135    578.513    629.185    564.135    564.135
 30.270    585.900    634.319    -48.420    563.826    577.629    620.515    563.826    563.826
 30.370    608.329    627.673    -19.344    563.520    577.372    613.818    563.520    563.520
