neutron_powder_diffraction_0205
R_wp: 3.976
Temperature (K): 1074.000
Counts: 83639.00
Wavelength (Ã…): 2.52098
COMMENTS
Test file for demonstrating the .xyy file format in Reel1.0
END OF HEADER
   tth       Y_obs     Y_calc      Y_res    Background    Phase_1_Nuc    Phase_1_Mag    Phase_2_Nuc    Phase_2_Mag
  9.970    605.145    575.343     29.802    574.713    575.312    574.713    574.743    574.713
 10.070    534.000    575.315    -41.315    574.615    575.284    574.615    574.646    574.615
 10.170    573.000    575.279     -2.279    574.515    575.248    574.515    574.545    574.515
 10.270    624.000    575.246     48.754    574.411    575.214    574.411    574.442    574.411
 10.370    608.000    575.231     32.769    574.303    575.188    574.303    574.345    574.303
 10.470    607.583    575.218     32.365    574.192    575.174    574.192    574.236    574.192
 10.570    629.000    575.217     53.783    574.078    575.173    574.078    574.122    574.078
 10.670    603.301    575.235     28.065    573.961    575.191    573.961    574.005    573.961
 10.770    592.000    575.279     16.721    573.840    575.234    573.840    573.885    573.840
 10.870    583.000    575.355      7.645    573.717    575.310    573.717    573.761    573.717
 10.970    549.766    575.476    -25.710    573.590    575.430    573.590    573.635    573.590
 11.070    600.000    575.659     24.341    573.460    575.613    573.460    573.505    573.460
 11.170    559.626    575.927    -16.301    573.327    575.880    573.327    573.372    573.327
 11.270    597.000    576.318     20.682    573.191    576.271    573.191    573.237    573.191
 11.370    585.000    576.901      8.099    573.052    576.848    573.052    573.103    573.052
 11.470    576.433    577.806     -1.373    572.910    577.751    572.910    572.962    572.910
 11.570    605.000    579.425     25.575    572.765    579.369    572.765    572.817    572.765
 11.670    630.474    582.885     47.589    572.617    582.827    572.617    572.670    572.617
 11.770    622.000    590.851     31.149    572.467    590.788    572.467    572.519    572.467
 11.870    597.734    607.703     -9.968    572.313    607.630    572.313    572.366    572.313
 11.970    670.000    636.933     33.067    572.157    636.843    572.157    572.210    572.157
 12.070    634.135    674.831    -40.697    571.998    674.720    571.998    572.051    571.998
 12.170    678.000    704.709    -26.709    571.836    704.581    571.836    571.890    571.836
 12.270    659.000    705.527    -46.527    571.672    705.398    571.672    571.726    571.672
 12.370    629.000    676.395    -47.395    571.504    676.282    571.504    571.559    571.504
 12.470    656.416    637.988     18.427    571.335    637.897    571.335    571.389    571.335
 12.570    558.566    607.750    -49.184    571.162    607.675    571.162    571.217    571.162
 12.670    579.000    589.978    -10.978    570.988    589.912    570.988    571.043    570.988
 12.770    626.873    581.353     45.520    570.810    581.292    570.810    570.866    570.810
 12.870    557.000    577.427    -20.427    570.630    577.368    570.630    570.686    570.630
 12.970    579.000    575.430      3.570    570.448    575.371    570.448    570.504    570.448
 13.070    531.591    574.180    -42.590    570.263    574.121    570.263    570.320    570.263
 13.170    551.000    573.269    -22.269    570.076    573.208    570.076    570.136    570.076
 13.270    532.000    572.548    -40.548    569.887    572.486    569.887    569.948    569.887
 13.370    589.000    571.953     17.047    569.695    571.890    569.695    569.756    569.695
 13.470    574.085    571.445      2.640    569.501    571.382    569.501    569.563    569.501
 13.570    579.000    571.000      8.000    569.304    570.937    569.304    569.367    569.304
 13.670    582.957    570.602     12.355    569.106    570.538    569.106    569.169    569.106
 13.770    558.367    570.238    -11.872    568.905    570.174    568.905    568.968    568.905
 13.870    561.000    569.901     -8.901    568.702    569.837    568.702    568.766    568.702
 13.970    520.000    569.584    -49.584    568.497    569.519    568.497    568.561    568.497
 14.070    615.872    569.282     46.589    568.289    569.217    568.289    568.354    568.289
 14.170    583.000    568.993     14.007    568.080    568.927    568.080    568.145    568.080
 14.270    589.780    568.713     21.067    567.869    568.647    567.869    567.934    567.869
 14.370    565.000    568.440     -3.440    567.655    568.374    567.655    567.721    567.655
 14.470    606.869    568.174     38.695    567.440    568.108    567.440    567.506    567.440
 14.570    550.073    567.912    -17.839    567.223    567.845    567.223    567.289    567.223
 14.670    577.793    567.653     10.140    567.003    567.587    567.003    567.070    567.003
 14.770    535.000    567.398    -32.398    566.782    567.331    566.782    566.849    566.782
 14.870    537.524    567.148    -29.624    566.559    567.080    566.559    566.626    566.559
 14.970    534.000    566.898    -32.898    566.334    566.830    566.334    566.402    566.334
 15.070    609.217    566.647     42.570    566.107    566.579    566.107    566.176    566.107
 15.170    559.000    566.398     -7.398    565.879    566.329    565.879    565.947    565.879
 15.270    532.213    566.148    -33.935    565.649    566.079    565.649    565.718    565.649
 15.370    550.000    565.900    -15.900    565.417    565.830    565.417    565.486    565.417
 15.470    579.000    565.651     13.349    565.183    565.581    565.183    565.253    565.183
 15.570    572.000    565.402      6.598    564.948    565.332    564.948    565.018    564.948
 15.670    512.875    565.154    -52.279    564.711    565.082    564.711    564.783    564.711
 15.770    569.633    564.905      4.728    564.472    564.832    564.472    564.545    564.472
 15.870    542.111    564.655    -22.544    564.232    564.582    564.232    564.305    564.232
 15.970    539.000    564.405    -25.405    563.990    564.331    563.990    564.064    563.990
 16.070    561.000    564.153     -3.153    563.747    564.079    563.747    563.821    563.747
 16.170    508.000    563.902    -55.902    563.502    563.827    563.502    563.577    563.502
 16.270    512.000    563.649    -51.649    563.256    563.574    563.256    563.331    563.256
 16.370    559.000    563.396     -4.396    563.008    563.321    563.008    563.084    563.008
 16.470    582.000    563.142     18.858    562.759    563.066    562.759    562.835    562.759
 16.570    549.000    562.887    -13.887    562.509    562.811    562.509    562.585    562.509
 16.670    560.000    562.633     -2.633    562.257    562.556    562.257    562.334    562.257
 16.770    563.977    562.378      1.599    562.004    562.301    562.004    562.081    562.004
 16.870    564.136    562.121      2.015    561.749    562.043    561.749    561.827    561.749
 16.970    568.225    561.863      6.363    561.493    561.784    561.493    561.572    561.493
 17.070    584.000    561.604     22.396    561.236    561.525    561.236    561.315    561.236
 17.170    545.000    561.344    -16.344    560.978    561.265    560.978    561.057    560.978
 17.270    577.190    561.083     16.107    560.719    561.003    560.719    560.798    560.719
 17.370    549.000    560.822    -11.822    560.458    560.741    560.458    560.538    560.458
 17.470    548.000    560.559    -12.559    560.196    560.479    560.196    560.277    560.196
 17.570    565.000    560.297      4.703    559.933    560.215    559.933    560.014    559.933
 17.670    573.188    560.035     13.153    559.669    559.953    559.669    559.751    559.669
 17.770    534.000    559.771    -25.771    559.404    559.688    559.404    559.486    559.404
 17.870    556.000    559.506     -3.506    559.138    559.422    559.138    559.221    559.138
 17.970    584.000    559.240     24.760    558.870    559.156    558.870    558.954    558.870
 18.070    603.000    558.977     44.023    558.602    558.888    558.602    558.691    558.602
 18.170    561.000    558.711      2.289    558.333    558.620    558.333    558.424    558.333
 18.270    585.000    558.443     26.557    558.062    558.351    558.062    558.155    558.062
 18.370    594.357    558.174     36.183    557.791    558.081    557.791    557.884    557.791
 18.470    582.376    557.905     24.471    557.519    557.811    557.519    557.613    557.519
 18.570    533.000    557.634    -24.634    557.246    557.540    557.246    557.340    557.246
 18.670    580.252    557.364     22.888    556.972    557.269    556.972    557.067    556.972
 18.770    552.000    557.092     -5.092    556.698    556.997    556.698    556.793    556.698
 18.870    557.000    556.820      0.180    556.422    556.724    556.422    556.519    556.422
 18.970    540.000    556.548    -16.548    556.146    556.451    556.146    556.243    556.146
 19.070    537.361    556.275    -18.915    555.869    556.177    555.869    555.967    555.869
 19.170    597.576    556.002     41.574    555.591    555.904    555.591    555.690    555.591
 19.270    543.000    555.729    -12.729    555.312    555.630    555.312    555.412    555.312
 19.370    550.763    555.455     -4.692    555.033    555.355    555.033    555.133    555.033
 19.470    551.000    555.180     -4.180    554.753    555.079    554.753    554.854    554.753
 19.570    532.000    554.906    -22.906    554.473    554.805    554.473    554.575    554.473
 19.670    596.000    554.632     41.368    554.191    554.529    554.191    554.294    554.191
 19.770    561.900    554.357      7.543    553.910    554.253    553.910    554.013    553.910
 19.870    557.850    554.081      3.769    553.627    553.977    553.627    553.732    553.627
 19.970    506.969    553.806    -46.837    553.344    553.700    553.344    553.450    553.344
 20.070    536.000    553.530    -17.530    553.061    553.423    553.061    553.167    553.061
 20.170    528.000    553.255    -25.255    552.777    553.147    552.777    552.884    552.777
 20.270    537.000    552.992    -15.992    552.492    552.884    552.492    552.600    552.492
 20.370    508.000    552.726    -44.726    552.207    552.616    552.207    552.316    552.207
 20.470    527.513    552.451    -24.938    551.921    552.340    551.921    552.032    551.921
 20.570    591.000    552.175     38.825    551.635    552.064    551.635    551.747    551.635
 20.670    564.420    551.899     12.520    551.349    551.787    551.349    551.462    551.349
 20.770    583.083    551.624     31.459    551.062    551.511    551.062    551.176    551.062
 20.870    530.123    551.349    -21.226    550.775    551.234    550.775    550.890    550.775
 20.970    521.000    551.075    -30.075    550.488    550.959    550.488    550.604    550.488
 21.070    531.000    550.801    -19.801    550.200    550.683    550.200    550.317    550.200
 21.170    528.000    550.527    -22.527    549.911    550.409    549.911    550.030    549.911
 21.270    538.966    550.254    -11.288    549.623    550.135    549.623    549.743    549.623
 21.370    565.000    549.982     15.018    549.334    549.861    549.334    549.455    549.334
 21.470    553.000    549.711      3.289    549.045    549.589    549.045    549.168    549.045
 21.570    595.943    549.441     46.502    548.756    549.317    548.756    548.880    548.756
 21.670    549.000    549.172     -0.172    548.466    549.047    548.466    548.592    548.466
 21.770    512.000    548.905    -36.905    548.177    548.778    548.177    548.303    548.177
 21.870    544.000    548.639     -4.639    547.887    548.511    547.887    548.015    547.887
 21.970    567.738    548.383     19.356    547.597    548.253    547.597    547.726    547.597
 22.070    511.000    548.204    -37.204    547.307    548.072    547.307    547.438    547.307
 22.170    560.208    547.969     12.239    547.016    547.834    547.016    547.152    547.016
 22.270    543.000    547.736     -4.736    546.726    547.598    546.726    546.864    546.726
 22.370    562.354    547.510     14.844    546.435    547.371    546.435    546.575    546.435
 22.470    570.229    547.264     22.965    546.145    547.123    546.145    546.286    546.145
 22.570    568.000    547.020     20.980    545.854    546.876    545.854    545.998    545.854
 22.670    552.569    546.785      5.785    545.564    546.640    545.564    545.709    545.564
 22.770    496.547    546.596    -50.049    545.273    546.449    545.273    545.420    545.273
 22.870    583.000    546.391     36.609    544.982    546.241    544.982    545.132    544.982
 22.970    566.000    546.180     19.820    544.692    546.028    544.692    544.843    544.692
 23.070    522.000    545.975    -23.975    544.401    545.822    544.401    544.555    544.401
 23.170    540.000    545.784     -5.784    544.110    545.628    544.110    544.267    544.110
 23.270    556.000    545.610     10.390    543.820    545.452    543.820    543.979    543.820
 23.370    530.709    545.458    -14.749    543.530    545.297    543.530    543.691    543.530
 23.470    511.390    545.333    -33.943    543.239    545.169    543.239    543.404    543.239
 23.570    536.161    545.245     -9.084    542.949    545.079    542.949    543.116    542.949
 23.670    565.304    545.206     20.098    542.659    545.037    542.659    542.829    542.659
 23.770    545.000    545.235     -0.235    542.369    545.063    542.369    542.542    542.369
 23.870    526.000    545.359    -19.359    542.080    545.184    542.080    542.256    542.080
 23.970    546.316    545.632      0.684    541.790    545.454    541.790    541.970    541.790
 24.070    569.000    546.178     22.822    541.501    545.997    541.501    541.684    541.501
 24.170    528.000    547.343    -19.343    541.212    547.160    541.212    541.399    541.212
 24.270    618.000    550.082     67.918    540.923    549.897    540.923    541.114    540.923
 24.370    516.791    556.424    -39.633    540.634    556.239    540.634    540.829    540.634
 24.470    587.000    569.225     17.775    540.346    569.045    540.346    540.545    540.346
 24.570    576.114    589.957    -13.843    540.058    589.788    540.058    540.262    540.058
 24.670    638.000    614.589     23.411    539.770    614.433    539.770    539.979    539.770
 24.770    626.447    630.946     -4.498    539.483    630.797    539.483    539.697    539.483
 24.870    644.437    626.948     17.489    539.196    626.791    539.196    539.415    539.196
 24.970    656.000    605.881     50.119    538.909    605.704    538.909    539.134    538.909
 25.070    587.000    581.297      5.703    538.623    581.096    538.623    538.853    538.623
 25.170    562.000    562.653     -0.653    538.337    562.433    538.337    538.574    538.337
 25.270    562.485    551.755     10.730    538.051    551.520    538.051    538.295    538.051
 25.370    532.202    546.345    -14.143    537.766    546.099    537.766    538.017    537.766
 25.470    563.000    543.785     19.215    537.481    543.530    537.481    537.740    537.481
 25.570    535.000    542.417     -7.417    537.197    542.153    537.197    537.464    537.197
 25.670    515.426    541.526    -26.100    536.913    541.252    536.913    537.189    536.913
 25.770    542.236    540.860      1.376    536.630    540.576    536.630    536.915    536.630
 25.870    545.000    540.334      4.666    536.347    540.040    536.347    536.642    536.347
 25.970    551.000    539.906     11.094    536.065    539.601    536.065    536.371    536.065
 26.070    516.987    539.552    -22.565    535.783    539.235    535.783    536.101    535.783
 26.170    539.328    539.260      0.068    535.501    538.930    535.501    535.832    535.501
 26.270    522.000    539.018    -17.018    535.220    538.674    535.220    535.565    535.220
 26.370    552.000    538.824     13.176    534.940    538.465    534.940    535.300    534.940
 26.470    565.000    538.679     26.321    534.660    538.303    534.660    535.037    534.660
 26.570    553.000    538.586     14.414    534.381    538.192    534.381    534.775    534.381
 26.670    542.000    538.574      3.426    534.103    538.160    534.103    534.517    534.103
 26.770    545.891    538.621      7.271    533.825    538.185    533.825    534.260    533.825
 26.870    540.931    538.722      2.209    533.547    538.262    533.547    534.007    533.547
 26.970    565.000    538.913     26.087    533.271    538.427    533.271    533.757    533.271
 27.070    521.000    539.222    -18.222    532.995    538.706    532.995    533.510    532.995
 27.170    511.000    539.688    -28.688    532.719    539.139    532.719    533.268    532.719
 27.270    544.000    540.365      3.635    532.444    539.779    532.444    533.030    532.444
 27.370    542.000    541.328      0.672    532.170    540.700    532.170    532.797    532.170
 27.470    549.000    542.747      6.253    531.897    542.072    531.897    532.571    531.897
 27.570    582.778    545.017     37.761    531.624    544.286    531.624    532.352    531.624
 27.670    594.149    549.452     44.697    531.352    548.659    531.352    532.142    531.352
 27.770    593.000    560.742     32.258    531.081    559.874    531.081    531.942    531.081
 27.870    620.000    590.713     29.287    530.811    589.753    530.811    531.754    530.811
 27.970    663.000    657.798      5.202    530.541    656.720    530.541    531.580    530.541
 28.070    790.141    770.214     19.927    530.272    768.992    530.272    531.425    530.272
 28.170    857.000    896.152    -39.152    530.004    894.767    530.004    531.292    530.004
 28.270    989.408    958.322     31.086    529.736    956.777    529.736    531.188    529.736
 28.370    970.000    905.599     64.401    529.469    903.892    529.469    531.120    529.469
 28.470    768.807    792.232    -23.425    529.204    790.312    529.204    531.101    529.204
 28.570    688.000    704.657    -16.657    528.939    702.437    528.939    531.149    528.939
 28.670    687.000    687.142     -0.142    528.674    684.506    528.674    531.297    528.674
 28.770    778.000    734.531     43.469    528.411    731.322    528.411    531.602    528.411
 28.870    848.914    805.685     43.229    528.149    801.659    528.149    532.164    528.149
 28.970    757.000    839.421    -82.421    527.887    834.167    527.887    533.146    527.887
 29.070    777.000    799.619    -22.619    527.626    792.481    527.626    534.779    527.626
 29.170    721.000    718.132      2.868    527.366    708.178    527.366    537.334    527.366
 29.270    600.574    643.949    -43.374    527.107    630.019    527.107    541.044    527.107
 29.370    586.000    598.940    -12.940    526.849    579.851    526.849    545.940    526.849
 29.470    610.000    579.906     30.094    526.592    554.933    526.592    551.563    526.592
 29.570    564.000    574.501    -10.501    526.336    544.280    526.336    556.553    526.336
 29.670    574.406    572.258      2.148    526.080    539.611    526.080    558.723    526.080
 29.770    544.505    568.009    -23.504    525.826    537.115    525.826    556.716    525.826
 29.870    553.307    561.490     -8.184    525.572    535.494    525.572    551.566    525.572
 29.970    518.245    554.485    -36.239    525.320    534.359    525.320    545.442    525.320
 30.070    543.000    548.388     -5.388    525.068    533.586    525.068    539.868    525.068
 30.170    532.000    543.764    -11.764    524.818    533.146    524.818    535.433    524.818
 30.270    557.000    540.754     16.246    524.568    533.144    524.568    532.175    524.568
 30.370    567.000    539.578     27.422    524.319    534.008    524.319    529.886    524.319
