neutron_powder_diffraction_0202
R_wp: 3.943
Temperature (K): 1074.000
Counts: 83703.00
Wavelength (Ã…): 2.52098
COMMENTS
Test file for demonstrating the .xyy file format in Reel1.0
END OF HEADER
   tth       Y_obs     Y_calc      Y_res    Background    Phase_1_Nuc    Phase_1_Mag    Phase_2_Nuc    Phase_2_Mag
  9.970    573.449    566.724      6.726    566.052    566.704    566.052    566.072    566.052
 10.070    547.000    566.905    -19.905    566.173    566.885    566.173    566.193    566.173
 10.170    577.485    567.086     10.399    566.289    567.065    566.289    566.309    566.289
 10.270    589.770    567.270     22.499    566.399    567.250    566.399    566.419    566.399
 10.370    543.200    567.462    -24.262    566.503    567.441    566.503    566.523    566.503
 10.470    526.043    567.662    -41.619    566.601    567.642    566.601    566.622    566.601
 10.570    570.000    567.876      2.124    566.694    567.855    566.694    566.715    566.694
 10.670    600.000    568.107     31.893    566.782    568.086    566.782    566.802    566.782
 10.770    598.000    568.363     29.637    566.864    568.342    566.864    566.884    566.864
 10.870    569.000    568.652      0.348    566.941    568.631    566.941    566.961    566.941
 10.970    602.000    568.987     33.013    567.012    568.965    567.012    567.033    567.012
 11.070    552.000    569.385    -17.385    567.078    569.362    567.078    567.099    567.078
 11.170    551.000    569.871    -18.871    567.139    569.849    567.139    567.160    567.139
 11.270    587.000    570.486     16.514    567.194    570.463    567.194    567.215    567.194
 11.370    595.370    571.298     24.073    567.245    571.274    567.245    567.266    567.245
 11.470    559.000    572.456    -13.456    567.290    572.431    567.290    567.311    567.290
 11.570    578.964    574.375      4.589    567.330    574.349    567.330    567.351    567.330
 11.670    603.000    578.225     24.775    567.365    578.198    567.365    567.387    567.365
 11.770    583.681    586.707     -3.026    567.395    586.675    567.395    567.417    567.395
 11.870    653.000    604.140     48.860    567.421    604.096    567.421    567.444    567.421
 11.970    675.000    633.840     41.160    567.441    633.777    567.441    567.467    567.441
 12.070    705.356    671.962     33.394    567.457    671.877    567.457    567.483    567.457
 12.170    737.000    701.920     35.080    567.468    701.818    567.468    567.494    567.468
 12.270    680.000    702.904    -22.904    567.474    702.801    567.474    567.500    567.474
 12.370    676.038    674.034      2.005    567.475    673.947    567.475    567.502    567.475
 12.470    648.647    635.757     12.890    567.472    635.692    567.472    567.499    567.472
 12.570    568.000    605.404    -37.404    567.464    605.356    567.464    567.491    567.464
 12.670    640.000    587.394     52.606    567.452    587.355    567.452    567.480    567.452
 12.770    538.903    578.590    -39.687    567.435    578.554    567.435    567.464    567.435
 12.870    594.000    574.608     19.392    567.414    574.575    567.414    567.443    567.414
 12.970    502.000    572.649    -70.649    567.388    572.617    567.388    567.418    567.388
 13.070    573.000    571.484      1.516    567.359    571.453    567.359    567.388    567.359
 13.170    547.000    570.678    -23.678    567.324    570.647    567.324    567.354    567.324
 13.270    550.000    570.074    -20.074    567.286    570.043    567.286    567.315    567.286
 13.370    608.327    569.602     38.724    567.243    569.571    567.243    567.273    567.243
 13.470    563.000    569.222     -6.222    567.196    569.191    567.196    567.226    567.196
 13.570    536.792    568.907    -32.114    567.145    568.876    567.145    567.175    567.145
 13.670    533.000    568.639    -35.639    567.090    568.608    567.090    567.120    567.090
 13.770    527.000    568.407    -41.407    567.031    568.375    567.031    567.061    567.031
 13.870    612.143    568.202     43.941    566.967    568.169    566.967    566.999    566.967
 13.970    562.000    568.025     -6.025    566.900    567.983    566.900    566.943    566.900
 14.070    538.000    567.855    -29.855    566.829    567.811    566.829    566.873    566.829
 14.170    542.000    567.695    -25.695    566.754    567.650    566.754    566.798    566.754
 14.270    580.000    567.543     12.457    566.676    567.498    566.676    566.720    566.676
 14.370    561.000    567.397     -6.397    566.593    567.352    566.593    566.638    566.593
 14.470    562.000    567.257     -5.257    566.507    567.211    566.507    566.552    566.507
 14.570    580.072    567.119     12.953    566.417    567.074    566.417    566.462    566.417
 14.670    549.000    566.984    -17.984    566.323    566.938    566.323    566.369    566.323
 14.770    562.000    566.854     -4.854    566.226    566.807    566.226    566.272    566.226
 14.870    528.429    566.728    -38.299    566.125    566.675    566.125    566.177    566.125
 14.970    566.000    566.596     -0.596    566.021    566.542    566.021    566.074    566.021
 15.070    570.000    566.462      3.538    565.913    566.408    565.913    565.967    565.913
 15.170    524.722    566.328    -41.606    565.802    566.274    565.802    565.856    565.802
 15.270    579.267    566.193     13.074    565.687    566.139    565.687    565.741    565.687
 15.370    543.000    566.057    -23.057    565.569    566.002    565.569    565.624    565.569
 15.470    525.072    565.920    -40.848    565.448    565.865    565.448    565.503    565.448
 15.570    545.000    565.780    -20.780    565.323    565.725    565.323    565.378    565.323
 15.670    564.000    565.639     -1.639    565.195    565.584    565.195    565.251    565.195
 15.770    525.161    565.496    -40.335    565.064    565.440    565.064    565.120    565.064
 15.870    521.585    565.352    -43.766    564.930    565.295    564.930    564.986    564.930
 15.970    570.074    565.205      4.869    564.792    565.148    564.792    564.849    564.792
 16.070    555.732    565.056     -9.324    564.652    564.999    564.652    564.709    564.652
 16.170    537.000    564.904    -27.904    564.508    564.847    564.508    564.566    564.508
 16.270    569.000    564.751      4.249    564.362    564.693    564.362    564.420    564.362
 16.370    601.000    564.595     36.405    564.212    564.537    564.212    564.270    564.212
 16.470    592.000    564.439     27.561    564.060    564.380    564.060    564.118    564.060
 16.570    525.000    564.280    -39.280    563.905    564.221    563.905    563.963    563.905
 16.670    569.000    564.118      4.882    563.746    564.059    563.746    563.806    563.746
 16.770    534.000    563.953    -29.953    563.585    563.894    563.585    563.645    563.585
 16.870    531.000    563.786    -32.786    563.422    563.726    563.422    563.482    563.422
 16.970    568.000    563.617      4.383    563.255    563.556    563.255    563.315    563.255
 17.070    585.000    563.445     21.555    563.086    563.385    563.086    563.147    563.086
 17.170    529.972    563.272    -33.299    562.914    563.210    562.914    562.975    562.914
 17.270    561.000    563.096     -2.096    562.739    563.034    562.739    562.801    562.739
 17.370    530.000    562.918    -32.918    562.562    562.856    562.562    562.624    562.562
 17.470    555.000    562.740     -7.740    562.382    562.677    562.382    562.445    562.382
 17.570    592.291    562.558     29.733    562.200    562.495    562.200    562.264    562.200
 17.670    552.000    562.376    -10.376    562.015    562.309    562.015    562.082    562.015
 17.770    591.420    562.189     29.231    561.828    562.122    561.828    561.896    561.828
 17.870    582.000    562.000     20.000    561.639    561.932    561.639    561.707    561.639
 17.970    545.000    561.810    -16.810    561.447    561.741    561.447    561.516    561.447
 18.070    592.000    561.617     30.383    561.252    561.547    561.252    561.322    561.252
 18.170    609.000    561.422     47.578    561.056    561.352    561.056    561.126    561.056
 18.270    590.000    561.225     28.775    560.857    561.154    560.857    560.928    560.857
 18.370    535.728    561.026    -25.298    560.656    560.954    560.656    560.728    560.656
 18.470    608.000    560.825     47.175    560.452    560.753    560.452    560.525    560.452
 18.570    517.347    560.622    -43.275    560.247    560.549    560.247    560.320    560.247
 18.670    516.396    560.417    -44.022    560.039    560.344    560.039    560.113    560.039
 18.770    516.000    560.211    -44.211    559.829    560.137    559.829    559.904    559.829
 18.870    522.000    560.002    -38.002    559.618    559.928    559.618    559.692    559.618
 18.970    551.000    559.793     -8.793    559.404    559.717    559.404    559.479    559.404
 19.070    548.231    559.581    -11.351    559.188    559.505    559.188    559.264    559.188
 19.170    591.000    559.368     31.632    558.970    559.291    558.970    559.047    558.970
 19.270    573.000    559.153     13.847    558.750    559.076    558.750    558.827    558.750
 19.370    573.334    558.937     14.397    558.528    558.859    558.528    558.606    558.528
 19.470    570.336    558.720     11.616    558.305    558.641    558.305    558.384    558.305
 19.570    575.000    558.500     16.500    558.079    558.421    558.079    558.159    558.079
 19.670    532.000    558.279    -26.279    557.852    558.199    557.852    557.932    557.852
 19.770    582.555    558.057     24.498    557.623    557.975    557.623    557.704    557.623
 19.870    563.000    557.834      5.166    557.392    557.751    557.392    557.476    557.392
 19.970    532.556    557.609    -25.052    557.160    557.525    557.160    557.244    557.160
 20.070    585.000    557.383     27.617    556.926    557.299    556.926    557.011    556.926
 20.170    564.000    557.169      6.831    556.690    557.084    556.690    556.776    556.690
 20.270    539.000    556.950    -17.950    556.453    556.864    556.453    556.539    556.453
 20.370    573.340    556.721     16.618    556.214    556.634    556.214    556.301    556.214
 20.470    525.000    556.491    -31.491    555.973    556.403    555.973    556.061    555.973
 20.570    576.000    556.259     19.741    555.731    556.170    555.731    555.820    555.731
 20.670    562.000    556.026      5.974    555.488    555.936    555.488    555.577    555.488
 20.770    574.000    555.793     18.207    555.242    555.702    555.242    555.333    555.242
 20.870    554.000    555.559     -1.559    554.996    555.467    554.996    555.088    554.996
 20.970    541.000    555.324    -14.324    554.748    555.231    554.748    554.841    554.748
 21.070    555.000    555.088     -0.088    554.499    554.995    554.499    554.593    554.499
 21.170    513.709    554.853    -41.144    554.248    554.758    554.248    554.343    554.248
 21.270    537.000    554.621    -17.621    553.996    554.521    553.996    554.097    553.996
 21.370    543.000    554.387    -11.387    553.743    554.284    553.743    553.846    553.743
 21.470    534.045    554.151    -20.106    553.489    554.046    553.489    553.593    553.489
 21.570    561.000    553.915      7.085    553.233    553.809    553.233    553.339    553.233
 21.670    594.000    553.679     40.321    552.976    553.572    552.976    553.083    552.976
 21.770    574.244    553.443     20.801    552.718    553.335    552.718    552.826    552.718
 21.870    516.174    553.209    -37.035    552.459    553.099    552.459    552.568    552.459
 21.970    556.000    552.983      3.017    552.198    552.873    552.198    552.309    552.198
 22.070    556.000    552.833      3.167    551.937    552.721    551.937    552.049    551.937
 22.170    576.258    552.623     23.635    551.674    552.510    551.674    551.788    551.674
 22.270    553.000    552.398      0.602    551.411    552.283    551.411    551.526    551.411
 22.370    568.000    552.192     15.808    551.146    552.076    551.146    551.263    551.146
 22.470    540.000    551.996    -11.996    550.881    551.878    550.881    550.999    550.881
 22.570    574.000    551.784     22.216    550.614    551.665    550.614    550.734    550.614
 22.670    524.000    551.617    -27.617    550.347    551.496    550.347    550.468    550.347
 22.770    555.000    551.431      3.569    550.079    551.308    550.079    550.202    550.079
 22.870    515.378    551.231    -35.853    549.809    551.107    549.809    549.934    549.809
 22.970    526.780    551.039    -24.259    549.539    550.913    549.539    549.666    549.539
 23.070    507.849    550.858    -43.009    549.269    550.730    549.269    549.397    549.269
 23.170    547.000    550.690     -3.690    548.997    550.560    548.997    549.128    548.997
 23.270    557.000    550.539      6.461    548.725    550.407    548.725    548.857    548.725
 23.370    578.000    550.410     27.590    548.451    550.276    548.451    548.586    548.451
 23.470    577.271    550.310     26.961    548.177    550.174    548.177    548.315    548.177
 23.570    562.000    550.248     11.752    547.903    550.109    547.903    548.042    547.903
 23.670    555.000    550.237      4.763    547.628    550.096    547.628    547.770    547.628
 23.770    530.000    550.296    -20.296    547.352    550.153    547.352    547.496    547.352
 23.870    524.000    550.459    -26.459    547.075    550.313    547.075    547.223    547.075
 23.970    507.494    550.775    -43.281    546.798    550.627    546.798    546.948    546.798
 24.070    589.000    551.379     37.621    546.520    551.228    546.520    546.674    546.520
 24.170    585.000    552.640     32.360    546.242    552.487    546.242    546.399    546.242
 24.270    571.631    555.541     16.090    545.963    555.387    545.963    546.123    545.963
 24.370    546.000    562.129    -16.129    545.684    561.976    545.684    545.847    545.684
 24.470    592.000    575.220     16.780    545.404    575.073    545.404    545.571    545.404
 24.570    591.919    596.194     -4.275    545.124    596.058    545.124    545.295    545.124
 24.670    598.000    620.962    -22.962    544.844    620.838    544.844    545.020    544.844
 24.770    651.594    637.365     14.229    544.563    637.248    544.563    544.745    544.563
 24.870    672.046    633.366     38.680    544.281    633.242    544.281    544.468    544.281
 24.970    661.000    612.241     48.759    544.000    612.098    544.000    544.191    544.000
 25.070    618.000    587.501     30.499    543.717    587.335    543.717    543.914    543.717
 25.170    570.000    568.592      1.408    543.435    568.407    543.435    543.637    543.435
 25.270    549.255    557.419     -8.164    543.152    557.220    543.152    543.360    543.152
 25.370    581.000    551.814     29.186    542.869    551.605    542.869    543.083    542.869
 25.470    540.742    549.120     -8.378    542.586    548.903    542.586    542.806    542.586
 25.570    611.000    547.670     63.330    542.303    547.445    542.303    542.530    542.303
 25.670    564.471    546.729     17.742    542.019    546.496    542.019    542.254    542.019
 25.770    513.905    546.033    -32.128    541.735    545.792    541.735    541.978    541.735
 25.870    545.000    545.482     -0.482    541.451    545.232    541.451    541.702    541.451
 25.970    551.753    545.030      6.723    541.167    544.770    541.167    541.428    541.167
 26.070    553.836    544.655      9.182    540.883    544.385    540.883    541.153    540.883
 26.170    604.000    544.343     59.657    540.599    544.062    540.599    540.880    540.599
 26.270    542.000    544.087     -2.087    540.314    543.794    540.314    540.607    540.314
 26.370    539.000    543.879     -4.879    540.030    543.574    540.030    540.336    540.030
 26.470    534.137    543.744     -9.607    539.745    543.424    539.745    540.065    539.745
 26.570    563.000    543.655     19.345    539.461    543.320    539.461    539.796    539.461
 26.670    522.285    543.599    -21.314    539.176    543.246    539.176    539.528    539.176
 26.770    551.000    543.602      7.398    538.892    543.231    538.892    539.262    538.892
 26.870    530.000    543.681    -13.681    538.607    543.290    538.607    538.998    538.607
 26.970    576.000    543.854     32.146    538.323    543.440    538.323    538.736    538.323
 27.070    509.555    544.134    -34.579    538.038    543.695    538.038    538.477    538.038
 27.170    567.059    544.564     22.495    537.754    544.097    537.754    538.221    537.754
 27.270    525.000    545.202    -20.202    537.470    544.703    537.470    537.969    537.470
 27.370    575.000    546.141     28.859    537.186    545.605    537.186    537.720    537.186
 27.470    561.000    547.507     13.493    536.902    546.931    536.902    537.477    536.902
 27.570    581.820    549.655     32.165    536.619    549.033    536.619    537.239    536.619
 27.670    550.000    553.946     -3.946    536.335    553.270    536.335    537.008    536.335
 27.770    573.000    564.982      8.018    536.052    564.241    536.052    536.786    536.052
 27.870    664.000    594.548     69.452    535.769    593.726    535.769    536.574    535.769
 27.970    664.390    661.174      3.216    535.486    660.247    535.486    536.374    535.486
 28.070    819.000    773.296     45.704    535.204    772.238    535.204    536.189    535.204
 28.170    876.000    899.140    -23.140    534.922    897.936    534.922    536.024    534.922
 28.270    990.000    961.255     28.745    534.640    959.913    534.640    535.883    534.640
 28.370    929.136    908.490     20.646    534.359    907.012    534.359    535.773    534.359
 28.470    802.000    795.132      6.868    534.077    793.479    534.077    535.705    534.077
 28.570    703.000    707.801     -4.801    533.796    705.892    533.796    535.693    533.796
 28.670    681.057    690.757     -9.700    533.516    688.494    533.516    535.764    533.516
 28.770    748.563    738.612      9.951    533.236    735.861    533.236    535.966    533.236
 28.870    796.000    810.055    -14.055    532.956    806.603    532.956    536.392    532.956
 28.970    782.000    843.832    -61.832    532.677    839.293    532.677    537.216    532.677
 29.070    759.000    803.878    -44.878    532.398    797.566    532.398    538.721    532.398
 29.170    681.346    722.254    -40.908    532.120    713.094    532.120    541.290    532.120
 29.270    635.000    648.217    -13.217    531.842    634.759    531.842    545.307    531.842
 29.370    604.941    603.845      1.096    531.565    584.485    531.565    550.926    531.565
 29.470    600.089    585.925     14.164    531.288    559.529    531.288    557.683    531.288
 29.570    595.000    581.774     13.226    531.012    548.871    531.012    563.912    531.012
 29.670    599.000    580.183     18.817    530.736    544.200    530.736    566.716    530.736
 29.770    569.000    575.445     -6.445    530.460    541.698    530.460    564.204    530.460
 29.870    549.093    567.715    -18.622    530.186    540.071    530.186    557.828    530.186
 29.970    568.000    559.504      8.496    529.912    538.928    529.912    550.485    529.912
 30.070    548.000    552.575     -4.575    529.638    538.143    529.638    544.069    529.638
 30.170    529.000    547.545    -18.545    529.365    537.690    529.365    539.219    529.365
 30.270    512.913    544.449    -31.536    529.093    537.676    529.093    535.863    529.093
 30.370    545.337    543.358      1.978    528.821    538.532    528.821    533.644    528.821
