neutron_powder_diffraction_0106
R_wp: 3.917
Temperature (K): 918.488
Counts: 83193.00
Wavelength (Ã…): 2.52098
COMMENTS
Test file for demonstrating the .xyy file format in Reel1.0
END OF HEADER
   tth       Y_obs     Y_calc      Y_res    Background    Phase_1_Nuc    Phase_1_Mag    Phase_2_Nuc    Phase_2_Mag
  9.970    605.000    549.123     55.877    547.865    548.870    547.865    548.118    547.865
 10.070    545.188    549.710     -4.522    548.364    549.455    548.364    548.618    548.364
 10.170    600.000    550.298     49.702    548.852    550.042    548.852    549.107    548.852
 10.270    539.415    550.890    -11.475    549.330    550.633    549.330    549.586    549.330
 10.370    557.000    551.490      5.510    549.797    551.232    549.797    550.054    549.797
 10.470    521.409    552.101    -30.692    550.254    551.842    550.254    550.512    550.254
 10.570    587.000    552.729     34.271    550.700    552.469    550.700    550.959    550.700
 10.670    564.000    553.381     10.619    551.136    553.120    551.136    551.397    551.136
 10.770    553.216    554.066     -0.851    551.562    553.804    551.562    551.823    551.562
 10.870    542.000    554.797    -12.797    551.978    554.533    551.978    552.240    551.978
 10.970    578.669    555.590     23.080    552.383    555.325    552.383    552.647    552.383
 11.070    621.000    556.469     64.531    552.779    556.203    552.779    553.044    552.779
 11.170    595.000    557.471     37.529    553.165    557.203    553.165    553.431    553.165
 11.270    576.000    558.653     17.347    553.541    558.383    553.541    553.808    553.541
 11.370    546.647    560.107    -13.460    553.907    559.836    553.907    554.175    553.907
 11.470    541.000    562.045    -21.045    554.264    561.771    554.264    554.533    554.264
 11.570    586.506    564.952     21.555    554.611    564.676    554.611    554.881    554.611
 11.670    617.000    569.880     47.120    554.948    569.601    554.948    555.220    554.948
 11.770    607.000    578.729     28.271    555.277    578.444    555.277    555.549    555.277
 11.870    600.719    594.005      6.714    555.596    593.710    555.596    555.870    555.596
 11.970    672.000    617.394     54.606    555.905    617.084    555.905    556.181    555.905
 12.070    689.000    646.866     42.134    556.206    646.539    556.206    556.482    556.206
 12.170    701.000    673.218     27.782    556.497    672.875    556.497    556.775    556.497
 12.270    645.000    681.489    -36.489    556.780    681.141    556.780    557.059    556.780
 12.370    634.000    665.238    -31.238    557.054    664.897    557.054    557.334    557.054
 12.470    600.738    636.276    -35.539    557.318    635.951    557.318    557.600    557.318
 12.570    584.000    608.910    -24.910    557.575    608.598    557.575    557.857    557.575
 12.670    591.717    589.262      2.455    557.822    588.961    557.822    558.106    557.822
 12.770    595.000    577.404     17.596    558.061    577.108    558.061    558.346    558.061
 12.870    587.000    571.002     15.998    558.291    570.709    558.291    558.578    558.291
 12.970    570.000    567.661      2.339    558.513    567.368    558.513    558.801    558.513
 13.070    572.000    565.818      6.182    558.726    565.525    558.726    559.016    558.726
 13.170    527.991    564.692    -36.701    558.932    564.398    558.932    559.222    558.932
 13.270    583.909    563.941     19.967    559.129    563.647    559.129    559.420    559.129
 13.370    587.928    563.418     24.510    559.317    563.123    559.317    559.611    559.317
 13.470    537.356    563.047    -25.691    559.498    562.751    559.498    559.793    559.498
 13.570    547.000    562.784    -15.784    559.671    562.486    559.671    559.967    559.671
 13.670    538.000    562.601    -24.601    559.836    562.302    559.836    560.133    559.836
 13.770    566.629    562.473      4.156    559.993    562.173    559.993    560.292    559.993
 13.870    570.000    562.387      7.613    560.142    562.085    560.142    560.443    560.142
 13.970    524.000    562.332    -38.332    560.284    562.029    560.284    560.586    560.284
 14.070    548.000    562.301    -14.301    560.418    561.997    560.418    560.721    560.418
 14.170    565.000    562.287      2.713    560.545    561.982    560.545    560.849    560.545
 14.270    533.000    562.287    -29.287    560.664    561.980    560.664    560.970    560.664
 14.370    580.298    562.296     18.002    560.775    561.987    560.775    561.083    560.775
 14.470    537.000    562.311    -25.311    560.880    562.001    560.880    561.189    560.880
 14.570    525.813    562.331    -36.517    560.977    562.019    560.977    561.288    560.977
 14.670    553.000    562.353     -9.353    561.067    562.040    561.067    561.379    561.067
 14.770    555.000    562.378     -7.378    561.149    562.064    561.149    561.464    561.149
 14.870    552.000    562.402    -10.402    561.225    562.086    561.225    561.541    561.225
 14.970    550.778    562.424    -11.646    561.294    562.106    561.294    561.612    561.294
 15.070    535.000    562.445    -27.445    561.356    562.126    561.356    561.675    561.356
 15.170    559.000    562.464     -3.464    561.411    562.142    561.411    561.732    561.411
 15.270    574.000    562.479     11.521    561.459    562.157    561.459    561.782    561.459
 15.370    579.000    562.492     16.508    561.501    562.167    561.501    561.825    561.501
 15.470    534.000    562.501    -28.501    561.536    562.175    561.536    561.862    561.536
 15.570    575.715    562.506     13.209    561.564    562.178    561.564    561.892    561.564
 15.670    524.000    562.508    -38.508    561.586    562.178    561.586    561.916    561.586
 15.770    546.000    562.504    -16.504    561.602    562.173    561.602    561.933    561.602
 15.870    532.000    562.497    -30.497    561.611    562.163    561.611    561.944    561.611
 15.970    574.000    562.485     11.515    561.614    562.150    561.614    561.949    561.614
 16.070    570.000    562.469      7.531    561.611    562.132    561.611    561.948    561.611
 16.170    559.000    562.461     -3.461    561.601    562.122    561.601    561.940    561.601
 16.270    533.000    562.449    -29.449    561.586    562.108    561.586    561.927    561.586
 16.370    580.000    562.420     17.580    561.564    562.077    561.564    561.907    561.564
 16.470    538.925    562.387    -23.462    561.537    562.042    561.537    561.882    561.537
 16.570    569.000    562.381      6.619    561.503    562.033    561.503    561.850    561.503
 16.670    541.000    562.416    -21.416    561.464    562.067    561.464    561.813    561.464
 16.770    570.000    562.374      7.626    561.419    562.022    561.419    561.770    561.419
 16.870    549.000    562.320    -13.320    561.369    561.966    561.369    561.722    561.369
 16.970    564.680    562.264      2.416    561.312    561.908    561.312    561.668    561.312
 17.070    579.000    562.200     16.800    561.250    561.842    561.250    561.608    561.250
 17.170    561.000    562.130     -1.130    561.183    561.770    561.183    561.543    561.183
 17.270    556.000    562.056     -6.056    561.110    561.694    561.110    561.473    561.110
 17.370    536.000    561.977    -25.977    561.032    561.613    561.032    561.397    561.032
 17.470    496.000    561.894    -65.894    560.949    561.527    560.949    561.316    560.949
 17.570    523.010    561.805    -38.795    560.860    561.436    560.860    561.229    560.860
 17.670    528.758    561.712    -32.954    560.766    561.340    560.766    561.138    560.766
 17.770    553.000    561.614     -8.614    560.667    561.240    560.667    561.041    560.667
 17.870    587.000    561.512     25.488    560.563    561.136    560.563    560.939    560.563
 17.970    598.204    561.405     36.799    560.454    561.026    560.454    560.833    560.454
 18.070    570.722    561.294      9.428    560.340    560.912    560.340    560.721    560.340
 18.170    584.000    561.178     22.822    560.221    560.794    560.221    560.605    560.221
 18.270    590.000    561.058     28.942    560.097    560.671    560.097    560.484    560.097
 18.370    546.000    560.934    -14.934    559.968    560.544    559.968    560.358    559.968
 18.470    573.000    560.806     12.194    559.835    560.413    559.835    560.227    559.835
 18.570    520.235    560.679    -40.444    559.697    560.284    559.697    560.092    559.697
 18.670    519.051    560.543    -41.491    559.555    560.145    559.555    559.953    559.555
 18.770    600.523    560.402     40.121    559.407    560.001    559.407    559.808    559.407
 18.870    505.000    560.256    -55.256    559.256    559.853    559.256    559.660    559.256
 18.970    575.978    560.108     15.871    559.100    559.701    559.100    559.507    559.100
 19.070    519.000    559.957    -40.957    558.940    559.547    558.940    559.350    558.940
 19.170    540.000    559.802    -19.802    558.775    559.389    558.775    559.188    558.775
 19.270    542.498    559.642    -17.144    558.606    559.225    558.606    559.022    558.606
 19.370    567.598    559.477      8.121    558.433    559.058    558.433    558.853    558.433
 19.470    524.000    559.309    -35.309    558.256    558.887    558.256    558.679    558.256
 19.570    537.000    559.143    -22.143    558.074    558.717    558.074    558.501    558.074
 19.670    599.381    559.019     40.362    557.889    558.589    557.889    558.319    557.889
 19.770    527.000    558.859    -31.859    557.700    558.426    557.700    558.133    557.700
 19.870    534.000    558.679    -24.679    557.506    558.242    557.506    557.943    557.506
 19.970    527.000    558.494    -31.494    557.309    558.054    557.309    557.750    557.309
 20.070    569.000    558.306     10.694    557.108    557.862    557.108    557.553    557.108
 20.170    579.000    558.116     20.884    556.904    557.668    556.904    557.352    556.904
 20.270    506.000    557.922    -51.922    556.695    557.470    556.695    557.147    556.695
 20.370    516.000    557.727    -41.727    556.483    557.270    556.483    556.939    556.483
 20.470    548.000    557.528     -9.528    556.268    557.068    556.268    556.728    556.268
 20.570    551.000    557.326     -6.326    556.048    556.862    556.048    556.513    556.048
 20.670    534.000    557.121    -23.121    555.826    556.653    555.826    556.295    555.826
 20.770    543.000    556.916    -13.916    555.600    556.442    555.600    556.073    555.600
 20.870    595.453    556.717     38.737    555.370    556.239    555.370    555.848    555.370
 20.970    589.000    556.507     32.493    555.137    556.025    555.137    555.620    555.137
 21.070    522.479    556.295    -33.816    554.901    555.808    554.901    555.388    554.901
 21.170    553.000    556.097     -3.097    554.662    555.605    554.662    555.154    554.662
 21.270    584.946    555.899     29.047    554.419    555.402    554.419    554.916    554.419
 21.370    564.000    555.715      8.285    554.173    555.212    554.173    554.676    554.173
 21.470    546.000    555.512     -9.512    553.924    555.004    553.924    554.432    553.924
 21.570    537.000    555.292    -18.292    553.673    554.779    553.673    554.186    553.673
 21.670    575.000    555.071     19.929    553.418    554.552    553.418    553.937    553.418
 21.770    553.000    554.849     -1.849    553.160    554.325    553.160    553.685    553.160
 21.870    537.037    554.628    -17.591    552.899    554.097    552.899    553.430    552.899
 21.970    528.000    554.406    -26.406    552.636    553.869    552.636    553.173    552.636
 22.070    528.000    554.185    -26.185    552.370    553.642    552.370    552.913    552.370
 22.170    526.000    553.965    -27.965    552.100    553.415    552.100    552.650    552.100
 22.270    509.000    553.747    -44.747    551.829    553.190    551.829    552.385    551.829
 22.370    518.496    553.533    -35.037    551.554    552.969    551.554    552.118    551.554
 22.470    533.000    553.337    -20.337    551.277    552.767    551.277    551.848    551.277
 22.570    544.000    553.140     -9.140    550.998    552.562    550.998    551.576    550.998
 22.670    557.000    552.941      4.059    550.716    552.355    550.716    551.301    550.716
 22.770    518.674    552.748    -34.075    550.431    552.155    550.431    551.025    550.431
 22.870    571.000    552.602     18.398    550.144    552.001    550.144    550.746    550.144
 22.970    572.000    552.479     19.521    549.855    551.870    549.855    550.465    549.855
 23.070    549.000    552.334     -3.334    549.563    551.715    549.563    550.182    549.563
 23.170    554.000    552.192      1.808    549.269    551.564    549.269    549.897    549.269
 23.270    531.000    552.076    -21.076    548.973    551.439    548.973    549.611    548.973
 23.370    538.729    552.017    -13.288    548.674    551.370    548.674    549.322    548.674
 23.470    573.000    551.967     21.033    548.374    551.310    548.374    549.032    548.374
 23.570    594.000    551.970     42.030    548.071    551.303    548.071    548.740    548.071
 23.670    558.000    552.041      5.959    547.766    551.363    547.766    548.446    547.766
 23.770    587.000    552.189     34.811    547.460    551.500    547.460    548.151    547.460
 23.870    564.000    552.461     11.539    547.151    551.760    547.151    547.854    547.151
 23.970    600.000    552.921     47.079    546.840    552.208    546.840    547.556    546.840
 24.070    558.223    553.711      4.512    546.528    552.986    546.528    547.257    546.528
 24.170    578.665    555.150     23.516    546.213    554.412    546.213    546.956    546.213
 24.270    528.854    557.914    -29.060    545.897    557.164    545.897    546.654    545.897
 24.370    577.000    563.226     13.774    545.579    562.465    545.579    546.351    545.579
 24.470    543.634    572.691    -29.056    545.259    571.921    545.259    546.047    545.259
 24.570    598.000    587.442     10.558    544.938    586.667    544.938    545.742    544.938
 24.670    618.000    606.410     11.590    544.615    605.631    544.615    545.436    544.615
 24.770    605.000    624.102    -19.102    544.290    623.318    544.290    545.129    544.290
 24.870    623.000    630.696     -7.696    543.964    629.898    543.964    544.822    543.964
 24.970    609.376    620.838    -11.462    543.636    620.014    543.636    544.515    543.636
 25.070    601.155    601.559     -0.404    543.307    600.699    543.307    544.207    543.307
 25.170    547.617    582.509    -34.893    542.976    581.614    542.976    543.898    542.976
 25.270    538.915    568.236    -29.321    542.644    567.307    542.644    543.590    542.644
 25.370    569.000    559.187      9.813    542.311    558.227    542.311    543.281    542.311
 25.470    573.604    554.001     19.604    541.976    553.010    541.976    542.973    541.976
 25.570    548.702    551.086     -2.384    541.640    550.066    541.640    542.665    541.640
 25.670    561.000    549.328     11.672    541.303    548.277    541.303    542.357    541.303
 25.770    562.974    548.135     14.839    540.964    547.052    540.964    542.050    540.964
 25.870    557.000    547.241      9.759    540.624    546.124    540.624    541.744    540.624
 25.970    584.895    546.531     38.364    540.284    545.377    540.284    541.439    540.284
 26.070    559.498    545.951     13.547    539.942    544.758    539.942    541.136    539.942
 26.170    569.000    545.468     23.532    539.599    544.235    539.599    540.834    539.599
 26.270    549.000    545.066      3.934    539.254    543.789    539.254    540.533    539.254
 26.370    502.277    544.733    -42.456    538.909    543.408    538.909    540.236    538.909
 26.470    586.007    544.462     41.546    538.563    543.086    538.563    539.940    538.563
 26.570    554.000    544.250      9.750    538.216    542.820    538.216    539.648    538.216
 26.670    578.949    544.100     34.849    537.869    542.610    537.869    539.359    537.869
 26.770    582.000    544.015     37.985    537.520    542.462    537.520    539.074    537.520
 26.870    571.000    544.006     26.994    537.170    542.383    537.170    538.793    537.170
 26.970    586.000    544.082     41.918    536.820    542.385    536.820    538.518    536.820
 27.070    536.929    544.264     -7.335    536.469    542.486    536.469    538.248    536.469
 27.170    585.000    544.581     40.419    536.117    542.714    536.117    537.984    536.117
 27.270    533.951    545.074    -11.123    535.765    543.111    535.765    537.728    535.765
 27.370    556.000    545.808     10.192    535.412    543.740    535.412    537.479    535.412
 27.470    571.000    546.900     24.100    535.058    544.718    535.058    537.240    535.058
 27.570    560.187    548.649     11.538    534.704    546.342    534.704    537.010    534.704
 27.670    591.551    552.096     39.455    534.349    549.651    534.349    536.792    534.349
 27.770    578.000    560.724     17.276    533.994    558.127    533.994    536.586    533.994
 27.870    592.000    583.499      8.501    533.638    580.729    533.638    536.393    533.638
 27.970    673.000    635.464     37.536    533.282    632.498    533.282    536.216    533.282
 28.070    714.028    727.275    -13.247    532.925    724.086    532.925    536.054    532.925
 28.170    839.000    842.536     -3.536    532.568    839.109    532.568    535.910    532.568
 28.270    913.569    925.934    -12.365    532.211    922.273    532.211    535.785    532.211
 28.370    861.000    921.360    -60.360    531.853    917.472    531.853    535.679    531.853
 28.470    826.000    839.052    -13.052    531.495    834.923    531.495    535.594    531.495
 28.570    778.000    746.619     31.381    531.137    742.214    531.137    535.528    531.137
 28.670    736.217    701.903     34.314    530.778    697.187    530.778    535.481    530.778
 28.770    701.415    718.953    -17.539    530.420    713.903    530.420    535.452    530.420
 28.870    776.883    772.863      4.020    530.061    767.468    530.061    535.436    530.061
 28.970    866.875    815.858     51.017    529.702    810.120    529.702    535.428    529.702
 29.070    850.911    806.846     44.066    529.343    800.771    529.343    535.420    529.343
 29.170    708.209    747.779    -39.570    528.984    741.373    528.984    535.403    528.984
 29.270    708.000    673.796     34.204    528.624    667.072    528.624    535.363    528.624
 29.370    624.000    614.416      9.584    528.265    607.404    528.265    535.288    528.265
 29.470    613.000    578.241     34.759    527.906    570.991    527.906    535.162    527.906
 29.570    581.000    560.131     20.869    527.547    552.707    527.547    534.973    527.547
 29.670    591.000    551.907     39.093    527.187    544.386    527.187    534.711    527.187
 29.770    576.985    547.945     29.040    526.828    540.405    526.828    534.368    526.828
 29.870    561.000    545.618     15.382    526.469    538.143    526.469    533.945    526.469
 29.970    565.060    543.982     21.078    526.111    536.647    526.111    533.446    526.111
 30.070    560.000    542.743     17.257    525.752    535.616    525.752    532.879    525.752
 30.170    594.000    541.839     52.161    525.393    534.974    525.393    532.258    525.393
 30.270    558.000    541.360     16.640    525.035    534.797    525.035    531.597    525.035
 30.370    617.000    541.657     75.343    524.677    535.422    524.677    530.909    524.677
