neutron_powder_diffraction_0190
R_wp: 4.134
Temperature (K): 1074.000
Counts: 83544.00
Wavelength (Ã…): 2.52098
COMMENTS
Test file for demonstrating the .xyy file format in Reel1.0
END OF HEADER
   tth       Y_obs     Y_calc      Y_res    Background    Phase_1_Nuc    Phase_1_Mag    Phase_2_Nuc    Phase_2_Mag
  9.970    614.456    572.770     41.687    572.160    572.728    572.160    572.201    572.160
 10.070    601.000    572.822     28.178    572.164    572.780    572.164    572.205    572.164
 10.170    541.206    572.876    -31.670    572.163    572.834    572.163    572.204    572.163
 10.270    551.586    572.933    -21.348    572.156    572.891    572.156    572.198    572.156
 10.370    557.149    572.996    -15.847    572.145    572.954    572.145    572.187    572.145
 10.470    648.000    573.066     74.934    572.129    573.024    572.129    572.171    572.129
 10.570    561.000    573.152    -12.152    572.108    573.105    572.108    572.155    572.108
 10.670    536.791    573.249    -36.458    572.082    573.200    572.082    572.130    572.082
 10.770    557.000    573.366    -16.366    572.051    573.317    572.051    572.099    572.051
 10.870    603.241    573.510     29.730    572.015    573.461    572.015    572.064    572.015
 10.970    607.002    573.693     33.309    571.975    573.644    571.975    572.023    571.975
 11.070    623.000    573.930     49.070    571.930    573.880    571.930    571.979    571.930
 11.170    580.000    574.243      5.757    571.880    574.192    571.880    571.929    571.880
 11.270    629.000    574.664     54.336    571.826    574.613    571.826    571.875    571.826
 11.370    601.338    575.252     26.086    571.767    575.200    571.767    571.817    571.767
 11.470    611.299    576.126     35.174    571.704    576.074    571.704    571.754    571.704
 11.570    626.000    577.633     48.367    571.636    577.579    571.636    571.686    571.636
 11.670    624.000    580.859     43.141    571.564    580.803    571.564    571.614    571.564
 11.770    624.000    588.628     35.372    571.488    588.569    571.488    571.538    571.488
 11.870    630.483    606.029     24.454    571.407    605.959    571.407    571.458    571.407
 11.970    671.272    637.659     33.613    571.322    637.571    571.322    571.374    571.322
 12.070    681.757    679.926      1.831    571.233    679.813    571.233    571.287    571.233
 12.170    759.913    713.782     46.130    571.140    713.649    571.140    571.195    571.140
 12.270    693.000    714.802    -21.802    571.042    714.668    571.042    571.098    571.042
 12.370    653.000    681.952    -28.952    570.941    681.835    570.941    570.997    570.941
 12.470    631.000    639.238     -8.238    570.835    639.144    570.835    570.892    570.835
 12.570    599.000    606.610     -7.610    570.726    606.533    570.726    570.783    570.726
 12.670    584.933    588.356     -3.423    570.612    588.289    570.612    570.670    570.612
 12.770    556.260    580.051    -23.791    570.495    579.988    570.495    570.553    570.495
 12.870    580.000    576.501      3.499    570.374    576.439    570.374    570.432    570.374
 12.970    610.859    574.757     36.103    570.249    574.696    570.249    570.308    570.249
 13.070    628.000    573.674     54.326    570.121    573.613    570.121    570.180    570.121
 13.170    578.000    572.887      5.113    569.988    572.827    569.988    570.048    569.988
 13.270    530.000    572.271    -42.271    569.853    572.210    569.853    569.912    569.853
 13.370    590.000    571.767     18.233    569.713    571.706    569.713    569.773    569.713
 13.470    584.000    571.341     12.659    569.570    571.281    569.570    569.630    569.570
 13.570    578.000    570.971      7.029    569.423    570.910    569.423    569.484    569.423
 13.670    536.614    570.642    -34.028    569.273    570.581    569.273    569.334    569.273
 13.770    546.931    570.342    -23.411    569.120    570.281    569.120    569.180    569.120
 13.870    555.048    570.065    -15.017    568.963    570.003    568.963    569.024    568.963
 13.970    523.000    569.804    -46.804    568.802    569.742    568.802    568.864    568.802
 14.070    519.685    569.556    -49.871    568.639    569.493    568.639    568.701    568.639
 14.170    541.269    569.317    -28.048    568.472    569.254    568.472    568.534    568.472
 14.270    577.739    569.086      8.653    568.302    569.023    568.302    568.364    568.302
 14.370    530.919    568.860    -37.941    568.128    568.796    568.128    568.191    568.128
 14.470    535.000    568.637    -33.637    567.952    568.574    567.952    568.015    567.952
 14.570    580.000    568.419     11.581    567.773    568.354    567.773    567.836    567.773
 14.670    530.000    568.203    -38.203    567.590    568.137    567.590    567.655    567.590
 14.770    562.794    567.990     -5.196    567.404    567.924    567.404    567.470    567.404
 14.870    546.000    567.776    -21.776    567.216    567.709    567.216    567.282    567.216
 14.970    534.218    567.561    -33.343    567.024    567.494    567.024    567.091    567.024
 15.070    558.000    567.345     -9.345    566.830    567.278    566.830    566.897    566.830
 15.170    524.116    567.129    -43.014    566.633    567.062    566.633    566.700    566.633
 15.270    556.000    566.913    -10.913    566.432    566.845    566.432    566.500    566.432
 15.370    556.000    566.695    -10.695    566.230    566.627    566.230    566.298    566.230
 15.470    534.000    566.476    -32.476    566.024    566.408    566.024    566.092    566.024
 15.570    561.000    566.256     -5.256    565.816    566.187    565.816    565.884    565.816
 15.670    601.426    566.035     35.391    565.605    565.965    565.605    565.674    565.605
 15.770    559.000    565.812     -6.812    565.391    565.742    565.391    565.461    565.391
 15.870    528.000    565.587    -37.587    565.175    565.517    565.175    565.245    565.175
 15.970    578.000    565.361     12.639    564.956    565.291    564.956    565.027    564.956
 16.070    543.000    565.133    -22.133    564.735    565.062    564.735    564.806    564.735
 16.170    540.133    564.904    -24.771    564.511    564.832    564.511    564.583    564.511
 16.270    530.000    564.673    -34.673    564.285    564.601    564.285    564.357    564.285
 16.370    602.153    564.440     37.712    564.056    564.368    564.056    564.129    564.056
 16.470    535.616    564.207    -28.591    563.826    564.135    563.826    563.898    563.826
 16.570    547.000    563.971    -16.971    563.592    563.898    563.592    563.666    563.592
 16.670    568.381    563.733      4.648    563.357    563.659    563.357    563.430    563.357
 16.770    589.289    563.492     25.796    563.119    563.418    563.119    563.193    563.119
 16.870    561.000    563.251     -2.251    562.879    563.176    562.879    562.954    562.879
 16.970    549.000    563.007    -14.007    562.637    562.932    562.637    562.712    562.637
 17.070    611.775    562.761     49.014    562.393    562.686    562.393    562.468    562.393
 17.170    537.000    562.515    -25.515    562.146    562.438    562.146    562.223    562.146
 17.270    582.000    562.270     19.730    561.898    562.189    561.898    561.979    561.898
 17.370    581.418    562.021     19.397    561.647    561.938    561.647    561.731    561.647
 17.470    554.000    561.769     -7.769    561.395    561.685    561.395    561.479    561.395
 17.570    532.338    561.517    -29.179    561.141    561.433    561.141    561.225    561.141
 17.670    577.000    561.262     15.738    560.884    561.177    560.884    560.969    560.884
 17.770    590.975    561.005     29.970    560.626    560.920    560.626    560.711    560.626
 17.870    595.000    560.747     34.253    560.366    560.661    560.366    560.452    560.366
 17.970    591.300    560.487     30.813    560.104    560.400    560.104    560.190    560.104
 18.070    559.000    560.225     -1.225    559.840    560.138    559.840    559.927    559.840
 18.170    566.000    559.962      6.038    559.575    559.874    559.575    559.663    559.575
 18.270    577.000    559.697     17.303    559.308    559.609    559.308    559.396    559.308
 18.370    569.000    559.431      9.569    559.039    559.342    559.039    559.128    559.039
 18.470    574.000    559.164     14.836    558.768    559.074    558.768    558.858    558.768
 18.570    541.000    558.895    -17.895    558.496    558.804    558.496    558.586    558.496
 18.670    582.877    558.624     24.253    558.222    558.533    558.222    558.313    558.222
 18.770    515.000    558.353    -43.353    557.947    558.261    557.947    558.039    557.947
 18.870    572.813    558.080     14.733    557.670    557.988    557.670    557.762    557.670
 18.970    572.494    557.807     14.687    557.392    557.714    557.392    557.485    557.392
 19.070    537.000    557.532    -20.532    557.112    557.438    557.112    557.206    557.112
 19.170    543.000    557.256    -14.256    556.831    557.161    556.831    556.925    556.831
 19.270    602.622    556.979     45.644    556.548    556.883    556.548    556.643    556.548
 19.370    549.000    556.700     -7.700    556.264    556.604    556.264    556.360    556.264
 19.470    523.000    556.421    -33.421    555.979    556.324    555.979    556.076    555.979
 19.570    590.000    556.141     33.859    555.692    556.043    555.692    555.790    555.692
 19.670    580.000    555.859     24.141    555.404    555.761    555.404    555.503    555.404
 19.770    579.583    555.577     24.006    555.115    555.478    555.115    555.214    555.115
 19.870    524.000    555.294    -31.294    554.825    555.194    554.825    554.925    554.825
 19.970    557.379    555.010      2.369    554.533    554.909    554.533    554.634    554.533
 20.070    520.859    554.726    -33.867    554.240    554.624    554.240    554.343    554.240
 20.170    537.000    554.442    -17.442    553.947    554.339    553.947    554.050    553.947
 20.270    572.000    554.169     17.831    553.652    554.065    553.652    553.756    553.652
 20.370    530.887    553.894    -23.006    553.356    553.789    553.356    553.461    553.356
 20.470    539.629    553.609    -13.980    553.059    553.503    553.059    553.165    553.059
 20.570    572.290    553.322     18.968    552.761    553.215    552.761    552.868    552.761
 20.670    577.000    553.034     23.966    552.462    552.926    552.462    552.570    552.462
 20.770    592.309    552.746     39.563    552.162    552.637    552.162    552.271    552.162
 20.870    539.000    552.458    -13.458    551.861    552.348    551.861    551.971    551.861
 20.970    543.000    552.170     -9.170    551.560    552.059    551.560    551.671    551.560
 21.070    557.000    551.882      5.118    551.257    551.769    551.257    551.369    551.257
 21.170    590.568    551.593     38.975    550.954    551.480    550.954    551.067    550.954
 21.270    496.000    551.307    -55.307    550.649    551.192    550.649    550.764    550.649
 21.370    540.000    551.043    -11.043    550.344    550.927    550.344    550.460    550.344
 21.470    536.000    550.786    -14.786    550.039    550.669    550.039    550.156    550.039
 21.570    579.362    550.513     28.849    549.732    550.392    549.732    549.853    549.732
 21.670    537.598    550.317    -12.719    549.425    550.194    549.425    549.548    549.425
 21.770    576.113    550.055     26.058    549.117    549.931    549.117    549.242    549.117
 21.870    574.707    549.773     24.935    548.809    549.647    548.809    548.935    548.809
 21.970    558.000    549.491      8.509    548.500    549.363    548.500    548.627    548.500
 22.070    535.000    549.210    -14.210    548.190    549.081    548.190    548.319    548.190
 22.170    571.000    548.931     22.069    547.880    548.801    547.880    548.010    547.880
 22.270    544.000    548.655     -4.655    547.569    548.522    547.569    547.701    547.569
 22.370    529.000    548.385    -19.385    547.258    548.251    547.258    547.392    547.258
 22.470    561.258    548.161     13.098    546.946    548.025    546.946    547.082    546.946
 22.570    505.020    547.913    -42.893    546.634    547.776    546.634    546.772    546.634
 22.670    529.000    547.653    -18.653    546.321    547.513    546.321    546.461    546.321
 22.770    585.839    547.397     38.443    546.008    547.255    546.008    546.150    546.008
 22.870    513.000    547.149    -34.149    545.695    547.006    545.695    545.838    545.695
 22.970    584.000    546.911     37.089    545.381    546.766    545.381    545.527    545.381
 23.070    537.000    546.680     -9.680    545.067    546.532    545.067    545.215    545.067
 23.170    566.192    546.460     19.732    544.753    546.311    544.753    544.903    544.753
 23.270    536.000    546.257    -10.257    544.438    546.104    544.438    544.591    544.438
 23.370    554.000    546.072      7.928    544.123    545.918    544.123    544.278    544.123
 23.470    548.000    545.914      2.086    543.808    545.757    543.808    543.966    543.808
 23.570    555.000    545.789      9.211    543.492    545.629    543.492    543.653    543.492
 23.670    562.000    545.708     16.292    543.177    545.546    543.177    543.340    543.177
 23.770    575.000    545.691     29.309    542.861    545.526    542.861    543.027    542.861
 23.870    565.000    545.763     19.237    542.545    545.595    542.545    542.714    542.545
 23.970    531.000    545.967    -14.967    542.229    545.796    542.229    542.402    542.229
 24.070    567.000    546.414     20.586    541.913    546.240    541.913    542.089    541.913
 24.170    543.000    547.429     -4.429    541.597    547.253    541.597    541.776    541.597
 24.270    543.470    549.966     -6.496    541.281    549.788    541.281    541.464    541.281
 24.370    565.000    556.230      8.770    540.964    556.053    540.964    541.152    540.964
 24.470    542.270    569.589    -27.319    540.648    569.418    540.648    540.839    540.648
 24.570    605.000    592.088     12.912    540.332    591.929    540.332    540.528    540.332
 24.670    608.000    619.443    -11.443    540.016    619.300    540.016    540.216    540.016
 24.770    638.000    637.790      0.210    539.700    637.656    539.700    539.905    539.700
 24.870    591.560    633.305    -41.745    539.384    633.163    539.384    539.594    539.384
 24.970    601.000    609.779     -8.779    539.068    609.615    539.068    539.283    539.068
 25.070    615.537    582.692     32.845    538.752    582.502    538.752    538.973    538.752
 25.170    610.283    562.676     47.607    538.436    562.465    538.436    538.663    538.436
 25.270    550.000    551.432     -1.432    538.121    551.206    538.121    538.354    538.121
 25.370    561.000    546.120     14.880    537.805    545.883    537.805    538.046    537.805
 25.470    521.000    543.688    -22.688    537.490    543.443    537.490    537.738    537.490
 25.570    559.000    542.402     16.598    537.175    542.148    537.175    537.431    537.175
 25.670    525.000    541.562    -16.562    536.861    541.299    536.861    537.125    536.861
 25.770    510.294    540.927    -30.633    536.546    540.655    536.546    536.820    536.546
 25.870    557.000    540.420     16.580    536.232    540.138    536.232    536.515    536.232
 25.970    506.872    540.006    -33.134    535.918    539.713    535.918    536.212    535.918
 26.070    535.134    539.665     -4.530    535.605    539.360    535.605    535.910    535.605
 26.170    547.000    539.384      7.616    535.292    539.067    535.292    535.609    535.292
 26.270    541.000    539.159      1.841    534.979    538.828    534.979    535.310    534.979
 26.370    564.000    538.987     25.013    534.667    538.642    534.667    535.012    534.667
 26.470    533.000    538.893     -5.893    534.355    538.532    534.355    534.716    534.355
 26.570    541.000    538.853      2.147    534.043    538.475    534.043    534.421    534.043
 26.670    524.649    538.854    -14.205    533.732    538.457    533.732    534.129    533.732
 26.770    562.000    538.927     23.073    533.422    538.509    533.422    533.839    533.422
 26.870    549.000    539.091      9.909    533.111    538.650    533.111    533.552    533.111
 26.970    526.000    539.366    -13.366    532.802    538.899    532.802    533.268    532.802
 27.070    503.118    539.785    -36.666    532.493    539.289    532.493    532.987    532.493
 27.170    529.000    540.392    -11.392    532.184    539.865    532.184    532.710    532.184
 27.270    523.212    541.258    -18.046    531.876    540.696    531.876    532.438    531.876
 27.370    502.083    542.504    -40.421    531.568    541.901    531.568    532.170    531.568
 27.470    607.000    544.316     62.684    531.262    543.668    531.262    531.908    531.262
 27.570    593.000    547.140     45.860    530.955    546.440    530.955    531.653    530.955
 27.670    588.000    552.620     35.380    530.650    551.858    530.650    531.407    530.650
 27.770    528.320    565.664    -37.344    530.345    564.831    530.345    531.170    530.345
 27.870    598.000    597.458      0.542    530.040    596.535    530.040    530.944    530.040
 27.970    674.000    663.687     10.313    529.736    662.653    529.736    530.733    529.736
 28.070    772.000    769.508      2.492    529.433    768.336    529.433    530.539    529.433
 28.170    882.000    885.478     -3.478    529.131    884.152    529.131    530.366    529.131
 28.270    916.754    942.773    -26.020    528.829    941.294    528.829    530.220    528.829
 28.370    910.000    895.633     14.367    528.529    893.996    528.529    530.109    528.529
 28.470    794.671    793.387      1.284    528.228    791.546    528.228    530.045    528.228
 28.570    725.000    713.620     11.380    527.929    711.492    527.929    530.045    527.929
 28.670    710.070    696.800     13.270    527.631    694.275    527.631    530.142    527.631
 28.770    653.000    739.665    -86.665    527.333    736.592    527.333    530.389    527.333
 28.870    807.000    805.070      1.930    527.036    801.216    527.036    530.879    527.036
 28.970    846.389    835.762     10.627    526.740    830.748    526.740    531.760    526.740
 29.070    853.032    797.235     55.797    526.444    790.463    526.444    533.231    526.444
 29.170    676.000    719.103    -43.103    526.150    709.742    526.150    535.525    526.150
 29.270    601.499    646.952    -45.453    525.856    633.988    525.856    538.829    525.856
 29.370    648.000    601.466     46.534    525.564    583.879    525.564    543.154    525.564
 29.470    615.000    580.596     34.404    525.272    557.788    525.272    548.080    525.272
 29.570    586.000    573.405     12.595    524.981    545.980    524.981    552.405    524.981
 29.670    592.000    570.097     21.903    524.691    540.548    524.691    554.238    524.691
 29.770    605.000    565.599     39.401    524.402    537.582    524.402    552.417    524.402
 29.870    603.000    559.363     43.637    524.114    535.650    524.114    547.825    524.114
 29.970    571.000    552.801     18.199    523.827    534.290    523.827    542.337    523.827
 30.070    600.000    547.098     52.902    523.541    533.347    523.541    537.290    523.541
 30.170    600.000    542.753     57.247    523.256    532.786    523.256    533.221    523.256
 30.270    551.000    539.926     11.074    522.971    532.716    522.971    530.178    522.971
 30.370    527.000    538.888    -11.888    522.688    533.576    522.688    527.997    522.688
