neutron_powder_diffraction_0102
R_wp: 3.785
Temperature (K): 899.456
Counts: 83990.00
Wavelength (Ã…): 2.52098
COMMENTS
Test file for demonstrating the .xyy file format in Reel1.0
END OF HEADER
   tth       Y_obs     Y_calc      Y_res    Background    Phase_1_Nuc    Phase_1_Mag    Phase_2_Nuc    Phase_2_Mag
  9.970    536.000    550.672    -14.672    549.415    550.408    549.415    549.678    549.415
 10.070    592.608    551.224     41.384    549.883    550.960    549.883    550.147    549.883
 10.170    583.848    551.778     32.070    550.339    551.512    550.339    550.604    550.339
 10.270    568.305    552.336     15.969    550.785    552.069    550.785    551.051    550.785
 10.370    600.000    552.901     47.099    551.221    552.633    551.221    551.488    551.221
 10.470    567.975    553.477     14.498    551.646    553.208    551.646    551.914    551.646
 10.570    558.525    554.069      4.456    552.061    553.799    552.061    552.330    552.061
 10.670    588.000    554.685     33.315    552.466    554.414    552.466    552.736    552.466
 10.770    566.466    555.336     11.130    552.860    555.063    552.860    553.132    552.860
 10.870    592.000    556.029     35.971    553.245    555.755    553.245    553.517    553.245
 10.970    600.415    556.781     43.634    553.619    556.506    553.619    553.893    553.619
 11.070    564.000    557.617      6.383    553.984    557.340    553.984    554.259    553.984
 11.170    512.474    558.570    -46.096    554.339    558.292    554.339    554.615    554.339
 11.270    593.000    559.693     33.307    554.684    559.413    554.684    554.961    554.684
 11.370    585.170    561.079     24.091    555.020    560.798    555.020    555.298    555.020
 11.470    593.000    562.923     30.077    555.346    562.639    555.346    555.625    555.346
 11.570    596.758    565.680     31.078    555.662    565.394    555.662    555.943    555.662
 11.670    563.000    570.376     -7.376    555.969    570.086    555.969    556.252    555.969
 11.770    604.000    578.936     25.064    556.267    578.640    556.267    556.551    556.267
 11.870    600.000    594.029      5.971    556.556    593.724    556.556    556.841    556.556
 11.970    583.856    617.647    -33.792    556.836    617.328    556.836    557.122    556.836
 12.070    698.000    648.075     49.925    557.106    647.738    557.106    557.393    557.106
 12.170    702.906    676.103     26.803    557.368    675.749    557.368    557.656    557.368
 12.270    735.492    685.820     49.672    557.620    685.460    557.620    557.910    557.620
 12.370    669.000    669.517     -0.517    557.864    669.164    557.864    558.155    557.864
 12.470    686.403    639.400     47.003    558.099    639.063    558.099    558.391    558.099
 12.570    587.000    610.811    -23.811    558.325    610.489    558.325    558.619    558.325
 12.670    595.000    590.364      4.636    558.543    590.052    558.543    558.838    558.543
 12.770    550.000    578.138    -28.138    558.753    577.831    558.753    559.049    558.753
 12.870    611.083    571.615     39.468    558.953    571.310    558.953    559.251    558.953
 12.970    587.000    568.241     18.759    559.146    567.937    559.146    559.445    559.146
 13.070    586.669    566.381     20.289    559.330    566.076    559.330    559.631    559.330
 13.170    531.118    565.235    -34.117    559.506    564.930    559.506    559.808    559.506
 13.270    525.000    564.463    -39.463    559.674    564.157    559.674    559.978    559.674
 13.370    546.870    563.918    -17.048    559.834    563.611    559.834    560.139    559.834
 13.470    537.000    563.524    -26.524    559.986    563.216    559.986    560.292    559.986
 13.570    521.644    563.236    -41.592    560.130    562.927    560.130    560.438    560.130
 13.670    530.613    563.025    -32.412    560.266    562.715    560.266    560.576    560.266
 13.770    559.000    562.871     -3.871    560.395    562.559    560.395    560.706    560.395
 13.870    538.000    562.759    -24.759    560.515    562.446    560.515    560.828    560.515
 13.970    606.454    562.679     43.775    560.629    562.364    560.629    560.943    560.629
 14.070    580.198    562.622     17.577    560.734    562.306    560.734    561.050    560.734
 14.170    549.000    562.582    -13.582    560.832    562.264    560.832    561.150    560.832
 14.270    590.000    562.555     27.445    560.923    562.236    560.923    561.242    560.923
 14.370    511.000    562.537    -51.537    561.007    562.216    561.007    561.327    561.007
 14.470    578.000    562.526     15.474    561.083    562.203    561.083    561.405    561.083
 14.570    539.000    562.519    -23.519    561.152    562.195    561.152    561.476    561.152
 14.670    558.000    562.514     -4.514    561.214    562.189    561.214    561.539    561.214
 14.770    557.000    562.511     -5.511    561.269    562.184    561.269    561.596    561.269
 14.870    566.000    562.508      3.492    561.317    562.179    561.317    561.646    561.317
 14.970    528.732    562.503    -33.771    561.358    562.173    561.358    561.689    561.358
 15.070    567.401    562.498      4.903    561.392    562.165    561.392    561.725    561.392
 15.170    516.748    562.490    -45.742    561.420    562.156    561.420    561.754    561.420
 15.270    506.000    562.481    -56.481    561.441    562.145    561.441    561.777    561.441
 15.370    580.977    562.467     18.510    561.455    562.129    561.455    561.793    561.455
 15.470    565.667    562.450      3.217    561.463    562.110    561.463    561.802    561.463
 15.570    544.998    562.428    -17.430    561.464    562.087    561.464    561.805    561.464
 15.670    546.141    562.403    -16.262    561.459    562.060    561.459    561.802    561.459
 15.770    594.872    562.374     32.498    561.448    562.029    561.448    561.793    561.448
 15.870    536.000    562.350    -26.350    561.430    562.003    561.430    561.777    561.430
 15.970    547.946    562.330    -14.384    561.406    561.981    561.406    561.755    561.406
 16.070    593.418    562.289     31.129    561.376    561.938    561.376    561.727    561.376
 16.170    562.356    562.242      0.115    561.340    561.889    561.340    561.693    561.340
 16.270    598.000    562.199     35.801    561.298    561.844    561.298    561.652    561.298
 16.370    551.000    562.238    -11.238    561.249    561.880    561.249    561.606    561.249
 16.470    583.000    562.204     20.796    561.195    561.845    561.195    561.555    561.195
 16.570    536.000    562.140    -26.140    561.136    561.779    561.136    561.497    561.136
 16.670    561.000    562.072     -1.072    561.070    561.709    561.070    561.433    561.070
 16.770    561.000    561.998     -0.998    560.999    561.633    560.999    561.364    560.999
 16.870    496.000    561.918    -65.918    560.922    561.550    560.922    561.290    560.922
 16.970    524.000    561.833    -37.833    560.840    561.463    560.840    561.210    560.840
 17.070    537.276    561.743    -24.466    560.752    561.370    560.752    561.124    560.752
 17.170    562.000    561.648      0.352    560.659    561.273    560.659    561.033    560.659
 17.270    520.000    561.548    -41.548    560.560    561.171    560.560    560.937    560.560
 17.370    516.000    561.444    -45.444    560.456    561.065    560.456    560.835    560.456
 17.470    513.000    561.335    -48.335    560.347    560.954    560.347    560.729    560.347
 17.570    562.896    561.222      1.674    560.232    560.838    560.232    560.617    560.232
 17.670    576.000    561.104     14.896    560.113    560.717    560.113    560.500    560.113
 17.770    533.697    560.981    -27.284    559.988    560.592    559.988    560.378    559.988
 17.870    547.000    560.854    -13.854    559.859    560.462    559.859    560.251    559.859
 17.970    537.000    560.722    -23.722    559.724    560.328    559.724    560.119    559.724
 18.070    545.000    560.587    -15.587    559.585    560.189    559.585    559.982    559.585
 18.170    514.000    560.446    -46.446    559.441    560.046    559.441    559.841    559.441
 18.270    556.596    560.302     -3.706    559.292    559.899    559.292    559.695    559.292
 18.370    515.948    560.158    -44.210    559.138    559.753    559.138    559.544    559.138
 18.470    571.569    560.007     11.562    558.980    559.599    558.980    559.388    558.980
 18.570    572.000    559.850     12.150    558.817    559.439    558.817    559.228    558.817
 18.670    515.775    559.691    -43.916    558.650    559.276    558.650    559.064    558.650
 18.770    554.000    559.528     -5.528    558.478    559.111    558.478    558.895    558.478
 18.870    522.000    559.360    -37.360    558.301    558.939    558.301    558.722    558.301
 18.970    584.550    559.191     25.360    558.121    558.767    558.121    558.545    558.121
 19.070    592.346    559.057     33.289    557.936    558.631    557.936    558.363    557.936
 19.170    581.000    558.905     22.095    557.747    558.475    557.747    558.177    557.747
 19.270    554.000    558.723     -4.723    557.553    558.290    557.553    557.987    557.553
 19.370    583.000    558.536     24.464    557.356    558.099    557.356    557.793    557.356
 19.470    524.220    558.345    -34.124    557.154    557.904    557.154    557.595    557.154
 19.570    538.000    558.150    -20.150    556.949    557.706    556.949    557.393    556.949
 19.670    553.000    557.952     -4.952    556.739    557.505    556.739    557.187    556.739
 19.770    563.474    557.751      5.723    556.526    557.300    556.526    556.977    556.526
 19.870    522.493    557.547    -35.053    556.309    557.092    556.309    556.764    556.309
 19.970    559.400    557.339      2.061    556.088    556.880    556.088    556.547    556.088
 20.070    593.248    557.128     36.119    555.863    556.666    555.863    556.326    555.863
 20.170    562.000    556.915      5.085    555.634    556.448    555.634    556.101    555.634
 20.270    561.000    556.698      4.302    555.402    556.227    555.402    555.873    555.402
 20.370    570.000    556.479     13.521    555.167    556.004    555.167    555.642    555.167
 20.470    516.000    556.264    -40.264    554.927    555.785    554.927    555.407    554.927
 20.570    522.000    556.048    -34.048    554.685    555.564    554.685    555.169    554.685
 20.670    582.827    555.854     26.973    554.439    555.366    554.439    554.927    554.439
 20.770    517.000    555.655    -38.655    554.189    555.162    554.189    554.682    554.189
 20.870    535.000    555.435    -20.435    553.936    554.937    553.936    554.434    553.936
 20.970    550.000    555.220     -5.220    553.680    554.717    553.680    554.183    553.680
 21.070    555.130    554.987      0.143    553.421    554.480    553.421    553.929    553.421
 21.170    571.000    554.752     16.248    553.158    554.239    553.158    553.671    553.158
 21.270    555.000    554.513      0.487    552.893    553.995    552.893    553.411    552.893
 21.370    527.540    554.273    -26.733    552.624    553.750    552.624    553.148    552.624
 21.470    536.000    554.032    -18.032    552.353    553.503    552.353    552.882    552.353
 21.570    527.235    553.790    -26.555    552.078    553.256    552.078    552.613    552.078
 21.670    513.118    553.547    -40.430    551.800    553.007    551.800    552.341    551.800
 21.770    564.228    553.304     10.924    551.520    552.757    551.520    552.067    551.520
 21.870    581.794    553.062     28.732    551.237    552.509    551.237    551.790    551.237
 21.970    555.256    552.834      2.422    550.951    552.274    550.951    551.510    550.951
 22.070    554.000    552.608      1.392    550.662    552.042    550.662    551.228    550.662
 22.170    528.000    552.370    -24.370    550.370    551.798    550.370    550.943    550.370
 22.270    571.000    552.150     18.850    550.076    551.570    550.076    550.656    550.076
 22.370    570.000    551.934     18.066    549.779    551.347    549.779    550.367    549.779
 22.470    531.489    551.750    -20.261    549.480    551.156    549.480    550.075    549.480
 22.570    508.835    551.530    -42.695    549.179    550.928    549.179    549.781    549.179
 22.670    576.713    551.325     25.388    548.874    550.715    548.874    549.485    548.874
 22.770    561.572    551.113     10.459    548.568    550.495    548.568    549.186    548.568
 22.870    547.000    550.934     -3.934    548.259    550.307    548.259    548.886    548.259
 22.970    519.705    550.759    -31.054    547.948    550.123    547.948    548.584    547.948
 23.070    579.593    550.583     29.010    547.634    549.939    547.634    548.279    547.634
 23.170    507.435    550.417    -42.981    547.319    549.763    547.319    547.973    547.319
 23.270    554.000    550.272      3.728    547.001    549.609    547.001    547.665    547.001
 23.370    496.000    550.170    -54.170    546.681    549.496    546.681    547.355    546.681
 23.470    553.000    550.093      2.907    546.359    549.409    546.359    547.044    546.359
 23.570    535.000    550.057    -15.057    546.034    549.362    546.034    546.731    546.034
 23.670    540.000    550.085    -10.085    545.708    549.379    545.708    546.416    545.708
 23.770    549.000    550.196     -1.196    545.380    549.478    545.380    546.100    545.380
 23.870    542.437    550.423     -7.986    545.050    549.693    545.050    545.782    545.050
 23.970    530.000    550.826    -20.826    544.718    550.083    544.718    545.463    544.718
 24.070    589.957    551.529     38.428    544.385    550.774    544.385    545.143    544.385
 24.170    569.028    552.811     16.217    544.049    552.043    544.049    544.822    544.049
 24.270    549.000    555.308     -6.308    543.712    554.527    543.712    544.499    543.712
 24.370    595.397    560.237     35.160    543.373    559.445    543.373    544.176    543.373
 24.470    587.000    569.337     17.663    543.032    568.535    543.032    543.852    543.032
 24.570    597.484    584.043     13.440    542.690    583.235    542.690    543.526    542.690
 24.670    605.000    603.693      1.307    542.346    602.882    542.346    543.200    542.346
 24.770    633.000    623.021      9.979    542.001    622.205    542.001    542.873    542.001
 24.870    641.000    631.399      9.601    541.654    630.570    541.654    542.546    541.654
 24.970    622.000    621.993      0.007    541.306    621.137    541.306    542.219    541.306
 25.070    628.000    601.935     26.065    540.956    601.042    540.956    541.891    540.956
 25.170    608.127    581.819     26.308    540.605    580.890    540.605    541.562    540.605
 25.270    568.000    566.747      1.253    540.252    565.783    540.252    541.234    540.252
 25.370    633.000    557.271     75.729    539.899    556.274    539.899    540.906    539.899
 25.470    535.000    551.916    -16.916    539.544    550.889    539.544    540.578    539.544
 25.570    590.934    548.953     41.981    539.187    547.895    539.187    540.250    539.187
 25.670    539.000    547.185     -8.185    538.830    546.095    538.830    539.923    538.830
 25.770    560.000    545.990     14.010    538.471    544.868    538.471    539.597    538.471
 25.870    546.810    545.098      1.711    538.112    543.941    538.112    539.271    538.112
 25.970    551.000    544.393      6.607    537.751    543.199    537.751    538.947    537.751
 26.070    548.746    543.820      4.926    537.389    542.587    537.389    538.624    537.389
 26.170    561.000    543.349     17.651    537.026    542.074    537.026    538.303    537.026
 26.270    575.971    542.962     33.009    536.662    541.642    536.662    537.983    536.662
 26.370    498.749    542.649    -43.900    536.298    541.281    536.298    537.666    536.298
 26.470    553.263    542.403     10.860    535.932    540.985    535.932    537.351    535.932
 26.570    548.423    542.223      6.200    535.566    540.750    535.566    537.039    535.566
 26.670    578.000    542.112     35.888    535.198    540.579    535.198    536.731    535.198
 26.770    575.000    542.076     32.924    534.830    540.480    534.830    536.426    534.830
 26.870    499.901    542.126    -42.224    534.461    540.462    534.461    536.126    534.461
 26.970    564.000    542.279     21.721    534.092    540.541    534.092    535.830    534.092
 27.070    584.000    542.558     41.442    533.721    540.740    533.721    535.539    533.721
 27.170    573.739    543.000     30.739    533.351    541.095    533.351    535.255    533.351
 27.270    584.000    543.654     40.346    532.979    541.656    532.979    534.977    532.979
 27.370    566.408    544.599     21.808    532.607    542.500    532.607    534.706    532.607
 27.470    544.749    545.980     -1.231    532.234    543.770    532.234    534.443    532.234
 27.570    589.000    548.148     40.852    531.861    545.818    531.861    534.189    531.861
 27.670    566.147    552.233     13.913    531.487    549.772    531.487    533.945    531.487
 27.770    551.771    561.737     -9.967    531.113    559.132    531.113    533.712    531.113
 27.870    576.000    585.123     -9.123    530.739    582.356    530.739    533.490    530.739
 27.970    629.000    636.014     -7.014    530.364    633.065    530.364    533.281    530.364
 28.070    715.000    723.980     -8.980    529.989    720.825    529.989    533.085    529.989
 28.170    843.000    834.951      8.049    529.613    831.579    529.613    532.903    529.613
 28.270    975.000    919.162     55.838    529.237    915.579    529.237    532.737    529.237
 28.370    908.000    922.036    -14.036    528.861    918.252    528.861    532.585    528.861
 28.470    837.000    847.717    -10.717    528.485    843.720    528.485    532.449    528.485
 28.570    773.000    758.429     14.571    528.108    754.193    528.108    532.327    528.108
 28.670    692.000    710.948    -18.948    527.731    706.447    527.731    532.219    527.731
 28.770    727.000    721.885      5.115    527.355    717.101    527.355    532.122    527.355
 28.870    795.000    770.534     24.466    526.978    765.460    526.978    532.032    526.978
 28.970    787.237    812.703    -25.466    526.600    807.347    526.600    531.946    526.600
 29.070    796.000    807.330    -11.330    526.223    801.702    526.223    531.856    526.223
 29.170    773.000    752.226     20.774    525.846    746.331    525.846    531.755    525.846
 29.270    705.000    679.770     25.230    525.469    673.620    525.469    531.633    525.469
 29.370    624.000    619.403      4.597    525.092    613.024    525.092    531.482    525.092
 29.470    583.000    581.000      2.000    524.715    574.431    524.715    531.290    524.715
 29.570    599.000    560.785     38.215    524.338    554.076    524.338    531.050    524.338
 29.670    574.000    551.157     22.843    523.961    544.366    523.961    530.753    523.961
 29.770    555.000    546.399      8.601    523.585    539.588    523.585    530.396    523.585
 29.870    547.378    543.633      3.745    523.208    536.865    523.208    529.977    523.208
 29.970    597.000    541.742     55.258    522.832    535.074    522.832    529.499    522.832
 30.070    521.251    540.352    -19.100    522.456    533.839    522.456    528.969    522.456
 30.170    583.000    539.367     43.633    522.080    533.053    522.080    528.393    522.080
 30.270    564.785    538.861     25.924    521.704    532.781    521.704    527.783    521.704
 30.370    604.000    539.160     64.840    521.329    533.340    521.329    527.147    521.329
