neutron_powder_diffraction_0123
R_wp: 3.894
Temperature (K): 1001.772
Counts: 83915.00
Wavelength (Ã…): 2.52098
COMMENTS
Test file for demonstrating the .xyy file format in Reel1.0
END OF HEADER
   tth       Y_obs     Y_calc      Y_res    Background    Phase_1_Nuc    Phase_1_Mag    Phase_2_Nuc    Phase_2_Mag
  9.970    561.000    563.853     -2.853    562.845    563.744    562.845    562.954    562.845
 10.070    595.000    564.130     30.870    563.044    564.020    563.044    563.153    563.044
 10.170    572.000    564.411      7.589    563.235    564.300    563.235    563.345    563.235
 10.270    584.413    564.698     19.715    563.419    564.587    563.419    563.529    563.419
 10.370    596.820    564.994     31.826    563.596    564.882    563.596    563.706    563.596
 10.470    570.000    565.303      4.697    563.765    565.191    563.765    563.877    563.765
 10.570    594.834    565.630     29.204    563.928    565.518    563.928    564.040    563.928
 10.670    545.000    565.982    -20.982    564.083    565.869    564.083    564.195    564.083
 10.770    580.000    566.367     13.633    564.232    566.253    564.232    564.344    564.232
 10.870    582.000    566.797     15.203    564.374    566.682    564.374    564.487    564.374
 10.970    540.355    567.287    -26.932    564.508    567.172    564.508    564.622    564.508
 11.070    592.000    567.861     24.139    564.636    567.745    564.636    564.750    564.636
 11.170    590.000    568.552     21.448    564.758    568.436    564.758    564.872    564.758
 11.270    554.349    569.414    -15.064    564.873    569.296    564.873    564.988    564.873
 11.370    568.526    570.541     -2.015    564.981    570.423    564.981    565.096    564.981
 11.470    610.000    572.139     37.861    565.082    572.020    565.082    565.198    565.082
 11.570    618.000    574.721     43.279    565.177    574.600    565.177    565.294    565.177
 11.670    593.000    579.484     13.516    565.266    579.359    565.266    565.383    565.266
 11.770    620.000    588.704     31.296    565.349    588.573    565.349    565.466    565.349
 11.870    634.954    605.459     29.496    565.425    605.318    565.425    565.543    565.425
 11.970    610.000    631.677    -21.677    565.495    631.522    565.495    565.613    565.495
 12.070    645.000    664.221    -19.221    565.559    664.046    565.559    565.678    565.559
 12.170    694.000    690.950      3.050    565.616    690.759    565.616    565.736    565.616
 12.270    734.000    695.230     38.770    565.668    695.037    565.668    565.788    565.668
 12.370    636.000    673.511    -37.511    565.714    673.329    565.714    565.834    565.714
 12.470    637.000    640.802     -3.802    565.753    640.639    565.753    565.875    565.753
 12.570    593.000    612.110    -19.110    565.787    611.962    565.787    565.909    565.787
 12.670    586.000    592.837     -6.837    565.816    592.699    565.816    565.938    565.816
 12.770    562.000    581.958    -19.958    565.838    581.826    565.838    565.961    565.838
 12.870    562.000    576.379    -14.379    565.855    576.250    565.855    565.978    565.855
 12.970    550.000    573.487    -23.487    565.866    573.359    565.866    565.990    565.866
 13.070    602.459    571.810     30.648    565.871    571.682    565.871    565.996    565.871
 13.170    600.000    570.698     29.302    565.871    570.570    565.871    565.996    565.871
 13.270    572.000    569.889      2.111    565.866    569.761    565.866    565.992    565.866
 13.370    603.475    569.270     34.205    565.855    569.141    565.855    565.981    565.855
 13.470    597.000    568.781     28.219    565.839    568.652    565.839    565.966    565.839
 13.570    561.000    568.385     -7.385    565.817    568.256    565.817    565.945    565.817
 13.670    595.213    568.057     27.155    565.791    567.928    565.791    565.919    565.791
 13.770    568.814    567.780      1.034    565.759    567.650    565.759    565.888    565.759
 13.870    556.000    567.540    -11.540    565.722    567.410    565.722    565.851    565.722
 13.970    565.390    567.329     -1.939    565.680    567.198    565.680    565.810    565.680
 14.070    538.000    567.140    -29.140    565.633    567.008    565.633    565.763    565.633
 14.170    542.000    566.967    -24.967    565.581    566.835    565.581    565.712    565.581
 14.270    597.163    566.807     30.356    565.524    566.674    565.524    565.656    565.524
 14.370    518.000    566.656    -48.656    565.462    566.523    565.462    565.595    565.462
 14.470    566.000    566.512     -0.512    565.395    566.378    565.395    565.529    565.395
 14.570    554.000    566.373    -12.373    565.324    566.239    565.324    565.458    565.324
 14.670    571.000    566.238      4.762    565.248    566.103    565.248    565.383    565.248
 14.770    593.000    566.106     26.894    565.167    565.970    565.167    565.303    565.167
 14.870    559.000    565.976     -6.976    565.082    565.840    565.082    565.218    565.082
 14.970    508.000    565.848    -57.848    564.992    565.710    564.992    565.129    564.992
 15.070    565.168    565.717     -0.550    564.898    565.579    564.898    565.036    564.898
 15.170    575.000    565.587      9.413    564.799    565.448    564.799    564.938    564.799
 15.270    577.958    565.455     12.503    564.696    565.315    564.696    564.836    564.696
 15.370    588.802    565.322     23.480    564.589    565.182    564.589    564.729    564.589
 15.470    566.000    565.187      0.813    564.477    565.046    564.477    564.618    564.477
 15.570    535.000    565.050    -30.050    564.362    564.909    564.362    564.503    564.362
 15.670    570.000    564.912      5.088    564.241    564.769    564.241    564.384    564.241
 15.770    553.000    564.771    -11.771    564.117    564.628    564.117    564.260    564.117
 15.870    598.860    564.628     34.233    563.989    564.484    563.989    564.133    563.989
 15.970    563.162    564.482     -1.320    563.857    564.337    563.857    564.002    563.857
 16.070    590.712    564.333     26.379    563.721    564.188    563.721    563.866    563.721
 16.170    561.000    564.182     -3.182    563.580    564.036    563.580    563.727    563.580
 16.270    530.173    564.028    -33.855    563.436    563.881    563.436    563.584    563.436
 16.370    523.764    563.872    -40.108    563.289    563.724    563.289    563.437    563.289
 16.470    550.000    563.713    -13.713    563.137    563.564    563.137    563.286    563.137
 16.570    572.954    563.552      9.402    562.982    563.402    562.982    563.131    562.982
 16.670    579.000    563.387     15.613    562.822    563.236    562.822    562.973    562.822
 16.770    524.905    563.219    -38.315    562.660    563.068    562.660    562.811    562.660
 16.870    587.000    563.048     23.952    562.493    562.896    562.493    562.646    562.493
 16.970    503.000    562.875    -59.875    562.324    562.721    562.324    562.477    562.324
 17.070    517.608    562.698    -45.089    562.150    562.543    562.150    562.305    562.150
 17.170    552.000    562.518    -10.518    561.974    562.363    561.974    562.129    561.974
 17.270    579.900    562.336     17.564    561.793    562.179    561.793    561.950    561.793
 17.370    584.000    562.151     21.849    561.610    561.993    561.610    561.767    561.610
 17.470    554.348    561.968     -7.620    561.423    561.810    561.423    561.582    561.423
 17.570    546.000    561.798    -15.798    561.233    561.639    561.233    561.392    561.233
 17.670    579.955    561.607     18.349    561.040    561.446    561.040    561.200    561.040
 17.770    595.000    561.411     33.589    560.843    561.249    560.843    561.005    560.843
 17.870    566.165    561.212      4.953    560.643    561.049    560.643    560.806    560.643
 17.970    557.000    561.019     -4.019    560.441    560.855    560.441    560.605    560.441
 18.070    564.000    560.902      3.098    560.235    560.737    560.235    560.400    560.235
 18.170    587.970    560.720     27.250    560.026    560.554    560.026    560.192    560.026
 18.270    546.626    560.512    -13.886    559.814    560.345    559.814    559.982    559.814
 18.370    599.856    560.301     39.556    559.600    560.132    559.600    559.768    559.600
 18.470    511.000    560.086    -49.086    559.382    559.917    559.382    559.552    559.382
 18.570    550.000    559.870     -9.870    559.162    559.699    559.162    559.333    559.162
 18.670    538.769    559.651    -20.882    558.939    559.479    558.939    559.111    558.939
 18.770    540.869    559.429    -18.561    558.713    559.256    558.713    558.887    558.713
 18.870    578.718    559.206     19.512    558.485    559.031    558.485    558.659    558.485
 18.970    529.241    558.980    -29.739    558.253    558.803    558.253    558.430    558.253
 19.070    580.000    558.751     21.249    558.020    558.574    558.020    558.197    558.020
 19.170    514.479    558.521    -44.042    557.783    558.342    557.783    557.962    557.783
 19.270    551.000    558.289     -7.289    557.544    558.109    557.544    557.725    557.544
 19.370    557.000    558.058     -1.058    557.303    557.876    557.303    557.485    557.303
 19.470    541.214    557.822    -16.608    557.059    557.639    557.059    557.242    557.059
 19.570    527.903    557.584    -29.681    556.813    557.399    556.813    556.998    556.813
 19.670    550.000    557.343     -7.343    556.564    557.157    556.564    556.751    556.564
 19.770    553.852    557.101     -3.249    556.313    556.913    556.313    556.501    556.313
 19.870    589.161    556.857     32.304    556.060    556.668    556.060    556.250    556.060
 19.970    526.000    556.612    -30.612    555.805    556.421    555.805    555.996    555.805
 20.070    537.000    556.369    -19.369    555.547    556.177    555.547    555.740    555.547
 20.170    537.934    556.122    -18.188    555.287    555.928    555.287    555.482    555.287
 20.270    544.000    555.872    -11.872    555.025    555.676    555.025    555.221    555.025
 20.370    527.741    555.623    -27.882    554.761    555.425    554.761    554.959    554.761
 20.470    557.000    555.397      1.603    554.495    555.197    554.495    554.695    554.495
 20.570    522.000    555.183    -33.183    554.227    554.982    554.227    554.429    554.227
 20.670    528.000    554.932    -26.932    553.957    554.729    553.957    554.161    553.957
 20.770    519.714    554.676    -34.962    553.685    554.470    553.685    553.891    553.685
 20.870    527.981    554.419    -26.439    553.411    554.212    553.411    553.619    553.411
 20.970    542.548    554.165    -11.617    553.135    553.956    553.135    553.345    553.135
 21.070    508.000    553.907    -45.907    552.858    553.695    552.858    553.070    552.858
 21.170    507.551    553.647    -46.096    552.578    553.434    552.578    552.792    552.578
 21.270    583.000    553.388     29.612    552.297    553.172    552.297    552.513    552.297
 21.370    539.000    553.128    -14.128    552.014    552.910    552.014    552.233    552.014
 21.470    548.000    552.878     -4.878    551.730    552.657    551.730    551.951    551.730
 21.570    531.000    552.656    -21.656    551.444    552.432    551.444    551.667    551.444
 21.670    542.000    552.400    -10.400    551.156    552.174    551.156    551.382    551.156
 21.770    555.064    552.142      2.922    550.867    551.913    550.867    551.095    550.867
 21.870    532.000    551.884    -19.884    550.576    551.653    550.576    550.807    550.576
 21.970    567.165    551.628     15.537    550.283    551.394    550.283    550.517    550.283
 22.070    507.000    551.373    -44.373    549.990    551.137    549.990    550.226    549.990
 22.170    530.961    551.121    -20.159    549.694    550.881    549.694    549.934    549.694
 22.270    545.000    550.871     -5.871    549.398    550.629    549.398    549.640    549.398
 22.370    548.000    550.630     -2.630    549.100    550.385    549.100    549.345    549.100
 22.470    571.000    550.395     20.605    548.800    550.147    548.800    549.049    548.800
 22.570    574.958    550.159     24.799    548.500    549.907    548.500    548.752    548.500
 22.670    560.000    549.932     10.068    548.198    549.676    548.198    548.454    548.198
 22.770    567.000    549.715     17.285    547.895    549.456    547.895    548.154    547.895
 22.870    506.000    549.501    -43.501    547.590    549.238    547.590    547.853    547.590
 22.970    517.455    549.297    -31.842    547.285    549.031    547.285    547.552    547.285
 23.070    553.000    549.108      3.892    546.978    548.837    546.978    547.249    546.978
 23.170    553.182    548.943      4.239    546.670    548.668    546.670    546.946    546.670
 23.270    543.000    548.820     -5.820    546.362    548.542    546.362    546.641    546.362
 23.370    527.504    548.730    -21.226    546.052    548.447    546.052    546.336    546.052
 23.470    505.352    548.665    -43.313    545.741    548.377    545.741    546.030    545.741
 23.570    574.066    548.630     25.436    545.429    548.338    545.429    545.723    545.429
 23.670    505.986    548.658    -42.673    545.117    548.361    545.117    545.415    545.117
 23.770    535.000    548.775    -13.775    544.803    548.473    544.803    545.107    544.803
 23.870    530.000    549.027    -19.027    544.489    548.720    544.489    544.798    544.489
 23.970    550.000    549.521      0.479    544.173    549.209    544.173    544.489    544.173
 24.070    546.000    550.343     -4.343    543.857    550.025    543.857    544.179    543.857
 24.170    547.000    551.912     -4.912    543.540    551.589    543.540    543.868    543.540
 24.270    573.000    555.125     17.875    543.223    554.797    543.223    543.557    543.223
 24.370    559.956    561.550     -1.594    542.904    561.221    542.904    543.246    542.904
 24.470    550.000    573.123    -23.123    542.585    572.795    542.585    542.934    542.585
 24.570    610.030    590.779     19.251    542.265    590.456    542.265    542.622    542.265
 24.670    605.000    611.884     -6.884    541.945    611.567    541.945    542.310    541.945
 24.770    655.000    628.122     26.878    541.624    627.809    541.624    541.997    541.624
 24.870    646.000    629.259     16.741    541.303    628.938    541.303    541.685    541.303
 24.970    601.236    614.159    -12.923    540.980    613.818    540.980    541.372    540.980
 25.070    602.503    592.526      9.977    540.658    592.160    540.658    541.060    540.658
 25.170    563.000    573.546    -10.546    540.335    573.155    540.335    540.748    540.335
 25.270    579.000    560.560     18.440    540.011    560.149    540.011    540.435    540.011
 25.370    531.313    552.988    -21.675    539.687    552.559    539.687    540.123    539.687
 25.470    564.219    548.915     15.304    539.363    548.471    539.363    539.812    539.363
 25.570    555.000    546.674      8.326    539.038    546.214    539.038    539.501    539.038
 25.670    573.000    545.290     27.710    538.713    544.815    538.713    539.190    538.713
 25.770    538.000    544.311     -6.311    538.387    543.819    538.387    538.881    538.387
 25.870    574.000    543.555     30.445    538.062    543.047    538.062    538.572    538.062
 25.970    575.000    542.946     32.054    537.736    542.419    537.736    538.264    537.736
 26.070    576.000    542.442     33.558    537.409    541.895    537.409    537.957    537.409
 26.170    585.000    542.021     42.979    537.083    541.454    537.083    537.651    537.083
 26.270    533.000    541.671     -8.671    536.756    541.080    536.756    537.347    536.756
 26.370    557.000    541.382     15.618    536.429    540.767    536.429    537.045    536.429
 26.470    542.074    541.152      0.923    536.102    540.510    536.102    536.744    536.102
 26.570    568.000    540.979     27.021    535.775    540.308    535.775    536.446    535.775
 26.670    542.000    540.867      1.133    535.448    540.165    535.448    536.150    535.448
 26.770    529.000    540.821    -11.821    535.121    540.084    535.121    535.857    535.121
 26.870    521.000    540.851    -19.851    534.793    540.077    534.793    535.568    534.793
 26.970    546.021    540.974      5.047    534.466    540.159    534.466    535.282    534.466
 27.070    567.000    541.213     25.787    534.139    540.352    534.139    535.000    534.139
 27.170    508.257    541.601    -33.343    533.811    540.689    533.811    534.723    533.811
 27.270    501.770    542.186    -40.416    533.484    541.218    533.484    534.452    533.484
 27.370    591.000    543.047     47.953    533.157    542.016    533.157    534.187    533.157
 27.470    510.000    544.325    -34.325    532.830    543.224    532.830    533.930    532.830
 27.570    545.000    546.396     -1.396    532.503    545.216    532.503    533.682    532.503
 27.670    525.836    550.585    -24.749    532.176    549.314    532.176    533.444    532.176
 27.770    587.000    561.272     25.728    531.850    559.896    531.850    533.218    531.850
 27.870    629.522    589.298     40.224    531.523    587.796    531.523    533.008    531.523
 27.970    640.000    651.417    -11.417    531.197    649.761    531.197    532.815    531.197
 28.070    753.000    755.881     -2.881    530.871    754.039    530.871    532.642    530.871
 28.170    837.101    876.604    -39.504    530.546    874.556    530.546    532.495    530.546
 28.270    875.000    946.595    -71.595    530.220    944.339    530.220    532.377    530.220
 28.370    834.000    914.394    -80.394    529.895    911.928    529.895    532.294    529.895
 28.470    805.000    815.134    -10.134    529.570    812.422    529.570    532.252    529.570
 28.570    759.847    726.410     33.437    529.246    723.385    529.246    532.258    529.246
 28.670    729.000    697.841     31.159    528.922    694.432    528.922    532.319    528.922
 28.770    741.993    731.983     10.011    528.598    728.120    528.598    532.440    528.598
 28.870    760.000    794.613    -34.613    528.275    790.234    528.275    532.630    528.275
 28.970    866.839    831.143     35.696    527.952    826.190    527.952    532.889    527.952
 29.070    791.886    803.985    -12.099    527.630    798.400    527.630    533.214    527.630
 29.170    749.926    731.374     18.552    527.308    725.100    527.308    533.594    527.308
 29.270    612.000    655.309    -43.309    526.987    648.309    526.987    534.000    526.987
 29.370    598.072    600.896     -2.824    526.666    593.186    526.666    534.385    526.666
 29.470    588.107    570.817     17.290    526.346    562.485    526.346    534.683    526.346
 29.570    592.373    556.848     35.525    526.026    548.060    526.026    534.817    526.026
 29.670    544.000    550.603     -6.603    525.707    541.594    525.707    534.717    525.707
 29.770    630.000    547.309     82.691    525.388    538.350    525.388    534.348    525.388
 29.870    618.000    545.029     72.971    525.070    536.381    525.070    533.719    525.070
 29.970    582.000    543.167     38.833    524.753    535.040    524.753    532.880    524.753
 30.070    534.404    541.594     -7.190    524.436    534.123    524.436    531.907    524.436
 30.170    567.556    540.345     27.212    524.120    533.591    524.120    530.873    524.120
 30.270    601.000    539.591     61.409    523.805    533.556    523.805    529.839    523.805
 30.370    560.000    539.798     20.202    523.490    534.443    523.490    528.843    523.490
