neutron_powder_diffraction_0196
R_wp: 3.979
Temperature (K): 1074.000
Counts: 84420.00
Wavelength (Ã…): 2.52098
COMMENTS
Test file for demonstrating the .xyy file format in Reel1.0
END OF HEADER
   tth       Y_obs     Y_calc      Y_res    Background    Phase_1_Nuc    Phase_1_Mag    Phase_2_Nuc    Phase_2_Mag
  9.970    592.000    568.735     23.265    568.018    568.683    568.018    568.070    568.018
 10.070    559.000    568.856     -9.856    568.063    568.804    568.063    568.115    568.063
 10.170    554.933    568.968    -14.035    568.103    568.915    568.103    568.155    568.103
 10.270    586.000    569.082     16.918    568.138    569.029    568.138    568.191    568.138
 10.370    594.000    569.204     24.796    568.168    569.150    568.168    568.221    568.168
 10.470    607.417    569.337     38.080    568.193    569.283    568.193    568.247    568.193
 10.570    593.000    569.487     23.513    568.214    569.430    568.214    568.271    568.214
 10.670    613.000    569.656     43.344    568.230    569.597    568.230    568.288    568.230
 10.770    575.000    569.850      5.150    568.241    569.791    568.241    568.299    568.241
 10.870    576.000    570.080      5.920    568.247    570.020    568.247    568.306    568.247
 10.970    567.000    570.359     -3.359    568.249    570.299    568.249    568.309    568.249
 11.070    620.000    570.706     49.294    568.247    570.645    568.247    568.307    568.247
 11.170    534.558    571.146    -36.589    568.240    571.085    568.240    568.300    568.240
 11.270    609.284    571.722     37.561    568.228    571.660    568.228    568.289    568.228
 11.370    591.000    572.507     18.493    568.213    572.444    568.213    568.273    568.213
 11.470    609.000    573.661     35.339    568.192    573.597    568.192    568.253    568.192
 11.570    559.566    575.622    -16.056    568.168    575.557    568.168    568.229    568.168
 11.670    601.263    579.575     21.688    568.139    579.507    568.139    568.201    568.139
 11.770    624.000    588.118     35.882    568.106    588.046    568.106    568.168    568.106
 11.870    670.000    605.218     64.782    568.069    605.135    568.069    568.131    568.069
 11.970    604.236    633.695    -29.459    568.028    633.596    568.028    568.090    568.028
 12.070    673.406    669.703      3.702    567.983    669.584    567.983    568.045    567.983
 12.170    651.545    697.760    -46.214    567.933    697.624    567.933    567.996    567.933
 12.270    650.000    698.619    -48.619    567.880    698.483    567.880    567.943    567.880
 12.370    660.000    671.473    -11.473    567.823    671.352    567.823    567.886    567.823
 12.470    650.009    635.225     14.785    567.761    635.123    567.761    567.825    567.761
 12.570    593.000    606.031    -13.031    567.696    605.945    567.696    567.760    567.696
 12.670    609.682    588.268     21.415    567.627    588.192    567.627    567.692    567.627
 12.770    575.000    579.289     -4.289    567.555    579.218    567.555    567.619    567.555
 12.870    508.000    575.084    -67.084    567.478    575.015    567.478    567.543    567.478
 12.970    588.146    572.960     15.186    567.398    572.892    567.398    567.463    567.398
 13.070    561.627    571.679    -10.052    567.314    571.611    567.314    567.380    567.314
 13.170    555.000    570.781    -15.781    567.227    570.713    567.227    567.293    567.227
 13.270    553.569    570.096    -16.527    567.136    570.028    567.136    567.203    567.136
 13.370    603.000    569.553     33.447    567.041    569.483    567.041    567.110    567.041
 13.470    563.000    569.104     -6.104    566.943    569.034    566.943    567.012    566.943
 13.570    608.551    568.725     39.825    566.842    568.655    566.842    566.911    566.842
 13.670    608.000    568.397     39.603    566.737    568.327    566.737    566.806    566.737
 13.770    569.019    568.107      0.912    566.629    568.036    566.629    566.699    566.629
 13.870    574.190    567.845      6.345    566.517    567.774    566.517    566.587    566.517
 13.970    598.000    567.605     30.395    566.402    567.534    566.402    566.473    566.402
 14.070    571.536    567.381      4.155    566.284    567.309    566.284    566.355    566.284
 14.170    553.000    567.169    -14.169    566.163    567.098    566.163    566.234    566.163
 14.270    572.000    566.968      5.032    566.039    566.896    566.039    566.110    566.039
 14.370    566.448    566.774     -0.326    565.911    566.702    565.911    565.983    565.911
 14.470    545.585    566.586    -21.001    565.780    566.513    565.780    565.852    565.780
 14.570    604.492    566.402     38.089    565.646    566.329    565.646    565.719    565.646
 14.670    534.150    566.224    -32.074    565.510    566.151    565.510    565.583    565.510
 14.770    574.924    566.048      8.876    565.370    565.974    565.370    565.443    565.370
 14.870    528.000    565.871    -37.871    565.227    565.797    565.227    565.301    565.227
 14.970    543.000    565.695    -22.695    565.081    565.620    565.081    565.156    565.081
 15.070    520.000    565.520    -45.520    564.933    565.445    564.933    565.008    564.933
 15.170    557.000    565.344     -8.344    564.782    565.269    564.782    564.857    564.782
 15.270    561.000    565.169     -4.169    564.627    565.093    564.627    564.703    564.627
 15.370    521.000    564.993    -43.993    564.471    564.916    564.471    564.546    564.471
 15.470    545.000    564.816    -19.816    564.311    564.739    564.311    564.387    564.311
 15.570    572.000    564.638      7.362    564.149    564.561    564.149    564.225    564.149
 15.670    604.728    564.459     40.268    563.984    564.382    563.984    564.061    563.984
 15.770    562.601    564.279     -1.679    563.816    564.201    563.816    563.894    563.816
 15.870    603.000    564.099     38.901    563.646    564.021    563.646    563.724    563.646
 15.970    603.000    563.918     39.082    563.473    563.839    563.473    563.552    563.473
 16.070    578.758    563.734     15.024    563.298    563.655    563.298    563.377    563.298
 16.170    534.000    563.548    -29.548    563.120    563.468    563.120    563.200    563.120
 16.270    521.214    563.365    -42.151    562.940    563.280    562.940    563.025    562.940
 16.370    521.673    563.178    -41.505    562.758    563.091    562.758    562.845    562.758
 16.470    505.000    562.988    -57.988    562.573    562.900    562.573    562.661    562.573
 16.570    564.000    562.795      1.205    562.386    562.707    562.386    562.474    562.386
 16.670    568.000    562.601      5.399    562.196    562.512    562.196    562.285    562.196
 16.770    570.000    562.406      7.594    562.005    562.316    562.005    562.094    562.005
 16.870    609.000    562.208     46.792    561.811    562.118    561.811    561.901    561.811
 16.970    601.680    562.009     39.671    561.615    561.919    561.615    561.705    561.615
 17.070    560.505    561.809     -1.304    561.416    561.718    561.416    561.507    561.416
 17.170    560.825    561.606     -0.781    561.216    561.515    561.216    561.307    561.216
 17.270    558.384    561.402     -3.018    561.013    561.310    561.013    561.105    561.013
 17.370    567.000    561.199      5.801    560.809    561.106    560.809    560.901    560.809
 17.470    531.423    560.992    -29.568    560.602    560.898    560.602    560.695    560.602
 17.570    572.046    560.783     11.263    560.393    560.689    560.393    560.487    560.393
 17.670    513.000    560.572    -47.572    560.183    560.477    560.183    560.277    560.183
 17.770    548.000    560.360    -12.360    559.970    560.264    559.970    560.066    559.970
 17.870    518.000    560.146    -42.146    559.756    560.050    559.756    559.852    559.756
 17.970    594.000    559.930     34.070    559.540    559.834    559.540    559.636    559.540
 18.070    531.000    559.713    -28.713    559.322    559.616    559.322    559.419    559.322
 18.170    565.796    559.495      6.301    559.102    559.397    559.102    559.200    559.102
 18.270    595.000    559.275     35.725    558.880    559.176    558.880    558.979    558.880
 18.370    583.000    559.053     23.947    558.657    558.954    558.657    558.756    558.657
 18.470    579.000    558.830     20.170    558.431    558.730    558.431    558.532    558.431
 18.570    552.000    558.606     -6.606    558.205    558.505    558.205    558.305    558.205
 18.670    521.000    558.382    -37.382    557.976    558.280    557.976    558.078    557.976
 18.770    555.000    558.156     -3.156    557.746    558.054    557.746    557.849    557.746
 18.870    543.977    557.928    -13.951    557.514    557.825    557.514    557.618    557.514
 18.970    545.000    557.699    -12.699    557.281    557.595    557.281    557.385    557.281
 19.070    576.000    557.469     18.531    557.047    557.364    557.047    557.151    557.047
 19.170    519.000    557.237    -38.237    556.810    557.131    556.810    556.916    556.810
 19.270    578.202    557.004     21.198    556.573    556.897    556.573    556.679    556.573
 19.370    541.000    556.770    -15.770    556.334    556.662    556.334    556.441    556.334
 19.470    531.000    556.534    -25.534    556.093    556.426    556.093    556.201    556.093
 19.570    571.641    556.298     15.342    555.851    556.189    555.851    555.960    555.851
 19.670    527.926    556.061    -28.135    555.608    555.951    555.608    555.718    555.608
 19.770    532.000    555.823    -23.823    555.363    555.712    555.363    555.474    555.363
 19.870    566.000    555.585     10.415    555.117    555.473    555.117    555.229    555.117
 19.970    507.807    555.359    -47.551    554.870    555.246    554.870    554.983    554.870
 20.070    560.000    555.128      4.872    554.622    555.014    554.622    554.736    554.622
 20.170    580.400    554.888     25.512    554.372    554.773    554.372    554.487    554.372
 20.270    590.819    554.646     36.173    554.122    554.530    554.122    554.238    554.122
 20.370    555.000    554.403      0.597    553.870    554.286    553.870    553.987    553.870
 20.470    547.204    554.160     -6.956    553.617    554.042    553.617    553.735    553.617
 20.570    579.146    553.917     25.230    553.363    553.797    553.363    553.482    553.363
 20.670    555.000    553.673      1.327    553.107    553.552    553.107    553.228    553.107
 20.770    537.000    553.430    -16.430    552.851    553.307    552.851    552.975    552.851
 20.870    555.000    553.187      1.813    552.594    553.061    552.594    552.720    552.594
 20.970    536.000    552.942    -16.942    552.336    552.815    552.336    552.463    552.336
 21.070    541.000    552.697    -11.697    552.077    552.568    552.077    552.205    552.077
 21.170    569.000    552.452     16.548    551.817    552.322    551.817    551.946    551.817
 21.270    588.324    552.207     36.117    551.555    552.076    551.555    551.687    551.555
 21.370    561.000    551.963      9.037    551.294    551.830    551.294    551.426    551.294
 21.470    605.000    551.719     53.281    551.031    551.584    551.031    551.165    551.031
 21.570    563.000    551.475     11.525    550.767    551.339    550.767    550.903    550.767
 21.670    550.000    551.232     -1.232    550.503    551.095    550.503    550.640    550.503
 21.770    526.873    550.990    -24.118    550.238    550.852    550.238    550.376    550.238
 21.870    521.889    550.750    -28.861    549.972    550.609    549.972    550.112    549.972
 21.970    562.471    550.510     11.961    549.705    550.368    549.705    549.847    549.705
 22.070    495.000    550.281    -55.281    549.438    550.137    549.438    549.581    549.438
 22.170    556.314    550.125      6.189    549.170    549.979    549.170    549.315    549.170
 22.270    561.000    549.912     11.088    548.901    549.765    548.901    549.048    548.901
 22.370    588.401    549.686     38.715    548.631    549.537    548.631    548.781    548.631
 22.470    558.000    549.464      8.536    548.362    549.313    548.362    548.513    548.362
 22.570    561.000    549.243     11.757    548.091    549.089    548.091    548.244    548.091
 22.670    553.090    549.032      4.058    547.820    548.877    547.820    547.975    547.820
 22.770    567.606    548.886     18.719    547.548    548.729    547.548    547.706    547.548
 22.870    511.531    548.728    -37.196    547.276    548.568    547.276    547.436    547.276
 22.970    511.000    548.539    -37.539    547.003    548.377    547.003    547.166    547.003
 23.070    556.000    548.359      7.641    546.730    548.195    546.730    546.895    546.730
 23.170    524.000    548.193    -24.193    546.457    548.026    546.457    546.624    546.457
 23.270    579.870    548.046     31.824    546.183    547.876    546.183    546.353    546.183
 23.370    528.000    547.923    -19.923    545.908    547.751    545.908    546.081    545.908
 23.470    536.505    547.832    -11.327    545.634    547.657    545.634    545.810    545.634
 23.570    575.000    547.779     27.221    545.359    547.601    545.359    545.537    545.359
 23.670    551.000    547.779      3.221    545.083    547.598    545.083    545.265    545.083
 23.770    525.000    547.853    -22.853    544.807    547.669    544.807    544.993    544.807
 23.870    570.000    548.033     21.967    544.531    547.846    544.531    544.720    544.531
 23.970    526.812    548.380    -21.567    544.255    548.189    544.255    544.447    544.255
 24.070    519.483    549.033    -29.550    543.979    548.840    543.979    544.175    543.979
 24.170    548.000    550.381     -2.381    543.702    550.185    543.702    543.902    543.702
 24.270    506.250    553.404    -47.154    543.425    553.206    543.425    543.629    543.425
 24.370    581.000    560.042     20.958    543.148    559.845    543.148    543.356    543.148
 24.470    543.000    572.834    -29.834    542.870    572.641    542.870    543.084    542.870
 24.570    629.000    592.866     36.134    542.593    592.683    542.593    542.811    542.593
 24.670    607.000    616.192     -9.192    542.315    616.021    542.315    542.539    542.315
 24.770    606.828    631.529    -24.701    542.038    631.364    542.038    542.266    542.038
 24.870    601.000    627.785    -26.785    541.760    627.612    541.760    541.994    541.760
 24.970    649.225    607.976     41.249    541.482    607.783    541.482    541.722    541.482
 25.070    562.315    584.556    -22.241    541.204    584.340    541.204    541.451    541.204
 25.170    548.132    566.360    -18.228    540.927    566.124    540.927    541.180    540.927
 25.270    622.000    555.325     66.675    540.649    555.073    540.649    540.909    540.649
 25.370    497.615    549.611    -51.996    540.371    549.348    540.371    540.639    540.371
 25.470    545.000    546.810     -1.810    540.093    546.537    540.093    540.370    540.093
 25.570    625.000    545.303     79.697    539.816    545.020    539.816    540.101    539.816
 25.670    554.000    544.330      9.670    539.538    544.037    539.538    539.833    539.538
 25.770    555.000    543.611     11.389    539.260    543.308    539.260    539.565    539.260
 25.870    575.000    543.047     31.953    538.983    542.733    538.983    539.299    538.983
 25.970    582.000    542.583     39.417    538.706    542.256    538.706    539.033    538.706
 26.070    544.000    542.195      1.805    538.429    541.856    538.429    538.768    538.429
 26.170    526.000    541.871    -15.871    538.152    541.518    538.152    538.505    538.152
 26.270    540.830    541.602     -0.772    537.875    541.234    537.875    538.243    537.875
 26.370    573.000    541.381     31.619    537.598    540.997    537.598    537.983    537.598
 26.470    534.000    541.212     -7.212    537.322    540.810    537.322    537.724    537.322
 26.570    506.535    541.116    -34.581    537.046    540.695    537.046    537.467    537.046
 26.670    540.000    541.070     -1.070    536.770    540.627    536.770    537.212    536.770
 26.770    570.000    541.063     28.937    536.495    540.597    536.495    536.960    536.495
 26.870    549.000    541.117      7.883    536.219    540.626    536.219    536.710    536.219
 26.970    512.121    541.259    -29.138    535.945    540.740    535.945    536.464    535.945
 27.070    583.957    541.516     42.441    535.670    540.965    535.670    536.220    535.670
 27.170    565.000    541.898     23.102    535.396    541.311    535.396    535.981    535.396
 27.270    494.776    542.473    -47.697    535.122    541.847    535.122    535.747    535.122
 27.370    567.000    543.318     23.682    534.848    542.647    534.848    535.518    534.848
 27.470    536.000    544.531     -8.531    534.575    543.810    534.575    535.295    534.575
 27.570    581.000    546.471     34.529    534.303    545.692    534.303    535.079    534.303
 27.670    509.455    550.405    -40.950    534.030    549.560    534.030    534.873    534.030
 27.770    561.000    560.907      0.093    533.759    559.983    533.759    534.676    533.759
 27.870    600.682    590.273     10.409    533.487    589.252    533.487    534.492    533.487
 27.970    639.281    658.738    -19.458    533.216    657.593    533.216    534.324    533.216
 28.070    770.000    776.514     -6.514    532.946    775.215    532.946    534.174    532.946
 28.170    946.226    909.971     36.255    532.676    908.501    532.676    534.048    532.676
 28.270   1036.873    975.804     61.069    532.407    974.164    532.407    533.951    532.407
 28.370    881.000    919.317    -38.317    532.138    917.505    532.138    533.893    532.138
 28.470    796.463    798.215     -1.752    531.870    796.179    531.870    533.886    531.870
 28.570    695.000    705.352    -10.352    531.602    702.995    531.602    533.951    531.602
 28.670    748.000    687.794     60.206    531.335    684.994    531.335    534.123    531.335
 28.770    749.000    739.003      9.997    531.069    735.593    531.069    534.461    531.069
 28.870    798.724    814.821    -16.098    530.803    810.549    530.803    535.064    530.803
 28.970    810.000    850.830    -40.830    530.538    845.292    530.538    536.081    530.538
 29.070    776.000    809.430    -33.430    530.273    802.009    530.273    537.710    530.273
 29.170    707.000    724.140    -17.140    530.009    713.995    530.009    540.168    530.009
 29.270    647.000    646.622      0.378    529.746    632.750    529.746    543.627    529.746
 29.370    603.974    599.859      4.116    529.483    581.272    529.483    548.072    529.483
 29.470    594.000    580.093     13.907    529.221    556.247    529.221    553.066    529.221
 29.570    608.000    574.290     33.710    528.960    545.843    528.960    557.404    528.960
 29.670    608.000    571.944     36.056    528.700    541.396    528.700    559.244    528.700
 29.770    621.000    568.081     52.919    528.440    539.046    528.440    557.471    528.440
 29.870    557.000    562.274     -5.274    528.181    537.523    528.181    552.930    528.181
 29.970    587.895    555.980     31.915    527.923    536.457    527.923    547.442    527.923
 30.070    546.000    550.409     -4.409    527.665    535.730    527.665    542.342    527.665
 30.170    556.000    546.095      9.905    527.409    535.318    527.409    538.183    527.409
 30.270    563.000    543.213     19.787    527.153    535.328    527.153    535.035    527.153
 30.370    563.783    542.044     21.738    526.898    536.185    526.898    532.753    526.898
