neutron_powder_diffraction_0168
R_wp: 3.958
Temperature (K): 1074.000
Counts: 83417.00
Wavelength (Ã…): 2.52098
COMMENTS
Test file for demonstrating the .xyy file format in Reel1.0
END OF HEADER
   tth       Y_obs     Y_calc      Y_res    Background    Phase_1_Nuc    Phase_1_Mag    Phase_2_Nuc    Phase_2_Mag
  9.970    596.000    568.004     27.996    567.253    567.953    567.253    567.304    567.253
 10.070    645.000    568.168     76.832    567.353    568.117    567.353    567.404    567.353
 10.170    611.582    568.333     43.250    567.446    568.281    567.446    567.497    567.446
 10.270    592.084    568.502     23.582    567.534    568.450    567.534    567.585    567.534
 10.370    577.163    568.678      8.485    567.616    568.626    567.616    567.667    567.616
 10.470    532.000    568.864    -36.864    567.692    568.812    567.692    567.744    567.692
 10.570    574.288    569.066      5.222    567.763    569.013    567.763    567.815    567.763
 10.670    602.587    569.287     33.301    567.828    569.234    567.828    567.880    567.828
 10.770    590.883    569.534     21.349    567.887    569.481    567.887    567.939    567.887
 10.870    565.375    569.817     -4.443    567.941    569.764    567.941    567.993    567.941
 10.970    570.000    570.150     -0.150    567.989    570.096    567.989    568.042    567.989
 11.070    574.000    570.551      3.449    568.032    570.497    568.032    568.085    568.032
 11.170    592.000    571.048     20.952    568.070    570.994    568.070    568.123    568.070
 11.270    595.000    571.684     23.316    568.102    571.629    568.102    568.155    568.102
 11.370    597.650    572.534     25.116    568.129    572.478    568.129    568.183    568.129
 11.470    594.140    573.766     20.374    568.151    573.709    568.151    568.205    568.151
 11.570    626.000    575.829     50.171    568.167    575.771    568.167    568.222    568.167
 11.670    575.657    579.939     -4.283    568.179    579.878    568.179    568.234    568.179
 11.770    660.000    588.739     71.261    568.186    588.672    568.186    568.241    568.186
 11.870    606.107    606.219     -0.112    568.187    606.141    568.187    568.243    568.187
 11.970    664.860    635.174     29.686    568.184    635.080    568.184    568.240    568.184
 12.070    683.160    671.660     11.500    568.175    671.546    568.175    568.232    568.175
 12.170    659.000    700.043    -41.043    568.162    699.912    568.162    568.219    568.162
 12.270    729.778    700.947     28.831    568.144    700.815    568.144    568.202    568.144
 12.370    665.000    673.557     -8.557    568.122    673.440    568.122    568.179    568.122
 12.470    603.000    636.904    -33.904    568.094    636.807    568.094    568.152    568.094
 12.570    597.000    607.299    -10.299    568.062    607.219    568.062    568.120    568.062
 12.670    555.000    589.220    -34.220    568.026    589.150    568.026    568.084    568.026
 12.770    594.000    580.051     13.949    567.984    579.985    567.984    568.043    567.984
 12.870    545.138    575.755    -30.617    567.939    575.692    567.939    567.998    567.939
 12.970    562.000    573.600    -11.600    567.889    573.537    567.889    567.948    567.889
 13.070    603.990    572.313     31.677    567.834    572.251    567.834    567.894    567.834
 13.170    564.000    571.420     -7.420    567.775    571.358    567.775    567.835    567.775
 13.270    617.209    570.746     46.463    567.712    570.685    567.712    567.772    567.712
 13.370    569.000    570.216     -1.216    567.645    570.154    567.645    567.705    567.645
 13.470    594.460    569.784     24.676    567.573    569.722    567.573    567.634    567.573
 13.570    548.473    569.423    -20.950    567.497    569.361    567.497    567.558    567.497
 13.670    555.000    569.113    -14.113    567.417    569.051    567.417    567.479    567.417
 13.770    526.000    568.842    -42.842    567.334    568.780    567.334    567.395    567.334
 13.870    603.319    568.600     34.719    567.246    568.537    567.246    567.308    567.246
 13.970    554.000    568.378    -14.378    567.154    568.316    567.154    567.216    567.154
 14.070    500.000    568.174    -68.174    567.058    568.111    567.058    567.120    567.058
 14.170    543.634    567.982    -24.347    566.958    567.918    566.958    567.021    566.958
 14.270    521.254    567.799    -46.545    566.854    567.735    566.854    566.918    566.854
 14.370    529.000    567.624    -38.624    566.747    567.559    566.747    566.811    566.747
 14.470    550.232    567.457    -17.225    566.636    567.393    566.636    566.700    566.636
 14.570    549.000    567.294    -18.294    566.521    567.229    566.521    566.585    566.521
 14.670    560.992    567.131     -6.139    566.403    567.066    566.403    566.467    566.403
 14.770    560.000    566.969     -6.969    566.280    566.904    566.280    566.346    566.280
 14.870    589.000    566.808     22.192    566.155    566.742    566.155    566.221    566.155
 14.970    586.800    566.652     20.148    566.026    566.582    566.026    566.095    566.026
 15.070    578.000    566.493     11.507    565.893    566.421    565.893    565.965    565.893
 15.170    478.000    566.332    -88.332    565.757    566.260    565.757    565.829    565.757
 15.270    539.000    566.171    -27.171    565.617    566.098    565.617    565.690    565.617
 15.370    618.000    566.008     51.992    565.475    565.935    565.475    565.547    565.475
 15.470    536.000    565.844    -29.844    565.328    565.771    565.328    565.402    565.328
 15.570    521.560    565.679    -44.118    565.179    565.605    565.179    565.253    565.179
 15.670    596.000    565.512     30.488    565.026    565.438    565.026    565.100    565.026
 15.770    538.000    565.343    -27.343    564.871    565.268    564.871    564.945    564.871
 15.870    561.000    565.173     -4.173    564.712    565.097    564.712    564.787    564.712
 15.970    593.478    565.000     28.478    564.549    564.925    564.549    564.625    564.549
 16.070    592.000    564.826     27.174    564.384    564.750    564.384    564.460    564.384
 16.170    573.779    564.649      9.130    564.216    564.573    564.216    564.293    564.216
 16.270    573.000    564.470      8.530    564.045    564.394    564.045    564.122    564.045
 16.370    543.615    564.290    -20.675    563.871    564.212    563.871    563.948    563.871
 16.470    531.000    564.107    -33.107    563.694    564.029    563.694    563.772    563.694
 16.570    541.000    563.922    -22.922    563.514    563.844    563.514    563.593    563.514
 16.670    582.237    563.735     18.502    563.332    563.656    563.332    563.411    563.332
 16.770    520.739    563.545    -42.806    563.147    563.466    563.147    563.226    563.147
 16.870    553.000    563.354    -10.354    562.958    563.274    562.958    563.038    562.958
 16.970    548.577    563.162    -14.585    562.768    563.082    562.768    562.848    562.768
 17.070    515.000    562.966    -47.966    562.574    562.886    562.574    562.655    562.574
 17.170    529.788    562.768    -32.981    562.378    562.687    562.378    562.459    562.378
 17.270    556.000    562.568     -6.568    562.180    562.486    562.180    562.261    562.180
 17.370    539.000    562.365    -23.365    561.978    562.283    561.978    562.061    561.978
 17.470    527.000    562.161    -35.161    561.775    562.078    561.775    561.858    561.775
 17.570    569.000    561.954      7.046    561.569    561.871    561.569    561.652    561.569
 17.670    570.000    561.745      8.255    561.360    561.661    561.360    561.444    561.360
 17.770    571.000    561.535      9.465    561.149    561.451    561.149    561.234    561.149
 17.870    562.000    561.324      0.676    560.936    561.239    560.936    561.021    560.936
 17.970    568.000    561.109      6.891    560.721    561.023    560.721    560.806    560.721
 18.070    583.993    560.892     23.101    560.503    560.806    560.503    560.589    560.503
 18.170    566.000    560.674      5.326    560.283    560.587    560.283    560.369    560.283
 18.270    566.851    560.453      6.398    560.060    560.366    560.060    560.148    560.060
 18.370    527.000    560.231    -33.231    559.836    560.143    559.836    559.924    559.836
 18.470    588.000    560.007     27.993    559.609    559.918    559.609    559.698    559.609
 18.570    580.000    559.781     20.219    559.381    559.692    559.381    559.470    559.381
 18.670    570.850    559.553     11.297    559.150    559.463    559.150    559.240    559.150
 18.770    560.785    559.323      1.461    558.917    559.233    558.917    559.008    558.917
 18.870    589.820    559.092     30.728    558.683    559.001    558.683    558.774    558.683
 18.970    563.728    558.859      4.869    558.446    558.767    558.446    558.538    558.446
 19.070    590.798    558.625     32.173    558.208    558.532    558.208    558.300    558.208
 19.170    564.996    558.389      6.607    557.967    558.295    557.967    558.061    557.967
 19.270    551.636    558.151     -6.515    557.725    558.057    557.725    557.819    557.725
 19.370    564.000    557.913      6.087    557.481    557.818    557.481    557.576    557.481
 19.470    577.000    557.687     19.313    557.235    557.591    557.235    557.331    557.235
 19.570    522.000    557.455    -35.455    556.988    557.359    556.988    557.084    556.988
 19.670    578.000    557.213     20.787    556.738    557.116    556.738    556.836    556.738
 19.770    565.000    556.969      8.031    556.487    556.871    556.487    556.586    556.487
 19.870    559.000    556.725      2.275    556.235    556.624    556.235    556.336    556.235
 19.970    595.971    556.479     39.492    555.981    556.377    555.981    556.083    555.981
 20.070    571.724    556.232     15.492    555.725    556.128    555.725    555.828    555.725
 20.170    565.000    555.983      9.017    555.468    555.878    555.468    555.572    555.468
 20.270    600.667    555.733     44.934    555.209    555.627    555.209    555.314    555.209
 20.370    551.000    555.482     -4.482    554.949    555.376    554.949    555.055    554.949
 20.470    572.000    555.230     16.770    554.687    555.123    554.687    554.794    554.687
 20.570    563.990    554.978      9.012    554.424    554.869    554.424    554.532    554.424
 20.670    532.000    554.725    -22.725    554.159    554.615    554.159    554.269    554.159
 20.770    544.565    554.471     -9.906    553.894    554.360    553.894    554.004    553.894
 20.870    551.000    554.216     -3.216    553.626    554.105    553.626    553.738    553.626
 20.970    568.000    553.962     14.038    553.358    553.849    553.358    553.471    553.358
 21.070    528.473    553.706    -25.234    553.088    553.593    553.088    553.202    553.088
 21.170    544.000    553.451     -9.451    552.817    553.336    552.817    552.933    552.817
 21.270    574.356    553.196     21.161    552.545    553.079    552.545    552.662    552.545
 21.370    562.000    552.948      9.052    552.272    552.830    552.272    552.390    552.272
 21.470    594.000    552.774     41.226    551.998    552.655    551.998    552.117    551.998
 21.570    583.000    552.540     30.460    551.722    552.420    551.722    551.843    551.722
 21.670    517.362    552.287    -34.925    551.446    552.165    551.446    551.567    551.446
 21.770    588.305    552.035     36.270    551.168    551.913    551.168    551.291    551.168
 21.870    542.000    551.787     -9.787    550.890    551.662    550.890    551.014    550.890
 21.970    527.978    551.536    -23.558    550.610    551.410    550.610    550.736    550.610
 22.070    574.000    551.286     22.714    550.330    551.159    550.330    550.457    550.330
 22.170    532.000    551.039    -19.039    550.048    550.910    550.048    550.177    550.048
 22.270    564.638    550.794     13.844    549.766    550.664    549.766    549.897    549.766
 22.370    530.000    550.555    -20.555    549.483    550.423    549.483    549.615    549.483
 22.470    572.000    550.322     21.678    549.199    550.188    549.199    549.333    549.199
 22.570    516.937    550.153    -33.215    548.914    550.017    548.914    549.050    548.914
 22.670    559.000    549.968      9.032    548.628    549.830    548.628    548.766    548.628
 22.770    552.000    549.750      2.250    548.342    549.610    548.342    548.482    548.342
 22.870    521.000    549.535    -28.535    548.055    549.394    548.055    548.197    548.055
 22.970    535.000    549.331    -14.331    547.767    549.187    547.767    547.911    547.767
 23.070    524.737    549.138    -24.401    547.479    548.993    547.479    547.625    547.479
 23.170    569.000    548.961     20.039    547.190    548.813    547.190    547.338    547.190
 23.270    525.000    548.802    -23.802    546.900    548.652    546.900    547.051    546.900
 23.370    588.919    548.667     40.252    546.610    548.515    546.610    546.763    546.610
 23.470    525.990    548.565    -22.575    546.319    548.410    546.319    546.474    546.319
 23.570    535.132    548.503    -13.371    546.027    548.346    546.027    546.186    546.027
 23.670    540.000    548.497     -8.497    545.735    548.337    545.735    545.897    545.735
 23.770    504.336    548.567    -44.231    545.443    548.404    545.443    545.607    545.443
 23.870    577.750    548.747     29.003    545.150    548.582    545.150    545.317    545.150
 23.970    506.000    549.101    -43.101    544.857    548.933    544.857    545.027    544.857
 24.070    573.841    549.779     24.062    544.563    549.608    544.563    544.737    544.563
 24.170    597.316    551.188     46.128    544.269    551.015    544.269    544.446    544.269
 24.270    597.915    554.337     43.578    543.975    554.162    543.975    544.156    543.975
 24.370    594.000    561.160     32.840    543.680    560.987    543.680    543.865    543.680
 24.470    617.678    574.114     43.564    543.385    573.946    543.385    543.574    543.385
 24.570    571.000    594.148    -23.148    543.090    593.990    543.090    543.283    543.090
 24.670    644.156    617.268     26.888    542.794    617.123    542.794    542.992    542.794
 24.770    601.000    632.391    -31.391    542.498    632.252    542.498    542.701    542.498
 24.870    610.000    628.687    -18.687    542.202    628.541    542.202    542.410    542.202
 24.970    582.000    609.083    -27.083    541.906    608.918    541.906    542.119    541.906
 25.070    556.000    585.765    -29.765    541.609    585.578    541.609    541.828    541.609
 25.170    596.919    567.464     29.455    541.313    567.257    541.313    541.537    541.313
 25.270    549.000    556.226     -7.226    541.016    556.005    541.016    541.247    541.016
 25.370    503.090    550.327    -47.237    540.719    550.095    540.719    540.957    540.719
 25.470    529.000    547.381    -18.381    540.423    547.139    540.423    540.668    540.423
 25.570    575.051    545.776     29.275    540.126    545.526    540.126    540.378    540.126
 25.670    562.000    544.741     17.259    539.829    544.482    539.829    540.090    539.829
 25.770    558.000    543.978     14.022    539.532    543.710    539.532    539.802    539.532
 25.870    567.000    543.372     23.628    539.235    543.093    539.235    539.515    539.235
 25.970    551.000    542.874      8.126    538.938    542.585    538.938    539.228    538.938
 26.070    569.742    542.463     27.279    538.641    542.163    538.641    538.942    538.641
 26.170    508.827    542.127    -33.300    538.345    541.814    538.345    538.658    538.345
 26.270    564.000    541.841     22.159    538.048    541.515    538.048    538.374    538.048
 26.370    509.781    541.632    -31.851    537.751    541.292    537.751    538.092    537.751
 26.470    596.000    541.459     54.541    537.455    541.103    537.455    537.811    537.455
 26.570    544.000    541.313      2.687    537.159    540.940    537.159    537.532    537.159
 26.670    543.000    541.216      1.784    536.863    540.824    536.863    537.255    536.863
 26.770    552.000    541.178     10.822    536.567    540.766    536.567    536.979    536.567
 26.870    562.000    541.210     20.790    536.272    540.775    536.272    536.707    536.272
 26.970    558.000    541.327     16.673    535.976    540.866    535.976    536.436    535.976
 27.070    567.000    541.561     25.439    535.681    541.073    535.681    536.169    535.681
 27.170    520.000    541.946    -21.946    535.387    541.427    535.387    535.905    535.387
 27.270    503.367    542.495    -39.128    535.092    541.940    535.092    535.646    535.092
 27.370    531.855    543.301    -11.446    534.798    542.707    534.798    535.391    534.798
 27.470    559.000    544.500     14.500    534.504    543.861    534.504    535.142    534.504
 27.570    575.773    546.443     29.330    534.211    545.753    534.211    534.899    534.211
 27.670    572.000    550.424     21.576    533.918    549.675    533.918    534.664    533.918
 27.770    559.443    561.052     -1.609    533.625    560.233    533.625    534.438    533.625
 27.870    623.000    590.523     32.477    533.333    589.617    533.333    534.223    533.333
 27.970    649.313    658.551     -9.238    533.041    657.532    533.041    534.021    533.041
 28.070    779.000    774.660      4.340    532.750    773.499    532.750    533.836    532.750
 28.170    934.000    905.581     28.419    532.459    904.265    532.459    533.672    532.459
 28.270    970.142    970.025      0.117    532.169    968.558    532.169    533.534    532.169
 28.370    886.000    914.805    -28.805    531.879    913.191    531.879    533.430    531.879
 28.470    801.000    796.173      4.827    531.590    794.367    531.590    533.371    531.590
 28.570    732.000    704.784     27.216    531.301    702.698    531.301    533.376    531.301
 28.670    655.000    686.923    -31.923    531.013    684.444    531.013    533.476    531.013
 28.770    768.023    736.405     31.618    530.726    733.387    530.726    533.723    530.726
 28.870    804.000    810.010     -6.010    530.439    806.237    530.439    534.197    530.439
 28.970    845.000    844.799      0.201    530.153    839.937    530.153    535.016    530.153
 29.070    792.000    804.050    -12.050    529.867    797.598    529.867    536.331    529.867
 29.170    685.000    720.185    -35.185    529.582    711.479    529.582    538.300    529.582
 29.270    659.000    643.423     15.577    529.298    631.689    529.298    541.040    529.298
 29.370    642.000    596.330     45.670    529.014    580.827    529.014    544.520    529.014
 29.470    560.000    575.551    -15.551    528.731    555.903    528.731    548.379    528.731
 29.570    588.000    568.683     19.317    528.449    545.454    528.449    551.677    528.449
 29.670    604.000    565.815     38.185    528.167    540.965    528.167    553.016    528.167
 29.770    567.842    562.273      5.569    527.886    538.589    527.886    551.569    527.886
 29.870    619.000    557.404     61.596    527.606    537.047    527.606    547.962    527.606
 29.970    552.000    552.210     -0.210    527.327    535.965    527.327    543.571    527.327
 30.070    552.222    547.608      4.613    527.049    535.224    527.049    539.432    527.049
 30.170    544.000    544.029     -0.029    526.771    534.805    526.771    535.993    526.771
 30.270    540.000    541.658     -1.658    526.494    534.820    526.494    533.330    526.494
 30.370    615.000    540.843     74.157    526.218    535.710    526.218    531.347    526.218
