neutron_powder_diffraction_0175
R_wp: 4.005
Temperature (K): 1074.000
Counts: 83844.00
Wavelength (Ã…): 2.52098
COMMENTS
Test file for demonstrating the .xyy file format in Reel1.0
END OF HEADER
   tth       Y_obs     Y_calc      Y_res    Background    Phase_1_Nuc    Phase_1_Mag    Phase_2_Nuc    Phase_2_Mag
  9.970    606.000    570.389     35.611    569.663    570.335    569.663    569.716    569.663
 10.070    616.000    570.567     45.433    569.783    570.513    569.783    569.836    569.783
 10.170    580.516    570.747      9.769    569.897    570.693    569.897    569.950    569.897
 10.270    616.000    570.932     45.068    570.005    570.877    570.005    570.059    570.005
 10.370    580.000    571.122      8.878    570.106    571.068    570.106    570.161    570.106
 10.470    535.000    571.323    -36.323    570.202    571.268    570.202    570.257    570.202
 10.570    601.000    571.536     29.464    570.292    571.481    570.292    570.347    570.292
 10.670    572.836    571.767      1.069    570.377    571.711    570.377    570.432    570.377
 10.770    560.000    572.023    -12.023    570.455    571.967    570.455    570.510    570.455
 10.870    532.103    572.313    -40.210    570.528    572.257    570.528    570.583    570.528
 10.970    579.000    572.649      6.351    570.595    572.592    570.595    570.651    570.595
 11.070    605.000    573.049     31.951    570.657    572.992    570.657    570.713    570.657
 11.170    533.488    573.540    -40.052    570.713    573.482    570.713    570.769    570.713
 11.270    593.000    574.161     18.839    570.763    574.103    570.763    570.820    570.763
 11.370    600.000    574.984     25.016    570.809    574.925    570.809    570.865    570.809
 11.470    555.000    576.162    -21.162    570.848    576.102    570.848    570.905    570.848
 11.570    604.000    578.121     25.879    570.883    578.060    570.883    570.940    570.883
 11.670    569.143    582.057    -12.914    570.912    581.993    570.912    570.970    570.912
 11.770    634.000    590.687     43.313    570.936    590.618    570.936    570.994    570.936
 11.870    655.000    608.306     46.694    570.955    608.227    570.955    571.013    570.955
 11.970    626.839    638.136    -11.297    570.969    638.039    570.969    571.027    570.969
 12.070    659.000    676.248    -17.248    570.977    676.129    570.977    571.036    570.977
 12.170    699.000    706.111     -7.111    570.981    705.974    570.981    571.040    570.981
 12.270    683.524    707.082    -23.558    570.979    706.944    570.979    571.039    570.979
 12.370    667.000    678.292    -11.292    570.973    678.170    570.973    571.033    570.973
 12.470    644.000    640.018      3.982    570.962    639.919    570.962    571.022    570.962
 12.570    591.000    609.524    -18.524    570.946    609.442    570.946    571.006    570.946
 12.670    531.000    591.312    -60.312    570.925    591.239    570.925    570.987    570.925
 12.770    578.687    582.340     -3.653    570.900    582.271    570.900    570.962    570.900
 12.870    552.000    578.256    -26.256    570.870    578.189    570.870    570.932    570.870
 12.970    561.000    576.241    -15.241    570.835    576.175    570.835    570.898    570.835
 13.070    596.000    575.042     20.958    570.796    574.977    570.796    570.859    570.796
 13.170    547.000    574.211    -27.211    570.752    574.146    570.752    570.815    570.752
 13.270    618.219    573.586     44.633    570.703    573.521    570.703    570.767    570.703
 13.370    549.398    573.096    -23.698    570.651    573.031    570.651    570.714    570.651
 13.470    527.334    572.700    -45.366    570.593    572.635    570.593    570.658    570.593
 13.570    528.286    572.372    -44.085    570.532    572.306    570.532    570.596    570.532
 13.670    566.000    572.089     -6.089    570.466    572.024    570.466    570.531    570.466
 13.770    576.486    571.843      4.643    570.396    571.777    570.396    570.461    570.396
 13.870    533.663    571.623    -37.960    570.322    571.557    570.322    570.387    570.322
 13.970    602.000    571.423     30.577    570.243    571.357    570.243    570.309    570.243
 14.070    579.000    571.241      7.759    570.161    571.175    570.161    570.227    570.161
 14.170    561.000    571.069    -10.069    570.074    571.002    570.074    570.141    570.074
 14.270    524.000    570.905    -46.905    569.984    570.837    569.984    570.051    569.984
 14.370    599.299    570.746     28.553    569.889    570.678    569.889    569.956    569.889
 14.470    552.000    570.592    -18.592    569.791    570.524    569.791    569.858    569.791
 14.570    564.000    570.441     -6.441    569.688    570.373    569.688    569.756    569.688
 14.670    537.000    570.293    -33.293    569.582    570.224    569.582    569.650    569.582
 14.770    580.000    570.146      9.854    569.472    570.077    569.472    569.541    569.472
 14.870    517.000    569.999    -52.999    569.358    569.930    569.358    569.427    569.358
 14.970    598.261    569.852     28.409    569.241    569.783    569.241    569.310    569.241
 15.070    595.876    569.706     26.170    569.120    569.635    569.120    569.190    569.120
 15.170    533.000    569.558    -36.558    568.995    569.487    568.995    569.065    568.995
 15.270    548.222    569.409    -21.187    568.867    569.338    568.867    568.937    568.867
 15.370    550.000    569.259    -19.259    568.735    569.188    568.735    568.806    568.735
 15.470    561.863    569.107     -7.244    568.600    569.035    568.600    568.671    568.600
 15.570    589.000    568.954     20.046    568.461    568.881    568.461    568.533    568.461
 15.670    521.588    568.803    -47.215    568.319    568.726    568.319    568.395    568.319
 15.770    528.000    568.647    -40.647    568.173    568.568    568.173    568.252    568.173
 15.870    591.000    568.488     22.512    568.024    568.408    568.024    568.104    568.024
 15.970    598.000    568.326     29.674    567.872    568.246    567.872    567.952    567.872
 16.070    566.014    568.162     -2.148    567.717    568.082    567.717    567.797    567.717
 16.170    575.000    567.996      7.004    567.558    567.915    567.558    567.639    567.558
 16.270    556.000    567.827    -11.827    567.396    567.746    567.396    567.478    567.396
 16.370    606.000    567.657     38.343    567.232    567.575    567.232    567.313    567.232
 16.470    542.000    567.484    -25.484    567.064    567.402    567.064    567.146    567.064
 16.570    571.593    567.308      4.285    566.893    567.226    566.893    566.975    566.893
 16.670    532.000    567.133    -35.133    566.719    567.050    566.719    566.802    566.719
 16.770    579.000    566.953     12.047    566.542    566.869    566.542    566.626    566.542
 16.870    563.000    566.770     -3.770    566.362    566.686    566.362    566.446    566.362
 16.970    539.000    566.585    -27.585    566.180    566.500    566.180    566.264    566.180
 17.070    603.000    566.398     36.602    565.994    566.312    565.994    566.079    565.994
 17.170    662.000    566.208     95.792    565.806    566.122    565.806    565.892    565.806
 17.270    566.453    566.015      0.438    565.615    565.929    565.615    565.701    565.615
 17.370    591.000    565.821     25.179    565.421    565.734    565.421    565.508    565.421
 17.470    534.000    565.624    -31.624    565.225    565.536    565.225    565.312    565.225
 17.570    584.854    565.425     19.429    565.026    565.337    565.026    565.114    565.026
 17.670    555.000    565.224    -10.224    564.824    565.135    564.824    564.913    564.824
 17.770    576.391    565.020     11.371    564.620    564.931    564.620    564.709    564.620
 17.870    535.000    564.814    -29.814    564.413    564.724    564.413    564.503    564.413
 17.970    580.336    564.606     15.730    564.204    564.516    564.204    564.294    564.204
 18.070    563.000    564.397     -1.397    563.992    564.306    563.992    564.083    563.992
 18.170    583.087    564.186     18.900    563.778    564.095    563.778    563.870    563.778
 18.270    539.000    563.972    -24.972    563.562    563.880    563.562    563.654    563.562
 18.370    546.000    563.756    -17.756    563.343    563.663    563.343    563.436    563.343
 18.470    573.000    563.538      9.462    563.122    563.444    563.122    563.216    563.122
 18.570    595.000    563.317     31.683    562.898    563.223    562.898    562.993    562.898
 18.670    575.000    563.095     11.905    562.673    563.000    562.673    562.768    562.673
 18.770    587.936    562.871     25.065    562.445    562.775    562.445    562.541    562.445
 18.870    602.000    562.645     39.355    562.215    562.548    562.215    562.312    562.215
 18.970    523.257    562.418    -39.162    561.983    562.321    561.983    562.080    561.983
 19.070    536.365    562.202    -25.837    561.749    562.104    561.749    561.847    561.749
 19.170    561.000    561.981     -0.981    561.513    561.882    561.513    561.612    561.513
 19.270    536.000    561.749    -25.749    561.275    561.650    561.275    561.374    561.275
 19.370    594.518    561.515     33.003    561.034    561.414    561.034    561.135    561.034
 19.470    590.000    561.279     28.721    560.792    561.177    560.792    560.894    560.792
 19.570    527.000    561.041    -34.041    560.548    560.939    560.548    560.650    560.548
 19.670    558.000    560.802     -2.802    560.302    560.699    560.302    560.405    560.302
 19.770    596.000    560.561     35.439    560.054    560.457    560.054    560.158    560.054
 19.870    541.000    560.319    -19.319    559.805    560.214    559.805    559.910    559.805
 19.970    603.104    560.076     43.029    559.554    559.970    559.554    559.659    559.554
 20.070    577.832    559.831     18.001    559.300    559.724    559.300    559.407    559.300
 20.170    552.323    559.585     -7.263    559.046    559.478    559.046    559.153    559.046
 20.270    584.746    559.338     25.408    558.789    559.230    558.789    558.898    558.789
 20.370    535.131    559.092    -23.961    558.531    558.980    558.531    558.643    558.531
 20.470    568.469    558.844      9.625    558.271    558.730    558.271    558.385    558.271
 20.570    570.000    558.594     11.406    558.010    558.479    558.010    558.124    558.010
 20.670    560.000    558.343      1.657    557.747    558.227    557.747    557.863    557.747
 20.770    478.000    558.091    -80.091    557.483    557.974    557.483    557.599    557.483
 20.870    542.000    557.838    -15.838    557.217    557.720    557.217    557.335    557.217
 20.970    566.590    557.585      9.005    556.949    557.466    556.949    557.069    556.949
 21.070    548.042    557.340     -9.298    556.681    557.219    556.681    556.801    556.681
 21.170    556.000    557.172     -1.172    556.410    557.050    556.410    556.532    556.410
 21.270    535.000    556.940    -21.940    556.139    556.818    556.139    556.262    556.139
 21.370    524.000    556.690    -32.690    555.866    556.565    555.866    555.990    555.866
 21.470    540.037    556.440    -16.403    555.592    556.315    555.592    555.718    555.592
 21.570    564.000    556.190      7.810    555.316    556.063    555.316    555.444    555.316
 21.670    591.780    555.936     35.844    555.040    555.808    555.040    555.168    555.040
 21.770    527.000    555.685    -28.685    554.762    555.555    554.762    554.892    554.762
 21.870    575.000    555.454     19.546    554.483    555.323    554.483    554.614    554.483
 21.970    542.757    555.231    -12.474    554.203    555.098    554.203    554.336    554.203
 22.070    519.000    554.989    -35.989    553.921    554.854    553.921    554.056    553.921
 22.170    557.000    554.787      2.213    553.639    554.650    553.639    553.775    553.639
 22.270    548.000    554.560     -6.560    553.356    554.422    553.356    553.494    553.356
 22.370    555.000    554.318      0.682    553.071    554.179    553.071    553.211    553.071
 22.470    564.000    554.079      9.921    552.786    553.938    552.786    552.927    552.786
 22.570    537.000    553.844    -16.844    552.499    553.700    552.499    552.643    552.499
 22.670    576.962    553.614     23.348    552.212    553.468    552.212    552.357    552.212
 22.770    515.258    553.389    -38.131    551.923    553.242    551.923    552.071    551.923
 22.870    561.000    553.173      7.827    551.634    553.023    551.634    551.784    551.634
 22.970    571.000    552.965     18.035    551.344    552.813    551.344    551.496    551.344
 23.070    541.000    552.769    -11.769    551.053    552.615    551.053    551.208    551.053
 23.170    560.000    552.586      7.414    550.761    552.430    550.761    550.918    550.761
 23.270    525.646    552.422    -26.776    550.469    552.264    550.469    550.628    550.469
 23.370    507.000    552.281    -45.281    550.176    552.120    550.176    550.338    550.176
 23.470    563.000    552.171     10.829    549.882    552.007    549.882    550.046    549.882
 23.570    561.000    552.101      8.899    549.587    551.934    549.587    549.754    549.587
 23.670    555.174    552.083      3.091    549.292    551.913    549.292    549.462    549.292
 23.770    536.000    552.138    -16.138    548.996    551.966    548.996    549.169    548.996
 23.870    508.508    552.299    -43.790    548.699    552.123    548.699    548.876    548.699
 23.970    555.158    552.625      2.534    548.402    552.447    548.402    548.582    548.402
 24.070    551.000    553.260     -2.260    548.104    553.079    548.104    548.288    548.104
 24.170    546.000    554.604     -8.604    547.806    554.420    547.806    547.993    547.806
 24.270    537.000    557.670    -20.670    547.507    557.485    547.507    547.698    547.507
 24.370    601.390    564.475     36.914    547.208    564.291    547.208    547.403    547.208
 24.470    561.000    577.654    -16.654    546.908    577.475    546.908    547.107    546.908
 24.570    561.544    598.294    -36.750    546.607    598.125    546.607    546.812    546.607
 24.670    648.281    622.283     25.998    546.307    622.126    546.307    546.516    546.307
 24.770    653.082    638.031     15.051    546.006    637.880    546.006    546.220    546.006
 24.870    673.922    634.206     39.716    545.704    634.048    545.704    545.924    545.704
 24.970    642.000    613.859     28.141    545.403    613.681    545.403    545.627    545.403
 25.070    583.000    589.742     -6.742    545.100    589.541    545.100    545.331    545.100
 25.170    563.000    570.974     -7.974    544.798    570.754    544.798    545.035    544.798
 25.270    602.617    559.602     43.015    544.495    559.367    544.495    544.739    544.495
 25.370    601.000    553.740     47.260    544.193    553.494    544.193    544.444    544.193
 25.470    498.000    550.873    -52.873    543.889    550.618    543.889    544.148    543.889
 25.570    539.000    549.343    -10.343    543.586    549.078    543.586    543.853    543.586
 25.670    555.000    548.355      6.645    543.282    548.081    543.282    543.558    543.282
 25.770    509.797    547.624    -37.827    542.979    547.340    542.979    543.264    542.979
 25.870    507.309    547.049    -39.740    542.675    546.754    542.675    542.970    542.675
 25.970    524.000    546.606    -22.606    542.371    546.300    542.371    542.677    542.371
 26.070    577.000    546.243     30.757    542.067    545.926    542.067    542.385    542.067
 26.170    544.000    545.928     -1.928    541.763    545.597    541.763    542.094    541.763
 26.270    556.000    545.662     10.338    541.459    545.317    541.459    541.804    541.459
 26.370    535.243    545.448    -10.204    541.155    545.088    541.155    541.515    541.155
 26.470    511.586    545.285    -33.699    540.851    544.909    540.851    541.227    540.851
 26.570    571.386    545.177     26.208    540.546    544.783    540.546    540.941    540.546
 26.670    567.012    545.130     21.882    540.242    544.716    540.242    540.656    540.242
 26.770    522.747    545.161    -22.414    539.938    544.725    539.938    540.374    539.938
 26.870    534.000    545.286    -11.286    539.634    544.826    539.634    540.094    539.634
 26.970    547.416    545.487      1.929    539.330    545.001    539.330    539.816    539.330
 27.070    571.937    545.813     26.125    539.027    545.297    539.027    539.542    539.027
 27.170    586.646    546.303     40.343    538.723    545.754    538.723    539.271    538.723
 27.270    522.971    547.017    -24.046    538.420    546.431    538.420    539.005    538.420
 27.370    547.000    548.046     -1.046    538.116    547.418    538.116    538.743    538.116
 27.470    569.000    549.552     19.448    537.813    548.877    537.813    538.487    537.813
 27.570    590.710    551.966     38.744    537.511    551.236    537.511    538.238    537.511
 27.670    574.000    556.753     17.247    537.208    555.961    537.208    537.996    537.208
 27.770    583.129    568.722     14.407    536.906    567.856    536.906    537.764    536.906
 27.870    626.921    599.575     27.346    536.604    598.616    536.604    537.544    536.604
 27.970    705.222    666.770     38.452    536.302    665.694    536.302    537.338    536.302
 28.070    832.000    777.211     54.789    536.001    775.990    536.001    537.149    536.001
 28.170    899.000    899.687     -0.687    535.700    898.305    535.700    536.982    535.700
 28.270    971.000    960.091     10.909    535.399    958.550    535.399    536.843    535.399
 28.370    881.000    909.542    -28.542    535.099    907.840    535.099    536.739    535.099
 28.470    763.700    800.341    -36.641    534.799    798.429    534.799    536.683    534.799
 28.570    704.000    715.650    -11.650    534.499    713.442    534.499    536.695    534.499
 28.670    710.673    698.499     12.174    534.200    695.876    534.200    536.806    534.200
 28.770    744.000    744.314     -0.314    533.901    741.121    533.901    537.073    533.901
 28.870    844.435    813.251     31.184    533.603    809.255    533.603    537.585    533.603
 28.970    795.359    845.721    -50.363    533.306    840.554    533.306    538.474    533.306
 29.070    763.000    806.376    -43.376    533.008    799.482    533.008    539.913    533.008
 29.170    707.000    725.875    -18.875    532.712    716.507    532.712    542.090    532.712
 29.270    690.948    651.610     39.338    532.416    638.886    532.416    545.147    532.416
 29.370    574.000    605.118    -31.118    532.120    588.179    532.120    549.062    532.120
 29.470    594.000    583.960     10.040    531.825    562.346    531.825    553.438    531.825
 29.570    615.000    576.664     38.336    531.531    550.983    531.531    557.209    531.531
 29.670    629.000    573.426     55.574    531.237    545.896    531.237    558.765    531.237
 29.770    636.000    569.356     66.644    530.944    543.158    530.944    557.140    530.944
 29.870    618.000    563.795     54.205    530.651    541.378    530.651    553.066    530.651
 29.970    584.000    557.901     26.099    530.359    540.127    530.359    548.131    530.359
 30.070    572.000    552.711     19.289    530.068    539.263    530.068    543.513    530.068
 30.170    550.000    548.697      1.303    529.777    538.761    529.777    539.711    529.777
 30.270    573.000    546.043     26.957    529.487    538.730    529.487    536.798    529.487
 30.370    525.000    545.074    -20.074    529.198    539.616    529.198    534.653    529.198
