neutron_powder_diffraction_0051
R_wp: 4.023
Temperature (K): 650.889
Counts: 83253.00
Wavelength (Ã…): 2.52098
COMMENTS
Test file for demonstrating the .xyy file format in Reel1.0
END OF HEADER
   tth       Y_obs     Y_calc      Y_res    Background    Phase_1_Nuc    Phase_1_Mag    Phase_2_Nuc    Phase_2_Mag
  9.970    653.450    671.062    -17.612    669.701    670.687    670.076    669.701    669.701
 10.070    700.000    670.492     29.508    669.047    670.112    669.426    669.047    669.047
 10.170    692.000    669.933     22.067    668.394    669.550    668.777    668.394    668.394
 10.270    641.000    669.388    -28.388    667.741    669.001    668.128    667.741    667.741
 10.370    707.102    668.860     38.242    667.089    668.468    667.480    667.089    667.089
 10.470    651.000    668.352    -17.352    666.437    667.956    666.832    666.437    666.437
 10.570    719.853    667.868     51.985    665.785    667.467    666.185    665.785    665.785
 10.670    716.195    667.415     48.781    665.134    667.010    665.538    665.134    665.134
 10.770    714.000    666.999     47.001    664.484    666.590    664.892    664.484    664.484
 10.870    661.000    666.632     -5.632    663.834    666.218    664.247    663.834    663.834
 10.970    711.191    666.328     44.864    663.185    665.908    663.603    663.185    663.185
 11.070    696.000    666.105     29.895    662.536    665.680    662.959    662.536    662.536
 11.170    668.000    665.991      2.009    661.889    665.562    662.316    661.889    661.889
 11.270    667.000    666.028      0.972    661.241    665.594    661.673    661.241    661.241
 11.370    703.000    666.284     36.716    660.595    665.844    661.032    660.595    660.595
 11.470    712.000    666.886     45.114    659.949    666.441    660.391    659.949    659.949
 11.570    710.000    668.130     41.870    659.304    667.678    659.751    659.304    659.304
 11.670    774.000    670.704    103.296    658.660    670.246    659.112    658.660    658.660
 11.770    719.000    676.065     42.935    658.016    675.598    658.474    658.016    658.016
 11.870    643.437    686.619    -43.182    657.373    686.140    657.837    657.373    657.373
 11.970    697.527    705.048     -7.520    656.731    704.553    657.200    656.731    656.731
 12.070    843.000    732.076    110.924    656.090    731.560    656.565    656.090    656.090
 12.170    776.155    762.737     13.418    655.450    762.199    655.930    655.450    655.450
 12.270    748.489    783.514    -35.025    654.811    782.958    655.297    654.811    654.811
 12.370    747.769    780.361    -32.591    654.172    779.800    654.664    654.172    654.172
 12.470    721.000    755.332    -34.332    653.534    754.779    654.032    653.534    653.534
 12.570    744.370    723.465     20.906    652.898    722.923    653.402    652.898    652.898
 12.670    733.871    696.643     37.229    652.262    696.109    652.772    652.262    652.262
 12.770    640.000    678.529    -38.529    651.627    677.998    652.144    651.627    651.627
 12.870    703.882    667.908     35.974    650.993    667.376    651.516    650.993    650.993
 12.970    627.000    661.975    -34.975    650.360    661.440    650.890    650.360    650.360
 13.070    631.000    658.445    -27.445    649.729    657.904    650.265    649.729    649.729
 13.170    627.000    656.086    -29.086    649.098    655.539    649.641    649.098    649.098
 13.270    647.000    654.296     -7.296    648.468    653.743    649.018    648.468    648.468
 13.370    652.000    652.825     -0.825    647.839    652.266    648.397    647.839    647.839
 13.470    623.000    651.558    -28.558    647.212    650.992    647.776    647.212    647.212
 13.570    683.000    650.435     32.565    646.585    649.861    647.157    646.585    646.585
 13.670    633.319    649.415    -16.096    645.960    648.834    646.539    645.960    645.960
 13.770    674.451    648.474     25.976    645.335    647.886    645.922    645.335    645.335
 13.870    697.584    647.594     49.990    644.712    646.998    645.307    644.712    644.712
 13.970    658.000    646.761     11.239    644.090    646.157    644.693    644.090    644.090
 14.070    646.000    645.966      0.034    643.469    645.354    644.080    643.469    643.469
 14.170    598.415    645.199    -46.785    642.849    644.579    643.469    642.849    642.849
 14.270    601.000    644.459    -43.459    642.231    643.831    642.859    642.231    642.231
 14.370    612.000    643.760    -31.760    641.614    643.122    642.251    641.614    641.614
 14.470    680.010    643.062     36.947    640.998    642.415    641.644    640.998    640.998
 14.570    635.000    642.372     -7.372    640.383    641.716    641.039    640.383    640.383
 14.670    608.000    641.694    -33.694    639.770    641.029    640.434    639.770    639.770
 14.770    668.366    641.027     27.339    639.157    640.352    639.832    639.157    639.157
 14.870    627.000    640.369    -13.369    638.547    639.684    639.230    638.547    638.547
 14.970    599.000    639.719    -40.719    637.937    639.024    638.631    637.937    637.937
 15.070    651.064    639.076     11.988    637.329    638.372    638.033    637.329    637.329
 15.170    678.000    638.439     39.561    636.722    637.725    637.436    636.722    636.722
 15.270    624.000    637.809    -13.809    636.116    637.084    636.841    636.116    636.116
 15.370    645.000    637.184      7.816    635.512    636.448    636.248    635.512    635.512
 15.470    616.000    636.564    -20.564    634.910    635.817    635.656    634.910    634.910
 15.570    632.000    635.948     -3.948    634.308    635.190    635.066    634.308    634.308
 15.670    661.659    635.337     26.322    633.708    634.568    634.478    633.708    633.708
 15.770    625.000    634.730     -9.730    633.110    633.948    633.891    633.110    633.110
 15.870    591.000    634.126    -43.126    632.513    633.333    633.306    632.513    632.513
 15.970    604.000    633.527    -29.527    631.917    632.721    632.723    631.917    631.917
 16.070    658.000    632.930     25.070    631.323    632.112    632.141    631.323    631.323
 16.170    582.321    632.337    -50.017    630.731    631.506    631.562    630.731    630.731
 16.270    676.565    631.751     44.814    630.139    630.906    630.984    630.139    630.139
 16.370    628.000    631.166     -3.166    629.550    630.308    630.408    629.550    629.550
 16.470    657.430    630.583     26.847    628.962    629.711    629.834    628.962    628.962
 16.570    589.826    630.009    -40.183    628.375    629.122    629.262    628.375    628.375
 16.670    624.000    629.432     -5.432    627.790    628.530    628.691    627.790    627.790
 16.770    655.000    628.856     26.144    627.207    627.940    628.123    627.207    627.207
 16.870    661.918    628.284     33.634    626.625    627.353    627.556    626.625    626.625
 16.970    574.000    627.715    -53.715    626.045    626.767    626.992    626.045    626.045
 17.070    609.000    627.148    -18.148    625.466    626.184    626.430    625.466    625.466
 17.170    675.380    626.584     48.796    624.889    625.604    625.870    624.889    624.889
 17.270    631.277    626.023      5.254    624.314    625.025    625.311    624.314    624.314
 17.370    635.000    625.467      9.533    623.740    624.452    624.755    623.740    623.740
 17.470    608.000    624.943    -16.943    623.168    623.910    624.201    623.168    623.168
 17.570    615.000    624.436     -9.436    622.597    623.384    623.650    622.597    622.597
 17.670    616.000    623.890     -7.890    622.029    622.819    623.100    622.029    622.029
 17.770    588.000    623.343    -35.343    621.461    622.252    622.552    621.461    621.461
 17.870    596.000    622.798    -26.798    620.896    621.687    622.007    620.896    620.896
 17.970    606.000    622.256    -16.256    620.332    621.125    621.464    620.332    620.332
 18.070    610.421    621.718    -11.297    619.770    620.566    620.923    619.770    619.770
 18.170    610.041    621.201    -11.160    619.210    620.027    620.384    619.210    619.210
 18.270    636.513    620.692     15.821    618.652    619.496    619.848    618.652    618.652
 18.370    656.350    620.164     36.186    618.095    618.944    619.315    618.095    618.095
 18.470    596.000    619.636    -23.636    617.540    618.393    618.783    617.540    617.540
 18.570    604.000    619.111    -15.111    616.987    617.844    618.255    616.987    616.987
 18.670    659.879    618.589     41.290    616.435    617.296    617.728    616.435    616.435
 18.770    632.000    618.075     13.925    615.886    616.755    617.206    615.886    615.886
 18.870    638.224    617.609     20.615    615.338    616.253    616.694    615.338    615.338
 18.970    562.000    617.118    -55.118    614.792    615.731    616.180    614.792    614.792
 19.070    628.053    616.611     11.442    614.248    615.195    615.664    614.248    614.248
 19.170    627.311    616.108     11.203    613.705    614.662    615.151    613.705    613.705
 19.270    615.000    615.614     -0.614    613.165    614.138    614.641    613.165    613.165
 19.370    572.000    615.120    -43.120    612.626    613.612    614.134    612.626    612.626
 19.470    629.000    614.624     14.376    612.090    613.084    613.630    612.090    612.090
 19.570    641.000    614.131     26.869    611.555    612.558    613.128    611.555    611.555
 19.670    609.000    613.642     -4.642    611.022    612.034    612.630    611.022    611.022
 19.770    618.000    613.157      4.843    610.491    611.513    612.134    610.491    610.491
 19.870    601.027    612.675    -11.648    609.961    610.994    611.642    609.961    609.961
 19.970    591.000    612.197    -21.197    609.434    610.478    611.153    609.434    609.434
 20.070    600.000    611.723    -11.723    608.909    609.964    610.667    608.909    608.909
 20.170    636.000    611.253     24.747    608.385    609.454    610.184    608.385    608.385
 20.270    556.000    610.792    -54.792    607.864    608.950    609.706    607.864    607.864
 20.370    626.146    610.359     15.787    607.344    608.470    609.233    607.344    607.344
 20.470    568.679    609.921    -41.243    606.826    607.982    608.765    606.826    606.826
 20.570    657.804    609.505     48.300    606.311    607.515    608.300    606.311    606.311
 20.670    618.271    609.081      9.190    605.797    607.042    607.836    605.797    605.797
 20.770    600.000    608.662     -8.662    605.285    606.573    607.375    605.285    605.285
 20.870    607.000    608.269     -1.269    604.776    606.126    606.919    604.776    604.776
 20.970    600.473    607.846     -7.373    604.268    605.648    606.466    604.268    604.268
 21.070    631.841    607.433     24.408    603.762    605.178    606.017    603.762    603.762
 21.170    616.000    607.016      8.984    603.258    604.702    605.573    603.258    603.258
 21.270    545.000    606.612    -61.612    602.757    604.236    605.133    602.757    602.757
 21.370    586.000    606.230    -20.230    602.257    603.789    604.698    602.257    602.257
 21.470    592.524    605.847    -13.322    601.759    603.338    604.268    601.759    601.759
 21.570    578.000    605.451    -27.451    601.264    602.873    603.842    601.264    601.264
 21.670    594.000    605.062    -11.062    600.770    602.411    603.421    600.770    600.770
 21.770    634.145    604.688     29.457    600.279    601.959    603.008    600.279    600.279
 21.870    635.543    604.318     31.225    599.789    601.509    602.598    599.789    599.789
 21.970    572.000    603.954    -31.954    599.302    601.062    602.194    599.302    599.302
 22.070    628.727    603.601     25.126    598.816    600.622    601.795    598.816    598.816
 22.170    654.847    603.253     51.594    598.333    600.184    601.403    598.333    598.333
 22.270    581.000    602.917    -21.917    597.852    599.753    601.017    597.852    597.852
 22.370    592.000    602.597    -10.597    597.373    599.331    600.639    597.373    597.373
 22.470    640.269    602.283     37.986    596.896    598.913    600.266    596.896    596.896
 22.570    597.654    601.982     -4.328    596.421    598.502    599.901    596.421    596.421
 22.670    542.000    601.695    -59.695    595.948    598.101    599.543    595.948    595.948
 22.770    608.000    601.423      6.577    595.478    597.708    599.193    595.478    595.478
 22.870    564.013    601.168    -37.155    595.009    597.326    598.851    595.009    595.009
 22.970    540.000    600.934    -60.934    594.543    596.959    598.519    594.543    594.543
 23.070    608.000    600.723      7.277    594.078    596.606    598.196    594.078    594.078
 23.170    581.000    600.536    -19.536    593.616    596.271    597.882    593.616    593.616
 23.270    641.732    600.379     41.354    593.156    595.956    597.580    593.156    593.156
 23.370    570.541    600.256    -29.714    592.698    595.667    597.288    592.698    592.698
 23.470    626.735    600.174     26.561    592.243    595.410    597.008    592.243    592.243
 23.570    602.906    600.143      2.763    591.789    595.192    596.741    591.789    591.789
 23.670    594.000    600.173     -6.173    591.338    595.025    596.487    591.338    591.338
 23.770    619.329    600.281     19.048    590.889    594.923    596.248    590.889    590.889
 23.870    628.477    600.489     27.988    590.442    594.908    596.025    590.442    590.442
 23.970    574.000    600.832    -26.832    589.997    595.013    595.817    589.997    589.997
 24.070    626.867    601.367     25.499    589.554    595.296    595.628    589.554    589.554
 24.170    636.000    602.216     33.784    589.113    595.874    595.458    589.113    589.113
 24.270    593.000    603.650    -10.650    588.675    597.020    595.309    588.675    588.675
 24.370    654.793    606.277     48.516    588.239    599.340    595.183    588.239    588.239
 24.470    708.000    611.241     96.759    587.805    603.975    595.082    587.805    587.805
 24.570    668.000    620.181     47.819    587.373    612.564    595.008    587.373    587.373
 24.670    668.000    634.510     33.490    586.944    626.518    594.963    586.944    586.944
 24.770    705.000    653.823     51.177    586.517    645.430    594.951    586.517    586.517
 24.870    637.371    673.592    -36.222    586.092    664.765    594.974    586.092    586.092
 24.970    715.397    684.148     31.248    585.669    674.843    595.037    585.669    585.669
 25.070    697.000    678.132     18.868    585.248    668.295    595.144    585.248    585.248
 25.170    714.000    660.339     53.661    584.830    649.914    595.300    584.830    584.830
 25.270    641.000    640.689      0.311    584.413    629.624    595.510    584.413    584.413
 25.370    581.498    625.176    -43.678    583.999    613.413    595.781    583.999    583.999
 25.470    638.000    615.191     22.809    583.588    602.669    596.122    583.588    583.588
 25.570    654.449    609.694     44.756    583.178    596.339    596.539    583.178    583.178
 25.670    624.000    607.040     16.960    582.771    592.770    597.045    582.771    582.771
 25.770    636.000    605.946     30.054    582.366    590.663    597.652    582.366    582.366
 25.870    570.856    605.686    -34.830    581.963    589.276    598.375    581.963    581.963
 25.970    609.922    605.927      3.995    581.563    588.261    599.231    581.563    581.563
 26.070    651.397    606.542     44.855    581.164    587.465    600.242    581.164    581.164
 26.170    607.000    607.489     -0.489    580.768    586.823    601.435    580.768    580.768
 26.270    659.000    608.766     50.234    580.375    586.300    602.841    580.375    580.375
 26.370    643.000    610.389     32.611    579.983    585.873    604.498    579.983    579.983
 26.470    574.070    612.389    -38.319    579.594    585.527    606.456    579.594    579.594
 26.570    643.000    614.829     28.171    579.207    585.259    608.777    579.207    579.207
 26.670    662.000    617.787     44.213    578.822    585.069    611.539    578.822    578.822
 26.770    741.000    621.368    119.632    578.440    584.961    614.845    578.440    578.440
 26.870    670.000    625.714     44.286    578.060    584.943    618.828    578.060    578.060
 26.970    679.000    631.017     47.983    577.682    585.031    623.666    577.682    577.682
 27.070    673.153    637.538     35.614    577.306    585.244    629.597    577.306    577.306
 27.170    637.507    645.640     -8.134    576.933    585.613    636.955    576.933    576.933
 27.270    629.000    655.840    -26.840    576.562    586.184    646.211    576.562    576.562
 27.370    619.329    668.880    -49.551    576.193    587.022    658.044    576.193    576.193
 27.470    720.000    685.949     34.051    575.826    588.229    673.537    575.826    575.826
 27.570    721.000    709.298     11.702    575.462    590.006    694.742    575.462    575.462
 27.670    797.000    744.563     52.437    575.100    592.844    726.800    575.100    575.100
 27.770    831.000    808.092     22.908    574.740    598.170    784.631    574.740    574.740
 27.870    972.000    943.292     28.708    574.383    609.763    907.849    574.383    574.383
 27.970   1147.000   1239.527    -92.527    574.028    635.396   1178.026    574.028    574.028
 28.070   1730.561   1818.830    -88.269    573.675    685.692   1706.561    573.675    573.675
 28.170   2605.000   2741.993   -136.993    573.324    765.962   2548.957    573.324    573.324
 28.270   3952.050   3845.162    106.888    572.976    862.030   3555.620    572.976    572.976
 28.370   4687.000   4648.154     38.846    572.630    932.314   4288.056    572.630    572.630
 28.470   4562.858   4647.997    -85.139    572.286    933.458   4286.638    572.286    572.286
 28.570   3944.307   3902.925     41.382    571.945    871.306   3603.567    571.945    571.945
 28.670   2878.000   2986.452   -108.452    571.606    797.078   2761.041    571.606    571.606
 28.770   2216.000   2403.063   -187.063    571.269    756.213   2218.151    571.269    571.269
 28.870   2182.000   2306.306   -124.306    570.934    762.529   2114.698    570.934    570.934
 28.970   2550.000   2545.203      4.797    570.602    800.213   2315.577    570.602    570.602
 29.070   2802.243   2788.889     13.354    570.272    833.451   2525.763    570.272    570.272
 29.170   2766.000   2727.568     38.432    569.944    827.759   2469.902    569.944    569.944
 29.270   2402.000   2324.603     77.397    569.619    780.063   2114.351    569.619    569.619
 29.370   1842.000   1792.306     49.694    569.296    716.435   1645.334    569.296    569.296
 29.470   1305.000   1333.518    -28.518    568.975    661.487   1241.121    568.975    568.975
 29.570   1063.000   1024.185     38.815    568.656    624.441    968.466    568.656    568.656
 29.670    877.655    848.141     29.514    568.340    603.393    813.121    568.340    568.340
 29.770    805.239    757.143     48.096    568.026    592.559    732.626    568.026    568.026
 29.870    776.000    709.743     66.257    567.714    586.969    690.497    567.714    567.714
 29.970    749.000    682.175     66.825    567.405    583.780    665.804    567.405    567.405
 30.070    697.000    663.814     33.186    567.097    581.737    649.177    567.097    567.097
 30.170    595.737    650.484    -54.747    566.793    580.369    636.909    566.793    566.793
 30.270    607.421    640.524    -33.103    566.490    579.534    627.480    566.490    566.490
 30.370    676.008    633.289     42.719    566.190    579.283    620.194    566.190    566.190
