neutron_powder_diffraction_0180
R_wp: 3.935
Temperature (K): 1074.000
Counts: 84026.00
Wavelength (Ã…): 2.52098
COMMENTS
Test file for demonstrating the .xyy file format in Reel1.0
END OF HEADER
   tth       Y_obs     Y_calc      Y_res    Background    Phase_1_Nuc    Phase_1_Mag    Phase_2_Nuc    Phase_2_Mag
  9.970    547.000    573.719    -26.719    572.948    573.671    572.948    572.995    572.948
 10.070    605.000    573.805     31.195    572.970    573.756    572.970    573.018    572.970
 10.170    612.000    573.894     38.106    572.987    573.845    572.987    573.035    572.987
 10.270    568.545    573.990     -5.446    572.998    573.941    572.998    573.047    572.998
 10.370    592.000    574.094     17.906    573.005    574.045    573.005    573.054    573.005
 10.470    619.000    574.210     44.790    573.007    574.160    573.007    573.056    573.007
 10.570    613.408    574.341     39.067    573.003    574.291    573.003    573.053    573.003
 10.670    594.000    574.494     19.506    572.995    574.444    572.995    573.045    572.995
 10.770    574.257    574.675     -0.418    572.982    574.624    572.982    573.032    572.982
 10.870    611.000    574.894     36.106    572.964    574.843    572.964    573.015    572.964
 10.970    598.168    575.164     23.004    572.942    575.113    572.942    572.992    572.942
 11.070    575.814    575.506      0.308    572.915    575.454    572.915    572.965    572.915
 11.170    585.000    575.948      9.052    572.883    575.895    572.883    572.934    572.883
 11.270    538.329    576.535    -38.206    572.846    576.479    572.846    572.900    572.846
 11.370    598.000    577.343     20.657    572.805    577.286    572.805    572.860    572.805
 11.470    608.000    578.548     29.452    572.760    578.489    572.760    572.815    572.760
 11.570    534.842    580.615    -45.772    572.710    580.554    572.710    572.766    572.710
 11.670    626.000    584.748     41.252    572.655    584.685    572.655    572.712    572.655
 11.770    586.000    593.464     -7.464    572.596    593.395    572.596    572.653    572.596
 11.870    621.370    610.412     10.958    572.533    610.334    572.533    572.591    572.533
 11.970    673.000    637.983     35.017    572.466    637.889    572.466    572.524    572.466
 12.070    730.000    672.311     57.689    572.394    672.197    572.394    572.452    572.394
 12.170    722.577    698.827     23.750    572.318    698.699    572.318    572.377    572.318
 12.270    629.000    699.608    -70.608    572.238    699.479    572.238    572.297    572.238
 12.370    591.000    673.900    -82.900    572.154    673.785    572.154    572.213    572.154
 12.470    639.000    639.307     -0.307    572.066    639.210    572.066    572.125    572.066
 12.570    607.964    611.015     -3.051    571.974    610.934    571.974    572.033    571.974
 12.670    587.000    593.379     -6.379    571.878    593.308    571.878    571.938    571.878
 12.770    594.000    584.182      9.818    571.778    584.115    571.778    571.838    571.778
 12.870    600.000    579.739     20.261    571.674    579.675    571.674    571.734    571.674
 12.970    560.000    577.454    -17.454    571.567    577.390    571.567    571.627    571.567
 13.070    552.000    576.068    -24.068    571.455    576.004    571.455    571.516    571.455
 13.170    560.000    575.092    -15.092    571.340    575.029    571.340    571.401    571.340
 13.270    564.000    574.345    -10.345    571.221    574.282    571.221    571.282    571.221
 13.370    559.000    573.746    -14.746    571.099    573.683    571.099    571.160    571.099
 13.470    557.527    573.248    -15.721    570.972    573.185    570.972    571.034    570.972
 13.570    519.000    572.825    -53.825    570.843    572.761    570.843    570.905    570.843
 13.670    576.000    572.455      3.545    570.710    572.391    570.710    570.772    570.710
 13.770    548.000    572.125    -24.125    570.573    572.061    570.573    570.636    570.573
 13.870    565.000    571.825     -6.825    570.433    571.761    570.433    570.496    570.433
 13.970    578.000    571.549      6.451    570.289    571.484    570.289    570.353    570.289
 14.070    572.000    571.291      0.709    570.142    571.225    570.142    570.208    570.142
 14.170    555.908    571.048    -15.140    569.992    570.982    569.992    570.058    569.992
 14.270    578.638    570.814      7.823    569.839    570.748    569.839    569.905    569.839
 14.370    615.792    570.588     45.205    569.682    570.521    569.682    569.748    569.682
 14.470    559.738    570.368    -10.630    569.522    570.300    569.522    569.589    569.522
 14.570    552.000    570.153    -18.153    569.359    570.085    569.359    569.426    569.359
 14.670    566.321    569.940     -3.619    569.193    569.872    569.193    569.261    569.193
 14.770    593.000    569.730     23.270    569.024    569.662    569.024    569.092    569.024
 14.870    618.000    569.521     48.479    568.851    569.453    568.851    568.920    568.851
 14.970    609.738    569.314     40.424    568.676    569.245    568.676    568.745    568.676
 15.070    549.000    569.107    -20.107    568.498    569.038    568.498    568.567    568.498
 15.170    613.499    568.901     44.599    568.317    568.831    568.317    568.387    568.317
 15.270    587.663    568.694     18.970    568.133    568.624    568.133    568.203    568.133
 15.370    550.000    568.486    -18.486    567.946    568.416    567.946    568.017    567.946
 15.470    550.000    568.279    -18.279    567.757    568.208    567.757    567.828    567.757
 15.570    554.000    568.070    -14.070    567.565    567.998    567.565    567.636    567.565
 15.670    555.000    567.860    -12.860    567.370    567.788    567.370    567.441    567.370
 15.770    579.999    567.649     12.350    567.172    567.577    567.172    567.244    567.172
 15.870    572.000    567.436      4.564    566.972    567.364    566.972    567.044    566.972
 15.970    566.000    567.223     -1.223    566.769    567.150    566.769    566.841    566.769
 16.070    605.243    567.007     38.236    566.563    566.934    566.563    566.636    566.563
 16.170    607.000    566.790     40.210    566.355    566.717    566.355    566.429    566.355
 16.270    590.207    566.572     23.635    566.145    566.498    566.145    566.219    566.145
 16.370    597.000    566.352     30.648    565.932    566.277    565.932    566.006    565.932
 16.470    541.000    566.131    -25.131    565.716    566.056    565.716    565.791    565.716
 16.570    595.878    565.907     29.971    565.499    565.832    565.499    565.574    565.499
 16.670    524.695    565.683    -40.988    565.279    565.606    565.279    565.355    565.279
 16.770    587.000    565.462     21.538    565.056    565.381    565.056    565.137    565.056
 16.870    543.596    565.236    -21.640    564.832    565.153    564.832    564.915    564.832
 16.970    549.000    565.006    -16.006    564.605    564.922    564.605    564.689    564.605
 17.070    532.173    564.774    -32.602    564.376    564.690    564.376    564.460    564.376
 17.170    553.000    564.541    -11.541    564.145    564.456    564.145    564.229    564.145
 17.270    561.000    564.305     -3.305    563.911    564.220    563.911    563.997    563.911
 17.370    528.000    564.069    -36.069    563.676    563.983    563.676    563.762    563.676
 17.470    534.000    563.830    -29.830    563.438    563.743    563.438    563.525    563.438
 17.570    566.951    563.591      3.361    563.199    563.504    563.199    563.286    563.199
 17.670    563.000    563.350     -0.350    562.957    563.262    562.957    563.045    562.957
 17.770    587.866    563.106     24.759    562.714    563.018    562.714    562.802    562.714
 17.870    522.978    562.862    -39.884    562.469    562.773    562.469    562.557    562.469
 17.970    565.000    562.615      2.385    562.221    562.526    562.221    562.311    562.221
 18.070    601.748    562.367     39.381    561.972    562.277    561.972    562.062    561.972
 18.170    525.000    562.117    -37.117    561.722    562.027    561.722    561.812    561.722
 18.270    536.000    561.866    -25.866    561.469    561.775    561.469    561.560    561.469
 18.370    525.000    561.614    -36.614    561.214    561.522    561.214    561.306    561.214
 18.470    599.000    561.360     37.640    560.958    561.267    560.958    561.051    560.958
 18.570    556.819    561.104     -4.286    560.701    561.011    560.701    560.794    560.701
 18.670    551.000    560.847     -9.847    560.441    560.753    560.441    560.535    560.441
 18.770    530.000    560.590    -30.590    560.180    560.495    560.180    560.275    560.180
 18.870    542.000    560.331    -18.331    559.917    560.235    559.917    560.013    559.917
 18.970    586.245    560.070     26.174    559.653    559.974    559.653    559.749    559.653
 19.070    539.000    559.809    -20.809    559.387    559.712    559.387    559.484    559.387
 19.170    558.000    559.547     -1.547    559.120    559.449    559.120    559.218    559.120
 19.270    562.000    559.296      2.704    558.851    559.198    558.851    558.950    558.851
 19.370    546.589    559.042    -12.453    558.581    558.942    558.581    558.681    558.581
 19.470    543.000    558.776    -15.776    558.310    558.676    558.310    558.410    558.310
 19.570    568.000    558.509      9.491    558.037    558.408    558.037    558.138    558.037
 19.670    576.000    558.241     17.759    557.763    558.140    557.763    557.865    557.763
 19.770    548.259    557.972     -9.713    557.487    557.870    557.487    557.590    557.487
 19.870    547.000    557.703    -10.703    557.210    557.599    557.210    557.314    557.210
 19.970    545.000    557.432    -12.432    556.932    557.328    556.932    557.037    556.932
 20.070    534.000    557.161    -23.161    556.653    557.055    556.653    556.758    556.653
 20.170    551.000    556.889     -5.889    556.373    556.782    556.373    556.479    556.373
 20.270    538.000    556.616    -18.616    556.091    556.509    556.091    556.198    556.091
 20.370    534.619    556.342    -21.724    555.808    556.234    555.808    555.917    555.808
 20.470    547.000    556.069     -9.069    555.525    555.959    555.525    555.634    555.525
 20.570    579.000    555.794     23.206    555.240    555.684    555.240    555.350    555.240
 20.670    592.278    555.520     36.758    554.954    555.408    554.954    555.065    554.954
 20.770    522.000    555.245    -33.245    554.667    555.132    554.667    554.779    554.667
 20.870    551.000    554.970     -3.970    554.379    554.856    554.379    554.493    554.379
 20.970    541.894    554.694    -12.800    554.090    554.580    554.090    554.205    554.090
 21.070    541.376    554.419    -13.043    553.800    554.303    553.800    553.916    553.800
 21.170    542.886    554.146    -11.260    553.510    554.027    553.510    553.629    553.510
 21.270    527.000    553.872    -26.872    553.218    553.751    553.218    553.339    553.218
 21.370    524.000    553.597    -29.597    552.926    553.475    552.926    553.048    552.926
 21.470    549.000    553.323     -4.323    552.632    553.199    552.632    552.756    552.632
 21.570    564.000    553.050     10.950    552.338    552.925    552.338    552.464    552.338
 21.670    534.000    552.780    -18.780    552.044    552.653    552.044    552.171    552.044
 21.770    530.090    552.512    -22.422    551.748    552.384    551.748    551.876    551.748
 21.870    570.000    552.250     17.750    551.452    552.120    551.452    551.582    551.452
 21.970    565.000    552.059     12.941    551.155    551.928    551.155    551.286    551.155
 22.070    515.443    551.813    -36.370    550.857    551.680    550.857    550.990    550.857
 22.170    553.000    551.550      1.450    550.559    551.415    550.559    550.694    550.559
 22.270    513.451    551.289    -37.838    550.260    551.153    550.260    550.397    550.260
 22.370    573.659    551.034     22.625    549.961    550.896    549.961    550.099    549.961
 22.470    576.084    550.785     25.299    549.661    550.645    549.661    549.801    549.661
 22.570    582.000    550.580     31.420    549.361    550.438    549.361    549.503    549.361
 22.670    510.336    550.356    -40.019    549.060    550.212    549.060    549.204    549.060
 22.770    538.000    550.140    -12.140    548.758    549.994    548.758    548.904    548.758
 22.870    549.000    549.936     -0.936    548.456    549.788    548.456    548.605    548.456
 22.970    512.683    549.721    -37.037    548.154    549.571    548.154    548.304    548.154
 23.070    516.000    549.515    -33.515    547.851    549.363    547.851    548.004    547.851
 23.170    599.000    549.325     49.675    547.548    549.171    547.548    547.703    547.548
 23.270    564.000    549.155     14.845    547.245    548.999    547.245    547.402    547.245
 23.370    518.000    549.011    -31.011    546.941    548.852    546.941    547.101    546.941
 23.470    590.724    548.898     41.827    546.637    548.736    546.637    546.800    546.637
 23.570    548.000    548.827     -0.827    546.333    548.662    546.333    546.498    546.333
 23.670    534.000    548.813    -14.813    546.028    548.646    546.028    546.197    546.028
 23.770    548.000    548.877     -0.877    545.723    548.707    545.723    545.895    545.723
 23.870    514.267    549.054    -34.788    545.418    548.882    545.418    545.593    545.418
 23.970    547.196    549.409     -2.213    545.113    549.234    545.113    545.291    545.113
 24.070    593.129    550.097     43.032    544.808    549.919    544.808    544.989    544.808
 24.170    545.000    551.527     -6.527    544.502    551.347    544.502    544.687    544.502
 24.270    537.000    554.681    -17.681    544.196    554.499    544.196    544.385    544.196
 24.370    609.000    561.394     47.606    543.891    561.213    543.891    544.084    543.891
 24.470    595.000    573.925     21.075    543.585    573.748    543.585    543.782    543.585
 24.570    574.000    593.074    -19.074    543.279    592.907    543.279    543.480    543.279
 24.670    577.000    615.029    -38.029    542.973    614.874    542.973    543.179    542.973
 24.770    662.834    629.328     33.506    542.667    629.178    542.667    542.878    542.667
 24.870    599.000    625.797    -26.797    542.361    625.640    542.361    542.578    542.361
 24.970    605.522    607.185     -1.663    542.055    607.010    542.055    542.277    542.055
 25.070    556.663    584.962    -28.299    541.749    584.764    541.749    541.977    541.749
 25.170    588.000    567.365     20.635    541.443    567.148    541.443    541.678    541.443
 25.270    512.562    556.389    -43.827    541.138    556.158    541.138    541.379    541.138
 25.370    550.000    550.537     -0.537    540.832    550.295    540.832    541.080    540.832
 25.470    545.233    547.554     -2.321    540.527    547.302    540.527    540.782    540.527
 25.570    571.000    545.903     25.097    540.221    545.642    540.221    540.485    540.221
 25.670    527.000    544.842    -17.842    539.916    544.571    539.916    540.189    539.916
 25.770    551.000    544.061      6.939    539.611    543.781    539.611    539.893    539.611
 25.870    569.000    543.435     25.565    539.307    543.144    539.307    539.599    539.307
 25.970    634.000    542.918     91.082    539.002    542.616    539.002    539.305    539.002
 26.070    543.000    542.491      0.509    538.698    542.177    538.698    539.012    538.698
 26.170    538.267    542.143     -3.875    538.394    541.816    538.394    538.721    538.394
 26.270    551.250    541.865      9.384    538.090    541.525    538.090    538.431    538.090
 26.370    510.000    541.627    -31.627    537.787    541.272    537.787    538.143    537.787
 26.470    536.000    541.416     -5.416    537.484    541.045    537.484    537.856    537.484
 26.570    556.000    541.252     14.748    537.181    540.863    537.181    537.571    537.181
 26.670    543.000    541.136      1.864    536.879    540.727    536.879    537.288    536.879
 26.770    544.043    541.077      2.966    536.577    540.647    536.577    537.008    536.577
 26.870    533.000    541.086     -8.086    536.276    540.632    536.276    536.730    536.276
 26.970    583.549    541.186     42.363    535.975    540.706    535.975    536.455    535.975
 27.070    514.009    541.400    -27.391    535.674    540.890    535.674    536.183    535.674
 27.170    551.000    541.724      9.276    535.374    541.182    535.374    535.916    535.374
 27.270    618.000    542.223     75.777    535.074    541.644    535.074    535.652    535.074
 27.370    581.000    542.968     38.032    534.775    542.348    534.775    535.394    534.775
 27.470    589.000    544.085     44.915    534.476    543.418    534.476    535.142    534.476
 27.570    504.091    545.902    -41.811    534.178    545.181    534.178    534.897    534.178
 27.670    518.000    549.648    -31.648    533.880    548.866    533.880    534.660    533.880
 27.770    602.000    559.794     42.206    533.583    558.938    533.583    534.433    533.583
 27.870    614.941    588.459     26.482    533.287    587.513    533.287    534.217    533.287
 27.970    666.000    655.724     10.276    532.991    654.662    532.991    534.016    532.991
 28.070    777.231    771.817      5.414    532.696    770.611    532.696    533.833    532.696
 28.170    877.952    903.498    -25.546    532.401    902.130    532.401    533.671    532.401
 28.270    975.517    968.398      7.119    532.107    966.873    532.107    533.537    532.107
 28.370    857.087    912.583    -55.496    531.814    910.901    531.814    533.439    531.814
 28.470    804.689    792.916     11.773    531.521    791.028    531.521    533.388    531.521
 28.570    659.000    701.073    -42.073    531.229    698.890    531.229    533.404    531.229
 28.670    661.370    683.317    -21.948    530.938    680.723    530.938    533.519    530.938
 28.770    754.000    732.877     21.123    530.647    729.717    530.647    533.789    530.647
 28.870    816.000    806.387      9.613    530.358    802.428    530.358    534.307    530.358
 28.970    809.000    841.252    -32.252    530.068    836.110    530.068    535.216    530.068
 29.070    825.616    801.069     24.546    529.780    794.152    529.780    536.713    529.780
 29.170    678.000    718.236    -40.236    529.493    708.728    529.493    539.015    529.493
 29.270    679.937    642.809     37.128    529.206    629.725    529.206    542.299    529.206
 29.370    643.249    597.180     46.069    528.920    579.542    528.920    546.561    528.920
 29.470    571.000    577.823     -6.823    528.635    555.072    528.635    551.384    528.635
 29.570    569.883    572.117     -2.234    528.351    544.870    528.351    555.595    528.351
 29.670    593.000    569.811     23.189    528.067    540.504    528.067    557.372    528.067
 29.770    603.000    566.017     36.983    527.785    538.195    527.785    555.604    527.785
 29.870    601.000    560.328     40.672    527.503    536.695    527.503    551.134    527.503
 29.970    569.000    554.188     14.812    527.223    535.642    527.223    545.766    527.223
 30.070    513.457    548.784    -35.327    526.943    534.922    526.943    540.802    526.943
 30.170    578.000    544.630     33.370    526.664    534.518    526.664    536.774    526.664
 30.270    525.876    541.896    -16.020    526.386    534.539    526.386    533.741    526.386
 30.370    575.586    540.866     34.719    526.109    535.422    526.109    531.549    526.109
