neutron_powder_diffraction_0152
R_wp: 3.963
Temperature (K): 1074.000
Counts: 83836.00
Wavelength (Ã…): 2.52098
COMMENTS
Test file for demonstrating the .xyy file format in Reel1.0
END OF HEADER
   tth       Y_obs     Y_calc      Y_res    Background    Phase_1_Nuc    Phase_1_Mag    Phase_2_Nuc    Phase_2_Mag
  9.970    607.000    573.050     33.950    572.190    572.980    572.190    572.259    572.190
 10.070    583.965    573.131     10.834    572.202    573.061    572.202    572.272    572.202
 10.170    584.000    573.218     10.782    572.209    573.147    572.209    572.279    572.209
 10.270    610.000    573.312     36.688    572.212    573.241    572.212    572.282    572.212
 10.370    599.702    573.415     26.287    572.209    573.344    572.209    572.279    572.209
 10.470    534.437    573.534    -39.097    572.201    573.462    572.201    572.272    572.201
 10.570    603.948    573.669     30.279    572.189    573.597    572.189    572.260    572.189
 10.670    590.474    573.828     16.646    572.172    573.756    572.172    572.243    572.172
 10.770    529.816    574.018    -44.203    572.150    573.945    572.150    572.222    572.150
 10.870    570.000    574.251     -4.251    572.124    574.178    572.124    572.196    572.124
 10.970    624.000    574.543     49.457    572.093    574.469    572.093    572.165    572.093
 11.070    604.059    574.910     29.149    572.058    574.836    572.058    572.130    572.058
 11.170    599.000    575.386     23.614    572.018    575.312    572.018    572.090    572.018
 11.270    570.341    576.020     -5.679    571.973    575.945    571.973    572.046    571.973
 11.370    609.000    576.899     32.101    571.924    576.823    571.924    571.998    571.924
 11.470    575.294    578.221     -2.927    571.871    578.144    571.871    571.945    571.871
 11.570    580.273    580.501     -0.227    571.813    580.422    571.813    571.887    571.813
 11.670    605.587    584.993     20.594    571.752    584.911    571.752    571.826    571.752
 11.770    614.399    594.172     20.227    571.685    594.085    571.685    571.760    571.685
 11.870    632.000    611.409     20.591    571.615    611.311    571.615    571.690    571.615
 11.970    662.000    638.655     23.345    571.541    638.541    571.541    571.616    571.541
 12.070    690.000    671.920     18.080    571.462    671.788    571.462    571.538    571.462
 12.170    720.000    697.327     22.673    571.380    697.181    571.380    571.456    571.380
 12.270    673.000    698.061    -25.061    571.293    697.913    571.293    571.370    571.293
 12.370    654.708    673.419    -18.711    571.203    673.284    571.203    571.280    571.203
 12.470    632.000    639.906     -7.906    571.108    639.791    571.108    571.185    571.108
 12.570    647.506    611.970     35.536    571.010    611.870    571.010    571.088    571.010
 12.670    619.000    594.054     24.946    570.908    593.963    570.908    570.986    570.908
 12.770    573.000    584.377    -11.377    570.802    584.292    570.802    570.880    570.802
 12.870    579.612    579.553      0.059    570.692    579.470    570.692    570.771    570.692
 12.970    583.000    577.036      5.964    570.579    576.953    570.579    570.658    570.579
 13.070    575.000    575.515     -0.515    570.462    575.433    570.462    570.541    570.462
 13.170    537.000    574.453    -37.453    570.341    574.371    570.341    570.421    570.341
 13.270    555.922    573.644    -17.721    570.217    573.562    570.217    570.297    570.217
 13.370    587.730    572.996     14.734    570.089    572.914    570.089    570.170    570.089
 13.470    555.000    572.462    -17.462    569.958    572.380    569.958    570.039    569.958
 13.570    602.713    572.008     30.705    569.823    571.926    569.823    569.905    569.823
 13.670    582.527    571.612     10.915    569.685    571.529    569.685    569.767    569.685
 13.770    527.907    571.259    -43.352    569.544    571.176    569.544    569.626    569.544
 13.870    589.000    570.940     18.060    569.399    570.856    569.399    569.482    569.399
 13.970    583.223    570.646     12.577    569.251    570.562    569.251    569.334    569.251
 14.070    544.420    570.372    -25.952    569.100    570.288    569.100    569.183    569.100
 14.170    588.000    570.113     17.887    568.945    570.028    568.945    569.029    568.945
 14.270    560.000    569.866     -9.866    568.788    569.781    568.788    568.872    568.788
 14.370    606.000    569.628     36.372    568.627    569.543    568.627    568.711    568.627
 14.470    576.005    569.397      6.608    568.463    569.311    568.463    568.548    568.463
 14.570    539.000    569.172    -30.172    568.296    569.086    568.296    568.382    568.296
 14.670    557.000    568.950    -11.950    568.126    568.864    568.126    568.212    568.126
 14.770    581.000    568.732     12.268    567.953    568.646    567.953    568.040    567.953
 14.870    522.156    568.517    -46.360    567.777    568.430    567.777    567.864    567.777
 14.970    535.539    568.303    -32.764    567.599    568.215    567.599    567.686    567.599
 15.070    548.033    568.090    -20.057    567.417    568.002    567.417    567.505    567.417
 15.170    546.646    567.878    -21.231    567.233    567.789    567.233    567.321    567.233
 15.270    544.000    567.666    -23.666    567.046    567.577    567.046    567.134    567.046
 15.370    580.666    567.454     13.212    566.856    567.365    566.856    566.945    566.856
 15.470    598.000    567.243     30.757    566.663    567.153    566.663    566.753    566.663
 15.570    616.000    567.031     48.969    566.468    566.939    566.468    566.560    566.468
 15.670    551.000    566.818    -15.818    566.270    566.724    566.270    566.364    566.270
 15.770    579.613    566.605     13.008    566.070    566.511    566.070    566.164    566.070
 15.870    543.087    566.389    -23.302    565.867    566.295    565.867    565.961    565.867
 15.970    562.000    566.172     -4.172    565.661    566.077    565.661    565.756    565.661
 16.070    569.000    565.953      3.047    565.453    565.858    565.453    565.549    565.453
 16.170    577.000    565.733     11.267    565.243    565.637    565.243    565.339    565.243
 16.270    562.000    565.512     -3.512    565.030    565.415    565.030    565.127    565.030
 16.370    511.000    565.289    -54.289    564.815    565.192    564.815    564.912    564.815
 16.470    574.638    565.065      9.573    564.597    564.967    564.597    564.695    564.597
 16.570    550.000    564.838    -14.838    564.377    564.740    564.377    564.476    564.377
 16.670    587.000    564.611     22.389    564.155    564.512    564.155    564.254    564.155
 16.770    557.140    564.382     -7.241    563.931    564.282    563.931    564.031    563.931
 16.870    555.000    564.151     -9.151    563.704    564.051    563.704    563.805    563.704
 16.970    526.000    563.919    -37.919    563.476    563.818    563.476    563.577    563.476
 17.070    565.000    563.685      1.315    563.245    563.583    563.245    563.347    563.245
 17.170    517.000    563.449    -46.449    563.012    563.347    563.012    563.114    563.012
 17.270    546.000    563.212    -17.212    562.777    563.109    562.777    562.880    562.777
 17.370    596.000    562.973     33.027    562.540    562.870    562.540    562.644    562.540
 17.470    520.797    562.733    -41.936    562.301    562.629    562.301    562.406    562.301
 17.570    590.000    562.491     27.509    562.061    562.386    562.061    562.165    562.061
 17.670    526.000    562.248    -36.248    561.818    562.143    561.818    561.923    561.818
 17.770    603.000    562.004     40.996    561.573    561.898    561.573    561.679    561.573
 17.870    531.630    561.759    -30.129    561.327    561.652    561.327    561.433    561.327
 17.970    559.000    561.525     -2.525    561.078    561.417    561.078    561.186    561.078
 18.070    555.000    561.286     -6.286    560.828    561.178    560.828    560.936    560.828
 18.170    541.000    561.037    -20.037    560.576    560.928    560.576    560.685    560.576
 18.270    600.000    560.785     39.215    560.323    560.675    560.323    560.432    560.323
 18.370    537.329    560.532    -23.203    560.067    560.421    560.067    560.178    560.067
 18.470    589.000    560.277     28.723    559.810    560.166    559.810    559.922    559.810
 18.570    503.000    560.021    -57.021    559.552    559.909    559.552    559.664    559.552
 18.670    593.000    559.764     33.236    559.291    559.651    559.291    559.405    559.291
 18.770    575.000    559.506     15.494    559.030    559.392    559.030    559.144    559.030
 18.870    556.000    559.246     -3.246    558.766    559.131    558.766    558.881    558.766
 18.970    512.934    558.986    -46.052    558.502    558.870    558.502    558.617    558.502
 19.070    579.000    558.724     20.276    558.235    558.607    558.235    558.352    558.235
 19.170    552.000    558.461     -6.461    557.968    558.343    557.968    558.085    557.968
 19.270    542.000    558.197    -16.197    557.699    558.078    557.699    557.817    557.699
 19.370    513.375    557.933    -44.558    557.428    557.813    557.428    557.548    557.428
 19.470    534.753    557.670    -22.917    557.156    557.549    557.156    557.277    557.156
 19.570    567.000    557.403      9.597    556.883    557.282    556.883    557.004    556.883
 19.670    538.794    557.135    -18.341    556.609    557.013    556.609    556.731    556.609
 19.770    580.000    556.867     23.133    556.333    556.743    556.333    556.456    556.333
 19.870    580.000    556.597     23.403    556.056    556.473    556.056    556.180    556.056
 19.970    551.000    556.329     -5.329    555.778    556.204    555.778    555.903    555.778
 20.070    590.596    556.062     34.534    555.499    555.936    555.499    555.625    555.499
 20.170    558.000    555.791      2.209    555.218    555.664    555.218    555.346    555.218
 20.270    573.273    555.519     17.754    554.937    555.391    554.937    555.065    554.937
 20.370    587.199    555.247     31.952    554.654    555.117    554.654    554.784    554.654
 20.470    541.825    554.975    -13.149    554.370    554.843    554.370    554.501    554.370
 20.570    584.000    554.703     29.297    554.085    554.570    554.085    554.218    554.085
 20.670    589.235    554.429     34.806    553.800    554.296    553.800    553.933    553.800
 20.770    548.000    554.156     -6.156    553.513    554.021    553.513    553.648    553.513
 20.870    526.000    553.882    -27.882    553.225    553.746    553.225    553.362    553.225
 20.970    555.000    553.617      1.383    552.937    553.479    552.937    553.074    552.937
 21.070    552.430    553.422     -0.992    552.647    553.283    552.647    552.786    552.647
 21.170    560.000    553.169      6.831    552.357    553.029    552.357    552.497    552.357
 21.270    568.000    552.898     15.102    552.066    552.756    552.066    552.208    552.066
 21.370    574.916    552.625     22.291    551.774    552.482    551.774    551.917    551.774
 21.470    557.000    552.354      4.646    551.481    552.208    551.481    551.626    551.481
 21.570    568.000    552.083     15.917    551.187    551.936    551.187    551.334    551.187
 21.670    520.836    551.813    -30.977    550.893    551.664    550.893    551.041    550.893
 21.770    585.000    551.544     33.456    550.598    551.394    550.598    550.748    550.598
 21.870    563.000    551.277     11.723    550.302    551.125    550.302    550.454    550.302
 21.970    545.000    551.012     -6.012    550.006    550.858    550.006    550.160    550.006
 22.070    550.655    550.753     -0.098    549.709    550.598    549.709    549.865    549.709
 22.170    538.000    550.538    -12.538    549.411    550.381    549.411    549.569    549.411
 22.270    592.852    550.299     42.553    549.113    550.140    549.113    549.273    549.113
 22.370    531.068    550.047    -18.979    548.814    549.886    548.814    548.976    548.814
 22.470    550.000    549.799      0.201    548.515    549.635    548.515    548.679    548.515
 22.570    526.000    549.557    -23.557    548.215    549.391    548.215    548.381    548.215
 22.670    544.646    549.339     -4.693    547.915    549.171    547.915    548.084    547.915
 22.770    590.000    549.134     40.866    547.614    548.964    547.614    547.785    547.614
 22.870    544.000    548.916     -4.916    547.313    548.744    547.313    547.487    547.313
 22.970    531.409    548.708    -17.299    547.012    548.533    547.012    547.188    547.012
 23.070    503.376    548.513    -45.138    546.710    548.335    546.710    546.888    546.710
 23.170    592.381    548.336     44.045    546.407    548.156    546.407    546.589    546.407
 23.270    537.000    548.181    -11.181    546.105    547.997    546.105    546.289    546.105
 23.370    567.000    548.053     18.947    545.802    547.867    545.802    545.989    545.802
 23.470    541.000    547.961     -6.961    545.499    547.772    545.499    545.689    545.499
 23.570    558.000    547.916     10.084    545.195    547.724    545.195    545.389    545.195
 23.670    523.265    547.935    -24.670    544.891    547.739    544.891    545.088    544.891
 23.770    542.000    548.047     -6.047    544.587    547.849    544.587    544.788    544.587
 23.870    547.000    548.297     -1.297    544.283    548.094    544.283    544.487    544.283
 23.970    554.000    548.747      5.253    543.979    548.542    543.979    544.187    543.979
 24.070    594.964    549.580     45.384    543.674    549.371    543.674    543.886    543.674
 24.170    549.000    551.267     -2.267    543.369    551.056    543.369    543.586    543.369
 24.270    598.548    554.825     43.723    543.065    554.611    543.065    543.286    543.065
 24.370    552.639    561.962     -9.323    542.760    561.749    542.760    542.985    542.760
 24.470    537.785    574.552    -36.767    542.455    574.343    542.455    542.685    542.455
 24.570    652.000    592.951     59.049    542.150    592.750    542.150    542.386    542.150
 24.670    646.000    613.396     32.604    541.845    613.205    541.845    542.086    541.845
 24.770    579.000    626.469    -47.469    541.540    626.282    541.540    541.787    541.540
 24.870    635.000    623.238     11.762    541.235    623.043    541.235    541.488    541.235
 24.970    571.000    606.095    -35.095    540.929    605.881    540.929    541.189    540.929
 25.070    643.000    585.210     57.790    540.625    584.974    540.625    540.891    540.625
 25.170    578.000    568.087      9.913    540.320    567.831    540.320    540.594    540.320
 25.270    604.000    556.887     47.113    540.015    556.616    540.015    540.297    540.015
 25.370    529.344    550.569    -21.225    539.710    550.285    539.710    540.000    539.710
 25.470    560.145    547.223     12.922    539.406    546.928    539.406    539.705    539.406
 25.570    529.000    545.364    -16.364    539.101    545.058    539.101    539.410    539.101
 25.670    530.637    544.182    -13.545    538.797    543.866    538.797    539.116    538.797
 25.770    530.000    543.351    -13.351    538.493    543.023    538.493    538.822    538.493
 25.870    505.000    542.699    -37.699    538.189    542.360    538.189    538.530    538.189
 25.970    559.496    542.148     17.348    537.885    541.796    537.885    538.239    537.885
 26.070    560.899    541.687     19.212    537.582    541.321    537.582    537.949    537.582
 26.170    551.000    541.298      9.702    537.279    540.916    537.279    537.661    537.279
 26.270    520.000    540.969    -20.969    536.976    540.571    536.976    537.374    536.976
 26.370    568.000    540.704     27.296    536.674    540.290    536.674    537.089    536.674
 26.470    511.645    540.500    -28.855    536.371    540.066    536.371    536.805    536.371
 26.570    524.106    540.322    -16.216    536.070    539.867    536.070    536.524    536.070
 26.670    545.000    540.193      4.807    535.768    539.716    535.768    536.245    535.768
 26.770    546.000    540.122      5.878    535.467    539.620    535.467    535.969    535.467
 26.870    497.546    540.121    -42.575    535.166    539.592    535.166    535.696    535.166
 26.970    549.000    540.198      8.802    534.866    539.638    534.866    535.425    534.866
 27.070    517.424    540.384    -22.959    534.566    539.790    534.566    535.159    534.566
 27.170    508.000    540.697    -32.697    534.267    540.066    534.267    534.897    534.267
 27.270    592.000    541.172     50.828    533.968    540.499    533.968    534.640    533.968
 27.370    553.000    541.885     11.115    533.669    541.164    533.669    534.389    533.669
 27.470    557.000    542.957     14.043    533.371    542.183    533.371    534.144    533.371
 27.570    554.155    544.714      9.441    533.074    543.878    533.074    533.907    533.074
 27.670    598.000    548.391     49.609    532.777    547.485    532.777    533.680    532.777
 27.770    536.156    558.523    -22.367    532.480    557.534    532.480    533.463    532.480
 27.870    612.032    587.383     24.649    532.184    586.291    532.184    533.259    532.184
 27.970    670.000    655.228     14.772    531.889    654.006    531.889    533.071    531.889
 28.070    753.000    772.232    -19.232    531.594    770.849    531.594    532.903    531.594
 28.170    864.616    904.587    -39.971    531.300    903.023    531.300    532.759    531.300
 28.270    949.000    969.637    -20.637    531.007    967.895    531.007    532.646    531.007
 28.370    952.000    913.803     38.197    530.714    911.879    530.714    532.573    530.714
 28.470    799.000    793.727      5.273    530.422    791.567    530.422    532.556    530.422
 28.570    677.000    701.503    -24.503    530.130    699.006    530.130    532.616    530.130
 28.670    683.000    684.033     -1.033    529.839    681.069    529.839    532.788    529.839
 28.770    717.000    734.396    -17.396    529.549    730.805    529.549    533.120    529.549
 28.870    856.370    808.595     47.775    529.260    804.162    529.260    533.678    529.260
 28.970    809.000    843.652    -34.652    528.971    838.078    528.971    534.545    528.971
 29.070    756.450    803.128    -46.679    528.683    796.011    528.683    535.812    528.683
 29.170    649.000    719.149    -70.149    528.396    709.997    528.396    537.561    528.396
 29.270    613.000    641.809    -28.809    528.110    630.098    528.110    539.829    528.110
 29.370    600.000    593.839      6.161    527.824    579.130    527.824    542.537    527.824
 29.470    624.000    572.026     51.974    527.539    554.201    527.539    545.365    527.539
 29.570    573.003    564.197      8.806    527.255    543.814    527.255    547.637    527.255
 29.670    572.570    560.905     11.665    526.972    539.401    526.972    548.474    526.972
 29.770    569.000    557.796     11.204    526.690    537.093    526.690    547.393    526.690
 29.870    537.000    553.949    -16.949    526.408    535.604    526.408    544.753    526.408
 29.970    569.255    549.846     19.409    526.128    534.562    526.128    541.410    526.128
 30.070    563.000    546.098     16.902    525.848    533.854    525.848    538.090    525.848
 30.170    583.000    543.065     39.935    525.569    533.461    525.569    535.171    525.569
 30.270    621.000    540.977     80.023    525.291    533.499    525.291    532.767    525.291
 30.370    555.708    540.261     15.447    525.014    534.417    525.014    530.854    525.014
