neutron_powder_diffraction_0097
R_wp: 4.048
Temperature (K): 874.367
Counts: 83331.00
Wavelength (Ã…): 2.52098
COMMENTS
Test file for demonstrating the .xyy file format in Reel1.0
END OF HEADER
   tth       Y_obs     Y_calc      Y_res    Background    Phase_1_Nuc    Phase_1_Mag    Phase_2_Nuc    Phase_2_Mag
  9.970    628.000    552.943     75.057    551.587    552.698    551.587    551.831    551.587
 10.070    521.336    553.496    -32.160    552.042    553.250    552.042    552.288    552.042
 10.170    599.383    554.051     45.332    552.487    553.804    552.487    552.734    552.487
 10.270    592.117    554.611     37.506    552.922    554.363    552.922    553.170    552.922
 10.370    537.263    555.180    -17.917    553.347    554.931    553.347    553.595    553.347
 10.470    506.773    555.763    -48.990    553.761    555.513    553.761    554.010    553.761
 10.570    603.286    556.366     46.920    554.165    556.114    554.165    554.416    554.165
 10.670    603.000    556.995     46.005    554.559    556.742    554.559    554.811    554.559
 10.770    575.000    557.661     17.339    554.944    557.407    554.944    555.196    554.944
 10.870    627.000    558.377     68.623    555.318    558.122    555.318    555.572    555.318
 10.970    577.000    559.161     17.839    555.683    558.905    555.683    555.937    555.683
 11.070    569.000    560.038      8.962    556.038    559.780    556.038    556.293    556.038
 11.170    535.553    561.045    -25.492    556.383    560.786    556.383    556.640    556.383
 11.270    535.000    562.241    -27.241    556.719    561.980    556.719    556.977    556.719
 11.370    587.000    563.729     23.271    557.046    563.467    557.046    557.305    557.046
 11.470    592.732    565.726     27.005    557.363    565.462    557.363    557.623    557.363
 11.570    575.000    568.709      6.291    557.671    568.442    557.671    557.932    557.671
 11.670    585.897    573.657     12.241    557.969    573.386    557.969    558.232    557.969
 11.770    654.000    582.254     71.746    558.259    581.978    558.259    558.522    558.259
 11.870    610.000    596.649     13.351    558.539    596.364    558.539    558.804    558.539
 11.970    672.000    618.293     53.707    558.811    617.996    558.811    559.077    558.811
 12.070    679.966    645.632     34.334    559.074    645.318    559.074    559.341    559.074
 12.170    640.000    671.006    -31.006    559.328    670.677    559.328    559.596    559.328
 12.270    715.000    680.735     34.265    559.573    680.400    559.573    559.842    559.573
 12.370    638.000    667.443    -29.443    559.810    667.114    559.810    560.080    559.810
 12.470    601.000    640.971    -39.971    560.038    640.656    560.038    560.309    560.038
 12.570    589.000    614.745    -25.745    560.257    614.443    560.257    560.530    560.257
 12.670    560.567    595.034    -34.467    560.469    594.741    560.469    560.743    560.469
 12.770    593.000    582.488     10.512    560.671    582.201    560.671    560.947    560.671
 12.870    573.683    575.330     -1.647    560.866    575.045    560.866    561.143    560.866
 12.970    598.967    571.421     27.547    561.052    571.137    561.052    561.331    561.052
 13.070    547.000    569.213    -22.213    561.231    568.930    561.231    561.510    561.231
 13.170    597.619    567.853     29.766    561.401    567.569    561.401    561.682    561.401
 13.270    573.000    566.940      6.060    561.564    566.655    561.564    561.846    561.564
 13.370    563.244    566.289     -3.045    561.718    566.004    561.718    562.001    561.718
 13.470    554.638    565.813    -11.175    561.865    565.526    561.865    562.149    561.865
 13.570    538.000    565.459    -27.459    562.004    565.172    562.004    562.290    562.004
 13.670    567.554    565.195      2.359    562.135    564.906    562.135    562.423    562.135
 13.770    549.340    564.996    -15.657    562.259    564.707    562.259    562.548    562.259
 13.870    563.000    564.847     -1.847    562.375    564.556    562.375    562.665    562.375
 13.970    558.000    564.734     -6.734    562.484    564.442    562.484    562.776    562.484
 14.070    534.233    564.650    -30.417    562.586    564.356    562.586    562.879    562.586
 14.170    517.000    564.586    -47.586    562.680    564.291    562.680    562.974    562.680
 14.270    593.275    564.538     28.737    562.767    564.241    562.767    563.063    562.767
 14.370    506.000    564.502    -58.502    562.846    564.204    562.846    563.144    562.846
 14.470    559.000    564.474     -5.474    562.919    564.174    562.919    563.218    562.919
 14.570    529.000    564.452    -35.452    562.985    564.151    562.985    563.285    562.985
 14.670    562.000    564.434     -2.434    563.044    564.132    563.044    563.346    563.044
 14.770    522.038    564.423    -42.384    563.096    564.119    563.096    563.399    563.096
 14.870    563.000    564.433     -1.433    563.141    564.127    563.141    563.446    563.141
 14.970    572.011    564.422      7.589    563.179    564.115    563.179    563.486    563.179
 15.070    594.294    564.412     29.882    563.211    564.103    563.211    563.519    563.211
 15.170    592.140    564.396     27.744    563.236    564.086    563.236    563.546    563.236
 15.270    536.000    564.378    -28.378    563.255    564.066    563.255    563.566    563.255
 15.370    591.000    564.357     26.643    563.267    564.044    563.267    563.580    563.267
 15.470    583.000    564.334     18.666    563.273    564.019    563.273    563.588    563.273
 15.570    504.000    564.307    -60.307    563.272    563.990    563.272    563.589    563.272
 15.670    589.433    564.277     25.156    563.265    563.958    563.265    563.584    563.265
 15.770    529.000    564.243    -35.243    563.252    563.922    563.252    563.573    563.252
 15.870    601.400    564.205     37.195    563.233    563.882    563.233    563.555    563.233
 15.970    500.000    564.163    -64.163    563.208    563.839    563.208    563.532    563.208
 16.070    556.103    564.116     -8.013    563.177    563.790    563.177    563.503    563.177
 16.170    569.966    564.066      5.901    563.140    563.738    563.140    563.468    563.140
 16.270    567.000    564.011      2.989    563.097    563.681    563.097    563.426    563.097
 16.370    557.000    563.951     -6.951    563.048    563.620    563.048    563.380    563.048
 16.470    544.358    563.887    -19.530    562.994    563.554    562.994    563.327    562.994
 16.570    565.820    563.819      2.001    562.934    563.483    562.934    563.269    562.934
 16.670    531.000    563.748    -32.748    562.868    563.411    562.868    563.205    562.868
 16.770    555.000    563.707     -8.707    562.797    563.367    562.797    563.136    562.797
 16.870    573.000    563.705      9.295    562.720    563.363    562.720    563.061    562.720
 16.970    529.860    563.626    -33.766    562.638    563.283    562.638    562.981    562.638
 17.070    558.000    563.539     -5.539    562.550    563.193    562.550    562.896    562.550
 17.170    572.000    563.447      8.553    562.458    563.099    562.458    562.805    562.458
 17.270    544.000    563.347    -19.347    562.359    562.997    562.359    562.709    562.359
 17.370    576.718    563.242     13.476    562.256    562.890    562.256    562.608    562.256
 17.470    513.000    563.133    -50.133    562.148    562.779    562.148    562.502    562.148
 17.570    525.000    563.020    -38.020    562.035    562.663    562.035    562.391    562.035
 17.670    586.000    562.902     23.098    561.916    562.543    561.916    562.275    561.916
 17.770    551.844    562.779    -10.936    561.793    562.418    561.793    562.154    561.793
 17.870    565.919    562.653      3.266    561.665    562.289    561.665    562.028    561.665
 17.970    531.644    562.522    -30.878    561.532    562.156    561.532    561.898    561.532
 18.070    522.000    562.387    -40.387    561.394    562.018    561.394    561.763    561.394
 18.170    540.195    562.248    -22.053    561.252    561.877    561.252    561.623    561.252
 18.270    524.000    562.107    -38.107    561.105    561.734    561.105    561.478    561.105
 18.370    585.031    561.961     23.070    560.953    561.585    560.953    561.329    560.953
 18.470    510.000    561.810    -51.810    560.797    561.431    560.797    561.176    560.797
 18.570    606.573    561.654     44.919    560.636    561.272    560.636    561.018    560.636
 18.670    594.234    561.494     32.739    560.471    561.110    560.471    560.856    560.471
 18.770    551.000    561.334    -10.334    560.302    560.947    560.302    560.689    560.302
 18.870    543.000    561.198    -18.198    560.128    560.808    560.128    560.518    560.128
 18.970    590.000    561.069     28.931    559.950    560.676    559.950    560.343    559.950
 19.070    533.000    560.899    -27.899    559.768    560.503    559.768    560.164    559.768
 19.170    518.000    560.721    -42.721    559.582    560.322    559.582    559.981    559.582
 19.270    529.000    560.540    -31.540    559.392    560.138    559.392    559.794    559.392
 19.370    605.257    560.357     44.900    559.198    559.952    559.198    559.603    559.198
 19.470    525.000    560.187    -35.187    558.999    559.779    558.999    559.408    558.999
 19.570    506.000    560.006    -54.006    558.797    559.595    558.797    559.209    558.797
 19.670    552.000    559.823     -7.823    558.591    559.408    558.591    559.006    558.591
 19.770    553.920    559.626     -5.706    558.381    559.208    558.381    558.800    558.381
 19.870    537.000    559.425    -22.425    558.168    559.003    558.168    558.590    558.168
 19.970    544.000    559.221    -15.221    557.951    558.796    557.951    558.376    557.951
 20.070    514.147    559.014    -44.868    557.730    558.585    557.730    558.159    557.730
 20.170    564.000    558.808      5.192    557.505    558.375    557.505    557.938    557.505
 20.270    588.151    558.604     29.547    557.278    558.168    557.278    557.714    557.278
 20.370    541.000    558.390    -17.390    557.046    557.949    557.046    557.487    557.046
 20.470    603.118    558.172     44.946    556.811    557.728    556.811    557.256    556.811
 20.570    541.000    557.952    -16.952    556.573    557.504    556.573    557.022    556.573
 20.670    540.264    557.731    -17.467    556.331    557.278    556.331    556.784    556.331
 20.770    562.689    557.506      5.183    556.087    557.049    556.087    556.544    556.087
 20.870    568.000    557.280     10.720    555.839    556.818    555.839    556.300    555.839
 20.970    571.000    557.051     13.949    555.587    556.585    555.587    556.053    555.587
 21.070    562.000    556.821      5.179    555.333    556.350    555.333    555.804    555.333
 21.170    519.000    556.589    -37.589    555.076    556.114    555.076    555.551    555.076
 21.270    571.000    556.357     14.643    554.815    555.877    554.815    555.296    554.815
 21.370    517.253    556.141    -38.888    554.552    555.656    554.552    555.037    554.552
 21.470    554.000    555.933     -1.933    554.285    555.443    554.285    554.776    554.285
 21.570    539.805    555.700    -15.895    554.016    555.204    554.016    554.512    554.016
 21.670    573.000    555.465     17.535    553.744    554.964    553.744    554.245    553.744
 21.770    534.453    555.231    -20.778    553.469    554.724    553.469    553.976    553.469
 21.870    594.967    554.998     39.970    553.192    554.485    553.192    553.704    553.192
 21.970    547.000    554.794     -7.794    552.911    554.276    552.911    553.430    552.911
 22.070    572.005    554.634     17.371    552.629    554.110    552.629    553.153    552.629
 22.170    536.000    554.416    -18.416    552.343    553.886    552.343    552.874    552.343
 22.270    553.081    554.188     -1.107    552.055    553.651    552.055    552.593    552.055
 22.370    536.000    553.981    -17.981    551.765    553.437    551.765    552.309    551.765
 22.470    566.000    553.794     12.206    551.472    553.244    551.472    552.023    551.472
 22.570    542.059    553.591    -11.532    551.176    553.034    551.176    551.734    551.176
 22.670    584.713    553.382     31.331    550.878    552.817    550.878    551.444    550.878
 22.770    544.000    553.183     -9.183    550.578    552.611    550.578    551.152    550.578
 22.870    583.000    552.990     30.010    550.276    552.410    550.276    550.857    550.276
 22.970    541.625    552.810    -11.185    549.971    552.221    549.971    550.561    549.971
 23.070    521.000    552.650    -31.650    549.665    552.053    549.665    550.263    549.665
 23.170    556.000    552.507      3.493    549.356    551.901    549.356    549.962    549.356
 23.270    538.946    552.382    -13.436    549.045    551.767    549.045    549.661    549.045
 23.370    524.592    552.288    -27.695    548.732    551.664    548.732    549.357    548.732
 23.470    542.508    552.239     -9.731    548.417    551.605    548.417    549.052    548.417
 23.570    512.304    552.235    -39.931    548.099    551.591    548.099    548.745    548.099
 23.670    577.485    552.296     25.189    547.781    551.641    547.781    548.437    547.781
 23.770    519.541    552.446    -32.905    547.460    551.781    547.460    548.127    547.460
 23.870    578.878    552.724     26.154    547.137    552.048    547.137    547.816    547.137
 23.970    506.227    553.196    -46.969    546.812    552.508    546.812    547.504    546.812
 24.070    570.289    553.995     16.294    546.486    553.296    546.486    547.190    546.486
 24.170    549.000    555.416     -6.416    546.158    554.704    546.158    546.875    546.158
 24.270    558.786    558.061      0.725    545.829    557.337    545.829    546.560    545.829
 24.370    568.000    562.971      5.029    545.497    562.237    545.497    546.243    545.497
 24.470    587.000    571.511     15.489    545.164    570.768    545.164    545.925    545.164
 24.570    618.000    584.712     33.288    544.830    583.964    544.830    545.606    544.830
 24.670    561.518    601.970    -40.452    544.494    601.218    544.494    545.287    544.494
 24.770    618.000    619.072     -1.072    544.157    618.315    544.157    544.967    544.157
 24.870    587.894    627.430    -39.536    543.818    626.661    543.818    544.647    543.818
 24.970    627.000    620.921      6.079    543.478    620.127    543.478    544.326    543.478
 25.070    607.000    604.246      2.754    543.136    603.420    543.136    544.005    543.136
 25.170    626.921    586.120     40.801    542.793    585.259    542.793    543.684    542.793
 25.270    611.319    571.540     39.779    542.449    570.646    542.449    543.362    542.449
 25.370    564.000    561.646      2.354    542.103    560.721    542.103    543.041    542.103
 25.470    581.000    555.614     25.386    541.757    554.659    541.757    542.720    541.757
 25.570    528.212    552.090    -23.878    541.409    551.106    541.409    542.399    541.409
 25.670    569.000    549.962     19.038    541.060    548.947    541.060    542.079    541.060
 25.770    568.000    548.553     19.447    540.710    547.507    540.710    541.760    540.710
 25.870    582.105    547.525     34.580    540.359    546.445    540.359    541.441    540.359
 25.970    585.000    546.723     38.277    540.007    545.608    540.007    541.124    540.007
 26.070    574.000    546.072     27.928    539.654    544.919    539.654    540.808    539.654
 26.170    602.000    545.535     56.465    539.300    544.342    539.300    540.494    539.300
 26.270    539.000    545.088     -6.088    538.945    543.852    538.945    540.182    538.945
 26.370    551.000    544.717      6.283    538.589    543.436    538.589    539.872    538.589
 26.470    570.000    544.416     25.584    538.232    543.084    538.232    539.564    538.232
 26.570    567.000    544.180     22.820    537.875    542.795    537.875    539.260    537.875
 26.670    571.000    544.008     26.992    537.516    542.565    537.516    538.959    537.516
 26.770    568.000    543.904     24.096    537.157    542.400    537.157    538.662    537.157
 26.870    529.174    543.878    -14.703    536.797    542.306    536.797    538.370    536.797
 26.970    584.081    543.940     40.140    536.437    542.295    536.437    538.082    536.437
 27.070    576.000    544.111     31.889    536.076    542.387    536.076    537.801    536.076
 27.170    568.615    544.418     24.196    535.714    542.607    535.714    537.526    535.714
 27.270    549.000    544.902      4.098    535.352    542.996    535.352    537.258    535.352
 27.370    590.000    545.627     44.373    534.990    543.617    534.990    536.999    534.990
 27.470    556.000    546.702      9.298    534.626    544.579    534.626    536.748    534.626
 27.570    584.000    548.393     35.607    534.263    546.146    534.263    536.509    534.263
 27.670    609.000    551.593     57.407    533.898    549.209    533.898    536.280    533.898
 27.770    581.000    559.299     21.701    533.534    556.762    533.534    536.065    533.534
 27.870    626.126    579.474     46.652    533.169    576.765    533.169    535.864    533.169
 27.970    661.000    626.401     34.599    532.804    623.494    532.804    535.679    532.804
 28.070    685.000    712.540    -27.540    532.438    709.409    532.438    535.512    532.438
 28.170    782.000    827.314    -45.314    532.072    823.942    532.072    535.364    532.072
 28.270    955.000    921.134     33.866    531.706    917.520    531.706    535.236    531.706
 28.370    974.000    933.190     40.810    531.340    929.338    531.340    535.130    531.340
 28.470    885.000    859.147     25.853    530.973    855.040    530.973    535.047    530.973
 28.570    805.000    762.475     42.525    530.606    758.078    530.606    534.988    530.606
 28.670    684.742    706.992    -22.249    530.239    702.266    530.239    534.952    530.239
 28.770    762.546    713.694     48.852    529.872    708.612    529.872    534.938    529.872
 28.870    779.000    762.815     16.185    529.505    757.360    529.505    534.943    529.505
 28.970    796.301    809.866    -13.565    529.138    804.033    529.138    534.961    529.138
 29.070    847.000    811.136     35.864    528.771    804.926    528.771    534.986    528.771
 29.170    728.182    759.466    -31.284    528.404    752.879    528.404    535.006    528.404
 29.270    688.000    686.457      1.543    528.037    679.501    528.037    535.008    528.037
 29.370    674.930    624.085     50.845    527.670    616.790    527.670    534.976    527.670
 29.470    627.571    584.164     43.407    527.303    576.582    527.303    534.892    527.303
 29.570    588.000    563.361     24.639    526.937    555.561    526.937    534.739    526.937
 29.670    584.000    553.709     30.291    526.570    545.776    526.570    534.505    526.570
 29.770    585.169    549.099     36.070    526.203    541.126    526.203    534.178    526.203
 29.870    578.000    546.471     31.529    525.837    538.552    525.837    533.757    525.837
 29.970    553.660    544.659      9.001    525.471    536.885    525.471    533.246    525.471
 30.070    604.000    543.291     60.709    525.106    535.742    525.106    532.655    525.106
 30.170    566.000    542.278     23.722    524.740    535.018    524.740    531.999    524.740
 30.270    520.769    541.689    -20.920    524.375    534.767    524.375    531.297    524.375
 30.370    566.000    541.828     24.172    524.010    535.273    524.010    530.563    524.010
