neutron_powder_diffraction_0103
R_wp: 3.908
Temperature (K): 904.956
Counts: 83718.00
Wavelength (Ã…): 2.52098
COMMENTS
Test file for demonstrating the .xyy file format in Reel1.0
END OF HEADER
   tth       Y_obs     Y_calc      Y_res    Background    Phase_1_Nuc    Phase_1_Mag    Phase_2_Nuc    Phase_2_Mag
  9.970    571.000    549.781     21.219    548.597    549.528    548.597    548.849    548.597
 10.070    581.000    550.380     30.620    549.117    550.127    549.117    549.370    549.117
 10.170    564.000    550.980     13.020    549.626    550.725    549.626    549.880    549.626
 10.270    581.000    551.582     29.418    550.124    551.326    550.124    550.379    550.124
 10.370    586.000    552.189     33.811    550.611    551.933    550.611    550.866    550.611
 10.470    569.000    552.806     16.194    551.086    552.548    551.086    551.343    551.086
 10.570    580.000    553.437     26.563    551.552    553.178    551.552    551.810    551.552
 10.670    578.008    554.088     23.920    552.006    553.828    552.006    552.265    552.006
 10.770    638.000    554.768     83.232    552.450    554.507    552.450    552.710    552.450
 10.870    604.000    555.488     48.512    552.883    555.225    552.883    553.144    552.883
 10.970    536.912    556.264    -19.352    553.306    556.000    553.306    553.568    553.306
 11.070    600.000    557.117     42.883    553.719    556.852    553.719    553.982    553.719
 11.170    597.679    558.081     39.598    554.121    557.814    554.121    554.386    554.121
 11.270    521.095    559.203    -38.108    554.513    558.935    554.513    554.779    554.513
 11.370    620.000    560.572     59.428    554.895    560.303    554.895    555.162    554.895
 11.470    560.080    562.361     -2.281    555.267    562.089    555.267    555.535    555.267
 11.570    573.000    565.003      7.997    555.629    564.729    555.629    555.899    555.629
 11.670    621.000    569.532     51.468    555.982    569.255    555.982    556.252    555.982
 11.770    619.000    578.026     40.974    556.324    577.744    556.324    556.596    556.324
 11.870    640.000    593.565     46.435    556.657    593.272    556.657    556.930    556.657
 11.970    649.000    618.671     30.329    556.981    618.364    556.981    557.254    556.981
 12.070    656.000    651.698      4.302    557.294    651.372    557.294    557.570    557.294
 12.170    682.000    682.375     -0.375    557.599    682.032    557.599    557.875    557.599
 12.270    698.341    692.827      5.514    557.894    692.477    557.894    558.171    557.894
 12.370    634.000    674.554    -40.554    558.180    674.212    558.180    558.459    558.180
 12.470    629.168    641.528    -12.360    558.456    641.203    558.456    558.736    558.456
 12.570    609.000    610.857     -1.857    558.724    610.547    558.724    559.005    558.724
 12.670    562.866    589.603    -26.737    558.983    589.304    558.983    559.265    558.983
 12.770    531.336    577.426    -46.090    559.232    577.132    559.232    559.516    559.232
 12.870    609.243    571.233     38.010    559.473    570.941    559.473    559.758    559.473
 12.970    571.566    568.156      3.411    559.705    567.865    559.705    559.992    559.705
 13.070    528.000    566.499    -38.499    559.928    566.208    559.928    560.216    559.928
 13.170    577.000    565.491     11.509    560.143    565.199    560.143    560.432    560.143
 13.270    540.000    564.822    -24.822    560.349    564.529    560.349    560.640    560.349
 13.370    575.000    564.362     10.638    560.547    564.068    560.547    560.839    560.547
 13.470    591.944    564.041     27.903    560.736    563.746    560.736    561.030    560.736
 13.570    548.251    563.820    -15.569    560.917    563.524    560.917    561.212    560.917
 13.670    554.000    563.670     -9.670    561.090    563.373    561.090    561.386    561.090
 13.770    559.000    563.572     -4.572    561.255    563.274    561.255    561.553    561.255
 13.870    570.745    563.513      7.232    561.412    563.213    561.412    561.711    561.412
 13.970    583.658    563.484     20.174    561.560    563.183    561.560    561.861    561.560
 14.070    562.409    563.475     -1.066    561.701    563.172    561.701    562.003    561.701
 14.170    536.000    563.480    -27.480    561.834    563.176    561.834    562.137    561.834
 14.270    486.000    563.495    -77.495    561.959    563.190    561.959    562.264    561.959
 14.370    574.066    563.519     10.547    562.076    563.212    562.076    562.383    562.076
 14.470    552.000    563.548    -11.548    562.186    563.239    562.186    562.494    562.186
 14.570    531.572    563.579    -32.008    562.288    563.269    562.288    562.598    562.288
 14.670    560.000    563.613     -3.613    562.383    563.301    562.383    562.694    562.383
 14.770    574.000    563.646     10.354    562.470    563.333    562.470    562.783    562.470
 14.870    569.000    563.678      5.322    562.550    563.364    562.550    562.865    562.550
 14.970    527.000    563.709    -36.709    562.623    563.393    562.623    562.939    562.623
 15.070    580.549    563.738     16.812    562.688    563.420    562.688    563.006    562.688
 15.170    575.000    563.763     11.237    562.747    563.444    562.747    563.066    562.747
 15.270    613.000    563.786     49.214    562.798    563.464    562.798    563.119    562.798
 15.370    527.000    563.804    -36.804    562.843    563.481    562.843    563.165    562.843
 15.470    525.794    563.818    -38.024    562.880    563.493    562.880    563.205    562.880
 15.570    564.000    563.828      0.172    562.911    563.502    562.911    563.237    562.911
 15.670    529.833    563.834    -34.001    562.935    563.505    562.935    563.263    562.935
 15.770    576.704    563.846     12.859    562.952    563.515    562.952    563.282    562.952
 15.870    556.000    563.953     -7.953    562.962    563.621    562.962    563.294    562.962
 15.970    525.000    563.960    -38.960    562.966    563.626    562.966    563.300    562.966
 16.070    604.654    563.947     40.707    562.964    563.611    562.964    563.300    562.964
 16.170    585.298    563.928     21.369    562.955    563.591    562.955    563.293    562.955
 16.270    575.000    563.906     11.094    562.940    563.566    562.940    563.280    562.940
 16.370    507.000    563.877    -56.877    562.918    563.536    562.918    563.260    562.918
 16.470    563.000    563.844     -0.844    562.891    563.500    562.891    563.234    562.891
 16.570    565.114    563.814      1.300    562.857    563.469    562.857    563.202    562.857
 16.670    587.846    563.787     24.059    562.817    563.439    562.817    563.165    562.817
 16.770    543.000    563.739    -20.739    562.771    563.389    562.771    563.121    562.771
 16.870    561.000    563.684     -2.684    562.719    563.332    562.719    563.071    562.719
 16.970    568.000    563.624      4.376    562.661    563.270    562.661    563.015    562.661
 17.070    606.321    563.559     42.763    562.598    563.202    562.598    562.954    562.598
 17.170    560.050    563.488     -3.438    562.528    563.130    562.528    562.887    562.528
 17.270    568.000    563.413      4.587    562.453    563.052    562.453    562.814    562.453
 17.370    606.148    563.332     42.816    562.373    562.969    562.373    562.736    562.373
 17.470    540.328    563.247    -22.918    562.286    562.882    562.286    562.652    562.286
 17.570    563.047    563.157     -0.109    562.195    562.789    562.195    562.562    562.195
 17.670    580.283    563.065     17.218    562.097    562.695    562.097    562.468    562.097
 17.770    521.591    562.966    -41.375    561.995    562.593    561.995    562.367    561.995
 17.870    587.636    562.861     24.775    561.887    562.486    561.887    562.262    561.887
 17.970    557.000    562.751     -5.751    561.774    562.373    561.774    562.152    561.774
 18.070    544.732    562.636    -17.905    561.656    562.256    561.656    562.036    561.656
 18.170    530.366    562.517    -32.151    561.532    562.134    561.532    561.915    561.532
 18.270    579.000    562.393     16.607    561.404    562.008    561.404    561.789    561.404
 18.370    529.000    562.264    -33.264    561.270    561.876    561.270    561.658    561.270
 18.470    539.362    562.131    -22.769    561.132    561.741    561.132    561.523    561.132
 18.570    604.692    561.994     42.698    560.989    561.600    560.989    561.382    560.989
 18.670    598.669    561.852     36.817    560.841    561.456    560.841    561.237    560.841
 18.770    577.000    561.706     15.294    560.688    561.307    560.688    561.087    560.688
 18.870    542.000    561.556    -19.556    560.530    561.153    560.530    560.932    560.530
 18.970    575.701    561.403     14.298    560.368    560.998    560.368    560.773    560.368
 19.070    523.000    561.252    -38.252    560.201    560.844    560.201    560.610    560.201
 19.170    575.000    561.141     13.859    560.030    560.730    560.030    560.441    560.030
 19.270    524.401    561.001    -36.600    559.854    560.587    559.854    560.269    559.854
 19.370    528.477    560.833    -32.356    559.674    560.415    559.674    560.092    559.674
 19.470    555.000    560.659     -5.659    559.490    560.238    559.490    559.911    559.490
 19.570    580.696    560.481     20.215    559.301    560.057    559.301    559.725    559.301
 19.670    526.000    560.299    -34.299    559.108    559.871    559.108    559.536    559.108
 19.770    558.000    560.114     -2.114    558.910    559.683    558.910    559.342    558.910
 19.870    546.420    559.925    -13.506    558.709    559.490    558.709    559.144    558.709
 19.970    534.378    559.733    -25.355    558.504    559.295    558.504    558.942    558.504
 20.070    538.191    559.538    -21.347    558.294    559.095    558.294    558.737    558.294
 20.170    537.000    559.342    -22.342    558.081    558.895    558.081    558.527    558.081
 20.270    558.394    559.169     -0.776    557.863    558.719    557.863    558.314    557.863
 20.370    529.000    558.987    -29.987    557.642    558.533    557.642    558.097    557.642
 20.470    563.848    558.781      5.067    557.417    558.323    557.417    557.876    557.417
 20.570    553.000    558.571     -5.571    557.189    558.108    557.189    557.651    557.189
 20.670    516.893    558.357    -41.464    556.956    557.890    556.956    557.423    556.956
 20.770    569.000    558.142     10.858    556.720    557.670    556.720    557.192    556.720
 20.870    587.000    557.924     29.076    556.481    557.448    556.481    556.957    556.481
 20.970    542.151    557.711    -15.561    556.238    557.231    556.238    556.718    556.238
 21.070    548.000    557.493     -9.493    555.991    557.008    555.991    556.477    555.991
 21.170    588.000    557.275     30.725    555.741    556.785    555.741    556.232    555.741
 21.270    524.897    557.054    -32.157    555.488    556.559    555.488    555.983    555.488
 21.370    578.000    556.826     21.174    555.231    556.325    555.231    555.732    555.231
 21.470    517.000    556.596    -39.596    554.971    556.090    554.971    555.477    554.971
 21.570    534.000    556.364    -22.364    554.708    555.853    554.708    555.219    554.708
 21.670    598.498    556.133     42.365    554.442    555.616    554.442    554.959    554.442
 21.770    530.877    555.910    -25.032    554.172    555.387    554.172    554.695    554.172
 21.870    587.375    555.693     31.681    553.900    555.165    553.900    554.429    553.900
 21.970    577.000    555.478     21.522    553.625    554.944    553.625    554.159    553.625
 22.070    575.421    555.279     20.142    553.346    554.739    553.346    553.887    553.346
 22.170    578.512    555.060     23.453    553.065    554.513    553.065    553.612    553.065
 22.270    553.855    554.830     -0.974    552.781    554.276    552.781    553.335    552.781
 22.370    573.000    554.601     18.399    552.493    554.040    552.493    553.054    552.493
 22.470    558.000    554.375      3.625    552.204    553.807    552.204    552.772    552.204
 22.570    539.272    554.167    -14.895    551.911    553.592    551.911    552.487    551.911
 22.670    537.000    554.000    -17.000    551.616    553.418    551.616    552.199    551.616
 22.770    595.720    553.800     41.920    551.318    553.210    551.318    551.909    551.318
 22.870    511.504    553.597    -42.093    551.018    552.999    551.018    551.617    551.018
 22.970    542.000    553.409    -11.409    550.715    552.802    550.715    551.322    550.715
 23.070    556.070    553.244      2.826    550.409    552.628    550.409    551.026    550.409
 23.170    573.780    553.083     20.698    550.102    552.458    550.102    550.727    550.102
 23.270    522.000    552.970    -30.970    549.791    552.336    549.791    550.426    549.791
 23.370    526.441    552.877    -26.436    549.479    552.233    549.479    550.123    549.479
 23.470    537.000    552.793    -15.793    549.164    552.139    549.164    549.818    549.164
 23.570    511.719    552.751    -41.032    548.847    552.087    548.847    549.512    548.847
 23.670    587.000    552.773     34.227    548.528    552.098    548.528    549.203    548.528
 23.770    557.000    552.874      4.126    548.206    552.189    548.206    548.893    548.206
 23.870    553.000    553.086     -0.086    547.882    552.390    547.882    548.581    547.882
 23.970    550.663    553.461     -2.798    547.557    552.753    547.557    548.268    547.557
 24.070    560.000    554.116      5.884    547.229    553.396    547.229    547.953    547.229
 24.170    550.000    555.326     -5.326    546.899    554.593    546.899    547.637    546.899
 24.270    573.648    557.745     15.903    546.568    557.000    546.568    547.319    546.568
 24.370    531.938    562.685    -30.747    546.234    561.929    546.234    547.001    546.234
 24.470    586.000    572.121     13.879    545.899    571.356    545.899    546.681    545.899
 24.570    549.529    587.799    -38.270    545.562    587.030    545.562    546.359    545.562
 24.670    628.000    609.079     18.921    545.223    608.309    545.223    546.037    545.223
 24.770    627.000    630.047     -3.047    544.882    629.275    544.882    545.714    544.882
 24.870    613.000    638.882    -25.882    544.539    638.098    544.539    545.391    544.539
 24.970    622.000    628.218     -6.218    544.195    627.407    544.195    545.066    544.195
 25.070    652.000    606.241     45.759    543.850    605.394    543.850    544.741    543.850
 25.170    544.713    584.674    -39.961    543.503    583.789    543.503    544.416    543.503
 25.270    592.000    568.960     23.040    543.154    568.040    543.154    544.090    543.154
 25.370    581.459    559.435     22.024    542.804    558.485    542.804    543.764    542.804
 25.470    530.947    554.261    -23.314    542.452    553.281    542.452    543.438    542.452
 25.570    583.962    551.479     32.483    542.099    550.470    542.099    543.112    542.099
 25.670    529.000    549.834    -20.834    541.744    548.795    541.744    542.786    541.744
 25.770    576.000    548.716     27.284    541.389    547.646    541.389    542.461    541.389
 25.870    529.508    547.877    -18.369    541.031    546.774    541.031    542.137    541.031
 25.970    569.000    547.213     21.787    540.673    546.075    540.673    541.813    540.673
 26.070    562.000    546.674     15.326    540.314    545.499    540.314    541.490    540.314
 26.170    557.000    546.234     10.766    539.953    545.019    539.953    541.169    539.953
 26.270    582.479    545.875     36.604    539.591    544.617    539.591    540.849    539.591
 26.370    542.239    545.588     -3.349    539.228    544.286    539.228    540.532    539.228
 26.470    574.000    545.369     28.631    538.864    544.018    538.864    540.216    538.864
 26.570    567.000    545.216     21.784    538.499    543.813    538.499    539.903    538.499
 26.670    552.000    545.133      6.867    538.133    543.674    538.133    539.593    538.133
 26.770    554.000    545.129      8.871    537.766    543.609    537.766    539.286    537.766
 26.870    567.000    545.215     21.785    537.398    543.630    537.398    538.983    537.398
 26.970    595.000    545.409     49.591    537.030    543.755    537.030    538.684    537.030
 27.070    549.000    545.739      3.261    536.660    544.009    536.660    538.390    536.660
 27.170    508.641    546.240    -37.598    536.290    544.428    536.290    538.101    536.290
 27.270    596.000    546.969     49.031    535.918    545.069    535.918    537.818    535.918
 27.370    540.000    548.013     -8.013    535.547    546.017    535.547    537.542    535.547
 27.470    580.000    549.530     30.470    535.174    547.429    535.174    537.273    535.174
 27.570    547.000    551.912     -4.912    534.801    549.697    534.801    537.013    534.801
 27.670    595.000    556.382     38.618    534.427    554.044    534.427    536.761    534.427
 27.770    589.000    566.588     22.412    534.052    564.113    534.052    536.520    534.052
 27.870    547.000    590.975    -43.975    533.677    588.347    533.677    536.289    533.677
 27.970    696.000    642.541     53.459    533.302    639.740    533.302    536.069    533.302
 28.070    716.933    729.630    -12.697    532.925    726.635    532.925    535.862    532.925
 28.170    812.490    837.586    -25.097    532.549    834.386    532.549    535.668    532.549
 28.270    871.000    918.033    -47.033    532.172    914.634    532.172    535.487    532.172
 28.370    918.556    919.270     -0.714    531.794    915.684    531.794    535.321    531.794
 28.470    830.000    847.087    -17.087    531.417    843.303    531.417    535.168    531.417
 28.570    765.000    761.807      3.193    531.039    757.800    531.039    535.029    531.039
 28.670    724.000    717.530      6.470    530.660    713.274    530.660    534.901    530.660
 28.770    758.000    729.959     28.041    530.282    725.438    530.282    534.784    530.282
 28.870    805.000    778.707     26.293    529.903    773.918    529.903    534.673    529.903
 28.970    816.000    819.892     -3.892    529.523    814.841    529.523    534.564    529.523
 29.070    817.000    812.941      4.059    529.144    807.638    529.144    534.451    529.144
 29.170    751.410    756.681     -5.271    528.765    751.132    528.765    534.327    528.765
 29.270    707.000    683.757     23.243    528.385    677.972    528.385    534.184    528.385
 29.370    667.615    623.217     44.397    528.005    617.221    528.005    534.012    528.005
 29.470    638.000    584.636     53.364    527.626    578.465    527.626    533.803    527.626
 29.570    567.768    564.198      3.569    527.246    557.899    527.246    533.547    527.246
 29.670    608.000    554.363     53.637    526.866    547.990    526.866    533.240    526.866
 29.770    571.000    549.449     21.551    526.486    543.059    526.486    532.877    526.486
 29.870    563.000    546.575     16.425    526.107    540.225    526.107    532.457    526.107
 29.970    564.000    544.606     19.394    525.727    538.351    525.727    531.982    525.727
 30.070    558.000    543.160     14.840    525.348    537.048    525.348    531.459    525.348
 30.170    611.000    542.133     68.867    524.968    536.207    524.968    530.894    524.968
 30.270    498.295    541.595    -43.299    524.589    535.886    524.589    530.297    524.589
 30.370    538.000    541.868     -3.868    524.210    536.399    524.210    529.676    524.210
