neutron_powder_diffraction_0002
R_wp: 3.700
Temperature (K): 435.105
Counts: 83607.00
Wavelength (Ã…): 2.52098
COMMENTS
Test file for demonstrating the .xyy file format in Reel1.0
END OF HEADER
   tth       Y_obs     Y_calc      Y_res    Background    Phase_1_Nuc    Phase_1_Mag    Phase_2_Nuc    Phase_2_Mag
  9.970    718.000    765.576    -47.576    763.761    764.852    764.484    763.761    763.761
 10.070    758.744    764.459     -5.715    762.549    763.728    763.280    762.549    762.549
 10.170    748.699    763.362    -14.663    761.345    762.623    762.083    761.345    761.345
 10.270    794.000    762.287     31.713    760.148    761.540    760.894    760.148    760.148
 10.370    756.617    761.235     -4.618    758.958    760.480    759.712    758.958    758.958
 10.470    758.733    760.212     -1.480    757.775    759.449    758.537    757.775    757.775
 10.570    716.558    759.222    -42.664    756.599    758.450    757.370    756.599    756.599
 10.670    811.027    758.270     52.757    755.430    757.490    756.209    755.430    755.430
 10.770    758.000    757.364      0.636    754.269    756.576    755.056    754.269    754.269
 10.870    749.888    756.516     -6.627    753.114    755.718    753.910    753.114    753.114
 10.970    769.000    755.738     13.262    751.967    754.931    752.772    751.967    751.967
 11.070    753.000    755.050     -2.050    750.826    754.234    751.640    750.826    750.826
 11.170    802.307    754.483     47.824    749.692    753.657    750.516    749.692    749.692
 11.270    784.519    754.070     30.449    748.566    753.234    749.399    748.566    748.566
 11.370    698.007    753.879    -55.872    747.446    753.033    748.289    747.446    747.446
 11.470    747.000    754.028     -7.028    746.333    753.172    747.185    746.333    746.333
 11.570    729.553    754.776    -25.223    745.227    753.909    746.089    745.227    745.227
 11.670    798.980    756.738     42.241    744.128    755.860    745.001    744.128    744.128
 11.770    780.602    760.854     19.747    743.036    759.963    743.919    743.036    743.036
 11.870    819.018    768.855     50.164    741.951    767.948    742.844    741.951    741.951
 11.970    749.988    782.853    -32.865    740.872    781.927    741.776    740.872    740.872
 12.070    857.000    803.976     53.024    739.801    803.027    740.714    739.801    739.801
 12.170    910.000    830.035     79.965    738.736    829.060    739.660    738.736    738.736
 12.270    912.232    852.653     59.579    737.677    851.654    738.613    737.677    737.677
 12.370    840.000    858.701    -18.701    736.626    857.686    737.573    736.626    736.626
 12.470    794.957    842.700    -47.743    735.581    841.683    736.539    735.581    735.581
 12.570    787.000    814.899    -27.899    734.543    813.885    735.513    734.543    734.543
 12.670    761.889    787.948    -26.059    733.511    786.936    734.493    733.511    733.511
 12.770    729.000    767.543    -38.543    732.486    766.530    733.481    732.486    732.486
 12.870    739.000    754.126    -15.126    731.468    753.108    732.475    731.468    731.468
 12.970    714.000    745.925    -31.925    730.456    744.898    731.475    730.456    730.456
 13.070    795.592    740.882     54.710    729.451    739.844    730.483    729.451    729.451
 13.170    695.967    737.513    -41.545    728.452    736.463    729.498    728.452    728.452
 13.270    723.000    734.995    -11.995    727.460    733.933    728.519    727.460    727.460
 13.370    705.000    732.935    -27.935    726.475    731.860    727.547    726.475    726.475
 13.470    695.340    731.154    -35.814    725.496    730.066    726.581    725.496    725.496
 13.570    712.000    729.569    -17.569    724.523    728.467    725.623    724.523    724.523
 13.670    718.750    728.140     -9.390    723.557    727.023    724.672    723.557    723.557
 13.770    783.000    726.794     56.206    722.597    725.663    723.726    722.597    722.597
 13.870    740.000    725.527     14.473    721.643    724.381    722.788    721.643    721.643
 13.970    778.000    724.323     53.677    720.696    723.162    721.856    720.696    720.696
 14.070    748.000    723.171     24.829    719.756    721.995    720.931    719.756    719.756
 14.170    762.000    722.062     39.938    718.821    720.870    720.012    718.821    718.821
 14.270    755.989    720.991     34.998    717.893    719.783    719.101    717.893    717.893
 14.370    713.229    719.950     -6.721    716.971    718.725    718.195    716.971    716.971
 14.470    722.227    718.931      3.296    716.056    717.690    717.297    716.056    716.056
 14.570    680.000    717.936    -37.936    715.146    716.677    716.405    715.146    715.146
 14.670    690.000    716.960    -26.960    714.243    715.683    715.519    714.243    714.243
 14.770    721.000    716.001      4.999    713.346    714.707    714.640    713.346    713.346
 14.870    743.000    715.059     27.941    712.455    713.746    713.768    712.455    712.455
 14.970    746.718    714.132     32.587    711.571    712.800    712.902    711.571    711.571
 15.070    660.000    713.218    -53.218    710.692    711.867    712.043    710.692    710.692
 15.170    679.000    712.316    -33.316    709.820    710.946    711.190    709.820    709.820
 15.270    693.298    711.427    -18.128    708.954    710.036    710.344    708.954    708.954
 15.370    683.000    710.548    -27.548    708.093    709.137    709.504    708.093    708.093
 15.470    687.000    709.680    -22.680    707.239    708.248    708.671    707.239    707.239
 15.570    683.000    708.822    -25.822    706.391    707.369    707.844    706.391    706.391
 15.670    671.000    707.973    -36.973    705.549    706.498    707.024    705.549    705.549
 15.770    741.929    707.134     34.794    704.713    705.637    706.210    704.713    704.713
 15.870    735.000    706.304     28.696    703.882    704.784    705.402    703.882    703.882
 15.970    686.000    705.484    -19.484    703.058    703.940    704.602    703.058    703.058
 16.070    675.000    704.678    -29.678    702.240    703.110    703.807    702.240    702.240
 16.170    701.000    703.874     -2.874    701.427    702.281    703.020    701.427    701.427
 16.270    671.000    703.082    -32.082    700.620    701.464    702.238    700.620    700.620
 16.370    687.000    702.304    -15.304    699.820    700.660    701.463    699.820    699.820
 16.470    713.000    701.524     11.476    699.025    699.854    700.695    699.025    699.025
 16.570    685.000    700.751    -15.751    698.235    699.054    699.933    698.235    698.235
 16.670    673.000    699.986    -26.986    697.452    698.261    699.177    697.452    697.452
 16.770    708.620    699.229      9.390    696.674    697.476    698.428    696.674    696.674
 16.870    731.823    698.500     33.324    695.903    696.717    697.685    695.903    695.903
 16.970    728.422    697.827     30.595    695.136    696.012    696.951    695.136    695.136
 17.070    739.943    697.118     42.825    694.376    695.271    696.222    694.376    694.376
 17.170    648.000    696.393    -48.393    693.621    694.514    695.500    693.621    693.621
 17.270    719.853    695.672     24.181    692.872    693.761    694.783    692.872    692.872
 17.370    744.341    694.958     49.383    692.129    693.014    694.073    692.129    692.129
 17.470    727.000    694.252     32.748    691.391    692.273    693.369    691.391    691.391
 17.570    706.375    693.552     12.822    690.658    691.539    692.672    690.658    690.658
 17.670    705.000    692.860     12.140    689.932    690.811    691.981    689.932    689.932
 17.770    653.000    692.175    -39.175    689.210    690.089    691.296    689.210    689.210
 17.870    729.278    691.497     37.782    688.495    689.373    690.619    688.495    688.495
 17.970    652.000    690.825    -38.825    687.785    688.663    689.947    687.785    687.785
 18.070    713.000    690.161     22.839    687.080    687.959    689.283    687.080    687.080
 18.170    729.557    689.504     40.053    686.381    687.261    688.624    686.381    686.381
 18.270    677.000    688.855    -11.855    685.687    686.570    687.973    685.687    685.687
 18.370    663.000    688.221    -25.221    684.999    685.892    687.328    684.999    684.999
 18.470    714.000    687.591     26.409    684.316    685.216    686.690    684.316    684.316
 18.570    702.000    686.963     15.037    683.638    684.542    686.059    683.638    683.638
 18.670    658.000    686.341    -28.341    682.966    683.874    685.434    682.966    682.966
 18.770    674.387    685.727    -11.341    682.299    683.211    684.816    682.299    682.299
 18.870    737.000    685.124     51.876    681.638    682.557    684.205    681.638    681.638
 18.970    680.690    684.544     -3.854    680.981    681.925    683.601    680.981    680.981
 19.070    734.000    683.961     50.039    680.330    681.288    683.003    680.330    680.330
 19.170    607.000    683.377    -76.377    679.685    680.649    682.413    679.685    679.685
 19.270    691.000    682.800      8.200    679.044    680.016    681.829    679.044    679.044
 19.370    694.085    682.232     11.853    678.409    679.389    681.252    678.409    678.409
 19.470    691.000    681.676      9.324    677.779    678.771    680.684    677.779    677.779
 19.570    666.000    681.153    -15.153    677.154    678.175    680.131    677.154    677.154
 19.670    692.000    680.666     11.334    676.534    677.608    679.593    676.534    676.534
 19.770    670.000    680.142    -10.142    675.920    677.014    679.048    675.920    675.920
 19.870    688.000    679.630      8.370    675.310    676.421    678.519    675.310    675.310
 19.970    674.000    679.147     -5.147    674.706    675.855    677.999    674.706    674.706
 20.070    661.000    678.716    -17.716    674.106    675.337    677.486    674.106    674.106
 20.170    704.000    678.220     25.780    673.512    674.763    676.969    673.512    673.512
 20.270    711.710    677.725     33.985    672.923    674.188    676.459    672.923    672.923
 20.370    709.483    677.256     32.227    672.339    673.636    675.958    672.339    672.339
 20.470    671.389    676.828     -5.440    671.759    673.122    675.465    671.759    671.759
 20.570    659.894    676.374    -16.480    671.185    672.579    674.980    671.185    671.185
 20.670    635.000    675.922    -40.922    670.615    672.033    674.504    670.615    670.615
 20.770    718.000    675.484     42.516    670.051    671.493    674.042    670.051    670.051
 20.870    664.000    675.046    -11.046    669.491    670.956    673.581    669.491    669.491
 20.970    665.000    674.614     -9.614    668.937    670.422    673.129    668.937    668.937
 21.070    677.000    674.192      2.808    668.387    669.893    672.686    668.387    668.387
 21.170    640.000    673.780    -33.780    667.842    669.371    672.251    667.842    667.842
 21.270    668.000    673.379     -5.379    667.302    668.855    671.826    667.302    667.302
 21.370    636.000    672.995    -36.995    666.766    668.351    671.411    666.766    666.766
 21.470    718.925    672.623     46.302    666.236    667.853    671.006    666.236    666.236
 21.570    650.000    672.258    -22.258    665.710    667.358    670.609    665.710    665.710
 21.670    691.000    671.902     19.098    665.189    666.868    670.224    665.189    665.189
 21.770    720.856    671.560     49.296    664.672    666.384    669.848    664.672    664.672
 21.870    660.000    671.231    -11.231    664.161    665.908    669.484    664.161    664.161
 21.970    721.098    670.917     50.181    663.654    665.441    669.130    663.654    663.654
 22.070    674.505    670.616      3.889    663.151    664.979    668.788    663.151    663.151
 22.170    621.497    670.331    -48.834    662.653    664.526    668.459    662.653    662.653
 22.270    698.000    670.061     27.939    662.160    664.081    668.141    662.160    662.160
 22.370    660.000    669.809     -9.809    661.672    663.644    667.836    661.672    661.672
 22.470    709.336    669.575     39.761    661.188    663.218    667.545    661.188    661.188
 22.570    702.000    669.360     32.640    660.708    662.801    667.268    660.708    660.708
 22.670    660.081    669.167     -9.086    660.233    662.396    667.005    660.233    660.233
 22.770    641.000    669.000    -28.000    659.763    662.005    666.758    659.763    659.763
 22.870    640.000    668.859    -28.859    659.297    661.628    666.528    659.297    659.297
 22.970    691.679    668.742     22.937    658.836    661.264    666.314    658.836    658.836
 23.070    686.000    668.653     17.347    658.379    660.916    666.117    658.379    658.379
 23.170    667.670    668.598     -0.928    657.926    660.587    665.938    657.926    657.926
 23.270    618.900    668.581    -49.680    657.478    660.281    665.778    657.478    657.478
 23.370    689.510    668.606     20.904    657.034    660.002    665.639    657.034    657.034
 23.470    643.000    668.680    -25.680    656.595    659.755    665.521    656.595    656.595
 23.570    709.168    668.813     40.355    656.160    659.547    665.427    656.160    656.160
 23.670    666.000    669.014     -3.014    655.729    659.387    665.357    655.729    655.729
 23.770    692.000    669.299     22.701    655.303    659.289    665.314    655.303    655.303
 23.870    685.000    669.688     15.312    654.881    659.271    665.300    654.881    654.881
 23.970    651.682    670.207    -18.526    654.463    659.358    665.315    654.463    654.463
 24.070    675.000    670.903      4.097    654.049    659.593    665.362    654.049    654.049
 24.170    709.000    671.854     37.146    653.640    660.053    665.443    653.640    653.640
 24.270    673.000    673.224     -0.224    653.235    660.900    665.563    653.235    653.235
 24.370    689.000    675.362     13.638    652.834    662.478    665.723    652.834    652.834
 24.470    671.000    678.953     -7.953    652.437    665.472    665.926    652.437    652.437
 24.570    736.561    685.122     51.439    652.044    671.000    666.178    652.044    652.044
 24.670    703.000    695.234      7.766    651.656    680.426    666.482    651.656    651.656
 24.770    749.000    710.139     38.861    651.272    694.596    666.844    651.272    651.272
 24.870    721.000    728.757     -7.757    650.891    712.422    667.268    650.891    650.891
 24.970    776.000    746.150     29.850    650.515    728.958    667.762    650.515    650.515
 25.070    720.961    753.478    -32.516    650.143    735.348    668.332    650.143    650.143
 25.170    781.467    745.735     35.731    649.775    726.577    668.987    649.775    649.775
 25.270    708.000    728.981    -20.981    649.410    708.695    669.736    649.410    649.410
 25.370    747.250    711.992     35.258    649.050    690.479    670.591    649.050    649.050
 25.470    733.000    699.154     33.846    648.694    676.301    671.564    648.694    648.694
 25.570    732.022    691.178     40.844    648.342    666.860    672.671    648.342    648.342
 25.670    715.000    687.084     27.916    647.994    661.156    673.928    647.994    647.994
 25.770    696.000    685.523     10.477    647.649    657.820    675.357    647.649    647.649
 25.870    684.552    685.455     -0.903    647.309    655.785    676.981    647.309    647.309
 25.970    718.258    686.287     31.971    646.972    654.425    678.836    646.972    646.972
 26.070    694.000    687.739      6.261    646.639    653.433    680.947    646.639    646.639
 26.170    646.000    689.703    -43.703    646.310    652.657    683.357    646.310    646.310
 26.270    685.980    692.169     -6.189    645.985    652.035    686.119    645.985    645.985
 26.370    655.000    695.166    -40.166    645.664    651.533    689.297    645.664    645.664
 26.470    711.000    698.749     12.251    645.346    651.129    692.966    645.346    645.346
 26.570    702.000    703.002     -1.002    645.032    650.810    697.224    645.032    645.032
 26.670    706.230    708.040     -1.810    644.722    650.569    702.192    644.722    644.722
 26.770    735.625    714.018     21.607    644.416    650.405    708.027    644.416    644.416
 26.870    709.000    721.138    -12.138    644.113    650.319    714.929    644.113    644.113
 26.970    705.000    729.673    -24.673    643.814    650.320    723.165    643.814    643.814
 27.070    719.000    739.989    -20.989    643.519    650.418    733.085    643.519    643.519
 27.170    790.315    752.582     37.733    643.227    650.633    745.172    643.227    643.227
 27.270    775.000    768.150      6.850    642.939    650.991    760.092    642.939    642.939
 27.370    732.000    787.678    -55.678    642.655    651.533    778.791    642.655    642.655
 27.470    815.000    812.603      2.397    642.374    652.317    802.649    642.374    642.374
 27.570    822.000    845.257    -23.257    642.096    653.441    833.898    642.096    642.096
 27.670    838.000    890.261    -52.261    641.823    655.096    876.968    641.823    641.823
 27.770    974.860    960.236     14.625    641.552    657.802    943.957    641.552    641.552
 27.870   1151.023   1094.802     56.220    641.286    663.186   1072.848    641.286    641.286
 27.970   1391.000   1403.948    -12.948    641.022    675.758   1369.094    641.022    641.022
 28.070   2067.000   2115.379    -48.379    640.763    704.852   2051.020    640.763    640.763
 28.170   3278.000   3522.759   -244.759    640.506    762.508   3400.218    640.506    640.506
 28.270   5363.000   5709.383   -346.383    640.253    852.169   5496.599    640.253    640.253
 28.370   7750.000   8138.702   -388.702    640.004    951.937   7825.710    640.004    640.004
 28.470   9449.000   9565.203   -116.203    639.758   1010.989   9193.113    639.758    639.758
 28.570   9123.000   9015.197    107.803    639.515    989.888   8664.510    639.515    639.515
 28.670   7418.000   7072.758    345.242    639.275    913.498   6798.662    639.275    639.275
 28.770   5272.000   5134.299    137.701    639.039    840.593   4933.003    639.039    639.039
 28.870   4114.000   4135.169    -21.169    638.806    811.114   3963.054    638.806    638.806
 28.970   4248.000   4198.114     49.886    638.577    830.087   4006.717    638.577    638.577
 29.070   4916.000   4843.109     72.891    638.351    874.015   4607.585    638.351    638.351
 29.170   5335.000   5298.488     36.512    638.128    902.979   5033.934    638.128    638.128
 29.270   4918.643   4988.242    -69.599    637.908    886.448   4740.182    637.908    637.908
 29.370   3904.701   4022.702   -118.001    637.692    831.763   3829.158    637.692    637.692
 29.470   2899.000   2905.195     -6.195    637.478    768.120   2774.986    637.478    637.478
 29.570   1997.000   2008.012    -11.012    637.268    716.984   1928.583    637.268    637.268
 29.670   1416.000   1435.521    -19.521    637.061    684.395   1388.352    637.061    637.061
 29.770   1216.000   1124.338     91.662    636.857    666.749   1094.533    636.857    636.857
 29.870   1017.000    968.221     48.779    636.657    657.979    946.944    636.657    636.657
 29.970    934.000    887.297     46.703    636.459    653.526    870.256    636.459    636.459
 30.070    809.471    839.498    -30.026    636.265    650.998    824.782    636.265    636.265
 30.170    840.471    807.083     33.388    636.073    649.400    793.769    636.073    636.073
 30.270    791.724    783.248      8.476    635.885    648.378    770.762    635.885    635.885
 30.370    806.000    765.227     40.773    635.700    647.846    753.086    635.700    635.700
