neutron_powder_diffraction_0187
R_wp: 3.928
Temperature (K): 1074.000
Counts: 83890.00
Wavelength (Ã…): 2.52098
COMMENTS
Test file for demonstrating the .xyy file format in Reel1.0
END OF HEADER
   tth       Y_obs     Y_calc      Y_res    Background    Phase_1_Nuc    Phase_1_Mag    Phase_2_Nuc    Phase_2_Mag
  9.970    525.000    573.016    -48.016    572.271    572.955    572.271    572.332    572.271
 10.070    628.000    573.127     54.873    572.323    573.066    572.323    572.384    572.323
 10.170    615.000    573.241     41.759    572.370    573.180    572.370    572.431    572.370
 10.270    579.000    573.361      5.639    572.411    573.299    572.411    572.472    572.411
 10.370    624.000    573.487     50.513    572.446    573.425    572.446    572.508    572.446
 10.470    571.000    573.624     -2.624    572.477    573.562    572.477    572.539    572.477
 10.570    550.899    573.775    -22.877    572.502    573.712    572.502    572.564    572.502
 10.670    558.000    573.945    -15.945    572.521    573.882    572.521    572.584    572.521
 10.770    592.000    574.141     17.859    572.536    574.077    572.536    572.599    572.536
 10.870    604.154    574.372     29.782    572.545    574.308    572.545    572.608    572.545
 10.970    568.000    574.651     -6.651    572.550    574.586    572.550    572.613    572.550
 11.070    573.000    574.996     -1.996    572.549    574.931    572.549    572.613    572.549
 11.170    625.000    575.435     49.565    572.543    575.370    572.543    572.607    572.543
 11.270    615.000    576.008     38.992    572.533    575.942    572.533    572.597    572.533
 11.370    563.963    576.787    -12.824    572.517    576.719    572.517    572.583    572.517
 11.470    640.000    577.929     62.071    572.497    577.860    572.497    572.563    572.497
 11.570    605.000    579.868     25.132    572.471    579.797    572.471    572.538    572.471
 11.670    575.761    583.793     -8.032    572.441    583.720    572.441    572.509    572.441
 11.770    595.008    592.377      2.631    572.407    592.298    572.407    572.474    572.407
 11.870    620.000    609.773     10.227    572.368    609.685    572.368    572.435    572.368
 11.970    591.729    639.043    -47.314    572.324    638.937    572.324    572.392    572.324
 12.070    644.000    676.299    -32.299    572.275    676.172    572.275    572.344    572.275
 12.170    692.000    705.430    -13.430    572.222    705.286    572.222    572.291    572.222
 12.270    695.096    706.323    -11.227    572.165    706.178    572.165    572.234    572.165
 12.370    663.000    678.129    -15.129    572.103    678.000    572.103    572.172    572.103
 12.470    621.959    640.608    -18.650    572.037    640.500    572.037    572.107    572.037
 12.570    605.000    610.583     -5.583    571.966    610.491    571.966    572.036    571.966
 12.670    642.225    592.494     49.731    571.892    592.412    571.892    571.962    571.892
 12.770    580.000    583.461     -3.461    571.813    583.384    571.813    571.883    571.813
 12.870    574.626    579.275     -4.649    571.730    579.200    571.730    571.800    571.730
 12.970    581.354    577.168      4.186    571.642    577.094    571.642    571.714    571.642
 13.070    552.000    575.892    -23.892    571.551    575.818    571.551    571.623    571.551
 13.170    545.000    574.992    -29.992    571.455    574.918    571.455    571.527    571.455
 13.270    593.000    574.304     18.696    571.356    574.230    571.356    571.428    571.356
 13.370    558.246    573.754    -15.508    571.253    573.680    571.253    571.325    571.253
 13.470    560.000    573.299    -13.299    571.146    573.225    571.146    571.219    571.146
 13.570    589.023    572.913     16.110    571.034    572.839    571.034    571.108    571.034
 13.670    597.000    572.577     24.423    570.920    572.502    570.920    570.993    570.920
 13.770    591.879    572.278     19.601    570.801    572.203    570.801    570.875    570.801
 13.870    582.000    572.007      9.993    570.678    571.931    570.678    570.753    570.678
 13.970    554.000    571.756    -17.756    570.552    571.681    570.552    570.627    570.552
 14.070    538.000    571.522    -33.522    570.423    571.446    570.423    570.498    570.423
 14.170    577.000    571.299      5.701    570.289    571.223    570.289    570.365    570.289
 14.270    534.000    571.086    -37.086    570.152    571.010    570.152    570.229    570.152
 14.370    604.907    570.881     34.026    570.012    570.804    570.012    570.089    570.012
 14.470    570.000    570.683     -0.683    569.868    570.606    569.868    569.945    569.868
 14.570    585.000    570.488     14.512    569.721    570.410    569.721    569.799    569.721
 14.670    590.000    570.299     19.701    569.570    570.216    569.570    569.653    569.570
 14.770    552.000    570.108    -18.108    569.416    570.023    569.416    569.501    569.416
 14.870    546.000    569.918    -23.918    569.259    569.832    569.259    569.344    569.259
 14.970    515.000    569.727    -54.727    569.098    569.641    569.098    569.184    569.098
 15.070    547.000    569.537    -22.537    568.935    569.451    568.935    569.021    568.935
 15.170    550.610    569.347    -18.736    568.768    569.260    568.768    568.854    568.768
 15.270    551.281    569.156    -17.874    568.598    569.068    568.598    568.685    568.598
 15.370    559.919    568.964     -9.045    568.424    568.876    568.424    568.512    568.424
 15.470    600.000    568.771     31.229    568.248    568.682    568.248    568.336    568.248
 15.570    531.000    568.576    -37.576    568.069    568.487    568.069    568.158    568.069
 15.670    614.149    568.380     45.769    567.887    568.291    567.887    567.976    567.887
 15.770    562.899    568.183     -5.285    567.702    568.093    567.702    567.791    567.702
 15.870    531.588    567.984    -36.396    567.514    567.894    567.514    567.604    567.514
 15.970    552.232    567.784    -15.551    567.323    567.693    567.323    567.414    567.323
 16.070    535.895    567.581    -31.686    567.129    567.490    567.129    567.220    567.129
 16.170    590.453    567.378     23.075    566.933    567.286    566.933    567.025    566.933
 16.270    542.000    567.174    -25.174    566.734    567.081    566.734    566.826    566.734
 16.370    597.214    566.966     30.248    566.532    566.873    566.532    566.625    566.532
 16.470    559.000    566.756     -7.756    566.327    566.663    566.327    566.421    566.327
 16.570    542.000    566.544    -24.544    566.120    566.450    566.120    566.214    566.120
 16.670    521.000    566.330    -45.330    565.910    566.235    565.910    566.005    565.910
 16.770    613.406    566.114     47.292    565.698    566.019    565.698    565.793    565.698
 16.870    562.048    565.896     -3.848    565.483    565.800    565.483    565.579    565.483
 16.970    569.000    565.676      3.324    565.266    565.580    565.266    565.362    565.266
 17.070    566.000    565.454      0.546    565.046    565.357    565.046    565.143    565.046
 17.170    536.000    565.233    -29.233    564.824    565.135    564.824    564.922    564.824
 17.270    529.000    565.008    -36.008    564.600    564.909    564.600    564.698    564.600
 17.370    562.472    564.780     -2.308    564.373    564.681    564.373    564.472    564.373
 17.470    586.000    564.550     21.450    564.144    564.451    564.144    564.244    564.144
 17.570    593.650    564.319     29.331    563.913    564.219    563.913    564.013    563.913
 17.670    574.000    564.085      9.915    563.679    563.985    563.679    563.780    563.679
 17.770    581.000    563.850     17.150    563.444    563.749    563.444    563.545    563.444
 17.870    590.000    563.613     26.387    563.206    563.511    563.206    563.308    563.206
 17.970    534.853    563.374    -28.521    562.966    563.271    562.966    563.069    562.966
 18.070    593.315    563.134     30.181    562.724    563.030    562.724    562.828    562.724
 18.170    541.000    562.892    -21.892    562.480    562.788    562.480    562.585    562.480
 18.270    579.786    562.649     17.138    562.234    562.543    562.234    562.339    562.234
 18.370    570.759    562.403      8.356    561.986    562.297    561.986    562.092    561.986
 18.470    577.000    562.156     14.844    561.736    562.049    561.736    561.843    561.736
 18.570    555.000    561.907     -6.907    561.485    561.799    561.485    561.592    561.485
 18.670    539.000    561.656    -22.656    561.231    561.548    561.231    561.339    561.231
 18.770    525.554    561.404    -35.850    560.975    561.295    560.975    561.084    560.975
 18.870    566.000    561.151      4.849    560.718    561.041    560.718    560.828    560.718
 18.970    580.000    560.896     19.104    560.459    560.785    560.459    560.570    560.459
 19.070    531.000    560.639    -29.639    560.198    560.528    560.198    560.310    560.198
 19.170    589.000    560.382     28.618    559.936    560.269    559.936    560.048    559.936
 19.270    562.000    560.123      1.877    559.672    560.010    559.672    559.785    559.672
 19.370    575.441    559.864     15.577    559.406    559.750    559.406    559.520    559.406
 19.470    590.000    559.603     30.397    559.139    559.487    559.139    559.254    559.139
 19.570    574.720    559.342     15.378    558.870    559.224    558.870    558.988    558.870
 19.670    547.000    559.079    -12.079    558.599    558.959    558.599    558.720    558.599
 19.770    506.000    558.814    -52.814    558.328    558.692    558.328    558.449    558.328
 19.870    526.000    558.549    -32.549    558.054    558.427    558.054    558.177    558.054
 19.970    557.000    558.295     -1.295    557.779    558.172    557.779    557.903    557.779
 20.070    551.012    558.038     -7.026    557.503    557.913    557.503    557.628    557.503
 20.170    551.000    557.770     -6.770    557.225    557.644    557.225    557.351    557.225
 20.270    556.000    557.500     -1.500    556.947    557.373    556.947    557.073    556.947
 20.370    528.471    557.229    -28.759    556.666    557.101    556.666    556.794    556.666
 20.470    580.000    556.958     23.042    556.385    556.829    556.385    556.514    556.385
 20.570    551.000    556.686     -5.686    556.102    556.556    556.102    556.232    556.102
 20.670    551.072    556.414     -5.342    555.818    556.282    555.818    555.950    555.818
 20.770    562.000    556.141      5.859    555.533    556.008    555.533    555.666    555.533
 20.870    597.218    555.868     41.351    555.246    555.734    555.246    555.381    555.246
 20.970    523.000    555.594    -32.594    554.959    555.459    554.959    555.094    554.959
 21.070    544.000    555.320    -11.320    554.670    555.183    554.670    554.807    554.670
 21.170    526.000    555.055    -29.055    554.381    554.916    554.381    554.519    554.381
 21.270    520.133    554.865    -34.732    554.090    554.725    554.090    554.230    554.090
 21.370    556.000    554.613      1.387    553.798    554.471    553.798    553.940    553.798
 21.470    595.438    554.341     41.098    553.505    554.198    553.505    553.648    553.505
 21.570    560.000    554.068      5.932    553.212    553.923    553.212    553.356    553.212
 21.670    561.000    553.796      7.204    552.917    553.650    552.917    553.063    552.917
 21.770    557.000    553.524      3.476    552.622    553.376    552.622    552.769    552.622
 21.870    624.000    553.254     70.746    552.325    553.104    552.325    552.475    552.325
 21.970    542.000    552.985    -10.985    552.028    552.834    552.028    552.179    552.028
 22.070    586.000    552.719     33.281    551.730    552.566    551.730    551.883    551.730
 22.170    573.803    552.479     21.323    551.431    552.324    551.431    551.586    551.431
 22.270    576.000    552.289     23.711    551.131    552.132    551.131    551.289    551.131
 22.370    563.225    552.050     11.174    550.831    551.891    550.831    550.990    550.831
 22.470    593.336    551.796     41.540    550.530    551.635    550.530    550.691    550.530
 22.570    547.000    551.547     -4.547    550.228    551.383    550.228    550.392    550.228
 22.670    552.000    551.304      0.696    549.926    551.139    549.926    550.092    549.926
 22.770    498.000    551.064    -53.064    549.623    550.897    549.623    549.791    549.623
 22.870    561.000    550.832     10.168    549.319    550.662    549.319    549.490    549.319
 22.970    545.000    550.609     -5.609    549.015    550.436    549.015    549.188    549.015
 23.070    533.173    550.397    -17.224    548.710    550.222    548.710    548.886    548.710
 23.170    550.747    550.200      0.548    548.405    550.022    548.405    548.584    548.405
 23.270    525.661    550.020    -24.360    548.099    549.840    548.099    548.281    548.099
 23.370    557.000    549.865      7.135    547.793    549.681    547.793    547.977    547.793
 23.470    573.000    549.742     23.258    547.486    549.555    547.486    547.674    547.486
 23.570    573.922    549.655     24.267    547.179    549.465    547.179    547.370    547.179
 23.670    569.000    549.621     19.379    546.872    549.428    546.872    547.066    546.872
 23.770    564.000    549.660     14.340    546.564    549.464    546.564    546.761    546.564
 23.870    527.686    549.803    -22.117    546.255    549.604    546.255    546.457    546.255
 23.970    541.000    550.109     -9.109    545.947    549.906    545.947    546.152    545.947
 24.070    588.000    550.713     37.287    545.638    550.506    545.638    545.847    545.638
 24.170    580.000    551.996     28.004    545.329    551.786    545.329    545.542    545.329
 24.270    603.000    554.946     48.054    545.019    554.735    545.019    545.237    545.019
 24.370    576.544    561.585     14.960    544.710    561.373    544.710    544.932    544.710
 24.470    623.149    574.638     48.511    544.400    574.431    544.400    544.627    544.400
 24.570    635.000    595.383     39.617    544.090    595.186    544.090    544.322    544.090
 24.670    562.000    619.771    -57.771    543.779    619.585    543.779    544.018    543.779
 24.770    636.000    635.872      0.128    543.469    635.693    543.469    543.713    543.469
 24.870    606.510    631.934    -25.423    543.159    631.746    543.159    543.408    543.159
 24.970    622.823    611.144     11.679    542.848    610.935    542.848    543.104    542.848
 25.070    598.620    586.704     11.916    542.537    586.471    542.537    542.801    542.537
 25.170    580.000    567.903     12.097    542.227    567.650    542.227    542.497    542.227
 25.270    583.565    556.662     26.903    541.916    556.393    541.916    542.194    541.916
 25.370    575.096    550.930     24.166    541.605    550.649    541.605    541.892    541.605
 25.470    572.883    548.129     24.754    541.294    547.837    541.294    541.590    541.294
 25.570    607.000    546.608     60.392    540.984    546.306    540.984    541.288    540.984
 25.670    574.000    545.618     28.382    540.673    545.305    540.673    540.988    540.673
 25.770    608.000    544.882     63.118    540.363    544.558    540.363    540.688    540.363
 25.870    572.000    544.297     27.703    540.052    543.961    540.052    540.389    540.052
 25.970    560.000    543.822     16.178    539.742    543.473    539.742    540.091    539.742
 26.070    505.941    543.448    -37.508    539.432    543.086    539.432    539.794    539.432
 26.170    521.000    543.139    -22.139    539.122    542.762    539.122    539.499    539.122
 26.270    545.000    542.867      2.133    538.812    542.474    538.812    539.205    538.812
 26.370    532.000    542.638    -10.638    538.502    542.228    538.502    538.912    538.502
 26.470    530.000    542.458    -12.458    538.193    542.029    538.193    538.622    538.193
 26.570    559.000    542.330     16.670    537.883    541.881    537.883    538.333    537.883
 26.670    582.798    542.259     40.539    537.574    541.786    537.574    538.047    537.574
 26.770    538.261    542.252     -3.992    537.266    541.755    537.266    537.763    537.266
 26.870    554.000    542.339     11.661    536.957    541.815    536.957    537.481    536.957
 26.970    570.000    542.540     27.460    536.649    541.985    536.649    537.204    536.649
 27.070    554.000    542.824     11.176    536.342    542.236    536.342    536.929    536.342
 27.170    547.000    543.259      3.741    536.034    542.633    536.034    536.660    536.034
 27.270    544.000    543.902      0.098    535.727    543.234    535.727    536.395    535.727
 27.370    528.725    544.836    -16.111    535.421    544.120    535.421    536.135    535.421
 27.470    542.000    546.211     -4.211    535.115    545.441    535.115    535.883    535.115
 27.570    574.561    548.423     26.138    534.809    547.592    534.809    535.638    534.809
 27.670    523.000    552.876    -29.876    534.504    551.973    534.504    535.402    534.504
 27.770    554.546    564.351     -9.805    534.199    563.365    534.199    535.178    534.199
 27.870    631.241    594.950     36.290    533.894    593.861    533.894    534.966    533.894
 27.970    708.540    663.450     45.089    533.591    662.230    533.591    534.771    533.591
 28.070    767.000    778.054    -11.054    533.287    776.672    533.287    534.596    533.287
 28.170    889.000    906.139    -17.139    532.985    904.577    532.985    534.446    532.985
 28.270    945.000    969.270    -24.270    532.682    967.527    532.682    534.327    532.682
 28.370    912.293    915.925     -3.633    532.381    913.996    532.381    534.248    532.381
 28.470    826.000    800.950     25.050    532.080    798.779    532.080    534.225    532.080
 28.570    701.395    712.122    -10.728    531.779    709.611    531.779    534.279    531.779
 28.670    723.000    694.568     28.432    531.479    691.586    531.479    534.447    531.479
 28.770    681.000    742.835    -61.835    531.180    739.204    531.180    534.791    531.180
 28.870    790.000    814.941    -24.941    530.882    810.403    530.882    535.407    530.882
 28.970    820.117    849.057    -28.940    530.584    843.212    530.584    536.431    530.584
 29.070    828.858    808.818     20.040    530.287    801.079    530.287    538.038    530.287
 29.170    719.000    726.032     -7.032    529.990    715.625    529.990    540.409    529.990
 29.270    645.000    649.923     -4.923    529.694    635.951    529.694    543.674    529.694
 29.370    617.000    602.788     14.212    529.399    584.397    529.399    547.793    529.399
 29.470    577.000    581.775     -4.775    529.105    558.543    529.105    552.336    529.105
 29.570    603.000    574.795     28.205    528.811    547.394    528.811    556.210    528.811
 29.670    580.815    571.775      9.040    528.519    542.491    528.519    557.800    528.519
 29.770    601.000    567.803     33.197    528.227    539.872    528.227    556.154    528.227
 29.870    542.326    562.232    -19.907    527.936    538.173    527.936    551.993    527.936
 29.970    617.000    556.237     60.763    527.645    536.977    527.645    546.902    527.645
 30.070    598.000    550.888     47.112    527.356    536.153    527.356    542.089    527.356
 30.170    564.000    546.691     17.309    527.067    535.675    527.067    538.080    527.067
 30.270    579.202    543.849     35.352    526.779    535.654    526.779    534.972    526.779
 30.370    497.040    542.700    -45.660    526.492    536.532    526.492    532.656    526.492
