neutron_powder_diffraction_0165
R_wp: 3.949
Temperature (K): 1074.000
Counts: 83636.00
Wavelength (Ã…): 2.52098
COMMENTS
Test file for demonstrating the .xyy file format in Reel1.0
END OF HEADER
   tth       Y_obs     Y_calc      Y_res    Background    Phase_1_Nuc    Phase_1_Mag    Phase_2_Nuc    Phase_2_Mag
  9.970    578.000    573.513      4.487    572.808    573.467    572.808    572.853    572.808
 10.070    623.000    573.640     49.360    572.878    573.594    572.878    572.924    572.878
 10.170    617.534    573.770     43.764    572.943    573.723    572.943    572.990    572.943
 10.270    611.000    573.906     37.094    573.002    573.857    573.002    573.051    573.002
 10.370    569.279    574.048     -4.769    573.056    573.997    573.056    573.106    573.056
 10.470    599.000    574.198     24.802    573.104    574.147    573.104    573.154    573.104
 10.570    604.696    574.360     30.336    573.146    574.309    573.146    573.197    573.146
 10.670    588.000    574.541     13.459    573.183    574.489    573.183    573.234    573.183
 10.770    572.000    574.746     -2.746    573.215    574.694    573.215    573.266    573.215
 10.870    613.163    574.984     38.179    573.241    574.931    573.241    573.293    573.241
 10.970    604.602    575.267     29.335    573.262    575.214    573.262    573.314    573.262
 11.070    615.000    575.614     39.386    573.278    575.560    573.278    573.330    573.278
 11.170    565.854    576.049    -10.194    573.288    575.995    573.288    573.341    573.288
 11.270    604.000    576.613     27.387    573.293    576.558    573.293    573.346    573.293
 11.370    623.000    577.372     45.628    573.294    577.317    573.294    573.347    573.294
 11.470    603.000    578.475     24.525    573.289    578.419    573.289    573.342    573.289
 11.570    580.000    580.336     -0.336    573.279    580.279    573.279    573.333    573.279
 11.670    644.000    584.139     59.861    573.265    584.080    573.265    573.318    573.265
 11.770    587.230    592.659     -5.429    573.245    592.594    573.245    573.299    573.245
 11.870    667.000    610.401     56.599    573.221    610.327    573.221    573.275    573.221
 11.970    615.000    640.899    -25.899    573.191    640.808    573.191    573.246    573.191
 12.070    650.900    680.248    -29.347    573.157    680.135    573.157    573.212    573.157
 12.170    732.000    711.230     20.770    573.119    711.099    573.119    573.174    573.119
 12.270    732.612    712.199     20.413    573.075    712.068    573.075    573.131    573.075
 12.370    676.297    682.243     -5.945    573.028    682.128    573.028    573.083    573.028
 12.470    678.628    642.627     36.001    572.975    642.533    572.975    573.031    572.975
 12.570    597.000    611.344    -14.344    572.918    611.268    572.918    572.974    572.918
 12.670    624.307    592.904     31.403    572.857    592.837    572.857    572.913    572.857
 12.770    526.000    583.954    -57.954    572.791    583.892    572.791    572.848    572.791
 12.870    554.000    579.921    -25.921    572.721    579.860    572.721    572.778    572.721
 12.970    524.000    577.922    -53.922    572.646    577.862    572.646    572.704    572.646
 13.070    560.000    576.716    -16.716    572.568    576.655    572.568    572.627    572.568
 13.170    535.863    575.865    -40.001    572.485    575.804    572.485    572.544    572.485
 13.270    584.441    575.214      9.227    572.398    575.153    572.398    572.457    572.398
 13.370    586.000    574.696     11.304    572.306    574.635    572.306    572.366    572.306
 13.470    530.644    574.269    -43.625    572.211    574.207    572.211    572.271    572.211
 13.570    541.709    573.907    -32.197    572.112    573.845    572.112    572.172    572.112
 13.670    591.473    573.592     17.881    572.009    573.531    572.009    572.069    572.009
 13.770    566.395    573.313     -6.917    571.901    573.251    571.901    571.962    571.901
 13.870    557.000    573.059    -16.059    571.790    572.997    571.790    571.851    571.790
 13.970    559.000    572.826    -13.826    571.675    572.764    571.675    571.737    571.675
 14.070    577.000    572.607      4.393    571.556    572.545    571.556    571.618    571.556
 14.170    620.000    572.403     47.597    571.434    572.340    571.434    571.496    571.434
 14.270    545.112    572.206    -27.093    571.308    572.143    571.308    571.370    571.308
 14.370    599.099    572.014     27.085    571.178    571.950    571.178    571.241    571.178
 14.470    538.000    571.826    -33.826    571.044    571.762    571.044    571.107    571.044
 14.570    587.120    571.642     15.479    570.907    571.578    570.907    570.970    570.907
 14.670    559.650    571.460    -11.809    570.766    571.396    570.766    570.830    570.766
 14.770    566.000    571.280     -5.280    570.622    571.216    570.622    570.686    570.622
 14.870    548.708    571.103    -22.394    570.474    571.038    570.474    570.539    570.474
 14.970    515.000    570.923    -55.923    570.323    570.858    570.323    570.388    570.323
 15.070    572.923    570.744      2.180    570.169    570.678    570.169    570.234    570.169
 15.170    571.694    570.564      1.130    570.011    570.498    570.011    570.077    570.011
 15.270    556.000    570.383    -14.383    569.850    570.316    569.850    569.916    569.850
 15.370    560.737    570.201     -9.463    569.686    570.134    569.686    569.752    569.686
 15.470    605.000    570.017     34.983    569.518    569.950    569.518    569.585    569.518
 15.570    601.000    569.832     31.168    569.348    569.765    569.348    569.415    569.348
 15.670    582.000    569.646     12.354    569.174    569.578    569.174    569.242    569.174
 15.770    605.000    569.458     35.542    568.997    569.389    568.997    569.065    568.997
 15.870    558.102    569.268    -11.165    568.817    569.199    568.817    568.886    568.817
 15.970    527.000    569.079    -42.079    568.634    569.006    568.634    568.707    568.634
 16.070    558.823    568.887    -10.064    568.449    568.812    568.449    568.523    568.449
 16.170    566.769    568.691     -1.922    568.260    568.615    568.260    568.335    568.260
 16.270    551.189    568.493    -17.304    568.068    568.417    568.068    568.144    568.068
 16.370    583.000    568.293     14.707    567.874    568.216    567.874    567.950    567.874
 16.470    552.000    568.091    -16.091    567.677    568.014    567.677    567.753    567.677
 16.570    562.000    567.886     -5.886    567.477    567.809    567.477    567.554    567.477
 16.670    566.000    567.680     -1.680    567.274    567.602    567.274    567.352    567.274
 16.770    556.287    567.471    -11.184    567.068    567.393    567.068    567.147    567.068
 16.870    529.187    567.263    -38.076    566.860    567.184    566.860    566.939    566.860
 16.970    590.120    567.050     23.069    566.650    566.971    566.650    566.729    566.650
 17.070    554.000    566.835    -12.835    566.437    566.756    566.437    566.516    566.437
 17.170    557.000    566.618     -9.618    566.221    566.538    566.221    566.301    566.221
 17.270    538.000    566.399    -28.399    566.003    566.318    566.003    566.083    566.003
 17.370    583.000    566.178     16.822    565.782    566.096    565.782    565.863    565.782
 17.470    576.000    565.954     10.046    565.559    565.872    565.559    565.641    565.559
 17.570    551.000    565.729    -14.729    565.334    565.646    565.334    565.416    565.334
 17.670    602.136    565.501     36.634    565.106    565.418    565.106    565.189    565.106
 17.770    551.000    565.272    -14.272    564.876    565.188    564.876    564.959    564.876
 17.870    521.285    565.041    -43.755    564.643    564.957    564.643    564.727    564.643
 17.970    569.000    564.807      4.193    564.409    564.723    564.409    564.494    564.409
 18.070    556.000    564.573     -8.573    564.172    564.488    564.172    564.257    564.172
 18.170    604.079    564.336     39.743    563.933    564.251    563.933    564.019    563.933
 18.270    548.152    564.098    -15.946    563.692    564.011    563.692    563.779    563.692
 18.370    529.202    563.857    -34.655    563.449    563.770    563.449    563.536    563.449
 18.470    514.000    563.615    -49.615    563.204    563.527    563.204    563.292    563.204
 18.570    520.314    563.371    -43.056    562.957    563.282    562.957    563.045    562.957
 18.670    586.000    563.125     22.875    562.708    563.036    562.708    562.797    562.708
 18.770    580.000    562.877     17.123    562.457    562.788    562.457    562.546    562.457
 18.870    562.000    562.628     -0.628    562.204    562.538    562.204    562.294    562.204
 18.970    607.233    562.379     44.855    561.949    562.288    561.949    562.040    561.949
 19.070    597.321    562.128     35.194    561.692    562.036    561.692    561.784    561.692
 19.170    524.000    561.874    -37.874    561.433    561.782    561.433    561.526    561.433
 19.270    532.560    561.619    -29.059    561.173    561.526    561.173    561.266    561.173
 19.370    556.000    561.364     -5.364    560.911    561.270    560.911    561.005    560.911
 19.470    533.000    561.120    -28.120    560.647    561.025    560.647    560.742    560.647
 19.570    573.000    560.871     12.129    560.382    560.776    560.382    560.478    560.382
 19.670    566.811    560.612      6.199    560.115    560.515    560.115    560.211    560.115
 19.770    596.795    560.350     36.445    559.846    560.253    559.846    559.943    559.846
 19.870    600.000    560.088     39.912    559.576    559.990    559.576    559.674    559.576
 19.970    547.000    559.824    -12.824    559.304    559.725    559.304    559.403    559.304
 20.070    566.000    559.559      6.441    559.031    559.459    559.031    559.131    559.031
 20.170    561.915    559.293      2.621    558.756    559.193    558.756    558.857    558.756
 20.270    515.000    559.027    -44.027    558.480    558.925    558.480    558.582    558.480
 20.370    556.000    558.759     -2.759    558.202    558.657    558.202    558.305    558.202
 20.470    574.134    558.491     15.644    557.923    558.387    557.923    558.027    557.923
 20.570    533.000    558.222    -25.222    557.643    558.117    557.643    557.748    557.643
 20.670    572.000    557.954     14.046    557.362    557.846    557.362    557.469    557.362
 20.770    523.246    557.684    -34.438    557.079    557.575    557.079    557.188    557.079
 20.870    565.000    557.422      7.578    556.794    557.312    556.794    556.905    556.794
 20.970    558.000    557.239      0.761    556.509    557.127    556.509    556.621    556.509
 21.070    517.000    556.990    -39.990    556.222    556.877    556.222    556.335    556.222
 21.170    587.000    556.720     30.280    555.935    556.606    555.935    556.048    555.935
 21.270    529.000    556.448    -27.448    555.646    556.333    555.646    555.761    555.646
 21.370    553.000    556.179     -3.179    555.356    556.062    555.356    555.472    555.356
 21.470    549.635    555.930     -6.294    555.064    555.812    555.064    555.182    555.064
 21.570    516.343    555.688    -39.345    554.772    555.569    554.772    554.891    554.772
 21.670    517.543    555.421    -37.877    554.479    555.300    554.479    554.599    554.479
 21.770    569.000    555.151     13.849    554.185    555.030    554.185    554.307    554.185
 21.870    594.402    554.889     39.513    553.890    554.766    553.890    554.013    553.890
 21.970    516.038    554.673    -38.635    553.594    554.548    553.594    553.718    553.594
 22.070    559.974    554.427      5.547    553.297    554.301    553.297    553.423    553.297
 22.170    570.404    554.165     16.239    552.999    554.037    552.999    553.127    552.999
 22.270    568.000    553.904     14.096    552.700    553.774    552.700    552.830    552.700
 22.370    526.841    553.645    -26.804    552.401    553.515    552.401    552.532    552.401
 22.470    562.000    553.391      8.609    552.100    553.259    552.100    552.233    552.100
 22.570    530.647    553.144    -22.496    551.799    553.009    551.799    551.934    551.799
 22.670    570.000    552.898     17.102    551.497    552.762    551.497    551.634    551.497
 22.770    534.000    552.659    -18.659    551.195    552.521    551.195    551.333    551.195
 22.870    559.000    552.426      6.574    550.892    552.286    550.892    551.032    550.892
 22.970    523.591    552.203    -28.612    550.588    552.061    550.588    550.730    550.588
 23.070    576.000    551.991     24.009    550.283    551.847    550.283    550.428    550.283
 23.170    512.000    551.793    -39.793    549.978    551.646    549.978    550.125    549.978
 23.270    517.000    551.612    -34.612    549.673    551.464    549.673    549.822    549.673
 23.370    587.441    551.454     35.987    549.366    551.303    549.366    549.518    549.366
 23.470    582.797    551.325     31.471    549.060    551.172    549.060    549.214    549.060
 23.570    541.467    551.235     -9.768    548.752    551.079    548.752    548.909    548.752
 23.670    543.000    551.196     -8.196    548.445    551.038    548.445    548.604    548.445
 23.770    535.790    551.229    -15.439    548.136    551.068    548.136    548.299    548.136
 23.870    554.000    551.364      2.636    547.828    551.200    547.828    547.993    547.828
 23.970    557.295    551.656      5.639    547.519    551.490    547.519    547.687    547.519
 24.070    545.000    552.241     -7.241    547.209    552.072    547.209    547.381    547.209
 24.170    564.037    553.495     10.542    546.900    553.324    546.900    547.075    546.900
 24.270    571.000    556.426     14.574    546.590    556.253    546.590    546.769    546.590
 24.370    603.000    563.131     39.869    546.279    562.959    546.279    546.462    546.279
 24.470    572.000    576.485     -4.485    545.969    576.319    545.969    546.156    545.969
 24.570    628.616    597.851     30.765    545.658    597.696    545.658    545.849    545.658
 24.670    601.670    623.055    -21.385    545.347    622.916    545.347    545.542    545.347
 24.770    669.185    639.720     29.465    545.035    639.588    545.035    545.236    545.035
 24.870    673.049    635.642     37.407    544.724    635.503    544.724    544.929    544.724
 24.970    627.000    614.146     12.854    544.412    613.986    544.412    544.623    544.412
 25.070    623.000    588.932     34.068    544.100    588.748    544.100    544.317    544.100
 25.170    614.070    569.639     44.431    543.788    569.434    543.788    544.011    543.788
 25.270    540.338    558.212    -17.874    543.476    557.993    543.476    543.705    543.476
 25.370    591.091    552.465     38.626    543.164    552.235    543.164    543.400    543.164
 25.470    526.659    549.697    -23.038    542.852    549.457    542.852    543.095    542.852
 25.570    565.000    548.209     16.791    542.540    547.961    542.540    542.790    542.540
 25.670    558.000    547.246     10.754    542.228    546.989    542.228    542.486    542.228
 25.770    588.000    546.534     41.466    541.916    546.268    541.916    542.183    541.916
 25.870    576.000    545.996     30.004    541.604    545.720    541.604    541.881    541.604
 25.970    555.000    545.559      9.441    541.292    545.272    541.292    541.579    541.292
 26.070    531.000    545.179    -14.179    540.980    544.881    540.980    541.278    540.980
 26.170    563.000    544.872     18.128    540.668    544.562    540.668    540.978    540.668
 26.270    512.796    544.634    -31.838    540.356    544.311    540.356    540.679    540.356
 26.370    545.146    544.430      0.716    540.044    544.093    540.044    540.382    540.044
 26.470    564.296    544.277     20.019    539.733    543.925    539.733    540.086    539.733
 26.570    577.676    544.181     33.494    539.422    543.812    539.422    539.792    539.422
 26.670    601.000    544.158     56.842    539.111    543.770    539.111    539.499    539.111
 26.770    581.000    544.219     36.781    538.800    543.810    538.800    539.209    538.800
 26.870    540.000    544.342     -4.342    538.489    543.911    538.489    538.921    538.489
 26.970    586.000    544.568     41.432    538.179    544.112    538.179    538.635    538.179
 27.070    507.941    544.928    -36.987    537.869    544.444    537.869    538.353    537.869
 27.170    574.536    545.462     29.074    537.560    544.947    537.560    538.074    537.560
 27.270    593.000    546.233     46.767    537.250    545.683    537.250    537.799    537.250
 27.370    620.000    547.338     72.662    536.941    546.748    536.941    537.529    536.941
 27.470    538.000    548.951    -10.951    536.633    548.317    536.633    537.265    536.633
 27.570    516.534    551.537    -35.003    536.324    550.852    536.324    537.007    536.324
 27.670    601.000    556.624     44.376    536.016    555.880    536.016    536.756    536.016
 27.770    582.465    569.051     13.415    535.709    568.236    535.709    536.515    535.709
 27.870    598.000    600.137     -2.137    535.402    599.235    535.402    536.285    535.402
 27.970    629.992    666.201    -36.209    535.095    665.190    535.095    536.068    535.095
 28.070    800.602    773.066     27.536    534.789    771.919    534.789    535.868    534.789
 28.170    937.246    890.708     46.538    534.484    889.410    534.484    535.689    534.484
 28.270    956.278    948.742      7.536    534.179    947.295    534.179    535.535    534.179
 28.370    859.776    900.665    -40.889    533.874    899.066    533.874    535.416    533.874
 28.470    772.000    796.477    -24.477    533.570    794.681    533.570    535.341    533.570
 28.570    723.713    715.263      8.450    533.267    713.188    533.267    535.330    533.267
 28.670    705.000    698.074      6.926    532.964    695.611    532.964    535.413    532.964
 28.770    765.000    740.963     24.037    532.662    737.966    532.662    535.642    532.662
 28.870    828.000    806.181     21.819    532.360    802.427    532.360    536.103    532.360
 28.970    783.000    836.781    -53.781    532.059    831.920    532.059    536.924    532.059
 29.070    721.000    798.775    -77.775    531.759    792.273    531.759    538.275    531.759
 29.170    759.000    721.317     37.683    531.459    712.450    531.459    540.340    531.459
 29.270    650.000    649.512      0.488    531.160    637.418    531.160    543.262    531.160
 29.370    605.000    603.991      1.009    530.862    587.830    530.862    547.027    530.862
 29.470    555.055    582.795    -27.739    530.564    562.107    530.564    551.253    530.564
 29.570    541.697    575.186    -33.489    530.267    550.547    530.267    554.906    530.267
 29.670    553.210    571.721    -18.511    529.971    545.280    529.971    556.411    529.971
 29.770    605.399    567.573     37.826    529.676    542.429    529.676    554.818    529.676
 29.870    534.324    562.048    -27.724    529.381    540.581    529.381    550.847    529.381
 29.970    580.851    556.254     24.596    529.087    539.286    529.087    546.054    529.087
 30.070    507.304    551.187    -43.883    528.794    538.395    528.794    541.584    528.794
 30.170    557.000    547.298      9.702    528.502    537.882    528.502    537.915    528.502
 30.270    561.000    544.771     16.229    528.211    537.865    528.211    535.114    528.211
 30.370    548.828    543.940      4.888    527.920    538.799    527.920    533.057    527.920
