neutron_powder_diffraction_0021
R_wp: 3.695
Temperature (K): 499.716
Counts: 83316.00
Wavelength (Ã…): 2.52098
COMMENTS
Test file for demonstrating the .xyy file format in Reel1.0
END OF HEADER
   tth       Y_obs     Y_calc      Y_res    Background    Phase_1_Nuc    Phase_1_Mag    Phase_2_Nuc    Phase_2_Mag
  9.970    681.256    721.564    -40.307    719.903    720.915    720.551    719.903    719.903
 10.070    715.790    720.586     -4.796    718.837    719.931    719.492    718.837    718.837
 10.170    747.048    719.625     27.423    717.776    718.962    718.438    717.776    717.776
 10.270    749.000    718.682     30.318    716.721    718.013    717.390    716.721    716.721
 10.370    767.933    717.761     50.171    715.671    717.085    716.347    715.671    715.671
 10.470    771.862    716.866     54.997    714.627    716.181    715.310    714.627    714.627
 10.570    690.409    715.999    -25.590    713.588    715.307    714.279    713.588    713.588
 10.670    695.719    715.167    -19.448    712.554    714.468    713.253    712.554    712.554
 10.770    709.000    714.378     -5.378    711.526    713.671    712.232    711.526    711.526
 10.870    730.655    713.641     17.014    710.503    712.926    711.217    710.503    710.503
 10.970    742.659    712.969     29.690    709.486    712.246    710.207    709.486    709.486
 11.070    707.703    712.382     -4.678    708.473    711.650    709.203    708.473    708.473
 11.170    760.000    711.904     48.096    707.466    711.164    708.205    707.466    707.466
 11.270    750.932    711.575     39.357    706.465    710.827    707.211    706.465    706.465
 11.370    664.565    711.457    -46.892    705.469    710.699    706.224    705.469    705.469
 11.470    737.000    711.663     25.337    704.478    710.896    705.241    704.478    704.478
 11.570    768.171    712.438     55.733    703.492    711.661    704.264    703.492    703.492
 11.670    766.000    714.335     51.665    702.511    713.548    703.293    702.511    702.511
 11.770    762.000    718.514     43.486    701.536    717.715    702.327    701.536    701.536
 11.870    763.000    727.015     35.985    700.566    726.201    701.366    700.566    700.566
 11.970    695.278    741.980    -46.702    699.602    741.147    700.411    699.602    699.602
 12.070    810.629    764.737     45.892    698.642    763.881    699.462    698.642    698.642
 12.170    766.381    792.589    -26.207    697.688    791.707    698.517    697.688    697.688
 12.270    881.000    815.757     65.243    696.739    814.852    697.578    696.739    696.739
 12.370    843.000    820.206     22.794    695.795    819.288    696.644    695.795    695.795
 12.470    816.000    801.650     14.350    694.856    800.731    695.716    694.856    694.856
 12.570    754.000    771.985    -17.985    693.923    771.072    694.793    693.923    693.923
 12.670    754.000    744.370      9.630    692.994    743.461    693.875    692.994    692.994
 12.770    726.678    724.246      2.431    692.071    723.337    692.963    692.071    692.071
 12.870    685.000    711.552    -26.552    691.153    710.638    692.056    691.153    691.153
 12.970    711.685    704.084      7.601    690.240    703.163    691.154    690.240    690.240
 13.070    703.000    699.596      3.404    689.332    698.665    690.258    689.332    689.332
 13.170    645.000    696.605    -51.605    688.430    695.664    689.367    688.430    688.430
 13.270    672.000    694.353    -22.353    687.532    693.401    688.482    687.532    687.532
 13.370    654.749    692.501    -37.751    686.640    691.536    687.601    686.640    686.640
 13.470    667.197    690.891    -23.693    685.752    689.915    686.726    685.752    685.752
 13.570    714.623    689.450     25.173    684.870    688.462    685.857    684.870    684.870
 13.670    653.790    688.133    -34.343    683.993    687.132    684.992    683.993    683.993
 13.770    652.000    686.910    -34.910    683.120    685.896    684.133    683.120    683.120
 13.870    644.613    685.759    -41.146    682.253    684.732    683.279    682.253    682.253
 13.970    687.000    684.665      2.335    681.391    683.624    682.431    681.391    681.391
 14.070    691.000    683.617      7.383    680.534    682.562    681.588    680.534    680.534
 14.170    665.000    682.607    -17.607    679.681    681.538    680.750    679.681    679.681
 14.270    686.000    681.629      4.371    678.834    680.545    679.917    678.834    678.834
 14.370    663.000    680.678    -17.678    677.992    679.579    679.090    677.992    677.992
 14.470    655.669    679.763    -24.094    677.155    678.649    678.268    677.155    677.155
 14.570    719.099    678.867     40.233    676.322    677.737    677.452    676.322    676.322
 14.670    685.962    677.974      7.987    675.495    676.829    676.640    675.495    675.495
 14.770    619.000    677.097    -58.097    674.672    675.935    675.834    674.672    674.672
 14.870    659.888    676.233    -16.345    673.855    675.054    675.033    673.855    673.855
 14.970    646.000    675.381    -29.381    673.042    674.186    674.237    673.042    673.042
 15.070    655.000    674.545    -19.545    672.234    673.332    673.447    672.234    672.234
 15.170    652.000    673.718    -21.718    671.431    672.488    672.661    671.431    671.431
 15.270    698.654    672.899     25.755    670.633    671.651    671.881    670.633    670.633
 15.370    691.000    672.089     18.911    669.840    670.822    671.107    669.840    669.840
 15.470    638.000    671.288    -33.288    669.052    670.003    670.337    669.052    669.052
 15.570    683.966    670.496     13.470    668.269    669.191    669.573    668.269    668.269
 15.670    657.000    669.712    -12.712    667.490    668.387    668.814    667.490    667.490
 15.770    664.000    668.935     -4.935    666.716    667.591    668.061    666.716    666.716
 15.870    625.000    668.167    -43.167    665.947    666.801    667.312    665.947    665.947
 15.970    686.000    667.405     18.595    665.183    666.018    666.569    665.183    665.183
 16.070    660.134    666.650     -6.516    664.423    665.242    665.831    664.423    664.423
 16.170    718.000    665.903     52.097    663.669    664.472    665.099    663.669    663.669
 16.270    656.429    665.162     -8.733    662.919    663.709    664.372    662.919    662.919
 16.370    625.754    664.428    -38.674    662.173    662.951    663.650    662.173    662.173
 16.470    623.452    663.700    -40.248    661.433    662.200    662.933    661.433    661.433
 16.570    648.000    662.979    -14.979    660.697    661.455    662.221    660.697    660.697
 16.670    672.000    662.264      9.736    659.966    660.715    661.515    659.966    659.966
 16.770    626.000    661.556    -35.556    659.240    659.981    660.815    659.240    659.240
 16.870    713.321    660.858     52.463    658.518    659.256    660.119    658.518    658.518
 16.970    606.000    660.166    -54.166    657.801    658.537    659.429    657.801    657.801
 17.070    676.000    659.476     16.524    657.088    657.820    658.745    657.088    657.088
 17.170    677.000    658.793     18.207    656.381    657.108    658.065    656.381    656.381
 17.270    646.000    658.121    -12.121    655.678    656.406    657.392    655.678    655.678
 17.370    656.000    657.476     -1.476    654.979    655.730    656.724    654.979    654.979
 17.470    620.785    656.873    -36.089    654.285    655.096    656.063    654.285    654.285
 17.570    651.170    656.220     -5.050    653.596    654.411    655.405    653.596    653.596
 17.670    650.000    655.567     -5.567    652.911    653.725    654.753    652.911    652.911
 17.770    641.000    654.919    -13.919    652.231    653.045    654.106    652.231    652.231
 17.870    616.000    654.278    -38.278    651.556    652.369    653.465    651.556    651.556
 17.970    661.000    653.644      7.356    650.885    651.700    652.829    650.885    650.885
 18.070    659.650    653.029      6.620    650.218    651.049    652.198    650.218    650.218
 18.170    603.000    652.423    -49.423    649.556    650.405    651.573    649.556    649.556
 18.270    658.113    651.807      6.306    648.899    649.751    650.954    648.899    648.899
 18.370    677.000    651.196     25.804    648.246    649.101    650.340    648.246    648.246
 18.470    638.000    650.590    -12.590    647.597    648.455    649.732    647.597    647.597
 18.570    632.000    649.991    -17.991    646.953    647.815    649.130    646.953    646.953
 18.670    637.532    649.398    -11.866    646.314    647.179    648.533    646.314    646.314
 18.770    613.470    648.811    -35.341    645.679    646.548    647.942    645.679    645.679
 18.870    663.000    648.231     14.769    645.048    645.922    647.357    645.048    645.048
 18.970    688.561    647.660     40.901    644.422    645.304    646.777    644.422    644.422
 19.070    624.000    647.102    -23.102    643.800    644.697    646.204    643.800    643.800
 19.170    632.000    646.541    -14.541    643.182    644.087    645.636    643.182    643.182
 19.270    659.768    645.991     13.777    642.569    643.484    645.076    642.569    642.569
 19.370    637.000    645.494     -8.494    641.961    642.918    644.536    641.961    641.961
 19.470    643.000    644.978     -1.978    641.356    642.340    643.995    641.356    641.356
 19.570    662.850    644.445     18.405    640.756    641.749    643.452    640.756    640.756
 19.670    645.434    643.918      1.515    640.161    641.164    642.915    640.161    640.161
 19.770    626.000    643.413    -17.413    639.569    640.598    642.384    639.569    639.569
 19.870    609.000    642.912    -33.912    638.982    640.034    641.860    638.982    638.982
 19.970    627.000    642.405    -15.405    638.400    639.463    641.342    638.400    638.400
 20.070    619.000    641.906    -22.906    637.821    638.896    640.831    637.821    637.821
 20.170    601.066    641.429    -40.364    637.247    638.347    640.330    637.247    637.247
 20.270    644.759    640.998      3.762    636.677    637.823    639.852    636.677    636.677
 20.370    663.000    640.535     22.465    636.111    637.281    639.365    636.111    636.111
 20.470    609.000    640.077    -31.077    635.550    636.746    638.881    635.550    635.550
 20.570    613.000    639.687    -26.687    634.993    636.275    638.405    634.993    634.993
 20.670    595.000    639.257    -44.257    634.440    635.761    637.935    634.440    634.440
 20.770    615.000    638.813    -23.813    633.891    635.232    637.472    633.891    633.891
 20.870    613.000    638.376    -25.376    633.346    634.705    637.017    633.346    633.346
 20.970    597.000    637.952    -40.952    632.806    634.188    636.570    632.806    632.806
 21.070    616.000    637.572    -21.572    632.269    633.710    636.131    632.269    632.269
 21.170    614.233    637.172    -22.939    631.737    633.210    635.699    631.737    631.737
 21.270    614.000    636.774    -22.774    631.209    632.708    635.276    631.209    631.209
 21.370    606.000    636.398    -30.398    630.685    632.222    634.861    630.685    630.685
 21.470    573.000    636.031    -63.031    630.165    631.736    634.460    630.165    630.165
 21.570    633.000    635.667     -2.667    629.649    631.252    634.064    629.649    629.649
 21.670    676.000    635.310     40.690    629.138    630.773    633.675    629.138    629.138
 21.770    672.000    634.963     37.037    628.630    630.298    633.295    628.630    628.630
 21.870    672.474    634.629     37.846    628.126    629.830    632.925    628.126    628.126
 21.970    633.299    634.306     -1.007    627.627    629.368    632.565    627.627    627.627
 22.070    640.000    633.996      6.004    627.131    628.912    632.215    627.131    627.131
 22.170    679.387    633.700     45.688    626.640    628.464    631.876    626.640    626.640
 22.270    599.000    633.418    -34.418    626.152    628.023    631.548    626.152    626.152
 22.370    642.802    633.152      9.650    625.669    627.590    631.231    625.669    625.669
 22.470    650.215    632.905     17.310    625.189    627.167    630.927    625.189    625.189
 22.570    593.000    632.674    -39.674    624.714    626.753    630.635    624.714    624.714
 22.670    632.000    632.469     -0.469    624.242    626.354    630.358    624.242    624.242
 22.770    670.000    632.280     37.720    623.774    625.961    630.093    623.774    623.774
 22.870    637.000    632.112      4.888    623.310    625.580    629.842    623.310    623.310
 22.970    629.000    631.969     -2.969    622.850    625.213    629.606    622.850    622.850
 23.070    617.000    631.853    -14.853    622.394    624.862    629.386    622.394    622.394
 23.170    657.000    631.769     25.231    621.942    624.529    629.183    621.942    621.942
 23.270    629.000    631.722     -2.722    621.494    624.218    628.998    621.494    621.494
 23.370    652.000    631.713     20.287    621.049    623.932    628.831    621.049    621.049
 23.470    608.000    631.751    -23.751    620.609    623.677    628.684    620.609    620.609
 23.570    638.000    631.844      6.156    620.172    623.459    628.558    620.172    620.172
 23.670    632.196    632.002      0.195    619.739    623.288    628.454    619.739    619.739
 23.770    636.000    632.239      3.761    619.310    623.176    628.374    619.310    619.310
 23.870    647.423    632.577     14.847    618.884    623.143    628.319    618.884    618.884
 23.970    630.822    633.042     -2.220    618.462    623.214    628.292    618.462    618.462
 24.070    633.000    633.682     -0.682    618.045    623.434    628.295    618.045    618.045
 24.170    637.239    634.582      2.657    617.630    623.886    628.330    617.630    617.630
 24.270    656.336    635.918     20.418    617.220    624.743    628.399    617.220    617.220
 24.370    658.000    638.081     19.919    616.813    626.395    628.504    616.813    616.813
 24.470    692.000    641.854     50.146    616.410    629.621    628.651    616.410    616.410
 24.570    696.000    648.502     47.498    616.011    635.684    628.841    616.011    616.011
 24.670    664.000    659.502      4.498    615.615    646.058    629.079    615.615    615.615
 24.770    724.000    675.573     48.427    615.223    661.457    629.370    615.223    615.223
 24.870    675.133    694.939    -19.806    614.835    680.100    629.719    614.835    614.835
 24.970    736.000    711.455     24.545    614.450    695.831    630.131    614.450    614.450
 25.070    690.000    716.146    -26.146    614.069    699.660    630.614    614.069    614.069
 25.170    720.000    705.833     14.167    613.691    688.400    631.176    613.691    613.691
 25.270    742.000    687.803     54.197    613.317    669.334    631.824    613.317    613.317
 25.370    683.000    670.673     12.327    612.947    651.074    632.571    612.947    612.947
 25.470    687.039    658.311     28.729    612.580    637.480    633.426    612.580    612.580
 25.570    694.000    650.976     43.024    612.217    628.797    634.405    612.217    612.217
 25.670    699.296    647.395     51.900    611.857    623.734    635.525    611.857    611.857
 25.770    622.000    646.126    -24.126    611.501    620.828    636.803    611.501    611.501
 25.870    641.000    646.160     -5.160    611.149    619.048    638.263    611.149    611.149
 25.970    643.000    646.976     -3.976    610.799    617.841    639.936    610.799    610.799
 26.070    624.000    648.333    -24.333    610.454    616.937    641.851    610.454    610.454
 26.170    701.102    650.157     50.946    610.111    616.225    644.043    610.111    610.111
 26.270    702.370    652.445     49.925    609.773    615.652    646.565    609.773    609.773
 26.370    695.639    655.227     40.412    609.437    615.188    649.475    609.437    609.437
 26.470    700.000    658.558     41.442    609.105    614.816    652.847    609.105    609.105
 26.570    652.692    662.521     -9.829    608.777    614.525    656.771    608.777    608.777
 26.670    617.863    667.225    -49.362    608.452    614.310    661.365    608.452    608.452
 26.770    660.427    672.819    -12.392    608.130    614.171    666.775    608.130    608.130
 26.870    707.000    679.500     27.500    607.812    614.113    673.195    607.812    607.812
 26.970    665.000    687.529    -22.529    607.497    614.145    680.877    607.497    607.497
 27.070    661.000    697.261    -36.261    607.185    614.280    690.161    607.185    607.185
 27.170    757.412    709.177     48.234    606.877    614.540    701.508    606.877    606.877
 27.270    670.097    723.961    -53.864    606.572    614.958    715.568    606.572    606.572
 27.370    728.000    742.556    -14.556    606.270    615.575    733.242    606.270    606.270
 27.470    802.920    766.394     36.525    605.972    616.463    755.892    605.972    605.972
 27.570    807.000    797.793      9.207    605.677    617.731    785.723    605.677    605.677
 27.670    820.000    841.488    -21.488    605.385    619.608    827.245    605.385    605.385
 27.770    928.261    910.644     17.617    605.096    622.721    892.990    605.096    605.096
 27.870   1018.183   1046.076    -27.893    604.811    629.010   1021.823    604.811    604.811
 27.970   1379.188   1357.396     21.792    604.528    643.681   1318.130    604.528    604.528
 28.070   1951.000   2060.583   -109.583    604.249    676.984   1987.597    604.249    604.249
 28.170   3490.917   3410.250     80.667    603.974    741.011   3272.720    603.974    603.974
 28.270   5245.000   5425.897   -180.897    603.701    836.720   5192.092    603.701    603.701
 28.370   7413.000   7532.479   -119.479    603.432    936.926   7198.032    603.432    603.432
 28.470   8403.207   8548.011   -144.804    603.165    985.783   8164.626    603.165    603.165
 28.570   7805.673   7722.177     83.495    602.902    948.208   7376.597    602.902    602.902
 28.670   6155.000   5858.597    296.403    602.642    863.371   5597.987    602.642    602.642
 28.770   4133.654   4244.046   -110.392    602.385    794.011   4052.647    602.385    602.385
 28.870   3553.000   3561.688     -8.688    602.131    774.141   3389.832    602.131    602.131
 28.970   3785.194   3784.846      0.348    601.880    802.089   3584.697    601.880    601.880
 29.070   4403.650   4412.640     -8.990    601.633    849.390   4164.937    601.633    601.633
 29.170   4714.000   4735.914    -21.914    601.388    873.149   4464.321    601.388    601.388
 29.270   4435.992   4307.966    128.025    601.146    845.868   4063.566    601.146    601.146
 29.370   3355.698   3365.338     -9.640    600.908    784.008   3182.614    600.908    600.908
 29.470   2333.000   2389.927    -56.927    600.672    719.762   2271.153    600.672    600.672
 29.570   1650.416   1659.835     -9.419    600.440    671.658   1588.830    600.440    600.440
 29.670   1263.566   1218.597     44.969    600.210    642.631   1176.297    600.210    600.210
 29.770   1012.000    987.802     24.198    599.983    627.516    960.332    599.983    599.983
 29.870    922.000    873.004     48.996    599.760    620.075    852.720    599.760    599.760
 29.970    787.290    811.672    -24.382    599.539    616.185    795.043    599.539    599.539
 30.070    884.000    773.686    110.314    599.321    613.869    759.148    599.321    599.321
 30.170    782.000    747.047     34.953    599.106    612.357    733.802    599.106    599.106
 30.270    762.000    727.168     34.832    598.894    611.384    714.682    598.894    598.894
 30.370    724.000    712.114     11.886    598.685    610.903    699.898    598.685    598.685
