neutron_powder_diffraction_0086
R_wp: 4.485
Temperature (K): 822.188
Counts: 83833.00
Wavelength (Ã…): 2.52098
COMMENTS
Test file for demonstrating the .xyy file format in Reel1.0
END OF HEADER
   tth       Y_obs     Y_calc      Y_res    Background    Phase_1_Nuc    Phase_1_Mag    Phase_2_Nuc    Phase_2_Mag
  9.970    624.000    573.277     50.723    572.190    573.277    572.190    572.190    572.190
 10.070    590.898    573.762     17.137    572.586    573.761    572.586    572.586    572.586
 10.170    598.000    574.249     23.751    572.973    574.248    572.973    572.973    572.973
 10.270    584.000    574.741      9.259    573.350    574.740    573.350    573.350    573.350
 10.370    578.000    575.241      2.759    573.717    575.240    573.717    573.717    573.717
 10.470    541.917    575.755    -33.838    574.074    575.754    574.074    574.074    574.074
 10.570    551.908    576.288    -24.380    574.422    576.287    574.422    574.422    574.422
 10.670    591.696    576.843     14.853    574.761    576.842    574.761    574.761    574.761
 10.770    629.000    577.431     51.569    575.090    577.430    575.090    575.090    575.090
 10.870    645.000    578.065     66.935    575.410    578.063    575.410    575.410    575.410
 10.970    631.000    578.760     52.240    575.721    578.759    575.721    575.721    575.721
 11.070    630.889    579.541     51.348    576.022    579.539    576.022    576.022    576.022
 11.170    574.663    580.440     -5.777    576.315    580.438    576.315    576.315    576.315
 11.270    571.177    581.507    -10.331    576.599    581.505    576.599    576.599    576.599
 11.370    528.610    582.842    -54.232    576.873    582.839    576.873    576.873    576.873
 11.470    590.000    584.724      5.276    577.139    584.720    577.139    577.139    577.139
 11.570    602.000    587.298     14.702    577.396    587.293    577.396    577.396    577.396
 11.670    635.000    591.624     43.376    577.644    591.616    577.644    577.644    577.644
 11.770    618.038    599.663     18.375    577.884    599.651    577.884    577.884    577.884
 11.870    634.000    614.437     19.563    578.115    614.417    578.115    578.115    578.115
 11.970    687.099    638.793     48.306    578.338    638.760    578.338    578.338    578.338
 12.070    685.786    672.231     13.555    578.552    672.180    578.552    578.552    578.552
 12.170    722.463    706.231     16.232    578.758    706.161    578.758    578.758    578.758
 12.270    765.922    722.187     43.735    578.956    722.109    578.956    578.956    578.956
 12.370    673.309    707.320    -34.011    579.145    707.250    579.145    579.145    579.145
 12.470    708.000    673.968     34.032    579.327    673.916    579.327    579.327    579.327
 12.570    666.953    640.790     26.164    579.500    640.756    579.500    579.500    579.500
 12.670    611.076    616.562     -5.486    579.665    616.542    579.665    579.665    579.665
 12.770    589.000    601.949    -12.949    579.823    601.937    579.823    579.823    579.823
 12.870    596.000    594.155      1.845    579.972    594.147    579.972    579.972    579.972
 12.970    566.000    590.145    -24.145    580.114    590.140    580.114    580.114    580.114
 13.070    595.611    587.946      7.665    580.248    587.942    580.248    580.248    580.248
 13.170    563.000    586.600    -23.600    580.375    586.597    580.375    580.375    580.375
 13.270    571.000    585.683    -14.683    580.494    585.680    580.494    580.494    580.494
 13.370    591.671    585.010      6.661    580.606    585.008    580.606    580.606    580.606
 13.470    550.000    584.508    -34.508    580.710    584.506    580.710    580.710    580.710
 13.570    608.560    584.127     24.433    580.806    584.125    580.806    580.806    580.806
 13.670    539.000    583.834    -44.834    580.896    583.832    580.896    580.896    580.896
 13.770    570.843    583.605    -12.762    580.978    583.604    580.978    580.978    580.978
 13.870    574.000    583.425     -9.425    581.053    583.424    581.053    581.053    581.053
 13.970    580.000    583.280     -3.280    581.121    583.279    581.121    581.121    581.121
 14.070    570.000    583.162    -13.162    581.182    583.162    581.182    581.182    581.182
 14.170    545.877    583.065    -37.188    581.236    583.065    581.236    581.236    581.236
 14.270    587.637    582.984      4.653    581.284    582.983    581.284    581.284    581.284
 14.370    542.000    582.914    -40.914    581.324    582.914    581.324    581.324    581.324
 14.470    631.551    582.857     48.694    581.357    582.857    581.357    581.357    581.357
 14.570    546.000    582.803    -36.803    581.384    582.802    581.384    581.384    581.384
 14.670    585.470    582.751      2.719    581.405    582.750    581.405    581.405    581.405
 14.770    612.940    582.701     30.240    581.418    582.700    581.418    581.418    581.418
 14.870    579.025    582.652     -3.627    581.426    582.651    581.426    581.426    581.426
 14.970    558.000    582.603    -24.603    581.426    582.603    581.426    581.426    581.426
 15.070    535.000    582.554    -47.554    581.421    582.553    581.421    581.421    581.421
 15.170    532.000    582.503    -50.503    581.409    582.502    581.409    581.409    581.409
 15.270    578.000    582.450     -4.450    581.391    582.449    581.391    581.391    581.391
 15.370    568.457    582.394    -13.938    581.367    582.394    581.367    581.367    581.367
 15.470    627.217    582.344     44.873    581.336    582.344    581.336    581.336    581.336
 15.570    593.000    582.362     10.638    581.300    582.362    581.300    581.300    581.300
 15.670    595.022    582.308     12.714    581.257    582.308    581.257    581.257    581.257
 15.770    549.000    582.241    -33.241    581.209    582.241    581.209    581.209    581.209
 15.870    567.000    582.169    -15.169    581.155    582.169    581.155    581.155    581.155
 15.970    624.285    582.094     42.191    581.095    582.094    581.095    581.095    581.095
 16.070    624.295    582.014     42.281    581.029    582.014    581.029    581.029    581.029
 16.170    604.317    581.930     22.387    580.957    581.930    580.957    580.957    580.957
 16.270    571.000    581.844    -10.844    580.880    581.844    580.880    580.880    580.880
 16.370    550.000    581.765    -31.765    580.797    581.764    580.797    580.797    580.797
 16.470    602.000    581.670     20.330    580.709    581.669    580.709    580.709    580.709
 16.570    603.000    581.569     21.431    580.615    581.569    580.615    580.615    580.615
 16.670    554.000    581.471    -27.471    580.516    581.471    580.516    580.516    580.516
 16.770    599.860    581.422     18.438    580.412    581.422    580.412    580.412    580.412
 16.870    555.000    581.330    -26.330    580.302    581.330    580.302    580.302    580.302
 16.970    567.000    581.226    -14.226    580.187    581.226    580.187    580.187    580.187
 17.070    589.000    581.105      7.895    580.067    581.105    580.067    580.067    580.067
 17.170    558.000    580.978    -22.978    579.942    580.978    579.942    579.942    579.942
 17.270    554.000    580.847    -26.847    579.812    580.847    579.812    579.812    579.812
 17.370    630.379    580.712     49.667    579.677    580.712    579.677    579.677    579.677
 17.470    542.000    580.581    -38.581    579.536    580.581    579.536    579.536    579.536
 17.570    540.000    580.442    -40.442    579.391    580.442    579.391    579.391    579.391
 17.670    627.265    580.294     46.970    579.242    580.294    579.242    579.242    579.242
 17.770    572.000    580.142     -8.142    579.087    580.142    579.087    579.087    579.087
 17.870    625.268    579.986     45.282    578.928    579.986    578.928    578.928    578.928
 17.970    558.000    579.825    -21.825    578.764    579.825    578.764    578.764    578.764
 18.070    568.000    579.660    -11.660    578.595    579.660    578.595    578.595    578.595
 18.170    553.000    579.491    -26.491    578.422    579.491    578.422    578.422    578.422
 18.270    574.000    579.321     -5.321    578.244    579.321    578.244    578.244    578.244
 18.370    555.000    579.168    -24.168    578.062    579.168    578.062    578.062    578.062
 18.470    589.291    579.002     10.288    577.876    579.002    577.876    577.876    577.876
 18.570    549.000    578.853    -29.853    577.685    578.853    577.685    577.685    577.685
 18.670    549.977    578.686    -28.709    577.490    578.686    577.490    577.490    577.490
 18.770    565.000    578.505    -13.505    577.291    578.505    577.291    577.291    577.291
 18.870    595.000    578.333     16.667    577.087    578.333    577.087    577.087    577.087
 18.970    535.000    578.181    -43.181    576.879    578.181    576.879    576.879    576.879
 19.070    568.000    577.985     -9.985    576.668    577.985    576.668    576.668    576.668
 19.170    525.000    577.804    -52.804    576.452    577.804    576.452    576.452    576.452
 19.270    580.792    577.611      3.181    576.232    577.611    576.232    576.232    576.232
 19.370    547.000    577.404    -30.404    576.009    577.404    576.009    576.009    576.009
 19.470    576.000    577.224     -1.224    575.781    577.224    575.781    575.781    575.781
 19.570    542.000    577.019    -35.019    575.550    577.019    575.550    575.550    575.550
 19.670    535.000    576.799    -41.799    575.315    576.799    575.315    575.315    575.315
 19.770    546.436    576.575    -30.139    575.076    576.575    575.076    575.076    575.076
 19.870    563.000    576.348    -13.348    574.834    576.348    574.834    574.834    574.834
 19.970    561.000    576.119    -15.119    574.588    576.119    574.588    574.588    574.588
 20.070    570.000    575.892     -5.892    574.338    575.892    574.338    574.338    574.338
 20.170    607.379    575.662     31.716    574.085    575.663    574.085    574.085    574.085
 20.270    548.000    575.432    -27.432    573.829    575.432    573.829    573.829    573.829
 20.370    539.105    575.196    -36.091    573.569    575.196    573.569    573.569    573.569
 20.470    523.000    574.953    -51.953    573.305    574.953    573.305    573.305    573.305
 20.570    554.000    574.707    -20.707    573.039    574.707    573.039    573.039    573.039
 20.670    549.000    574.459    -25.459    572.769    574.459    572.769    572.769    572.769
 20.770    565.000    574.210     -9.210    572.496    574.210    572.496    572.496    572.496
 20.870    559.000    573.959    -14.959    572.219    573.959    572.219    572.219    572.219
 20.970    601.584    573.704     27.879    571.940    573.704    571.940    571.940    571.940
 21.070    581.000    573.449      7.551    571.657    573.449    571.657    571.657    571.657
 21.170    564.107    573.194     -9.087    571.372    573.194    571.372    571.372    571.372
 21.270    567.888    572.935     -5.047    571.083    572.935    571.083    571.083    571.083
 21.370    571.000    572.675     -1.675    570.791    572.675    570.791    570.791    570.791
 21.470    528.000    572.414    -44.414    570.497    572.414    570.497    570.497    570.497
 21.570    542.000    572.152    -30.152    570.200    572.152    570.200    570.200    570.200
 21.670    530.000    571.890    -41.890    569.900    571.890    569.900    569.900    569.900
 21.770    519.048    571.628    -52.580    569.597    571.628    569.597    569.597    569.597
 21.870    560.000    571.365    -11.365    569.291    571.366    569.291    569.291    569.291
 21.970    587.000    571.104     15.896    568.983    571.104    568.983    568.983    568.983
 22.070    562.000    570.843     -8.843    568.672    570.843    568.672    568.672    568.672
 22.170    534.915    570.584    -35.669    568.358    570.584    568.358    568.358    568.358
 22.270    545.184    570.327    -25.143    568.042    570.327    568.042    568.042    568.042
 22.370    512.000    570.073    -58.073    567.724    570.073    567.724    567.724    567.724
 22.470    568.206    569.822     -1.617    567.403    569.822    567.403    567.403    567.403
 22.570    531.000    569.577    -38.577    567.079    569.577    567.079    567.079    567.079
 22.670    552.000    569.338    -17.338    566.753    569.338    566.753    566.753    566.753
 22.770    557.000    569.104    -12.104    566.425    569.105    566.425    566.425    566.425
 22.870    551.274    568.880    -17.606    566.095    568.881    566.095    566.095    566.095
 22.970    584.000    568.667     15.333    565.762    568.668    565.762    565.762    565.762
 23.070    552.000    568.468    -16.468    565.427    568.468    565.427    565.427    565.427
 23.170    568.000    568.285     -0.285    565.090    568.286    565.090    565.090    565.090
 23.270    581.000    568.125     12.875    564.751    568.126    564.751    564.751    564.751
 23.370    585.509    567.994     17.515    564.409    567.995    564.409    564.409    564.409
 23.470    586.000    567.898     18.102    564.066    567.899    564.066    564.066    564.066
 23.570    532.000    567.848    -35.848    563.721    567.849    563.721    563.721    563.721
 23.670    566.000    567.859     -1.859    563.373    567.860    563.373    563.373    563.373
 23.770    557.393    567.953    -10.560    563.024    567.955    563.024    563.024    563.024
 23.870    549.716    568.161    -18.445    562.673    568.164    562.673    562.673    562.673
 23.970    616.000    568.539     47.461    562.320    568.541    562.320    562.320    562.320
 24.070    528.218    569.193    -40.975    561.965    569.196    561.965    561.965    561.965
 24.170    580.000    570.370      9.630    561.609    570.374    561.609    561.609    561.609
 24.270    624.000    572.633     51.367    561.251    572.640    561.251    561.251    561.251
 24.370    643.000    577.086     65.914    560.891    577.096    560.891    560.891    560.891
 24.470    652.000    585.421     66.579    560.529    585.437    560.529    560.529    560.529
 24.570    639.626    599.304     40.321    560.166    599.331    560.166    560.166    560.166
 24.670    631.000    618.799     12.201    559.801    618.840    559.801    559.801    559.801
 24.770    656.000    639.952     16.048    559.435    640.009    559.435    559.435    559.435
 24.870    681.000    653.265     27.735    559.067    653.332    559.067    559.067    559.067
 24.970    700.457    649.866     50.591    558.697    649.930    558.697    558.697    558.697
 25.070    633.072    632.200      0.872    558.327    632.252    558.327    558.327    558.327
 25.170    614.000    610.416      3.584    557.955    610.452    557.955    557.955    557.955
 25.270    621.000    592.119     28.881    557.581    592.141    557.581    557.581    557.581
 25.370    577.000    579.667     -2.667    557.206    579.680    557.206    557.206    557.206
 25.470    599.000    572.265     26.735    556.830    572.273    556.830    556.830    556.830
 25.570    591.995    568.142     23.852    556.453    568.148    556.453    556.453    556.453
 25.670    515.810    565.794    -49.984    556.074    565.798    556.074    556.074    556.074
 25.770    538.063    564.320    -26.257    555.694    564.323    555.694    555.694    555.694
 25.870    590.000    563.287     26.713    555.314    563.289    555.314    555.314    555.314
 25.970    574.000    562.508     11.492    554.932    562.510    554.932    554.932    554.932
 26.070    588.756    561.902     26.854    554.549    561.903    554.549    554.549    554.549
 26.170    619.000    561.427     57.573    554.164    561.428    554.164    554.164    554.164
 26.270    597.000    561.062     35.938    553.779    561.063    553.779    553.779    553.779
 26.370    569.559    560.794      8.766    553.393    560.794    553.393    553.393    553.393
 26.470    546.000    560.618    -14.618    553.006    560.618    553.006    553.006    553.006
 26.570    591.000    560.535     30.465    552.618    560.535    552.618    552.618    552.618
 26.670    604.000    560.552     43.448    552.229    560.552    552.229    552.229    552.229
 26.770    515.619    560.682    -45.063    551.840    560.681    551.840    551.840    551.840
 26.870    600.000    560.942     39.058    551.449    560.942    551.449    551.449    551.449
 26.970    629.000    561.361     67.639    551.058    561.360    551.058    551.058    551.058
 27.070    552.262    561.979     -9.717    550.666    561.978    550.666    550.666    550.666
 27.170    518.443    562.851    -44.407    550.273    562.849    550.273    550.273    550.273
 27.270    601.000    564.061     36.939    549.880    564.059    549.880    549.880    549.880
 27.370    612.000    565.738     46.262    549.486    565.736    549.486    549.486    549.486
 27.470    552.223    568.120    -15.897    549.091    568.117    549.091    549.091    549.091
 27.570    631.000    571.737     59.263    548.696    571.733    548.696    548.696    548.696
 27.670    629.000    577.941     51.059    548.300    577.934    548.300    548.300    548.300
 27.770    641.226    589.953     51.273    547.904    589.942    547.904    547.904    547.904
 27.870    645.000    614.058     30.942    547.507    614.038    547.507    547.507    547.507
 27.970    631.816    659.002    -27.186    547.110    658.967    547.110    547.110    547.110
 28.070    768.000    730.795     37.205    546.712    730.741    546.712    546.712    546.712
 28.170    791.000    822.425    -31.425    546.314    822.354    546.314    546.314    546.314
 28.270    902.000    904.068     -2.068    545.915    903.992    545.915    545.915    545.915
 28.370    927.794    931.454     -3.660    545.516    931.391    545.516    545.516    545.516
 28.470    915.000    889.681     25.319    545.117    889.637    545.117    545.117    545.117
 28.570    837.000    819.096     17.904    544.718    819.067    544.718    544.718    544.718
 28.670    782.223    768.420     13.803    544.318    768.397    544.318    544.318    544.318
 28.770    788.000    759.514     28.486    543.918    759.492    543.918    543.918    543.918
 28.870    857.000    786.196     70.804    543.518    786.176    543.518    543.518    543.518
 28.970    910.000    820.521     89.479    543.117    820.509    543.117    543.117    543.117
 29.070    855.211    826.210     29.001    542.717    826.209    542.717    542.717    542.717
 29.170    825.000    787.782     37.218    542.316    787.789    542.316    542.316    542.316
 29.270    733.000    725.173      7.827    541.915    725.182    541.915    541.915    541.915
 29.370    722.293    665.056     57.237    541.514    665.063    541.514    541.514    541.514
 29.470    621.000    620.333      0.667    541.114    620.337    541.114    541.114    541.114
 29.570    586.000    592.149     -6.149    540.713    592.151    540.713    540.713    540.713
 29.670    608.000    576.192     31.808    540.312    576.192    540.312    540.312    540.312
 29.770    519.320    567.447    -48.128    539.911    567.446    539.911    539.911    539.911
 29.870    592.522    562.400     30.122    539.510    562.399    539.510    539.510    539.510
 29.970    563.188    559.197      3.991    539.109    559.195    539.109    539.109    539.109
 30.070    605.034    557.029     48.004    538.709    557.027    538.709    538.709    538.709
 30.170    595.011    555.603     39.408    538.308    555.600    538.308    538.308    538.308
 30.270    607.000    554.895     52.105    537.908    554.891    537.908    537.908    537.908
 30.370    641.000    555.133     85.867    537.508    555.128    537.508    537.508    537.508
