neutron_powder_diffraction_0015
R_wp: 3.647
Temperature (K): 473.560
Counts: 83342.00
Wavelength (Ã…): 2.52098
COMMENTS
Test file for demonstrating the .xyy file format in Reel1.0
END OF HEADER
   tth       Y_obs     Y_calc      Y_res    Background    Phase_1_Nuc    Phase_1_Mag    Phase_2_Nuc    Phase_2_Mag
  9.970    787.000    728.759     58.241    727.042    728.068    727.732    727.042    727.042
 10.070    712.564    727.685    -15.121    725.879    726.987    726.577    725.879    725.879
 10.170    707.948    726.630    -18.682    724.723    725.924    725.428    724.723    724.723
 10.270    744.000    725.594     18.406    723.573    724.881    724.286    723.573    723.573
 10.370    735.000    724.581     10.419    722.429    723.860    723.149    722.429    722.429
 10.470    750.000    723.594     26.406    721.292    722.865    722.020    721.292    721.292
 10.570    689.015    722.637    -33.622    720.160    721.900    720.897    720.160    720.160
 10.670    754.000    721.717     32.283    719.036    720.971    719.780    719.036    719.036
 10.770    686.063    720.839    -34.776    717.917    720.086    718.669    717.917    717.917
 10.870    755.172    720.016     35.157    716.805    719.254    717.565    716.805    716.805
 10.970    737.000    719.258     17.742    715.698    718.488    716.468    715.698    715.698
 11.070    728.856    718.586     10.269    714.599    717.807    715.376    714.599    714.599
 11.170    713.160    718.025     -4.866    713.505    717.237    714.291    713.505    713.505
 11.270    733.000    717.614     15.386    712.417    716.816    713.213    712.417    712.417
 11.370    732.000    717.414     14.586    711.336    716.607    712.140    711.336    711.336
 11.470    745.000    717.538     27.462    710.261    716.721    711.074    710.261    710.261
 11.570    776.000    718.228     57.772    709.192    717.400    710.015    709.192    709.192
 11.670    744.000    720.021     23.979    708.129    719.182    708.962    708.129    708.129
 11.770    721.461    724.010     -2.549    707.072    723.158    707.915    707.072    707.072
 11.870    838.000    732.039    105.961    706.021    731.172    706.874    706.021    706.021
 11.970    778.000    746.341     31.659    704.977    745.456    705.839    704.977    704.977
 12.070    824.145    768.140     56.006    703.938    767.232    704.811    703.938    703.938
 12.170    788.882    794.998     -6.116    702.905    794.064    703.789    702.905    702.905
 12.270    843.350    817.818     25.532    701.879    816.860    702.773    701.879    701.879
 12.370    872.000    823.030     48.970    700.858    822.058    701.763    700.858    700.858
 12.470    824.777    805.747     19.029    699.844    804.774    700.760    699.844    699.844
 12.570    841.000    777.013     63.987    698.836    776.043    699.763    698.836    698.836
 12.670    749.000    749.820     -0.820    697.833    748.854    698.771    697.833    697.833
 12.770    770.200    729.712     40.488    696.836    728.744    697.786    696.836    696.836
 12.870    661.000    716.829    -55.829    695.846    715.856    696.808    695.846    695.846
 12.970    718.000    709.132      8.868    694.861    708.151    695.835    694.861    694.861
 13.070    717.812    704.456     13.356    693.882    703.465    694.869    693.882    693.882
 13.170    672.000    701.324    -29.324    692.910    700.322    693.908    692.910    692.910
 13.270    654.000    698.960    -44.960    691.943    697.946    692.954    691.943    691.943
 13.370    655.504    697.010    -41.506    690.982    695.983    692.006    690.982    690.982
 13.470    690.000    695.314     -5.314    690.026    694.275    691.064    690.026    690.026
 13.570    672.000    693.794    -21.794    689.077    692.741    690.128    689.077    689.077
 13.670    667.000    692.401    -25.401    688.133    691.334    689.198    688.133    688.133
 13.770    621.000    691.104    -70.104    687.196    690.024    688.275    687.196    687.196
 13.870    686.000    689.882     -3.882    686.264    688.788    687.357    686.264    686.264
 13.970    696.450    688.720      7.730    685.337    687.611    686.445    685.337    685.337
 14.070    644.799    687.606    -42.807    684.417    686.482    685.540    684.417    684.417
 14.170    688.000    686.543      1.457    683.502    685.404    684.641    683.502    683.502
 14.270    713.350    685.518     27.832    682.593    684.363    683.748    682.593    682.593
 14.370    706.000    684.504     21.496    681.690    683.333    682.860    681.690    681.690
 14.470    706.880    683.512     23.368    680.793    682.325    681.979    680.793    680.793
 14.570    693.000    682.541     10.459    679.901    681.337    681.104    679.901    679.901
 14.670    683.609    681.588      2.021    679.014    680.368    680.234    679.014    679.014
 14.770    639.000    680.651    -41.651    678.134    679.414    679.371    678.134    678.134
 14.870    643.488    679.730    -36.242    677.259    678.474    678.514    677.259    677.259
 14.970    634.000    678.822    -44.822    676.390    677.548    677.663    676.390    676.390
 15.070    693.528    677.927     15.601    675.526    676.635    676.817    675.526    675.526
 15.170    669.000    677.047     -8.047    674.668    675.737    675.978    674.668    674.668
 15.270    678.766    676.174      2.592    673.816    674.845    675.145    673.816    673.816
 15.370    698.000    675.311     22.689    672.969    673.962    674.318    672.969    672.969
 15.470    640.000    674.458    -34.458    672.127    673.089    673.496    672.127    672.127
 15.570    690.289    673.614     16.675    671.291    672.224    672.681    671.291    671.291
 15.670    646.074    672.778    -26.705    670.461    671.368    671.872    670.461    670.461
 15.770    665.576    671.952     -6.376    669.636    670.520    671.068    669.636    669.636
 15.870    660.000    671.133    -11.133    668.817    669.679    670.271    668.817    668.817
 15.970    621.897    670.323    -48.426    668.003    668.846    669.480    668.003    668.003
 16.070    628.000    669.521    -41.521    667.195    668.021    668.694    667.195    667.195
 16.170    674.000    668.726      5.274    666.392    667.203    667.915    666.392    666.392
 16.270    642.598    667.939    -25.340    665.594    666.391    667.141    665.594    665.594
 16.370    688.000    667.159     20.841    664.802    665.586    666.374    664.802    664.802
 16.470    710.000    666.386     43.614    664.015    664.789    665.612    664.015    664.015
 16.570    652.000    665.623    -13.623    663.234    664.000    664.857    663.234    663.234
 16.670    717.503    664.870     52.634    662.458    663.220    664.108    662.458    662.458
 16.770    714.196    664.119     50.077    661.687    662.442    663.364    661.687    661.687
 16.870    647.000    663.375    -16.375    660.922    661.669    662.627    660.922    660.922
 16.970    670.554    662.637      7.917    660.162    660.903    661.895    660.162    660.162
 17.070    685.000    661.907     23.093    659.407    660.144    661.170    659.407    659.407
 17.170    676.000    661.202     14.798    658.657    659.407    660.451    658.657    658.657
 17.270    647.174    660.558    -13.384    657.913    658.729    659.741    657.913    657.913
 17.370    666.647    659.858      6.789    657.174    657.997    659.034    657.174    657.174
 17.470    629.056    659.154    -30.099    656.440    657.261    658.333    656.440    656.440
 17.570    657.000    658.458     -1.458    655.712    656.531    657.638    655.712    655.712
 17.670    664.000    657.772      6.228    654.988    655.811    656.949    654.988    654.988
 17.770    618.702    657.116    -38.414    654.270    655.120    656.267    654.270    654.270
 17.870    680.676    656.442     24.233    653.557    654.410    655.590    653.557    653.557
 17.970    671.000    655.772     15.228    652.849    653.702    654.919    652.849    652.849
 18.070    614.735    655.109    -40.374    652.147    653.001    654.255    652.147    652.147
 18.170    651.000    654.452     -3.452    651.449    652.305    653.597    651.449    651.449
 18.270    648.371    653.802     -5.431    650.757    651.614    652.945    650.757    650.757
 18.370    641.000    653.159    -12.159    650.069    650.929    652.299    650.069    650.069
 18.470    671.005    652.522     18.483    649.387    650.250    651.660    649.387    649.387
 18.570    609.651    651.893    -42.242    648.710    649.576    651.027    648.710    648.710
 18.670    623.000    651.270    -28.270    648.038    648.907    650.400    648.038    648.038
 18.770    635.421    650.654    -15.233    647.370    648.245    649.780    647.370    647.370
 18.870    630.000    650.057    -20.057    646.708    647.599    649.166    646.708    646.708
 18.970    592.000    649.456    -57.456    646.051    646.948    648.559    646.051    646.051
 19.070    601.000    648.861    -47.861    645.399    646.302    647.958    645.399    645.399
 19.170    689.701    648.272     41.429    644.751    645.660    647.363    644.751    644.751
 19.270    690.026    647.691     42.335    644.109    645.024    646.776    644.109    644.109
 19.370    616.547    647.121    -30.573    643.472    644.397    646.196    643.472    643.472
 19.470    661.000    646.597     14.403    642.839    643.801    645.635    642.839    642.839
 19.570    637.346    646.081     -8.735    642.212    643.213    645.079    642.212    642.212
 19.670    660.000    645.552     14.448    641.589    642.621    644.520    641.589    641.589
 19.770    652.093    645.010      7.083    640.971    642.015    643.967    640.971    640.971
 19.870    631.628    644.475    -12.847    640.358    641.414    643.420    640.358    640.358
 19.970    599.000    643.947    -44.947    639.750    640.816    642.881    639.750    639.750
 20.070    673.550    643.430     30.121    639.147    640.226    642.350    639.147    639.147
 20.170    683.009    642.961     40.048    638.548    639.663    641.846    638.548    638.548
 20.270    653.000    642.486     10.514    637.954    639.104    641.337    637.954    637.954
 20.370    613.000    642.041    -29.041    637.365    638.578    640.829    637.365    637.365
 20.470    651.000    641.589      9.411    636.781    638.042    640.327    636.781    636.781
 20.570    614.000    641.115    -27.115    636.202    637.484    639.833    636.202    636.202
 20.670    647.512    640.674      6.839    635.627    636.954    639.347    635.627    635.627
 20.770    629.000    640.246    -11.246    635.057    636.433    638.869    635.057    635.057
 20.870    573.000    639.813    -66.813    634.491    635.905    638.399    634.491    634.491
 20.970    614.000    639.371    -25.371    633.930    635.365    637.937    633.930    633.930
 21.070    635.000    638.939     -3.939    633.374    634.830    637.483    633.374    633.374
 21.170    622.000    638.527    -16.527    632.823    634.307    637.043    632.823    632.823
 21.270    656.915    638.125     18.790    632.276    633.790    636.610    632.276    632.276
 21.370    629.200    637.725     -8.525    631.734    633.275    636.184    631.734    631.734
 21.470    638.000    637.346      0.654    631.196    632.776    635.767    631.196    631.196
 21.570    640.000    636.970      3.030    630.663    632.274    635.359    630.663    630.663
 21.670    586.596    636.602    -50.005    630.134    631.776    634.960    630.134    630.134
 21.770    685.982    636.245     49.736    629.610    631.284    634.572    629.610    629.610
 21.870    606.000    635.902    -29.902    629.091    630.798    634.195    629.091    629.091
 21.970    559.000    635.571    -76.571    628.576    630.320    633.828    628.576    628.576
 22.070    638.000    635.256      2.744    628.066    629.850    633.472    628.066    628.066
 22.170    629.243    634.956     -5.713    627.560    629.388    633.127    627.560    627.560
 22.270    593.547    634.670    -41.123    627.058    628.933    632.795    627.058    627.058
 22.370    622.000    634.401    -12.401    626.561    628.486    632.475    626.561    626.561
 22.470    612.000    634.151    -22.151    626.068    628.051    632.168    626.068    626.068
 22.570    646.000    633.918     12.082    625.580    627.624    631.875    625.580    625.580
 22.670    666.000    633.706     32.294    625.096    627.207    631.595    625.096    625.096
 22.770    664.000    633.521     30.479    624.617    626.806    631.332    624.617    624.617
 22.870    628.000    633.357     -5.357    624.141    626.415    631.083    624.141    624.141
 22.970    597.086    633.217    -36.131    623.671    626.037    630.850    623.671    623.671
 23.070    595.230    633.105    -37.876    623.204    625.676    630.634    623.204    623.204
 23.170    606.000    633.026    -27.026    622.742    625.332    630.436    622.742    622.742
 23.270    591.000    632.983    -41.983    622.284    625.011    630.256    622.284    622.284
 23.370    638.407    632.982      5.425    621.830    624.715    630.097    621.830    621.830
 23.470    630.802    633.028     -2.226    621.381    624.450    629.960    621.381    621.381
 23.570    606.028    633.130    -27.102    620.936    624.223    629.844    620.936    620.936
 23.670    637.000    633.298      3.702    620.495    624.042    629.752    620.495    620.495
 23.770    636.000    633.546      2.454    620.058    623.920    629.685    620.058    620.058
 23.870    652.556    633.894     18.662    619.626    623.876    629.645    619.626    619.626
 23.970    572.000    634.370    -62.370    619.198    623.934    629.635    619.198    619.198
 24.070    638.000    635.019      2.981    618.773    624.138    629.656    618.773    618.773
 24.170    595.655    635.919    -40.265    618.353    624.564    629.711    618.353    618.353
 24.270    620.000    637.240    -17.240    617.937    625.378    629.803    617.937    617.937
 24.370    694.000    639.343     54.657    617.526    626.939    629.935    617.526    617.526
 24.470    653.238    642.957     10.281    617.118    629.974    630.108    617.118    617.118
 24.570    599.431    649.284    -49.854    616.714    635.682    630.329    616.714    616.714
 24.670    707.041    659.770     47.271    616.315    645.504    630.600    616.315    616.315
 24.770    711.780    675.230     36.550    615.919    660.252    630.927    615.919    615.919
 24.870    669.000    694.236    -25.236    615.528    678.492    631.315    615.528    615.528
 24.970    676.506    711.193    -34.687    615.141    694.617    631.771    615.141    615.141
 25.070    684.721    717.123    -32.403    614.757    699.638    632.302    614.757    614.757
 25.170    700.000    707.959     -7.959    614.378    689.474    632.915    614.378    614.378
 25.270    663.328    690.485    -27.158    614.002    670.906    633.620    614.002    614.002
 25.370    649.000    673.455    -24.455    613.631    652.683    634.429    613.631    613.631
 25.470    651.000    660.974     -9.974    613.263    638.900    635.352    613.263    613.263
 25.570    623.000    653.479    -30.479    612.899    629.981    636.407    612.899    612.899
 25.670    710.000    649.792     60.208    612.539    624.729    637.608    612.539    612.539
 25.770    647.000    648.495     -1.495    612.184    621.705    638.977    612.184    612.184
 25.870    673.000    648.562     24.438    611.831    619.857    640.538    611.831    611.831
 25.970    638.000    649.440    -11.440    611.483    618.606    642.319    611.483    611.483
 26.070    667.000    650.892     16.108    611.139    617.677    644.354    611.139    611.139
 26.170    693.574    652.838     40.736    610.798    616.950    646.686    610.798    610.798
 26.270    648.344    655.275     -6.931    610.461    616.368    649.368    610.461    610.461
 26.370    622.000    658.226    -36.226    610.128    615.900    652.454    610.128    610.128
 26.470    691.625    661.749     29.876    609.799    615.523    656.023    609.799    609.799
 26.570    673.040    665.927      7.113    609.474    615.227    660.172    609.474    609.474
 26.670    636.044    670.878    -34.834    609.152    615.007    665.021    609.152    609.152
 26.770    639.075    676.758    -37.684    608.834    614.863    670.726    608.834    608.834
 26.870    678.000    683.770     -5.770    608.520    614.800    677.486    608.520    608.520
 26.970    681.163    692.187    -11.024    608.209    614.826    685.565    608.209    608.209
 27.070    682.000    702.374    -20.374    607.902    614.954    695.316    607.902    607.902
 27.170    676.000    714.832    -38.832    607.599    615.205    707.219    607.599    607.599
 27.270    756.199    730.256     25.943    607.299    615.609    721.938    607.299    607.299
 27.370    757.000    749.640      7.360    607.003    616.209    740.423    607.003    607.003
 27.470    780.000    774.458      5.542    606.710    617.074    764.081    606.710    606.710
 27.570    821.865    807.063     14.802    606.422    618.308    795.159    606.422    606.422
 27.670    848.615    852.201     -3.586    606.136    620.124    838.190    606.136    606.136
 27.770    955.000    922.837     32.163    605.854    623.103    905.555    605.854    605.854
 27.870   1032.000   1059.068    -27.068    605.576    629.033   1035.552    605.576    605.576
 27.970   1323.708   1369.590    -45.883    605.301    642.756   1332.009    605.301    605.301
 28.070   1977.120   2072.551    -95.431    605.030    673.985   2003.320    605.030    605.030
 28.170   3356.620   3435.061    -78.442    604.763    734.616   3304.664    604.763    604.763
 28.270   5396.000   5502.448   -106.448    604.498    826.700   5279.372    604.498    604.498
 28.370   7608.780   7722.088   -113.308    604.237    925.733   7399.514    604.237    604.237
 28.470   8921.000   8893.728     27.272    603.980    978.522   8518.282    603.980    603.980
 28.570   8169.000   8179.626    -10.626    603.726    948.267   7834.701    603.726    603.726
 28.670   6509.000   6297.223    211.777    603.476    867.874   6032.874    603.476    603.476
 28.770   4604.000   4569.427     34.573    603.228    797.818   4375.024    603.228    603.228
 28.870   3714.371   3768.740    -54.369    602.985    774.057   3597.795    602.985    602.985
 28.970   4009.851   3925.456     84.395    602.744    797.721   3730.518    602.744    602.744
 29.070   4619.000   4552.964     66.036    602.507    842.915   4312.595    602.507    602.507
 29.170   4981.000   4923.997     57.003    602.273    868.543   4657.890    602.273    602.273
 29.270   4551.023   4543.335      7.689    602.043    846.053   4299.655    602.043    602.043
 29.370   3560.000   3597.302    -37.302    601.815    787.897   3411.615    601.815    601.815
 29.470   2434.000   2573.474   -139.474    601.592    724.675   2450.723    601.592    601.592
 29.570   1677.000   1783.653   -106.653    601.371    675.878   1709.370    601.371    601.371
 29.670   1371.000   1293.895     77.105    601.153    645.665   1249.512    601.153    601.153
 29.770    979.058   1032.323    -53.265    600.939    629.599   1003.729    600.939    600.939
 29.870    979.000    901.022     77.978    600.728    621.618    880.166    600.728    600.728
 29.970    784.887    831.427    -46.541    600.520    617.478    814.488    600.520    600.520
 30.070    843.000    789.043     53.957    600.316    615.055    774.315    600.316    600.316
 30.170    809.000    759.691     49.309    600.114    613.493    746.319    600.114    600.114
 30.270    769.215    737.906     31.308    599.916    612.491    725.335    599.916    599.916
 30.370    682.713    721.406    -38.692    599.721    611.982    709.147    599.721    599.721
