neutron_powder_diffraction_0010
R_wp: 3.564
Temperature (K): 449.745
Counts: 83243.00
Wavelength (Ã…): 2.52098
COMMENTS
Test file for demonstrating the .xyy file format in Reel1.0
END OF HEADER
   tth       Y_obs     Y_calc      Y_res    Background    Phase_1_Nuc    Phase_1_Mag    Phase_2_Nuc    Phase_2_Mag
  9.970    742.293    749.287     -6.994    747.727    748.599    748.414    747.727    747.727
 10.070    701.856    748.025    -46.168    746.387    747.330    747.082    746.387    746.387
 10.170    698.344    746.781    -48.436    745.056    746.078    745.758    745.056    745.056
 10.270    730.494    745.556    -15.062    743.733    744.846    744.442    743.733    743.733
 10.370    763.624    744.354     19.270    742.418    743.637    743.135    742.418    742.418
 10.470    741.000    743.180     -2.180    741.112    742.455    741.837    741.112    741.112
 10.570    730.000    742.033    -12.033    739.814    741.300    740.547    739.814    739.814
 10.670    742.528    740.918      1.610    738.524    740.177    739.264    738.524    738.524
 10.770    731.000    739.843     -8.843    737.242    739.093    737.991    737.242    737.242
 10.870    749.000    738.816     10.184    735.968    738.058    736.725    735.968    735.968
 10.970    698.717    737.849    -39.132    734.702    737.082    735.467    734.702    734.702
 11.070    740.000    736.957      3.043    733.444    736.182    734.218    733.444    733.444
 11.170    702.195    736.163    -33.968    732.194    735.379    732.977    732.194    732.194
 11.270    760.000    735.513     24.487    730.952    734.719    731.744    730.952    730.952
 11.370    788.000    735.158     52.842    729.718    734.355    730.519    729.718    729.718
 11.470    783.000    734.971     48.029    728.492    734.157    729.303    728.492    728.492
 11.570    726.000    735.228     -9.228    727.274    734.405    728.094    727.274    727.274
 11.670    753.000    736.415     16.585    726.064    735.581    726.893    726.064    726.064
 11.770    738.000    739.582     -1.582    724.862    738.735    725.701    724.862    724.862
 11.870    717.285    746.698    -29.412    723.667    745.837    724.516    723.667    723.667
 11.970    721.018    760.460    -39.442    722.481    759.582    723.339    722.481    722.481
 12.070    827.000    782.767     44.233    721.302    781.865    722.171    721.302    721.302
 12.170    884.000    811.531     72.469    720.131    810.601    721.010    720.131    720.131
 12.270    787.687    837.000    -49.313    718.967    836.046    719.857    718.967    718.967
 12.370    869.940    843.577     26.363    717.812    842.608    718.712    717.812    717.812
 12.470    865.000    824.930     40.070    716.664    823.960    717.575    716.664    716.664
 12.570    818.000    793.643     24.357    715.523    792.678    716.446    715.523    715.523
 12.670    741.000    764.507    -23.507    714.390    763.546    715.324    714.390    714.390
 12.770    797.725    743.651     54.074    713.265    742.690    714.211    713.265    713.265
 12.870    708.554    730.875    -22.321    712.148    729.908    713.105    712.148    712.148
 12.970    726.000    723.566      2.434    711.038    722.590    712.007    711.038    711.038
 13.070    727.000    719.211      7.789    709.935    718.225    710.917    709.935    709.935
 13.170    716.609    716.259      0.351    708.840    715.261    709.834    708.840    708.840
 13.270    681.596    713.969    -32.373    707.752    712.959    708.759    707.752    707.752
 13.370    719.000    712.034      6.966    706.672    711.011    707.692    706.672    706.672
 13.470    757.620    710.323     47.298    705.599    709.288    706.633    705.599    705.599
 13.570    712.000    708.767      3.233    704.534    707.719    705.581    704.534    704.534
 13.670    686.000    707.322    -21.322    703.476    706.261    704.537    703.476    703.476
 13.770    699.000    705.964     -6.964    702.425    704.888    703.500    702.425    702.425
 13.870    736.058    704.672     31.386    701.382    703.583    702.471    701.382    701.382
 13.970    715.000    703.436     11.564    700.346    702.332    701.449    700.346    700.346
 14.070    714.000    702.242     11.758    699.317    701.123    700.435    699.317    699.317
 14.170    719.000    701.084     17.916    698.296    699.950    699.429    698.296    698.296
 14.270    692.000    699.956     -7.956    697.281    698.807    698.430    697.281    697.281
 14.370    708.007    698.854      9.153    696.274    697.689    697.439    696.274    696.274
 14.470    685.972    697.776    -11.804    695.274    696.594    696.455    695.274    695.274
 14.570    722.000    696.717     25.283    694.281    695.519    695.479    694.281    694.281
 14.670    698.785    695.676      3.109    693.296    694.462    694.510    693.296    693.296
 14.770    666.000    694.652    -28.652    692.317    693.420    693.548    692.317    692.317
 14.870    656.000    693.643    -37.643    691.345    692.393    692.594    691.345    691.345
 14.970    645.000    692.647    -47.647    690.381    691.380    691.647    690.381    690.381
 15.070    714.000    691.665     22.335    689.423    690.380    690.708    689.423    689.423
 15.170    649.000    690.702    -41.702    688.472    689.398    689.776    688.472    688.472
 15.270    678.677    689.764    -11.088    687.529    688.441    688.852    687.529    687.529
 15.370    725.000    688.819     36.181    686.592    687.475    687.935    686.592    686.592
 15.470    725.000    687.882     37.118    685.662    686.518    687.025    685.662    685.662
 15.570    700.923    686.955     13.969    684.739    685.571    686.123    684.739    684.739
 15.670    696.000    686.037      9.963    683.823    684.633    685.227    683.823    683.823
 15.770    668.000    685.130    -17.130    682.914    683.704    684.340    682.914    682.914
 15.870    688.000    684.235      3.765    682.011    682.787    683.459    682.011    682.011
 15.970    641.317    683.347    -42.031    681.115    681.877    682.586    681.115    681.115
 16.070    620.000    682.467    -62.467    680.226    680.974    681.720    680.226    680.226
 16.170    705.000    681.595     23.405    679.344    680.078    680.861    679.344    679.344
 16.270    683.000    680.732      2.268    678.469    679.191    680.009    678.469    678.469
 16.370    670.687    679.878     -9.190    677.600    678.312    679.165    677.600    677.600
 16.470    709.017    679.031     29.986    676.737    677.440    678.328    676.737    676.737
 16.570    733.000    678.193     54.807    675.882    676.576    677.498    675.882    675.882
 16.670    628.000    677.363    -49.363    675.033    675.720    676.676    675.033    675.033
 16.770    677.000    676.541      0.459    674.190    674.871    675.861    674.190    674.190
 16.870    690.000    675.727     14.273    673.354    674.029    675.053    673.354    673.354
 16.970    644.000    674.921    -30.921    672.525    673.194    674.252    672.525    672.525
 17.070    642.178    674.123    -31.946    671.702    672.367    673.458    671.702    671.702
 17.170    670.000    673.333     -3.333    670.886    671.547    672.672    670.886    670.886
 17.270    639.401    672.552    -33.151    670.076    670.735    671.893    670.076    670.076
 17.370    652.000    671.784    -19.784    669.272    669.935    671.121    669.272    669.272
 17.470    676.908    671.017      5.891    668.475    669.136    670.356    668.475    668.475
 17.570    693.000    670.258     22.742    667.684    668.344    669.599    667.684    667.684
 17.670    674.578    669.507      5.071    666.900    667.558    668.849    666.900    666.900
 17.770    675.027    668.765      6.262    666.122    666.780    668.107    666.122    666.122
 17.870    685.000    668.029     16.971    665.350    666.008    667.372    665.350    665.350
 17.970    622.842    667.301    -44.460    664.585    665.243    666.643    664.585    664.585
 18.070    657.000    666.581     -9.581    663.825    664.484    665.922    663.825    663.825
 18.170    669.000    665.874      3.126    663.072    663.737    665.209    663.072    663.072
 18.270    698.000    665.226     32.774    662.325    663.048    664.504    662.325    662.325
 18.370    667.000    664.555      2.445    661.585    662.334    663.806    661.585    661.585
 18.470    693.000    663.875     29.125    660.850    661.611    663.114    660.850    660.850
 18.570    678.637    663.197     15.440    660.122    660.889    662.430    660.122    660.122
 18.670    711.346    662.544     48.803    659.400    660.190    661.753    659.400    659.400
 18.770    658.000    661.889     -3.889    658.683    659.488    661.084    658.683    658.683
 18.870    667.000    661.232      5.768    657.973    658.784    660.422    657.973    657.973
 18.970    688.408    660.584     27.825    657.269    658.086    659.767    657.269    657.269
 19.070    651.000    659.942     -8.942    656.571    657.393    659.120    656.571    656.571
 19.170    638.000    659.309    -21.309    655.879    656.707    658.481    655.879    655.879
 19.270    634.000    658.686    -24.686    655.193    656.029    657.850    655.193    655.193
 19.370    651.370    658.103     -6.733    654.512    655.378    657.237    654.512    654.512
 19.470    693.000    657.537     35.463    653.838    654.740    656.635    653.838    653.838
 19.570    698.000    656.940     41.060    653.169    654.082    656.028    653.169    653.169
 19.670    592.000    656.348    -64.348    652.507    653.427    655.427    652.507    652.507
 19.770    625.864    655.763    -29.899    651.850    652.779    654.835    651.850    651.850
 19.870    619.835    655.187    -35.352    651.199    652.137    654.250    651.199    651.199
 19.970    654.000    654.621     -0.621    650.554    651.502    653.673    650.554    650.554
 20.070    654.000    654.071     -0.071    649.914    650.881    653.105    649.914    649.914
 20.170    625.000    653.525    -28.525    649.281    650.261    652.545    649.281    649.281
 20.270    636.000    652.984    -16.984    648.653    649.644    651.992    648.653    648.653
 20.370    654.019    652.452      1.567    648.030    649.034    651.449    648.030    648.030
 20.470    666.264    651.929     14.335    647.414    648.429    650.914    647.414    647.414
 20.570    639.000    651.418    -12.418    646.802    647.833    650.387    646.802    646.802
 20.670    618.802    650.932    -32.129    646.197    647.259    649.870    646.197    646.197
 20.770    635.345    650.481    -15.136    645.597    646.711    649.367    645.597    645.597
 20.870    641.000    650.029     -9.029    645.003    646.157    648.875    645.003    645.003
 20.970    695.593    649.579     46.013    644.414    645.607    648.386    644.414    644.414
 21.070    612.950    649.139    -36.188    643.831    645.053    647.917    643.831    643.831
 21.170    633.000    648.694    -15.694    643.253    644.497    647.450    643.253    643.253
 21.270    604.271    648.257    -43.986    642.681    643.949    646.989    642.681    642.681
 21.370    630.886    647.850    -16.964    642.114    643.427    646.537    642.114    642.114
 21.470    660.000    647.475     12.525    641.553    642.931    646.097    641.553    641.553
 21.570    683.903    647.080     36.823    640.997    642.410    645.666    640.997    640.997
 21.670    650.000    646.691      3.309    640.446    641.891    645.246    640.446    640.446
 21.770    634.000    646.309    -12.309    639.901    641.374    644.836    639.901    639.901
 21.870    674.058    645.944     28.114    639.361    640.867    644.438    639.361    639.361
 21.970    602.000    645.609    -43.609    638.826    640.384    644.052    638.826    638.826
 22.070    616.000    645.296    -29.296    638.297    639.916    643.677    638.297    638.297
 22.170    612.109    644.978    -32.869    637.773    639.436    643.315    637.773    637.773
 22.270    679.000    644.671     34.329    637.254    638.960    642.965    637.254    637.254
 22.370    623.000    644.382    -21.382    636.740    638.494    642.628    636.740    636.740
 22.470    619.000    644.114    -25.114    636.232    638.038    642.308    636.232    636.232
 22.570    590.000    643.868    -53.868    635.728    637.592    642.004    635.728    635.728
 22.670    659.421    643.639     15.782    635.230    637.158    641.712    635.230    635.230
 22.770    634.000    643.432     -9.432    634.737    636.736    641.434    634.737    634.737
 22.870    645.000    643.243      1.757    634.249    636.321    641.171    634.249    634.249
 22.970    650.000    643.079      6.921    633.766    635.920    640.925    633.766    633.766
 23.070    614.921    642.943    -28.022    633.288    635.535    640.697    633.288    633.288
 23.170    637.000    642.839     -5.839    632.815    635.168    640.487    632.815    632.815
 23.270    633.442    642.770     -9.328    632.348    634.822    640.297    632.348    632.348
 23.370    645.000    642.739      2.261    631.885    634.497    640.127    631.885    631.885
 23.470    672.059    642.753     29.305    631.427    634.201    639.979    631.427    631.427
 23.570    640.871    642.820     -1.949    630.974    633.939    639.855    630.974    630.974
 23.670    646.000    642.947      3.053    630.525    633.719    639.754    630.525    630.525
 23.770    663.000    643.149     19.851    630.082    633.552    639.680    630.082    630.082
 23.870    605.711    643.442    -37.731    629.644    633.452    639.635    629.644    629.644
 23.970    658.000    643.851     14.149    629.210    633.443    639.619    629.210    629.210
 24.070    599.000    644.411    -45.411    628.781    633.560    639.635    628.781    628.781
 24.170    642.000    645.191     -3.191    628.357    633.866    639.684    628.357    628.357
 24.270    676.000    646.329     29.671    627.938    634.499    639.771    627.938    627.938
 24.370    635.000    648.147    -13.147    627.524    635.777    639.898    627.524    627.524
 24.470    711.000    651.334     59.666    627.114    638.386    640.069    627.114    627.114
 24.570    684.000    657.120     26.880    626.709    643.552    640.287    626.709    626.709
 24.670    681.000    667.115     13.885    626.308    652.885    640.556    626.308    626.308
 24.770    695.286    682.427     12.859    625.913    667.487    640.881    625.913    625.913
 24.870    691.306    701.914    -10.608    625.522    686.211    641.268    625.522    625.522
 24.970    742.000    720.068     21.932    625.135    703.536    641.722    625.135    625.135
 25.070    759.000    727.286     31.714    624.753    709.847    642.252    624.753    624.753
 25.170    745.000    718.453     26.547    624.376    700.017    642.865    624.376    624.376
 25.270    713.000    700.445     12.555    624.003    680.917    643.570    624.003    624.003
 25.370    665.176    682.722    -17.546    623.634    662.003    644.379    623.634    623.634
 25.470    623.630    669.832    -46.202    623.271    647.814    645.303    623.271    623.271
 25.570    632.000    662.271    -30.271    622.911    638.833    646.358    622.911    622.911
 25.670    674.000    658.713     15.287    622.556    633.713    647.561    622.556    622.556
 25.770    709.773    657.583     52.189    622.206    630.860    648.932    622.206    622.206
 25.870    639.000    657.781    -18.781    621.859    629.149    650.494    621.859    621.859
 25.970    688.251    658.752     29.499    621.518    627.994    652.276    621.518    621.518
 26.070    670.000    660.273      9.727    621.180    627.136    654.318    621.180    621.180
 26.170    670.000    662.262      7.738    620.847    626.459    656.650    620.847    620.847
 26.270    692.834    664.721     28.112    620.518    625.913    659.326    620.518    620.518
 26.370    633.136    667.685    -34.550    620.194    625.469    662.410    620.194    620.194
 26.470    615.000    671.214    -56.214    619.873    625.110    665.976    619.873    619.873
 26.570    693.000    675.391     17.609    619.557    624.827    670.121    619.557    619.557
 26.670    661.000    680.335    -19.335    619.246    624.615    674.963    619.246    619.246
 26.770    735.000    686.196     48.804    618.938    624.474    680.658    618.938    618.938
 26.870    672.105    693.180    -21.075    618.634    624.407    687.404    618.634    618.634
 26.970    733.000    701.556     31.444    618.335    624.423    695.464    618.335    618.335
 27.070    723.000    711.690     11.310    618.040    624.534    705.191    618.040    618.040
 27.170    738.000    724.075     13.925    617.749    624.760    717.058    617.749    617.749
 27.270    823.000    739.392     83.608    617.462    625.127    731.719    617.462    617.462
 27.370    765.000    758.625      6.375    617.179    625.677    750.118    617.179    617.179
 27.470    732.000    783.224    -51.224    616.900    626.470    773.642    616.900    616.900
 27.570    763.526    815.524    -51.998    616.625    627.606    804.527    616.625    616.625
 27.670    854.000    860.225     -6.225    616.354    629.283    847.276    616.354    616.354
 27.770    952.000    930.248     21.752    616.087    632.043    914.262    616.087    616.087
 27.870   1038.000   1065.784    -27.784    615.824    637.569   1043.983    615.824    615.824
 27.970   1413.822   1376.474     37.348    615.565    650.447   1341.471    615.565    615.565
 28.070   1941.000   2084.450   -143.450    615.310    679.963   2019.528    615.310    615.310
 28.170   3420.932   3467.346    -46.414    615.059    737.726   3344.148    615.059    615.059
 28.270   5433.000   5587.298   -154.298    614.811    826.360   5374.898    614.811    614.811
 28.370   7713.000   7904.556   -191.556    614.568    923.387   7594.700    614.568    614.568
 28.470   9257.749   9210.577     47.172    614.328    978.489   8845.569    614.328    614.328
 28.570   8702.000   8602.052     99.948    614.092    954.341   8261.480    614.092    614.092
 28.670   6847.000   6703.194    143.806    613.860    877.922   6439.237    613.860    613.860
 28.770   4823.362   4863.978    -40.617    613.632    807.183   4670.661    613.632    613.632
 28.870   3919.000   3955.866    -36.866    613.407    780.162   3789.279    613.407    613.407
 28.970   4095.000   4074.857     20.143    613.186    800.876   3887.250    613.186    613.186
 29.070   4689.000   4738.286    -49.286    612.969    845.326   4506.030    612.969    612.969
 29.170   5142.778   5176.794    -34.016    612.755    873.156   4916.644    612.755    612.755
 29.270   4908.000   4831.453     76.547    612.545    854.432   4589.999    612.545    612.545
 29.370   3841.000   3848.432     -7.432    612.338    798.472   3662.783    612.338    612.338
 29.470   2740.491   2743.572     -3.082    612.136    735.274   2620.833    612.136    612.136
 29.570   1780.000   1877.802    -97.802    611.936    685.722   1804.281    611.936    611.936
 29.670   1307.157   1339.533    -32.376    611.741    654.955   1296.467    611.741    611.741
 29.770   1129.000   1054.586     74.414    611.549    638.734   1027.476    611.549    611.549
 29.870    916.132    914.439      1.693    611.360    630.834    895.003    611.360    611.360
 29.970    858.000    842.108     15.892    611.175    626.843    826.461    611.175    611.175
 30.070    859.000    798.966     60.034    610.993    624.556    785.417    610.993    610.993
 30.170    808.178    769.376     38.802    610.815    623.095    757.106    610.815    610.815
 30.270    759.000    747.463     11.537    610.640    622.154    735.956    610.640    610.640
 30.370    780.000    730.826     49.174    610.469    621.661    719.638    610.469    610.469
