neutron_powder_diffraction_0078
R_wp: 4.477
Temperature (K): 783.479
Counts: 83630.00
Wavelength (Ã…): 2.52098
COMMENTS
Test file for demonstrating the .xyy file format in Reel1.0
END OF HEADER
   tth       Y_obs     Y_calc      Y_res    Background    Phase_1_Nuc    Phase_1_Mag    Phase_2_Nuc    Phase_2_Mag
  9.970    612.000    592.115     19.885    590.999    592.114    590.999    590.999    590.999
 10.070    631.000    592.965     38.035    591.758    592.965    591.758    591.758    591.758
 10.170    624.992    593.813     31.180    592.503    593.812    592.503    592.503    592.503
 10.270    614.929    594.660     20.269    593.233    594.659    593.233    593.233    593.233
 10.370    626.000    595.512     30.488    593.950    595.511    593.950    593.950    593.950
 10.470    613.518    596.372     17.147    594.653    596.371    594.653    594.653    594.653
 10.570    580.000    597.263    -17.263    595.342    597.262    595.342    595.342    595.342
 10.670    621.000    598.303     22.697    596.017    598.302    596.017    596.017    596.017
 10.770    669.000    599.241     69.759    596.678    599.240    596.678    596.678    596.678
 10.870    709.000    600.206    108.794    597.327    600.204    597.327    597.327    597.327
 10.970    611.496    601.229     10.267    597.961    601.227    597.961    597.961    597.961
 11.070    599.031    602.332     -3.301    598.583    602.330    598.583    598.583    598.583
 11.170    590.093    603.550    -13.457    599.191    603.548    599.191    599.191    599.191
 11.270    655.000    604.932     50.068    599.786    604.930    599.786    599.786    599.786
 11.370    614.663    606.561      8.102    600.368    606.558    600.368    600.368    600.368
 11.470    632.000    608.600     23.400    600.937    608.596    600.937    600.937    600.937
 11.570    676.000    611.433     64.567    601.494    611.428    601.494    601.494    601.494
 11.670    562.053    615.981    -53.928    602.037    615.973    602.037    602.037    602.037
 11.770    577.112    624.157    -47.045    602.569    624.146    602.569    602.569    602.569
 11.870    695.000    639.005     55.995    603.087    638.986    603.087    603.087    603.087
 11.970    618.326    663.526    -45.200    603.594    663.493    603.594    603.594    603.594
 12.070    684.073    697.562    -13.489    604.087    697.510    604.087    604.087    604.087
 12.170    740.000    733.057      6.943    604.569    732.986    604.569    604.569    604.569
 12.270    758.000    751.617      6.383    605.039    751.537    605.039    605.039    605.039
 12.370    755.478    739.352     16.126    605.496    739.278    605.496    605.496    605.496
 12.470    682.906    706.721    -23.815    605.942    706.665    605.942    605.942    605.942
 12.570    659.000    672.569    -13.569    606.376    672.533    606.376    606.376    606.376
 12.670    673.561    646.944     26.617    606.798    646.922    606.798    606.798    606.798
 12.770    582.000    631.257    -49.257    607.209    631.244    607.209    607.209    607.209
 12.870    676.052    622.901     53.151    607.608    622.893    607.608    607.608    607.608
 12.970    526.000    618.697    -92.697    607.996    618.691    607.996    607.996    607.996
 13.070    615.000    616.520     -1.520    608.372    616.516    608.372    608.372    608.372
 13.170    585.000    615.285    -30.285    608.737    615.282    608.737    608.737    608.737
 13.270    623.000    614.524      8.476    609.091    614.521    609.091    609.091    609.091
 13.370    604.885    614.038     -9.152    609.434    614.035    609.434    609.434    609.434
 13.470    596.000    613.733    -17.733    609.765    613.731    609.765    609.765    609.765
 13.570    624.000    613.557     10.443    610.086    613.555    610.086    610.086    610.086
 13.670    666.036    613.468     52.568    610.397    613.466    610.397    610.397    610.397
 13.770    652.000    613.443     38.557    610.696    613.441    610.696    610.696    610.696
 13.870    609.000    613.465     -4.465    610.985    613.464    610.985    610.985    610.985
 13.970    596.000    613.521    -17.521    611.263    613.521    611.263    611.263    611.263
 14.070    588.000    613.604    -25.604    611.531    613.603    611.531    611.531    611.531
 14.170    598.000    613.704    -15.704    611.789    613.703    611.789    611.789    611.789
 14.270    570.000    613.818    -43.818    612.036    613.817    612.036    612.036    612.036
 14.370    643.000    613.940     29.060    612.274    613.939    612.274    612.274    612.274
 14.470    589.582    614.073    -24.491    612.501    614.072    612.501    612.501    612.501
 14.570    567.000    614.254    -47.254    612.718    614.254    612.718    612.718    612.718
 14.670    585.000    614.420    -29.420    612.925    614.420    612.925    612.925    612.925
 14.770    659.167    614.555     44.611    613.123    614.555    613.123    613.123    613.123
 14.870    629.000    614.686     14.314    613.311    614.685    613.311    613.311    613.311
 14.970    574.000    614.813    -40.813    613.489    614.813    613.489    613.489    613.489
 15.070    559.646    614.937    -55.290    613.657    614.937    613.657    613.657    613.657
 15.170    548.000    615.058    -67.058    613.817    615.058    613.817    613.817    613.817
 15.270    560.000    615.173    -55.173    613.966    615.173    613.966    613.966    613.966
 15.370    599.000    615.286    -16.286    614.107    615.286    614.107    614.107    614.107
 15.470    557.000    615.394    -58.394    614.238    615.394    614.238    614.238    614.238
 15.570    638.288    615.495     22.794    614.361    615.494    614.361    614.361    614.361
 15.670    615.000    615.602     -0.602    614.474    615.602    614.474    614.474    614.474
 15.770    615.000    615.736     -0.736    614.578    615.736    614.578    614.578    614.578
 15.870    629.000    615.836     13.164    614.674    615.836    614.674    614.674    614.674
 15.970    583.000    615.909    -32.909    614.760    615.909    614.760    614.760    614.760
 16.070    596.000    615.974    -19.974    614.838    615.973    614.838    614.838    614.838
 16.170    618.000    616.031      1.969    614.907    616.031    614.907    614.907    614.907
 16.270    602.000    616.081    -14.081    614.968    616.081    614.968    614.968    614.968
 16.370    568.000    616.127    -48.127    615.021    616.126    615.021    615.021    615.021
 16.470    595.000    616.181    -21.181    615.064    616.181    615.064    615.064    615.064
 16.570    630.000    616.222     13.778    615.100    616.222    615.100    615.100    615.100
 16.670    576.000    616.248    -40.248    615.128    616.248    615.128    615.128    615.128
 16.770    623.172    616.274      6.898    615.147    616.273    615.147    615.147    615.147
 16.870    588.000    616.282    -28.282    615.158    616.282    615.158    615.158    615.158
 16.970    578.000    616.283    -38.283    615.162    616.283    615.162    615.162    615.162
 17.070    669.288    616.276     53.012    615.157    616.276    615.157    615.157    615.157
 17.170    613.000    616.263     -3.263    615.145    616.263    615.145    615.145    615.145
 17.270    595.896    616.244    -20.348    615.125    616.243    615.125    615.125    615.125
 17.370    625.000    616.230      8.770    615.097    616.230    615.097    615.097    615.097
 17.470    617.333    616.217      1.115    615.061    616.217    615.061    615.061    615.061
 17.570    604.000    616.206    -12.206    615.019    616.206    615.019    615.019    615.019
 17.670    585.000    616.172    -31.172    614.968    616.172    614.968    614.968    614.968
 17.770    599.000    616.118    -17.118    614.911    616.118    614.911    614.911    614.911
 17.870    625.772    616.059      9.713    614.846    616.059    614.846    614.846    614.846
 17.970    624.127    616.020      8.107    614.774    616.020    614.774    614.774    614.774
 18.070    609.000    616.006     -7.006    614.694    616.006    614.694    614.694    614.694
 18.170    577.000    615.949    -38.949    614.608    615.948    614.608    614.608    614.608
 18.270    600.345    615.871    -15.526    614.515    615.871    614.515    614.515    614.515
 18.370    549.000    615.781    -66.781    614.415    615.780    614.415    614.415    614.415
 18.470    617.000    615.698      1.302    614.308    615.698    614.308    614.308    614.308
 18.570    615.157    615.614     -0.457    614.194    615.614    614.194    614.194    614.194
 18.670    601.312    615.539    -14.227    614.074    615.539    614.074    614.074    614.074
 18.770    624.000    615.426      8.574    613.947    615.426    613.947    613.947    613.947
 18.870    561.000    615.303    -54.303    613.813    615.303    613.813    613.813    613.813
 18.970    619.353    615.174      4.179    613.673    615.174    613.673    613.673    613.673
 19.070    655.000    615.039     39.961    613.527    615.039    613.527    613.527    613.527
 19.170    644.144    614.898     29.247    613.374    614.898    613.374    613.374    613.374
 19.270    633.967    614.756     19.211    613.215    614.756    613.215    613.215    613.215
 19.370    567.000    614.612    -47.612    613.050    614.612    613.050    613.050    613.050
 19.470    597.000    614.459    -17.459    612.879    614.459    612.879    612.879    612.879
 19.570    561.000    614.297    -53.297    612.702    614.297    612.702    612.702    612.702
 19.670    606.000    614.135     -8.135    612.518    614.135    612.518    612.518    612.518
 19.770    553.000    613.962    -60.962    612.329    613.962    612.329    612.329    612.329
 19.870    596.000    613.783    -17.783    612.134    613.783    612.134    612.134    612.134
 19.970    573.000    613.599    -40.599    611.933    613.599    611.933    611.933    611.933
 20.070    590.000    613.412    -23.412    611.727    613.412    611.727    611.727    611.727
 20.170    574.000    613.218    -39.218    611.515    613.218    611.515    611.515    611.515
 20.270    598.000    613.020    -15.020    611.297    613.020    611.297    611.297    611.297
 20.370    649.274    612.818     36.456    611.074    612.818    611.074    611.074    611.074
 20.470    589.000    612.611    -23.611    610.846    612.611    610.846    610.846    610.846
 20.570    639.183    612.400     26.783    610.612    612.400    610.612    610.612    610.612
 20.670    621.000    612.184      8.816    610.373    612.184    610.373    610.373    610.373
 20.770    578.000    611.965    -33.965    610.128    611.965    610.128    610.128    610.128
 20.870    588.000    611.742    -23.742    609.879    611.742    609.879    609.879    609.879
 20.970    639.696    611.514     28.182    609.624    611.514    609.624    609.624    609.624
 21.070    578.000    611.282    -33.282    609.364    611.282    609.364    609.364    609.364
 21.170    564.000    611.047    -47.047    609.100    611.048    609.100    609.100    609.100
 21.270    585.000    610.809    -25.809    608.830    610.809    608.830    608.830    608.830
 21.370    606.000    610.568     -4.568    608.556    610.568    608.556    608.556    608.556
 21.470    593.000    610.324    -17.324    608.277    610.324    608.277    608.277    608.277
 21.570    574.000    610.077    -36.077    607.993    610.078    607.993    607.993    607.993
 21.670    589.000    609.829    -20.829    607.704    609.829    607.704    607.704    607.704
 21.770    619.000    609.578      9.422    607.411    609.578    607.411    607.411    607.411
 21.870    561.313    609.327    -48.014    607.114    609.327    607.114    607.114    607.114
 21.970    570.000    609.074    -39.074    606.811    609.074    606.811    606.811    606.811
 22.070    640.334    608.820     31.514    606.505    608.820    606.505    606.505    606.505
 22.170    595.000    608.566    -13.566    606.194    608.566    606.194    606.194    606.194
 22.270    624.939    608.312     16.628    605.879    608.312    605.879    605.879    605.879
 22.370    598.570    608.059     -9.489    605.560    608.060    605.560    605.560    605.560
 22.470    555.618    607.809    -52.190    605.236    607.809    605.236    605.236    605.236
 22.570    657.690    607.560     50.130    604.909    607.561    604.909    604.909    604.909
 22.670    622.000    607.318     14.682    604.577    607.318    604.577    604.577    604.577
 22.770    608.000    607.079      0.921    604.241    607.080    604.241    604.241    604.241
 22.870    607.000    606.848      0.152    603.902    606.848    603.902    603.902    603.902
 22.970    641.000    606.626     34.374    603.558    606.626    603.558    603.558    603.558
 23.070    578.000    606.416    -28.416    603.211    606.416    603.211    603.211    603.211
 23.170    593.425    606.221    -12.796    602.860    606.222    602.860    602.860    602.860
 23.270    600.000    606.046     -6.046    602.506    606.047    602.506    602.506    602.506
 23.370    596.000    605.897     -9.897    602.147    605.898    602.147    602.147    602.147
 23.470    638.528    605.782     32.745    601.785    605.783    601.785    601.785    601.785
 23.570    556.285    605.712    -49.428    601.420    605.714    601.420    601.420    601.420
 23.670    584.000    605.699    -21.699    601.051    605.700    601.051    601.051    601.051
 23.770    622.000    605.768     16.232    600.679    605.770    600.679    600.679    600.679
 23.870    646.236    605.943     40.293    600.303    605.946    600.303    600.303    600.303
 23.970    553.158    606.274    -53.116    599.924    606.276    599.924    599.924    599.924
 24.070    633.000    606.856     26.144    599.542    606.859    599.542    599.542    599.542
 24.170    593.000    607.906    -14.906    599.157    607.910    599.157    599.157    599.157
 24.270    647.000    609.917     37.083    598.768    609.923    598.768    598.768    598.768
 24.370    618.511    613.912      4.600    598.377    613.921    598.377    598.377    598.377
 24.470    668.419    621.554     46.865    597.982    621.568    597.982    597.982    597.982
 24.570    634.000    634.700     -0.700    597.585    634.724    597.585    597.585    597.585
 24.670    716.000    653.933     62.067    597.184    653.971    597.184    597.184    597.184
 24.770    696.100    676.113     19.987    596.781    676.168    596.781    596.781    596.781
 24.870    656.805    692.372    -35.567    596.375    692.439    596.375    596.375    596.375
 24.970    726.000    692.524     33.476    595.966    692.592    595.966    595.966    595.966
 25.070    678.000    676.207      1.793    595.554    676.263    595.554    595.554    595.554
 25.170    668.744    653.422     15.322    595.140    653.461    595.140    595.140    595.140
 25.270    665.000    633.323     31.677    594.723    633.348    594.723    594.723    594.723
 25.370    580.000    619.290    -39.290    594.303    619.305    594.303    594.303    594.303
 25.470    677.000    610.844     66.156    593.881    610.853    593.881    593.881    593.881
 25.570    597.627    606.147     -8.519    593.457    606.152    593.457    593.457    593.457
 25.670    604.000    603.506      0.494    593.030    603.510    593.030    593.030    593.030
 25.770    570.154    601.875    -31.721    592.601    601.878    592.601    592.601    592.601
 25.870    649.966    600.743     49.224    592.169    600.745    592.169    592.169    592.169
 25.970    601.000    599.892      1.108    591.735    599.894    591.735    591.735    591.735
 26.070    626.000    599.228     26.772    591.299    599.229    591.299    591.299    591.299
 26.170    609.859    598.705     11.154    590.861    598.706    590.861    590.861    590.861
 26.270    642.319    598.299     44.020    590.421    598.300    590.421    590.421    590.421
 26.370    624.000    597.997     26.003    589.979    597.998    589.979    589.979    589.979
 26.470    634.533    597.794     36.739    589.534    597.794    589.534    589.534    589.534
 26.570    562.366    597.690    -35.324    589.088    597.690    589.088    589.088    589.088
 26.670    608.240    597.693     10.547    588.640    597.693    588.640    588.640    588.640
 26.770    613.000    597.816     15.184    588.189    597.815    588.189    588.189    588.189
 26.870    641.982    598.078     43.903    587.737    598.078    587.737    587.737    587.737
 26.970    639.000    598.511     40.489    587.284    598.510    587.284    587.284    587.284
 27.070    674.000    599.154     74.846    586.828    599.153    586.828    586.828    586.828
 27.170    667.000    600.069     66.931    586.371    600.068    586.371    586.371    586.371
 27.270    656.000    601.342     54.658    585.912    601.340    585.912    585.912    585.912
 27.370    695.000    603.106     91.894    585.451    603.103    585.451    585.451    585.451
 27.470    598.461    605.599     -7.138    584.989    605.595    584.989    584.989    584.989
 27.570    565.097    609.328    -44.231    584.526    609.323    584.526    584.526    584.526
 27.670    674.392    615.523     58.869    584.061    615.516    584.061    584.061    584.061
 27.770    682.000    627.031     54.969    583.594    627.019    583.594    583.594    583.594
 27.870    708.000    649.351     58.649    583.126    649.331    583.126    583.126    583.126
 27.970    726.000    690.284     35.716    582.657    690.250    582.657    582.657    582.657
 28.070    814.000    755.894     58.106    582.187    755.843    582.187    582.187    582.187
 28.170    825.016    842.113    -17.097    581.715    842.045    581.715    581.715    581.715
 28.270    957.000    924.983     32.017    581.242    924.908    581.242    581.242    581.242
 28.370    971.000    961.853      9.147    580.768    961.788    580.768    580.768    580.768
 28.470    967.000    930.295     36.705    580.293    930.246    580.293    580.293    580.293
 28.570    857.000    864.381     -7.381    579.816    864.347    579.816    579.816    579.816
 28.670    793.000    811.831    -18.831    579.339    811.804    579.339    579.339    579.339
 28.770    801.000    796.477      4.523    578.860    796.453    578.860    578.860    578.860
 28.870    889.000    816.515     72.485    578.381    816.493    578.381    578.381    578.381
 28.970    800.533    849.278    -48.745    577.900    849.263    577.900    577.900    577.900
 29.070    973.000    859.794    113.206    577.419    859.790    577.419    577.419    577.419
 29.170    937.000    827.757    109.243    576.937    827.762    576.937    576.937    576.937
 29.270    756.985    769.049    -12.064    576.454    769.056    576.454    576.454    576.454
 29.370    672.428    709.815    -37.387    575.971    709.820    575.971    575.971    575.971
 29.470    685.522    663.838     21.685    575.486    663.841    575.486    575.486    575.486
 29.570    712.000    633.511     78.489    575.001    633.512    575.001    575.001    575.001
 29.670    668.000    615.544     52.456    574.515    615.543    574.515    574.515    574.515
 29.770    643.000    605.349     37.651    574.029    605.348    574.029    574.029    574.029
 29.870    697.000    599.374     97.626    573.542    599.372    573.542    573.542    573.542
 29.970    693.000    595.577     97.423    573.054    595.574    573.054    573.054    573.054
 30.070    674.000    593.000     81.000    572.566    592.997    572.566    572.566    572.566
 30.170    655.000    591.266     63.734    572.078    591.263    572.078    572.078    572.078
 30.270    532.355    590.308    -57.953    571.589    590.304    571.589    571.589    571.589
 30.370    667.000    590.313     76.687    571.100    590.308    571.100    571.100    571.100
