neutron_powder_diffraction_0176
R_wp: 4.024
Temperature (K): 1074.000
Counts: 84171.00
Wavelength (Ã…): 2.52098
COMMENTS
Test file for demonstrating the .xyy file format in Reel1.0
END OF HEADER
   tth       Y_obs     Y_calc      Y_res    Background    Phase_1_Nuc    Phase_1_Mag    Phase_2_Nuc    Phase_2_Mag
  9.970    607.078    575.547     31.532    574.832    575.480    574.832    574.898    574.832
 10.070    594.000    575.566     18.434    574.795    575.499    574.795    574.861    574.795
 10.170    596.549    575.589     20.960    574.753    575.522    574.753    574.820    574.753
 10.270    591.000    575.617     15.383    574.708    575.549    574.708    574.775    574.708
 10.370    634.000    575.653     58.347    574.658    575.585    574.658    574.725    574.658
 10.470    615.000    575.699     39.301    574.604    575.631    574.604    574.671    574.604
 10.570    605.000    575.760     29.240    574.545    575.691    574.545    574.613    574.545
 10.670    580.000    575.839      4.161    574.483    575.770    574.483    574.551    574.483
 10.770    567.000    575.943     -8.943    574.416    575.874    574.416    574.485    574.416
 10.870    555.000    576.082    -21.082    574.346    576.012    574.346    574.414    574.346
 10.970    539.227    576.266    -37.039    574.271    576.196    574.271    574.340    574.271
 11.070    568.227    576.514     -8.287    574.192    576.443    574.192    574.261    574.192
 11.170    579.000    576.850      2.150    574.109    576.779    574.109    574.179    574.109
 11.270    612.000    577.314     34.686    574.023    577.243    574.023    574.093    574.023
 11.370    620.000    577.973     42.027    573.932    577.901    573.932    574.003    573.932
 11.470    595.000    578.973     16.027    573.838    578.900    573.838    573.909    573.838
 11.570    596.030    580.720     15.310    573.740    580.645    573.740    573.811    573.740
 11.670    576.678    584.389     -7.711    573.638    584.307    573.638    573.714    573.638
 11.770    605.860    592.733     13.128    573.533    592.644    573.533    573.611    573.533
 11.870    617.000    610.264      6.736    573.424    610.166    573.424    573.502    573.424
 11.970    659.000    640.559     18.441    573.311    640.443    573.311    573.389    573.311
 12.070    706.000    679.759     26.241    573.194    679.621    573.194    573.273    573.194
 12.170    747.000    710.648     36.352    573.075    710.492    573.075    573.154    573.075
 12.270    679.000    711.538    -32.538    572.951    711.381    572.951    573.031    572.951
 12.370    707.335    681.512     25.823    572.824    681.372    572.824    572.904    572.824
 12.470    584.000    641.882    -57.882    572.694    641.763    572.694    572.774    572.694
 12.570    563.000    610.641    -47.641    572.560    610.539    572.560    572.641    572.560
 12.670    577.785    592.252    -14.467    572.423    592.160    572.423    572.504    572.423
 12.770    635.000    583.322     51.678    572.283    583.234    572.283    572.364    572.283
 12.870    552.000    579.268    -27.268    572.139    579.182    572.139    572.221    572.139
 12.970    578.000    577.224      0.776    571.993    577.139    571.993    572.075    571.993
 13.070    546.116    575.960    -29.845    571.843    575.876    571.843    571.925    571.843
 13.170    600.000    575.048     24.952    571.689    574.964    571.689    571.772    571.689
 13.270    581.000    574.336      6.664    571.533    574.251    571.533    571.617    571.533
 13.370    560.000    573.755    -13.755    571.374    573.670    571.374    571.458    571.374
 13.470    572.000    573.265     -1.265    571.211    573.179    571.211    571.296    571.211
 13.570    614.197    572.840     41.358    571.046    572.754    571.046    571.131    571.046
 13.670    567.000    572.463     -5.463    570.878    572.377    570.878    570.963    570.878
 13.770    561.000    572.122    -11.122    570.706    572.035    570.706    570.792    570.706
 13.870    593.000    571.807     21.193    570.532    571.721    570.532    570.618    570.532
 13.970    579.000    571.513      7.487    570.355    571.426    570.355    570.442    570.355
 14.070    593.000    571.235     21.765    570.176    571.148    570.176    570.262    570.176
 14.170    559.375    570.969    -11.594    569.993    570.881    569.993    570.080    569.993
 14.270    566.000    570.712     -4.712    569.808    570.624    569.808    569.895    569.808
 14.370    523.000    570.462    -47.462    569.620    570.374    569.620    569.708    569.620
 14.470    584.000    570.218     13.782    569.429    570.129    569.429    569.518    569.429
 14.570    555.000    569.981    -14.981    569.236    569.892    569.236    569.325    569.236
 14.670    525.000    569.746    -44.746    569.040    569.657    569.040    569.129    569.040
 14.770    526.000    569.512    -43.512    568.841    569.422    568.841    568.931    568.841
 14.870    553.000    569.280    -16.280    568.640    569.189    568.640    568.731    568.640
 14.970    563.435    569.048     -5.613    568.437    568.957    568.437    568.528    568.437
 15.070    550.000    568.818    -18.818    568.231    568.726    568.231    568.322    568.231
 15.170    579.917    568.587     11.330    568.022    568.495    568.022    568.114    568.022
 15.270    581.000    568.357     12.643    567.811    568.264    567.811    567.904    567.811
 15.370    585.373    568.126     17.247    567.598    568.033    567.598    567.691    567.598
 15.470    593.290    567.895     25.395    567.383    567.801    567.383    567.476    567.383
 15.570    582.000    567.663     14.337    567.165    567.569    567.165    567.259    567.165
 15.670    599.000    567.431     31.569    566.945    567.336    566.945    567.039    566.945
 15.770    552.000    567.197    -15.197    566.723    567.102    566.723    566.818    566.723
 15.870    560.000    566.963     -6.963    566.498    566.867    566.498    566.594    566.498
 15.970    557.000    566.727     -9.727    566.272    566.631    566.272    566.368    566.272
 16.070    597.527    566.490     31.036    566.043    566.394    566.043    566.140    566.043
 16.170    586.941    566.253     20.688    565.812    566.156    565.812    565.909    565.812
 16.270    528.120    566.016    -37.896    565.579    565.918    565.579    565.677    565.579
 16.370    532.000    565.776    -33.776    565.344    565.677    565.344    565.443    565.344
 16.470    542.000    565.534    -23.534    565.107    565.435    565.107    565.207    565.107
 16.570    559.000    565.291     -6.291    564.869    565.191    564.869    564.968    564.869
 16.670    579.000    565.046     13.954    564.628    564.946    564.628    564.728    564.628
 16.770    550.000    564.800    -14.800    564.385    564.699    564.385    564.486    564.385
 16.870    535.382    564.553    -29.171    564.141    564.452    564.141    564.242    564.141
 16.970    608.448    564.305     44.143    563.894    564.202    563.894    563.996    563.894
 17.070    542.000    564.055    -22.055    563.646    563.952    563.646    563.749    563.646
 17.170    588.358    563.803     24.555    563.396    563.700    563.396    563.500    563.396
 17.270    523.478    563.551    -40.073    563.144    563.447    563.144    563.249    563.144
 17.370    529.517    563.301    -33.784    562.891    563.194    562.891    562.998    562.891
 17.470    578.000    563.047     14.953    562.636    562.939    562.636    562.744    562.636
 17.570    571.000    562.791      8.209    562.379    562.681    562.379    562.489    562.379
 17.670    549.000    562.533    -13.533    562.121    562.423    562.121    562.231    562.121
 17.770    577.226    562.274     14.953    561.861    562.163    561.861    561.972    561.861
 17.870    560.000    562.013     -2.013    561.599    561.901    561.599    561.711    561.599
 17.970    586.510    561.751     24.758    561.336    561.639    561.336    561.449    561.336
 18.070    523.000    561.488    -38.488    561.072    561.375    561.072    561.185    561.072
 18.170    556.000    561.224     -5.224    560.806    561.110    560.806    560.920    560.806
 18.270    539.000    560.960    -21.960    560.538    560.845    560.538    560.653    560.538
 18.370    523.927    560.694    -36.767    560.269    560.578    560.269    560.385    560.269
 18.470    539.000    560.426    -21.426    559.999    560.310    559.999    560.115    559.999
 18.570    604.921    560.158     44.763    559.727    560.041    559.727    559.845    559.727
 18.670    490.000    559.888    -69.888    559.454    559.770    559.454    559.573    559.454
 18.770    559.000    559.618     -0.618    559.180    559.499    559.180    559.299    559.180
 18.870    524.000    559.346    -35.346    558.905    559.226    558.905    559.025    558.905
 18.970    563.000    559.074      3.926    558.628    558.953    558.628    558.749    558.628
 19.070    574.000    558.800     15.200    558.350    558.679    558.350    558.472    558.350
 19.170    563.000    558.526      4.474    558.071    558.403    558.071    558.193    558.071
 19.270    545.000    558.251    -13.251    557.790    558.127    557.790    557.914    557.790
 19.370    567.882    557.975      9.907    557.509    557.850    557.509    557.634    557.509
 19.470    556.000    557.698     -1.698    557.226    557.573    557.226    557.352    557.226
 19.570    532.483    557.422    -24.939    556.943    557.295    556.943    557.069    556.943
 19.670    550.000    557.145     -7.145    556.658    557.017    556.658    556.786    556.658
 19.770    531.000    556.866    -25.866    556.372    556.737    556.372    556.501    556.372
 19.870    526.028    556.587    -30.559    556.085    556.457    556.085    556.215    556.085
 19.970    546.000    556.308    -10.308    555.798    556.177    555.798    555.929    555.798
 20.070    563.000    556.041      6.959    555.509    555.909    555.509    555.641    555.509
 20.170    520.388    555.771    -35.383    555.219    555.637    555.219    555.353    555.219
 20.270    552.000    555.490     -3.490    554.929    555.356    554.929    555.063    554.929
 20.370    582.000    555.209     26.791    554.637    555.073    554.637    554.773    554.637
 20.470    567.731    554.927     12.804    554.345    554.790    554.345    554.482    554.345
 20.570    562.000    554.645      7.355    554.052    554.507    554.052    554.190    554.052
 20.670    531.000    554.363    -23.363    553.758    554.223    553.758    553.898    553.758
 20.770    576.983    554.081     22.902    553.464    553.940    553.464    553.605    553.464
 20.870    563.706    553.799      9.908    553.168    553.656    553.168    553.311    553.168
 20.970    545.000    553.516     -8.516    552.872    553.373    552.872    553.016    552.872
 21.070    594.000    553.235     40.765    552.575    553.089    552.575    552.721    552.575
 21.170    546.089    552.961     -6.872    552.278    552.814    552.278    552.425    552.278
 21.270    543.483    552.765     -9.283    551.980    552.617    551.980    552.128    551.980
 21.370    539.383    552.507    -13.124    551.681    552.357    551.681    551.831    551.681
 21.470    563.425    552.228     11.197    551.382    552.077    551.382    551.533    551.382
 21.570    565.138    551.949     13.189    551.082    551.796    551.082    551.235    551.082
 21.670    599.094    551.671     47.423    550.781    551.516    550.781    550.936    550.781
 21.770    568.000    551.396     16.604    550.480    551.239    550.480    550.637    550.480
 21.870    573.000    551.142     21.858    550.179    550.983    550.179    550.338    550.179
 21.970    522.413    550.897    -28.483    549.877    550.736    549.877    550.037    549.877
 22.070    546.000    550.627     -4.627    549.574    550.465    549.574    549.737    549.574
 22.170    531.000    550.358    -19.358    549.271    550.193    549.271    549.436    549.271
 22.270    532.578    550.096    -17.517    548.968    549.929    548.968    549.135    548.968
 22.370    587.883    549.878     38.005    548.664    549.709    548.664    548.833    548.664
 22.470    553.000    549.637      3.363    548.360    549.466    548.360    548.532    548.360
 22.570    507.420    549.383    -41.963    548.056    549.210    548.056    548.229    548.056
 22.670    547.000    549.135     -2.135    547.751    548.959    547.751    547.927    547.751
 22.770    562.000    548.896     13.104    547.446    548.717    547.446    547.624    547.446
 22.870    534.000    548.660    -14.660    547.140    548.479    547.140    547.322    547.140
 22.970    529.092    548.433    -19.341    546.835    548.250    546.835    547.019    546.835
 23.070    528.415    548.218    -19.803    546.529    548.032    546.529    546.716    546.529
 23.170    593.845    548.016     45.829    546.223    547.827    546.223    546.413    546.223
 23.270    502.000    547.833    -45.833    545.917    547.640    545.917    546.109    545.917
 23.370    571.000    547.671     23.329    545.610    547.476    545.610    545.806    545.610
 23.470    570.668    547.539     23.130    545.303    547.340    545.303    545.503    545.303
 23.570    575.000    547.445     27.555    544.997    547.243    544.997    545.199    544.997
 23.670    560.292    547.404     12.888    544.690    547.199    544.690    544.896    544.690
 23.770    543.535    547.431     -3.895    544.383    547.222    544.383    544.593    544.383
 23.870    549.000    547.557      1.443    544.076    547.345    544.076    544.290    544.076
 23.970    587.531    547.838     39.692    543.769    547.622    543.769    543.986    543.769
 24.070    524.694    548.402    -23.707    543.461    548.182    543.461    543.684    543.461
 24.170    565.000    549.614     15.386    543.154    549.391    543.154    543.381    543.154
 24.270    553.000    552.465      0.535    542.847    552.239    542.847    543.078    542.847
 24.370    562.000    559.053      2.947    542.540    558.828    542.540    542.776    542.540
 24.470    634.000    572.328     61.672    542.233    572.107    542.233    542.474    542.233
 24.570    611.000    593.796     17.204    541.926    593.585    541.926    542.173    541.926
 24.670    614.000    619.282     -5.282    541.619    619.083    541.619    541.872    541.619
 24.770    637.169    636.223      0.946    541.312    636.031    541.312    541.571    541.312
 24.870    625.000    632.094     -7.094    541.005    631.893    541.005    541.271    541.005
 24.970    637.460    610.316     27.144    540.699    610.092    540.699    540.971    540.699
 25.070    596.300    584.876     11.424    540.392    584.627    540.392    540.672    540.392
 25.170    552.552    565.542    -12.990    540.086    565.271    540.086    540.373    540.086
 25.270    554.000    554.200     -0.200    539.780    553.914    539.780    540.075    539.780
 25.370    559.000    548.557     10.443    539.474    548.258    539.474    539.778    539.474
 25.470    556.000    545.863     10.137    539.168    545.553    539.168    539.482    539.168
 25.570    515.000    544.420    -29.420    538.863    544.099    538.863    539.186    538.863
 25.670    543.000    543.483     -0.483    538.557    543.151    538.557    538.892    538.557
 25.770    635.000    542.784     92.216    538.253    542.440    538.253    538.598    538.253
 25.870    585.000    542.229     42.771    537.948    541.872    537.948    538.306    537.948
 25.970    588.000    541.776     46.224    537.644    541.405    537.644    538.015    537.644
 26.070    535.000    541.403     -6.403    537.340    541.018    537.340    537.725    537.340
 26.170    551.871    541.120     10.751    537.036    540.719    537.036    537.437    537.036
 26.270    532.000    540.889     -8.889    536.733    540.471    536.733    537.151    536.733
 26.370    499.419    540.687    -41.269    536.430    540.252    536.430    536.866    536.430
 26.470    500.426    540.536    -40.110    536.128    540.080    536.128    536.583    536.128
 26.570    555.389    540.441     14.948    535.825    539.963    535.825    536.303    535.825
 26.670    525.353    540.408    -15.056    535.524    539.907    535.524    536.025    535.524
 26.770    581.000    540.438     40.562    535.223    539.910    535.223    535.750    535.223
 26.870    564.000    540.547     23.453    534.922    539.991    534.922    535.478    534.922
 26.970    536.000    540.758     -4.758    534.622    540.169    534.622    535.210    534.622
 27.070    557.000    541.113     15.887    534.322    540.488    534.322    534.946    534.322
 27.170    553.000    541.653     11.347    534.023    540.989    534.023    534.686    534.023
 27.270    581.000    542.383     38.617    533.724    541.674    533.724    534.432    533.724
 27.370    582.000    543.423     38.577    533.426    542.663    533.426    534.183    533.426
 27.470    590.000    544.940     45.060    533.128    544.124    533.128    533.942    533.128
 27.570    552.000    547.363      4.637    532.831    546.482    532.831    533.709    532.831
 27.670    555.323    552.166      3.157    532.534    551.210    532.534    533.486    532.534
 27.770    540.361    564.177    -23.816    532.239    563.132    532.239    533.275    532.239
 27.870    595.852    595.184      0.668    531.943    594.031    531.943    533.078    531.943
 27.970    642.000    662.856    -20.856    531.649    661.567    531.649    532.897    531.649
 28.070    763.000    774.236    -11.236    531.355    772.780    531.355    532.738    531.355
 28.170    919.000    897.835     21.165    531.061    896.192    531.061    532.604    531.061
 28.270    975.000    958.801     16.199    530.768    956.967    530.768    532.503    530.768
 28.370    943.135    907.766     35.369    530.476    905.734    530.476    532.445    530.476
 28.470    801.000    797.490      3.510    530.185    795.202    530.185    532.446    530.185
 28.570    751.838    711.953     39.886    529.894    709.305    529.894    532.529    529.894
 28.670    659.169    694.610    -35.440    529.605    691.466    529.605    532.732    529.605
 28.770    722.000    740.851    -18.851    529.315    737.033    529.315    533.113    529.315
 28.870    818.000    810.471      7.529    529.027    805.728    529.027    533.756    529.027
 28.970    842.000    843.342     -1.342    528.739    837.311    528.739    534.770    528.739
 29.070    753.000    803.782    -50.782    528.452    795.962    528.452    536.284    528.452
 29.170    694.000    722.660    -28.660    528.166    712.419    528.166    538.419    528.166
 29.270    570.000    647.711    -77.711    527.881    634.351    527.881    541.248    527.881
 29.370    628.961    600.572     28.389    527.597    583.473    527.597    544.699    527.597
 29.470    585.677    578.719      6.958    527.313    557.645    527.313    548.386    527.313
 29.570    582.000    570.737     11.263    527.030    546.335    527.030    551.430    527.030
 29.670    608.000    567.171     40.829    526.748    541.292    526.748    552.625    526.748
 29.770    601.987    563.406     38.581    526.467    538.584    526.467    551.286    526.467
 29.870    577.000    558.570     18.430    526.187    536.827    526.187    547.928    526.187
 29.970    541.000    553.417    -12.417    525.907    535.595    525.907    543.728    525.907
 30.070    518.000    548.763    -30.763    525.629    534.747    525.629    539.642    525.629
 30.170    505.000    545.042    -40.042    525.352    534.258    525.352    536.132    525.352
 30.270    586.076    542.481     43.594    525.075    534.240    525.075    533.314    525.075
 30.370    544.288    541.474      2.814    524.799    535.134    524.799    531.135    524.799
