neutron_powder_diffraction_0135
R_wp: 3.860
Temperature (K): 1062.733
Counts: 83192.00
Wavelength (Ã…): 2.52098
COMMENTS
Test file for demonstrating the .xyy file format in Reel1.0
END OF HEADER
   tth       Y_obs     Y_calc      Y_res    Background    Phase_1_Nuc    Phase_1_Mag    Phase_2_Nuc    Phase_2_Mag
  9.970    605.000    566.926     38.074    566.114    566.862    566.114    566.178    566.114
 10.070    575.726    567.127      8.599    566.250    567.062    566.250    566.314    566.250
 10.170    534.825    567.330    -32.505    566.379    567.265    566.379    566.443    566.379
 10.270    598.986    567.538     31.448    566.502    567.473    566.502    566.567    566.502
 10.370    584.000    567.754     16.246    566.619    567.689    566.619    566.683    566.619
 10.470    525.818    567.981    -42.164    566.729    567.916    566.729    566.794    566.729
 10.570    588.000    568.223     19.777    566.833    568.157    566.833    566.899    566.833
 10.670    622.000    568.485     53.515    566.931    568.419    566.931    566.997    566.931
 10.770    590.000    568.775     21.225    567.024    568.709    567.024    567.090    567.024
 10.870    583.000    569.103     13.897    567.110    569.036    567.110    567.176    567.110
 10.970    578.900    569.483      9.418    567.190    569.415    567.190    567.257    567.190
 11.070    563.639    569.934     -6.295    567.265    569.866    567.265    567.331    567.265
 11.170    587.000    570.485     16.515    567.333    570.417    567.333    567.400    567.333
 11.270    538.966    571.182    -32.216    567.396    571.113    567.396    567.464    567.396
 11.370    541.683    572.104    -30.421    567.453    572.034    567.453    567.521    567.453
 11.470    574.000    573.427      0.573    567.505    573.355    567.505    567.573    567.505
 11.570    564.000    575.624    -11.624    567.551    575.552    567.551    567.619    567.551
 11.670    619.109    579.942     39.168    567.592    579.866    567.592    567.660    567.592
 11.770    561.196    589.032    -27.836    567.627    588.951    567.627    567.696    567.627
 11.870    624.000    606.826     17.174    567.656    606.735    567.656    567.726    567.656
 11.970    639.000    636.017      2.983    567.681    635.910    567.681    567.750    567.681
 12.070    697.000    672.669     24.331    567.700    672.542    567.700    567.770    567.700
 12.170    642.000    701.387    -59.387    567.713    701.242    567.713    567.785    567.713
 12.270    689.000    702.866    -13.866    567.722    702.719    567.722    567.795    567.722
 12.370    660.000    675.819    -15.819    567.725    675.686    567.725    567.798    567.725
 12.470    669.000    638.994     30.006    567.724    638.881    567.724    567.797    567.724
 12.570    567.180    608.854    -41.674    567.717    608.758    567.717    567.791    567.717
 12.670    588.000    590.172     -2.172    567.705    590.086    567.705    567.779    567.705
 12.770    620.313    580.550     39.763    567.689    580.469    567.689    567.763    567.689
 12.870    589.000    575.997     13.003    567.667    575.918    567.667    567.742    567.667
 12.970    547.000    573.717    -26.717    567.641    573.639    567.641    567.716    567.641
 13.070    532.653    572.372    -39.720    567.610    572.294    567.610    567.685    567.610
 13.170    535.000    571.451    -36.451    567.574    571.374    567.574    567.650    567.574
 13.270    595.147    570.765     24.382    567.533    570.687    567.533    567.609    567.533
 13.370    615.000    570.229     44.771    567.488    570.151    567.488    567.565    567.488
 13.470    586.417    569.798     16.619    567.438    569.720    567.438    567.515    567.438
 13.570    577.000    569.442      7.558    567.384    569.364    567.384    567.461    567.384
 13.670    564.000    569.143     -5.143    567.325    569.065    567.325    567.403    567.325
 13.770    572.962    568.884      4.079    567.262    568.805    567.262    567.340    567.262
 13.870    570.000    568.653      1.347    567.195    568.573    567.195    567.273    567.195
 13.970    577.000    568.444      8.556    567.123    568.365    567.123    567.202    567.123
 14.070    515.000    568.253    -53.253    567.047    568.173    567.047    567.126    567.047
 14.170    563.000    568.075     -5.075    566.966    567.995    566.966    567.046    566.966
 14.270    557.000    567.907    -10.907    566.882    567.826    566.882    566.962    566.882
 14.370    549.000    567.746    -18.746    566.793    567.665    566.793    566.874    566.793
 14.470    523.642    567.591    -43.949    566.701    567.509    566.701    566.781    566.701
 14.570    530.000    567.439    -37.439    566.604    567.358    566.604    566.685    566.604
 14.670    570.000    567.291      2.709    566.503    567.209    566.503    566.585    566.503
 14.770    546.000    567.144    -21.144    566.398    567.062    566.398    566.480    566.398
 14.870    525.605    566.999    -41.394    566.290    566.916    566.290    566.372    566.290
 14.970    579.000    566.853     12.147    566.177    566.770    566.177    566.260    566.177
 15.070    601.000    566.708     34.292    566.061    566.624    566.061    566.144    566.061
 15.170    526.709    566.562    -39.853    565.941    566.478    565.941    566.025    565.941
 15.270    535.000    566.415    -31.415    565.817    566.330    565.817    565.901    565.817
 15.370    531.824    566.267    -34.442    565.690    566.182    565.690    565.774    565.690
 15.470    568.828    566.117      2.711    565.559    566.032    565.559    565.644    565.559
 15.570    589.000    565.966     23.034    565.424    565.880    565.424    565.510    565.424
 15.670    565.000    565.812     -0.812    565.286    565.726    565.286    565.372    565.286
 15.770    549.368    565.657    -16.289    565.144    565.570    565.144    565.231    565.144
 15.870    548.000    565.500    -17.500    564.999    565.413    564.999    565.086    564.999
 15.970    583.000    565.341     17.659    564.851    565.253    564.851    564.939    564.851
 16.070    555.000    565.181    -10.181    564.699    565.093    564.699    564.787    564.699
 16.170    559.000    565.018     -6.018    564.544    564.930    564.544    564.633    564.544
 16.270    584.925    564.852     20.073    564.386    564.763    564.386    564.475    564.386
 16.370    600.551    564.684     35.868    564.224    564.594    564.224    564.314    564.224
 16.470    581.000    564.513     16.487    564.059    564.423    564.059    564.149    564.059
 16.570    556.000    564.340     -8.340    563.891    564.249    563.891    563.982    563.891
 16.670    526.253    564.164    -37.912    563.720    564.073    563.720    563.812    563.720
 16.770    545.000    563.987    -18.987    563.546    563.895    563.546    563.638    563.546
 16.870    586.000    563.807     22.193    563.369    563.715    563.369    563.462    563.369
 16.970    534.000    563.624    -29.624    563.189    563.531    563.189    563.282    563.189
 17.070    592.603    563.439     29.164    563.006    563.345    563.006    563.100    563.006
 17.170    588.000    563.251     24.749    562.821    563.157    562.821    562.915    562.821
 17.270    547.000    563.060    -16.060    562.632    562.966    562.632    562.727    562.632
 17.370    548.000    562.868    -14.868    562.440    562.772    562.440    562.536    562.440
 17.470    583.000    562.673     20.327    562.246    562.577    562.246    562.342    562.246
 17.570    523.000    562.475    -39.475    562.049    562.378    562.049    562.146    562.049
 17.670    566.086    562.275      3.811    561.850    562.178    561.850    561.947    561.850
 17.770    610.000    562.073     47.927    561.647    561.975    561.647    561.745    561.647
 17.870    518.277    561.869    -43.592    561.443    561.771    561.443    561.541    561.443
 17.970    535.317    561.663    -26.345    561.235    561.563    561.235    561.334    561.235
 18.070    597.000    561.454     35.546    561.025    561.354    561.025    561.125    561.025
 18.170    540.848    561.243    -20.395    560.813    561.142    560.813    560.913    560.813
 18.270    577.274    561.031     16.243    560.598    560.930    560.598    560.699    560.598
 18.370    530.792    560.829    -30.037    560.381    560.727    560.381    560.483    560.381
 18.470    565.000    560.624      4.376    560.161    560.521    560.161    560.264    560.161
 18.570    528.886    560.406    -31.520    559.939    560.303    559.939    560.043    559.939
 18.670    564.835    560.185      4.650    559.715    560.081    559.715    559.819    559.715
 18.770    558.000    559.963     -1.963    559.489    559.858    559.489    559.594    559.489
 18.870    549.000    559.738    -10.738    559.260    559.632    559.260    559.366    559.260
 18.970    541.000    559.511    -18.511    559.029    559.405    559.029    559.136    559.029
 19.070    518.206    559.283    -41.077    558.796    559.176    558.796    558.903    558.796
 19.170    597.426    559.053     38.373    558.561    558.945    558.561    558.669    558.561
 19.270    540.000    558.821    -18.821    558.324    558.712    558.324    558.433    558.324
 19.370    514.425    558.588    -44.162    558.085    558.478    558.085    558.195    558.085
 19.470    561.149    558.360      2.789    557.844    558.249    557.844    557.954    557.844
 19.570    556.000    558.198     -2.198    557.600    558.086    557.600    557.712    557.600
 19.670    519.000    557.994    -38.994    557.355    557.881    557.355    557.468    557.355
 19.770    546.000    557.757    -11.757    557.109    557.644    557.109    557.222    557.109
 19.870    533.827    557.517    -23.690    556.860    557.402    556.860    556.974    556.860
 19.970    486.000    557.274    -71.274    556.609    557.159    556.609    556.725    556.609
 20.070    547.000    557.032    -10.032    556.357    556.915    556.357    556.474    556.357
 20.170    564.000    556.791      7.209    556.103    556.673    556.103    556.221    556.103
 20.270    525.541    556.545    -31.004    555.847    556.427    555.847    555.966    555.847
 20.370    532.922    556.298    -23.377    555.590    556.179    555.590    555.710    555.590
 20.470    569.439    556.051     13.388    555.331    555.930    555.331    555.452    555.331
 20.570    530.146    555.804    -25.658    555.070    555.682    555.070    555.192    555.070
 20.670    552.000    555.558     -3.558    554.808    555.435    554.808    554.931    554.808
 20.770    550.000    555.308     -5.308    554.544    555.184    554.544    554.668    554.544
 20.870    551.000    555.057     -4.057    554.279    554.932    554.279    554.404    554.279
 20.970    515.000    554.806    -39.806    554.012    554.679    554.012    554.139    554.012
 21.070    580.000    554.554     25.446    553.744    554.425    553.744    553.872    553.744
 21.170    544.000    554.301    -10.301    553.474    554.172    553.474    553.604    553.474
 21.270    517.000    554.048    -37.048    553.203    553.918    553.203    553.334    553.203
 21.370    571.864    553.796     18.069    552.931    553.663    552.931    553.063    552.931
 21.470    541.000    553.543    -12.543    552.658    553.409    552.658    552.791    552.658
 21.570    537.708    553.291    -15.583    552.383    553.156    552.383    552.518    552.383
 21.670    565.000    553.045     11.955    552.107    552.908    552.107    552.243    552.107
 21.770    574.000    552.856     21.144    551.829    552.718    551.829    551.968    551.829
 21.870    561.000    552.656      8.344    551.551    552.516    551.551    551.691    551.551
 21.970    518.000    552.413    -34.413    551.271    552.271    551.271    551.413    551.271
 22.070    555.000    552.168      2.832    550.991    552.024    550.991    551.134    550.991
 22.170    574.076    551.923     22.152    550.709    551.778    550.709    550.854    550.709
 22.270    525.000    551.681    -26.681    550.426    551.534    550.426    550.573    550.426
 22.370    571.000    551.442     19.558    550.142    551.293    550.142    550.291    550.142
 22.470    571.000    551.207     19.793    549.857    551.056    549.857    550.008    549.857
 22.570    558.000    550.976      7.024    549.571    550.823    549.571    549.724    549.571
 22.670    589.156    550.751     38.405    549.284    550.596    549.284    549.440    549.284
 22.770    518.140    550.532    -32.392    548.997    550.375    548.997    549.154    548.997
 22.870    555.000    550.322      4.678    548.708    550.163    548.708    548.868    548.708
 22.970    501.000    550.122    -49.122    548.419    549.960    548.419    548.581    548.419
 23.070    491.000    549.935    -58.935    548.129    549.771    548.129    548.293    548.129
 23.170    544.000    549.764     -5.764    547.838    549.598    547.838    548.005    547.838
 23.270    506.639    549.616    -42.977    547.546    549.447    547.546    547.716    547.546
 23.370    582.000    549.490     32.510    547.253    549.319    547.253    547.426    547.253
 23.470    557.000    549.397      7.603    546.960    549.223    546.960    547.136    546.960
 23.570    572.980    549.348     23.632    546.666    549.171    546.666    546.845    546.666
 23.670    526.000    549.358    -23.358    546.372    549.178    546.372    546.553    546.372
 23.770    514.258    549.449    -35.191    546.077    549.266    546.077    546.261    546.077
 23.870    545.000    549.664     -4.664    545.781    549.478    545.781    545.969    545.781
 23.970    552.000    550.060      1.940    545.485    549.870    545.485    545.676    545.485
 24.070    533.425    550.803    -17.378    545.188    550.610    545.188    545.383    545.188
 24.170    540.276    552.328    -12.052    544.891    552.133    544.891    545.090    544.891
 24.270    592.000    555.665     36.335    544.593    555.468    544.593    544.796    544.593
 24.370    585.000    562.735     22.265    544.295    562.539    544.295    544.502    544.295
 24.470    587.000    575.806     11.194    543.996    575.616    543.996    544.208    543.996
 24.570    571.000    595.650    -24.650    543.697    595.469    543.697    543.914    543.697
 24.670    601.000    618.422    -17.422    543.397    618.253    543.397    543.620    543.397
 24.770    626.000    633.582     -7.582    543.098    633.420    543.098    543.325    543.098
 24.870    623.000    630.647     -7.647    542.798    630.477    542.798    543.031    542.798
 24.970    595.000    611.844    -16.844    542.497    611.654    542.497    542.736    542.497
 25.070    618.000    588.736     29.264    542.196    588.524    542.196    542.442    542.196
 25.170    578.000    570.094      7.906    541.895    569.861    541.895    542.148    541.895
 25.270    577.000    558.289     18.711    541.594    558.040    541.594    541.853    541.594
 25.370    546.000    551.927     -5.927    541.293    551.667    541.293    541.560    541.293
 25.470    545.000    548.711     -3.711    540.991    548.440    540.991    541.266    540.991
 25.570    524.000    546.953    -22.953    540.690    546.672    540.690    540.973    540.690
 25.670    543.000    545.840     -2.840    540.388    545.549    540.388    540.681    540.388
 25.770    575.000    545.032     29.968    540.086    544.731    540.086    540.389    540.086
 25.870    563.000    544.398     18.602    539.784    544.086    539.784    540.097    539.784
 25.970    540.000    543.883     -3.883    539.482    543.559    539.482    539.807    539.482
 26.070    561.000    543.465     17.535    539.179    543.128    539.179    539.517    539.179
 26.170    573.000    543.135     29.865    538.877    542.785    538.877    539.228    538.877
 26.270    528.000    542.841    -14.841    538.575    542.476    538.575    538.941    538.575
 26.370    542.000    542.599     -0.599    538.273    542.219    538.273    538.654    538.273
 26.470    534.000    542.411     -8.411    537.971    542.013    537.971    538.369    537.971
 26.570    579.761    542.274     37.487    537.669    541.857    537.669    538.086    537.669
 26.670    549.879    542.195      7.684    537.367    541.757    537.367    537.805    537.367
 26.770    581.424    542.192     39.233    537.065    541.731    537.065    537.526    537.065
 26.870    572.000    542.264     29.736    536.764    541.778    536.764    537.249    536.764
 26.970    546.740    542.421      4.319    536.462    541.908    536.462    536.975    536.462
 27.070    527.000    542.701    -15.701    536.161    542.158    536.161    536.705    536.161
 27.170    541.882    543.126     -1.244    535.860    542.548    535.860    536.438    535.860
 27.270    525.068    543.751    -18.684    535.559    543.135    535.559    536.175    535.559
 27.370    513.000    544.660    -31.660    535.259    544.001    535.259    535.917    535.259
 27.470    517.705    546.004    -28.298    534.958    545.296    534.958    535.665    534.958
 27.570    530.417    548.182    -17.765    534.659    547.418    534.659    535.420    534.659
 27.670    575.942    552.604     23.338    534.359    551.776    534.359    535.183    534.359
 27.770    616.000    563.941     52.059    534.059    563.038    534.059    534.955    534.059
 27.870    611.000    593.678     17.322    533.760    592.682    533.760    534.739    533.760
 27.970    702.000    659.117     42.883    533.462    658.003    533.462    534.537    533.462
 28.070    803.000    767.280     35.720    533.164    766.022    533.164    534.352    533.164
 28.170    933.831    887.669     46.162    532.866    886.250    532.866    534.188    532.866
 28.270    977.430    948.147     29.283    532.568    946.569    532.568    534.053    532.568
 28.370    875.742    900.716    -24.974    532.272    898.975    532.272    533.954    532.272
 28.470    783.281    794.153    -10.872    531.975    792.201    531.975    533.904    531.975
 28.570    758.375    709.765     48.610    531.679    707.515    531.679    533.922    531.679
 28.670    655.000    691.333    -36.333    531.384    688.675    531.384    534.033    531.384
 28.770    697.254    735.306    -38.053    531.089    732.107    531.089    534.271    531.089
 28.870    800.000    802.848     -2.848    530.794    798.944    530.794    534.677    530.794
 28.970    792.738    835.561    -42.824    530.500    830.748    530.500    535.300    530.500
 29.070    782.000    798.059    -16.059    530.207    792.080    530.207    536.189    530.207
 29.170    689.000    718.924    -29.924    529.915    711.470    529.915    537.383    529.915
 29.270    643.000    644.287     -1.287    529.622    635.040    529.622    538.884    529.622
 29.370    637.000    595.927     41.073    529.331    584.650    529.331    540.617    529.331
 29.470    555.000    572.165    -17.165    529.040    558.850    529.040    542.360    529.040
 29.570    604.000    562.475     41.525    528.750    547.532    528.750    543.694    528.750
 29.670    602.466    558.200     44.266    528.461    542.537    528.461    544.124    528.461
 29.770    538.861    555.110    -16.249    528.172    539.902    528.172    543.379    528.172
 29.870    637.000    551.969     85.031    527.884    538.213    527.884    541.640    527.884
 29.970    587.506    548.817     38.689    527.597    537.033    527.597    539.380    527.597
 30.070    546.000    545.964      0.036    527.310    536.227    527.310    537.045    527.310
 30.170    563.108    543.654     19.454    527.025    535.773    527.025    534.904    527.025
 30.270    547.000    542.112      4.888    526.740    535.788    526.740    533.061    526.740
 30.370    555.000    541.803     13.197    526.455    536.728    526.455    531.527    526.455
