MSG Master    CELL:    5.87469   5.87469  23.06615   90.0000   90.0000  120.0000   SPGR: P 63/m m c             TEMP:    439.95
  2   1280     2.52000     0.00000    -0.08772     0.00000     0.00000    0
    95    95     0     0     2
       0.00000      10.00000
     125.00000     130.00000
 2Theta	Yobs	Ycal	Yobs-Ycal	Backg	Posr	(hkl)	K
      0.7700	    0.00	 1037.96	-2362.25	  891.71
      0.8700	    0.00	 1034.24	-2362.25	  887.99
      0.9700	   39.00	 1030.54	-2362.25	  884.29
      1.0700	   53.00	 1026.86	-2362.25	  880.62
      1.1700	   42.00	 1023.21	-2362.25	  876.97
      1.2700	   46.00	 1019.59	-2362.25	  873.34
      1.3700	   57.00	 1015.99	-2362.25	  869.74
      1.4700	  104.00	 1012.41	-2362.25	  866.16
      1.5700	  297.00	 1008.86	-2362.25	  862.61
      1.6700	  430.00	 1005.33	-2362.25	  859.08
      1.7700	  597.00	 1001.82	-2362.25	  855.57
      1.8700	  660.00	  998.34	-2362.25	  852.09
      1.9700	  754.00	  994.88	-2362.25	  848.63
      2.0700	  777.00	  991.44	-2362.25	  845.19
      2.1700	  787.00	  988.03	-2362.25	  841.78
      2.2700	  767.00	  984.64	-2362.25	  838.39
      2.3700	  752.00	  981.27	-2362.25	  835.02
      2.4700	  730.00	  977.93	-2362.25	  831.68
      2.5700	  678.00	  974.61	-2362.25	  828.36
      2.6700	  656.00	  971.31	-2362.25	  825.06
      2.7700	  634.00	  968.03	-2362.25	  821.78
      2.8700	  630.00	  964.78	-2362.25	  818.53
      2.9700	  609.00	  961.55	-2362.25	  815.30
      3.0700	  641.00	  958.34	-2362.25	  812.09
      3.1700	  605.00	  955.15	-2362.25	  808.90
      3.2700	  728.00	  951.99	-2362.25	  805.74
      3.3700	  925.00	  948.84	-2362.25	  802.60
      3.4700	 1083.00	  945.72	-2362.25	  799.47
      3.5700	 1272.00	  942.62	-2362.25	  796.37
      3.6700	 1345.00	  939.54	-2362.25	  793.30
      3.7700	 1464.00	  936.49	-2362.25	  790.24
      3.8700	 1627.00	  933.45	-2362.25	  787.21
      3.9700	 1621.00	  930.44	-2362.25	  784.19
      4.0700	 1720.00	  927.45	-2362.25	  781.20
      4.1700	 1674.00	  924.48	-2362.25	  778.23
      4.2700	 1741.00	  921.53	-2362.25	  775.28
      4.3700	 1649.00	  918.60	-2362.25	  772.35
      4.4700	 1535.00	  915.69	-2362.25	  769.44
      4.5700	 1598.00	  912.80	-2362.25	  766.56
      4.6700	 1544.00	  909.94	-2362.25	  763.69
      4.7700	 1468.00	  907.09	-2362.25	  760.84
      4.8700	 1454.00	  904.26	-2362.25	  758.02
      4.9700	 1344.00	  901.46	-2362.25	  755.21
      5.0700	 1335.00	  898.67	-2362.25	  752.43
      5.1700	 1413.00	  895.91	-2362.25	  749.66
      5.2700	 1347.00	  893.16	-2362.25	  746.92
      5.3700	 1280.00	  890.44	-2362.25	  744.19
      5.4700	 1275.00	  887.74	-2362.25	  741.49
      5.5700	 1270.00	  885.05	-2362.25	  738.80
      5.6700	 1229.00	  882.38	-2362.25	  736.14
      5.7700	 1231.00	  879.74	-2362.25	  733.49
      5.8700	 1202.00	  877.11	-2362.25	  730.87
      5.9700	 1158.00	  874.51	-2362.25	  728.26
      6.0700	 1163.00	  871.92	-2362.25	  725.67
      6.1700	 1145.00	  869.35	-2362.25	  723.10
      6.2700	 1032.00	  866.80	-2362.25	  720.55
      6.3700	 1098.00	  864.27	-2362.25	  718.02
      6.4700	 1043.00	  861.76	-2362.25	  715.51
      6.5700	 1073.00	  859.27	-2362.25	  713.02
      6.6700	  983.00	  856.79	-2362.25	  710.55
      6.7700	  944.00	  854.34	-2362.25	  708.09
      6.8700	  952.00	  851.90	-2362.25	  705.65
      6.9700	 1004.00	  849.48	-2362.25	  703.24
      7.0700	  969.00	  847.08	-2362.25	  700.84
      7.1700	  939.00	  844.70	-2362.25	  698.46
      7.2700	  867.00	  842.34	-2362.25	  696.09
      7.3700	  902.00	  840.00	-2362.25	  693.75
      7.4700	  900.00	  837.67	-2362.25	  691.42
      7.5700	  845.00	  835.36	-2362.25	  689.11
      7.6700	  862.00	  833.07	-2362.25	  686.82
      7.7700	  856.00	  830.80	-2362.25	  684.55
      7.8700	  888.00	  828.54	-2362.25	  682.29
      7.9700	  894.00	  826.30	-2362.25	  680.05
      8.0700	  835.00	  824.08	-2362.25	  677.83
      8.1700	  863.00	  821.88	-2362.25	  675.63
      8.2700	  862.00	  819.69	-2362.25	  673.45
      8.3700	  845.00	  817.52	-2362.25	  671.28
      8.4700	  810.00	  815.37	-2362.25	  669.13
      8.5700	  829.00	  813.24	-2362.25	  666.99
      8.6700	  808.00	  811.12	-2362.25	  664.87
      8.7700	  771.00	  809.02	-2362.25	  662.77
      8.8700	  818.00	  806.94	-2362.25	  660.69
      8.9700	  795.00	  804.87	-2362.25	  658.62
      9.0700	  825.00	  802.82	-2362.25	  656.57
      9.1700	  805.00	  800.79	-2362.25	  654.54
      9.2700	  865.00	  798.77	-2362.25	  652.52
      9.3700	  818.00	  796.77	-2362.25	  650.52
      9.4700	  784.00	  794.78	-2362.25	  648.54
      9.5700	  779.00	  792.82	-2362.25	  646.57
      9.6700	  849.00	  790.86	-2362.25	  644.62
      9.7700	  740.00	  788.93	-2362.25	  642.68
      9.8700	  794.00	  787.01	-2362.25	  640.76
      9.9700	  718.00	  785.10	-2362.25	  638.85
     10.0700	  743.00	  785.37	-2404.62	  636.97
     10.1700	  761.00	  783.73	-2384.98	  635.09
     10.2700	  794.00	  782.15	-2350.40	  633.24
     10.3700	  824.00	  780.65	-2318.90	  631.39
     10.4700	  733.00	  779.25	-2408.50	  629.57
     10.5700	  787.00	  777.98	-2353.23	  627.76
     10.6700	  808.00	  776.90	-2331.15	  625.96
     10.7700	  758.00	  776.08	-2380.33	  624.18
     10.8700	  807.00	  775.62	-2330.88	  622.41
     10.9700	  769.00	  775.61	-2368.86	  620.66
     11.0700	  753.00	  776.10	-2385.35	  618.93
     11.1700	  776.00	  777.11	-2363.36	  617.21
     11.2700	  775.00	  778.68	-2365.93	  615.50
     11.3700	  766.00	  780.83	-2377.08	  613.81
     11.4700	  747.00	  783.66	-2398.91	  612.13
     11.5700	  825.00	  787.29	-2324.54	  610.47
     11.6700	  815.00	  791.93	-2339.18	  608.83
     11.7700	  733.00	  797.84	-2427.09	  607.19
     11.8700	  808.00	  805.25	-2359.50	  605.57
     11.9700	  844.00	  814.22	-2332.47	  603.97
     12.0700	  857.00	  824.30	-2329.55	  602.38
     12.1700	  910.00	  834.08	-2286.33	  600.80
     12.2700	  898.00	  840.68	-2304.93	  599.24
     12.3700	  840.00	  839.86	-2362.11	  597.69
     12.4700	  861.00	  828.52	-2329.77	  596.16
     12.5700	  787.00	  809.57	-2384.82	  594.64
     12.6700	  782.00	  789.77	-2370.02	  593.13
     12.7700	  729.00	  773.35	-2406.60	  591.64
     12.8700	  739.00	  761.18	-2384.43	  590.16
     12.9700	  714.00	  752.59	-2400.84	  588.69
     13.0700	  750.00	  746.57	-2358.82	  587.24
     13.1700	  723.00	  742.19	-2381.44	  585.80
     13.2700	  723.00	  738.80	-2378.05	  584.37
     13.3700	  705.00	  735.99	-2393.24	  582.96
     13.4700	  702.00	  733.54	-2393.79	  581.56
     13.5700	  712.00	  731.35	-2381.60	  580.17
     13.6700	  714.00	  729.33	-2377.58	  578.80
     13.7700	  783.00	  727.44	-2306.69	  577.44
     13.8700	  740.00	  725.66	-2347.91	  576.09
     13.9700	  778.00	  723.97	-2308.22	  574.75
     14.0700	  748.00	  722.34	-2336.59	  573.43
     14.1700	  762.00	  720.78	-2321.03	  572.12
     14.2700	  719.00	  719.26	-2362.51	  570.82
     14.3700	  705.00	  717.79	-2375.04	  569.54
     14.4700	  721.00	  716.35	-2357.60	  568.26
     14.5700	  680.00	  714.95	-2397.20	  567.00
     14.6700	  690.00	  713.57	-2385.82	  565.75
     14.7700	  721.00	  712.22	-2353.47	  564.52
     14.8700	  743.00	  710.90	-2330.15	  563.29
     14.9700	  694.00	  709.60	-2377.85	  562.08
     15.0700	  660.00	  708.32	-2410.57	  560.88
     15.1700	  679.00	  707.06	-2390.31	  559.69
     15.2700	  685.00	  705.82	-2383.07	  558.51
     15.3700	  683.00	  704.60	-2383.85	  557.35
     15.4700	  687.00	  703.39	-2378.64	  556.19
     15.5700	  683.00	  702.20	-2381.45	  555.05
     15.6700	  671.00	  701.03	-2392.28	  553.92
     15.7700	  717.00	  699.87	-2345.12	  552.80
     15.8700	  735.00	  698.73	-2325.98	  551.70
     15.9700	  686.00	  697.60	-2373.85	  550.60
     16.0700	  675.00	  696.48	-2383.73	  549.51
     16.1700	  701.00	  695.38	-2356.63	  548.44
     16.2700	  671.00	  694.29	-2385.54	  547.38
     16.3700	  687.00	  693.22	-2368.47	  546.32
     16.4700	  713.00	  692.15	-2341.40	  545.28
     16.5700	  685.00	  691.10	-2368.35	  544.25
     16.6700	  673.00	  690.07	-2379.32	  543.23
     16.7700	  686.00	  689.04	-2365.29	  542.23
     16.8700	  683.00	  688.03	-2367.28	  541.23
     16.9700	  687.00	  687.02	-2362.27	  540.24
     17.0700	  735.00	  686.03	-2313.28	  539.26
     17.1700	  648.00	  685.05	-2399.30	  538.30
     17.2700	  645.00	  684.09	-2401.34	  537.34
     17.3700	  668.00	  683.13	-2377.38	  536.40
     17.4700	  727.00	  682.18	-2317.43	  535.46
     17.5700	  690.00	  681.25	-2353.50	  534.54
     17.6700	  705.00	  680.33	-2337.58	  533.62
     17.7700	  653.00	  679.41	-2388.66	  532.72
     17.8700	  683.00	  678.51	-2357.76	  531.82
     17.9700	  652.00	  677.62	-2387.87	  530.94
     18.0700	  713.00	  676.74	-2325.99	  530.06
     18.1700	  699.00	  675.87	-2339.12	  529.20
     18.2700	  677.00	  675.01	-2360.26	  528.34
     18.3700	  663.00	  674.16	-2373.41	  527.50
     18.4700	  714.00	  673.32	-2321.57	  526.66
     18.5700	  702.00	  672.49	-2332.74	  525.83
     18.6700	  658.00	  671.67	-2375.92	  525.02
     18.7700	  655.00	  670.86	-2378.11	  524.21
     18.8700	  737.00	  670.06	-2295.31	  523.41
     18.9700	  671.00	  669.27	-2360.52	  522.62
     19.0700	  734.00	  669.85	-2298.10	  521.84
     19.1700	  607.00	  669.11	-2424.36	  521.07
     19.2700	  691.00	  670.61	-2341.86	  520.31
     19.3700	  642.00	  669.93	-2390.18	  519.56
     19.4700	  691.00	  669.27	-2340.52	  518.82
     19.5700	  666.00	  668.62	-2364.87	  518.09
     19.6700	  692.00	  667.98	-2338.23	  517.36
     19.7700	  670.00	  667.36	-2359.61	  516.64
     19.8700	  688.00	  666.75	-2341.00	  515.94
     19.9700	  674.00	  666.15	-2354.40	  515.24
     20.0700	  661.00	  665.56	-2366.81	  514.55
     20.1700	  704.00	  665.04	-2323.29	  513.87
     20.2700	  733.00	  664.48	-2293.73	  513.19
     20.3700	  658.00	  663.93	-2368.18	  512.53
     20.4700	  699.00	  663.40	-2326.65	  511.87
     20.5700	  679.00	  662.88	-2346.13	  511.23
     20.6700	  635.00	  662.37	-2389.62	  510.59
     20.7700	  718.00	  661.88	-2306.13	  509.96
     20.8700	  664.00	  661.40	-2359.65	  509.33
     20.9700	  665.00	  660.93	-2358.18	  508.72
     21.0700	  677.00	  660.48	-2345.73	  508.11
     21.1700	  640.00	  660.04	-2382.29	  507.51
     21.2700	  668.00	  659.62	-2353.87	  506.92
     21.3700	  636.00	  659.22	-2385.47	  506.34
     21.4700	  643.00	  658.83	-2378.08	  505.76
     21.5700	  650.00	  658.45	-2370.70	  505.20
     21.6700	  691.00	  658.10	-2329.35	  504.64
     21.7700	  691.00	  657.76	-2329.01	  504.09
     21.8700	  660.00	  657.44	-2359.69	  503.54
     21.9700	  647.00	  657.14	-2372.39	  503.00
     22.0700	  686.00	  656.86	-2333.11	  502.48
     22.1700	  657.00	  656.61	-2361.86	  501.95
     22.2700	  698.00	  656.58	-2320.83	  501.44
     22.3700	  660.00	  656.37	-2358.62	  500.93
     22.4700	  703.00	  656.19	-2315.44	  500.43
     22.5700	  702.00	  656.03	-2316.28	  499.94
     22.6700	  676.00	  655.90	-2342.15	  499.46
     22.7700	  641.00	  655.80	-2377.05	  498.98
     22.8700	  640.00	  655.74	-2377.99	  498.51
     22.9700	  643.00	  655.71	-2374.96	  498.04
     23.0700	  686.00	  655.72	-2331.97	  497.59
     23.1700	  693.00	  655.78	-2325.03	  497.14
     23.2700	  648.00	  655.88	-2370.13	  496.69
     23.3700	  658.00	  656.05	-2360.30	  496.26
     23.4700	  643.00	  656.28	-2375.53	  495.83
     23.5700	  651.00	  656.58	-2367.83	  495.40
     23.6700	  666.00	  656.99	-2353.24	  494.99
     23.7700	  692.00	  657.51	-2327.76	  494.58
     23.8700	  685.00	  658.18	-2335.43	  494.17
     23.9700	  682.00	  659.07	-2339.32	  493.78
     24.0700	  675.00	  660.27	-2347.52	  493.39
     24.1700	  709.00	  661.93	-2315.18	  493.00
     24.2700	  673.00	  664.28	-2353.53	  492.63
     24.3700	  689.00	  667.66	-2340.91	  492.25
     24.4700	  671.00	  672.46	-2363.71	  491.89
     24.5700	  688.00	  678.94	-2353.19	  491.53
     24.6700	  703.00	  687.30	-2346.55	  491.18
     24.7700	  749.00	  697.14	-2310.39	  490.83
     24.8700	  721.00	  707.38	-2348.63	  490.49
     24.9700	  776.00	  715.95	-2302.20	  490.16
     25.0700	  803.00	  719.81	-2279.06	  489.83
     25.1700	  739.00	  716.68	-2339.93	  489.51
     25.2700	  708.00	  708.13	-2362.38	  489.19
     25.3700	  675.00	  698.27	-2385.52	  488.88
     25.4700	  733.00	  690.17	-2319.42	  488.57
     25.5700	  674.00	  684.72	-2372.97	  488.27
     25.6700	  715.00	  681.76	-2329.01	  487.98
     25.7700	  696.00	  680.76	-2347.01	  487.69
     25.8700	  662.00	  681.18	-2381.43	  487.41
     25.9700	  674.00	  682.61	-2370.86	  487.13
     26.0700	  694.00	  684.84	-2353.09	  486.86
     26.1700	  646.00	  687.73	-2403.98	  486.59
     26.2700	  694.00	  691.29	-2359.54	  486.33
     26.3700	  655.00	  695.55	-2402.80	  486.07
     26.4700	  711.00	  700.59	-2351.84	  485.82
     26.5700	  702.00	  706.54	-2366.79	  485.58
     26.6700	  677.00	  713.56	-2398.81	  485.34
     26.7700	  704.00	  721.87	-2380.12	  485.10
     26.8700	  709.00	  731.77	-2385.02	  484.87
     26.9700	  705.00	  743.65	-2400.90	  484.65
     27.0700	  719.00	  758.05	-2401.30	  484.43
     27.1700	  758.00	  775.71	-2379.96	  484.21
     27.2700	  775.00	  797.71	-2384.96	  484.00
     27.3700	  732.00	  825.69	-2455.94	  483.80
     27.4700	  815.00	  862.58	-2409.83	  483.60
     27.5700	  822.00	  914.49	-2454.74	  483.40
     27.6700	  838.00	  995.06	-2519.31	  483.21
     27.7700	  939.00	 1133.36	-2556.61	  483.03
     27.8700	 1066.00	 1384.10	-2680.35	  482.85
     27.9700	 1391.00	 1835.54	-2806.79	  482.67
     28.0700	 2067.00	 2602.49	-2897.74	  482.50
     28.1700	 3278.00	 3784.79	-2869.04	  482.33
     28.2700	 5363.00	 5373.45	-2372.70	  482.16
     28.3700	 7750.00	 7104.14	-1716.39	  482.01
     28.4700	 9449.00	 8362.30	-1275.55	  481.85
     28.5700	 9123.00	 8384.05	-1623.30	  481.70
     28.6700	 7418.00	 7093.29	-2037.54	  481.56
     28.7700	 5272.00	 5502.46	-2592.71	  481.41
     28.8700	 4114.00	 4506.55	-2754.80	  481.28
     28.9700	 4248.00	 4311.47	-2425.72	  481.14
     29.0700	 4916.00	 4640.77	-2087.02	  481.01
     29.1700	 5335.00	 4989.26	-2016.51	  480.89
     29.2700	 5163.00	 4848.72	-2047.97	  480.77
     29.3700	 4148.00	 4074.35	-2288.60	  480.65
     29.4700	 2899.00	 3050.43	-2513.68	  480.54
     29.5700	 1997.00	 2173.54	-2538.79	  480.43
     29.6700	 1416.00	 1577.90	-2524.15	  480.32
     29.7700	 1216.00	 1230.94	-2377.19	  480.22
     29.8700	 1017.00	 1045.08	-2390.33	  480.13
     29.9700	  934.00	  944.15	-2372.40	  480.03
     30.0700	  936.00	  883.36	-2309.61	  479.94
     30.1700	  791.00	  842.10	-2413.35	  479.86
     30.2700	  817.00	  811.97	-2357.22	  479.77
     30.3700	  806.00	  789.48	-2345.73	  479.69
     30.4700	  763.00	  773.17	-2372.42	  479.62
     30.5700	  748.00	  762.80	-2377.05	  479.55
     30.6700	  723.00	  759.09	-2398.34	  479.48
     30.7700	  769.00	  763.44	-2356.69	  479.41
     30.8700	  787.00	  776.96	-2352.21	  479.35
     30.9700	  810.00	  798.78	-2351.03	  479.29
     31.0700	  852.00	  824.30	-2334.55	  479.24
     31.1700	  835.00	  844.22	-2371.47	  479.19
     31.2700	  841.00	  845.91	-2367.16	  479.14
     31.3700	  839.00	  822.69	-2345.94	  479.09
     31.4700	  790.00	  784.41	-2356.66	  479.05
     31.5700	  767.00	  746.62	-2341.87	  479.01
     31.6700	  747.00	  717.25	-2332.50	  478.98
     31.7700	  751.00	  697.42	-2308.67	  478.94
     31.8700	  745.00	  685.10	-2302.35	  478.91
     31.9700	  731.00	  677.56	-2308.81	  478.89
     32.0700	  677.00	  672.72	-2357.97	  478.86
     32.1700	  685.00	  669.35	-2346.60	  478.84
     32.2700	  724.00	  666.84	-2305.09	  478.83
     32.3700	  664.00	  664.92	-2363.17	  478.81
     32.4700	  712.00	  663.49	-2313.74	  478.80
     32.5700	  719.00	  662.47	-2305.72	  478.79
     32.6700	  656.00	  661.87	-2368.12	  478.78
     32.7700	  666.00	  661.64	-2357.89	  478.78
     32.8700	  665.00	  661.83	-2359.08	  478.78
     32.9700	  711.00	  662.48	-2313.73	  478.78
     33.0700	  655.00	  663.68	-2370.93	  478.79
     33.1700	  719.00	  665.57	-2308.82	  478.79
     33.2700	  659.00	  668.38	-2371.63	  478.80
     33.3700	  734.00	  672.54	-2300.79	  478.81
     33.4700	  700.00	  678.90	-2341.15	  478.83
     33.5700	  707.00	  689.10	-2344.35	  478.85
     33.6700	  700.00	  706.12	-2368.37	  478.86
     33.7700	  711.00	  734.69	-2385.94	  478.89
     33.8700	  793.00	  781.11	-2350.36	  478.91
     33.9700	  915.00	  851.25	-2298.50	  478.94
     34.0700	 1008.00	  946.10	-2300.35	  478.97
     34.1700	 1160.00	 1056.20	-2258.45	  479.00
     34.2700	 1279.00	 1157.44	-2240.69	  479.03
     34.3700	 1362.00	 1212.46	-2212.71	  479.07
     34.4700	 1315.00	 1188.38	-2235.63	  479.10
     34.5700	 1198.00	 1093.49	-2257.74	  479.14
     34.6700	  994.00	  973.80	-2342.05	  479.18
     34.7700	  873.00	  867.05	-2356.30	  479.23
     34.8700	  796.00	  787.55	-2353.80	  479.27
     34.9700	  767.00	  735.10	-2330.35	  479.32
     35.0700	  745.00	  703.16	-2320.41	  479.37
     35.1700	  738.00	  684.36	-2308.61	  479.42
     35.2700	  699.00	  673.02	-2336.27	  479.48
     35.3700	  666.00	  665.65	-2361.90	  479.53
     35.4700	  691.00	  660.46	-2331.71	  479.59
     35.5700	  674.00	  656.56	-2344.81	  479.65
     35.6700	  665.00	  653.53	-2350.78	  479.71
     35.7700	  643.00	  651.12	-2370.37	  479.77
     35.8700	  674.00	  649.19	-2337.44	  479.84
     35.9700	  646.00	  647.63	-2363.88	  479.90
     36.0700	  680.00	  646.37	-2328.62	  479.97
     36.1700	  641.00	  645.36	-2366.61	  480.04
     36.2700	  637.00	  644.56	-2369.81	  480.11
     36.3700	  608.00	  643.95	-2398.20	  480.19
     36.4700	  633.00	  643.50	-2372.75	  480.26
     36.5700	  670.00	  643.22	-2335.47	  480.34
     36.6700	  660.00	  643.09	-2345.34	  480.41
     36.7700	  632.00	  643.32	-2373.57	  480.49
     36.8700	  645.00	  643.53	-2360.78	  480.57
     36.9700	  659.00	  643.94	-2347.19	  480.66
     37.0700	  608.00	  644.60	-2398.85	  480.74
     37.1700	  648.00	  645.58	-2359.83	  480.82
     37.2700	  644.00	  647.00	-2365.25	  480.91
     37.3700	  636.00	  649.60	-2375.85	  481.00
     37.4700	  671.00	  652.74	-2343.99	  481.08
     37.5700	  656.00	  657.57	-2363.82	  481.17
     37.6700	  678.00	  665.07	-2349.32	  481.27
     37.7700	  680.00	  676.73	-2358.98	  481.36
     37.8700	  664.00	  694.15	-2392.40	  481.45
     37.9700	  720.00	  718.58	-2360.83	  481.55
     38.0700	  777.00	  747.74	-2332.99	  481.64
     38.1700	  765.00	  782.87	-2380.12	  481.74
     38.2700	  780.00	  815.30	-2397.55	  481.84
     38.3700	  809.00	  834.99	-2388.24	  481.94
     38.4700	  722.00	  832.02	-2472.27	  482.04
     38.5700	  804.00	  805.94	-2364.19	  482.14
     38.6700	  731.00	  768.17	-2399.42	  482.24
     38.7700	  659.00	  731.04	-2434.29	  482.34
     38.8700	  712.00	  700.87	-2351.12	  482.44
     38.9700	  660.00	  679.14	-2381.39	  482.55
     39.0700	  658.00	  664.82	-2369.07	  482.66
     39.1700	  623.00	  655.91	-2395.16	  482.76
     39.2700	  633.00	  650.46	-2379.71	  482.87
     39.3700	  646.00	  647.04	-2363.29	  482.98
     39.4700	  645.00	  644.76	-2362.01	  483.09
     39.5700	  658.00	  641.84	-2346.09	  483.20
     39.6700	  639.00	  640.65	-2363.90	  483.31
     39.7700	  645.00	  639.74	-2356.99	  483.42
     39.8700	  666.00	  639.03	-2335.28	  483.53
     39.9700	  595.00	  638.47	-2405.72	  483.64
     40.0700	  626.00	  638.05	-2374.30	  483.75
     40.1700	  652.00	  637.72	-2347.97	  483.87
     40.2700	  682.00	  637.47	-2317.72	  483.98
     40.3700	  628.00	  637.30	-2371.55	  484.10
     40.4700	  631.00	  637.19	-2368.44	  484.21
     40.5700	  586.00	  637.12	-2413.37	  484.33
     40.6700	  647.00	  637.11	-2352.36	  484.45
     40.7700	  640.00	  637.68	-2359.93	  484.56
