MSG Master    CELL:    5.88976   5.88976  23.15294   90.0000   90.0000  120.0000   SPGR: P 63/m m c             TEMP:    644.55
  2   1280     2.52000     0.00000    -0.09255     0.00000     0.00000    0
    96    96     0     0     2
       0.00000      10.00000
     125.00000     130.00000
 2Theta	Yobs	Ycal	Yobs-Ycal	Backg	Posr	(hkl)	K
      0.7700	    0.00	  803.35	-1874.33	  678.84
      0.8700	    0.00	  801.72	-1874.33	  677.20
      0.9700	   42.00	  800.09	-1874.33	  675.57
      1.0700	   37.00	  798.47	-1874.33	  673.95
      1.1700	   38.00	  796.86	-1874.33	  672.34
      1.2700	   48.00	  795.25	-1874.33	  670.74
      1.3700	   45.00	  793.66	-1874.33	  669.14
      1.4700	  101.00	  792.06	-1874.33	  667.55
      1.5700	  286.00	  790.48	-1874.33	  665.96
      1.6700	  429.00	  788.90	-1874.33	  664.38
      1.7700	  606.00	  787.33	-1874.33	  662.81
      1.8700	  631.00	  785.77	-1874.33	  661.25
      1.9700	  728.00	  784.21	-1874.33	  659.69
      2.0700	  761.00	  782.66	-1874.33	  658.15
      2.1700	  765.00	  781.12	-1874.33	  656.60
      2.2700	  757.00	  779.59	-1874.33	  655.07
      2.3700	  682.00	  778.06	-1874.33	  653.54
      2.4700	  706.00	  776.54	-1874.33	  652.02
      2.5700	  688.00	  775.02	-1874.33	  650.50
      2.6700	  698.00	  773.51	-1874.33	  648.99
      2.7700	  706.00	  772.01	-1874.33	  647.49
      2.8700	  670.00	  770.52	-1874.33	  646.00
      2.9700	  642.00	  769.03	-1874.33	  644.51
      3.0700	  594.00	  767.55	-1874.33	  643.03
      3.1700	  627.00	  766.08	-1874.33	  641.56
      3.2700	  710.00	  764.61	-1874.33	  640.09
      3.3700	  867.00	  763.15	-1874.33	  638.63
      3.4700	 1037.00	  761.70	-1874.33	  637.18
      3.5700	 1216.00	  760.25	-1874.33	  635.73
      3.6700	 1281.00	  758.81	-1874.33	  634.29
      3.7700	 1381.00	  757.38	-1874.33	  632.86
      3.8700	 1454.00	  755.95	-1874.33	  631.43
      3.9700	 1492.00	  754.53	-1874.33	  630.01
      4.0700	 1554.00	  753.12	-1874.33	  628.60
      4.1700	 1655.00	  751.71	-1874.33	  627.19
      4.2700	 1613.00	  750.31	-1874.33	  625.79
      4.3700	 1612.00	  748.91	-1874.33	  624.40
      4.4700	 1553.00	  747.53	-1874.33	  623.01
      4.5700	 1528.00	  746.15	-1874.33	  621.63
      4.6700	 1426.00	  744.77	-1874.33	  620.26
      4.7700	 1338.00	  743.41	-1874.33	  618.89
      4.8700	 1319.00	  742.04	-1874.33	  617.53
      4.9700	 1250.00	  740.69	-1874.33	  616.17
      5.0700	 1258.00	  739.34	-1874.33	  614.82
      5.1700	 1207.00	  738.00	-1874.33	  613.48
      5.2700	 1234.00	  736.67	-1874.33	  612.15
      5.3700	 1140.00	  735.34	-1874.33	  610.82
      5.4700	 1156.00	  734.01	-1874.33	  609.50
      5.5700	 1106.00	  732.70	-1874.33	  608.18
      5.6700	 1077.00	  731.39	-1874.33	  606.87
      5.7700	 1100.00	  730.09	-1874.33	  605.57
      5.8700	 1045.00	  728.79	-1874.33	  604.27
      5.9700	 1058.00	  727.50	-1874.33	  602.98
      6.0700	 1044.00	  726.21	-1874.33	  601.70
      6.1700	 1008.00	  724.94	-1874.33	  600.42
      6.2700	  924.00	  723.66	-1874.33	  599.15
      6.3700	  952.00	  722.40	-1874.33	  597.88
      6.4700	  928.00	  721.14	-1874.33	  596.62
      6.5700	  953.00	  719.88	-1874.33	  595.37
      6.6700	  871.00	  718.64	-1874.33	  594.12
      6.7700	  842.00	  717.40	-1874.33	  592.88
      6.8700	  814.00	  716.16	-1874.33	  591.64
      6.9700	  888.00	  714.93	-1874.33	  590.42
      7.0700	  847.00	  713.71	-1874.33	  589.19
      7.1700	  866.00	  712.49	-1874.33	  587.98
      7.2700	  846.00	  711.28	-1874.33	  586.77
      7.3700	  824.00	  710.08	-1874.33	  585.56
      7.4700	  792.00	  708.88	-1874.33	  584.36
      7.5700	  821.00	  707.69	-1874.33	  583.17
      7.6700	  801.00	  706.50	-1874.33	  581.99
      7.7700	  742.00	  705.32	-1874.33	  580.81
      7.8700	  763.00	  704.15	-1874.33	  579.63
      7.9700	  750.00	  702.98	-1874.33	  578.46
      8.0700	  735.00	  701.82	-1874.33	  577.30
      8.1700	  791.00	  700.66	-1874.33	  576.14
      8.2700	  744.00	  699.51	-1874.33	  574.99
      8.3700	  773.00	  698.37	-1874.33	  573.85
      8.4700	  733.00	  697.23	-1874.33	  572.71
      8.5700	  760.00	  696.10	-1874.33	  571.58
      8.6700	  710.00	  694.97	-1874.33	  570.45
      8.7700	  704.00	  693.85	-1874.33	  569.33
      8.8700	  761.00	  692.73	-1874.33	  568.21
      8.9700	  699.00	  691.62	-1874.33	  567.11
      9.0700	  787.00	  690.52	-1874.33	  566.00
      9.1700	  725.00	  689.42	-1874.33	  564.90
      9.2700	  729.00	  688.33	-1874.33	  563.81
      9.3700	  764.00	  687.24	-1874.33	  562.72
      9.4700	  714.00	  686.16	-1874.33	  561.64
      9.5700	  704.00	  685.09	-1874.33	  560.57
      9.6700	  679.00	  684.02	-1874.33	  559.50
      9.7700	  695.00	  682.95	-1874.33	  558.44
      9.8700	  681.00	  681.90	-1874.33	  557.38
      9.9700	  657.00	  680.84	-1874.33	  556.32
     10.0700	  722.00	  681.95	-1834.28	  555.28
     10.1700	  693.00	  681.14	-1862.48	  554.24
     10.2700	  671.00	  680.40	-1883.73	  553.20
     10.3700	  677.00	  679.72	-1877.06	  552.17
     10.4700	  704.00	  679.15	-1849.49	  551.15
     10.5700	  689.00	  678.74	-1864.07	  550.13
     10.6700	  740.00	  678.54	-1812.88	  549.11
     10.7700	  687.00	  678.66	-1866.00	  548.10
     10.8700	  649.00	  679.20	-1904.53	  547.10
     10.9700	  712.00	  680.24	-1842.57	  546.10
     11.0700	  739.00	  681.81	-1817.14	  545.11
     11.1700	  678.00	  683.93	-1880.26	  544.13
     11.2700	  656.00	  686.61	-1904.95	  543.15
     11.3700	  679.00	  689.93	-1885.27	  542.17
     11.4700	  702.00	  694.00	-1866.33	  541.20
     11.5700	  698.00	  698.99	-1875.33	  540.23
     11.6700	  752.00	  705.19	-1827.52	  539.28
     11.7700	  718.00	  712.91	-1869.25	  538.32
     11.8700	  740.00	  722.48	-1856.82	  537.37
     11.9700	  725.00	  733.86	-1883.20	  536.43
     12.0700	  812.00	  746.17	-1808.51	  535.49
     12.1700	  803.00	  757.04	-1828.38	  534.56
     12.2700	  772.00	  762.10	-1864.44	  533.63
     12.3700	  781.00	  756.12	-1849.45	  532.71
     12.4700	  785.00	  738.49	-1827.82	  531.79
     12.5700	  685.00	  716.32	-1905.66	  530.88
     12.6700	  687.00	  696.75	-1884.09	  529.97
     12.7700	  652.00	  682.22	-1904.56	  529.07
     12.8700	  688.00	  672.35	-1858.68	  528.17
     12.9700	  681.00	  665.91	-1859.24	  527.28
     13.0700	  614.00	  661.57	-1921.91	  526.39
     13.1700	  645.00	  658.48	-1887.81	  525.51
     13.2700	  620.00	  656.08	-1910.41	  524.64
     13.3700	  643.00	  654.10	-1885.43	  523.76
     13.4700	  643.00	  652.38	-1883.71	  522.90
     13.5700	  636.00	  650.84	-1889.18	  522.04
     13.6700	  636.00	  649.45	-1887.78	  521.18
     13.7700	  605.00	  648.15	-1917.49	  520.33
     13.8700	  655.00	  646.94	-1866.27	  519.48
     13.9700	  619.00	  645.79	-1901.13	  518.64
     14.0700	  626.00	  644.70	-1893.03	  517.80
     14.1700	  647.00	  643.65	-1870.98	  516.97
     14.2700	  618.00	  642.63	-1898.97	  516.15
     14.3700	  626.00	  641.65	-1889.98	  515.33
     14.4700	  614.00	  640.69	-1901.02	  514.51
     14.5700	  633.00	  639.75	-1881.09	  513.70
     14.6700	  658.00	  638.84	-1855.17	  512.89
     14.7700	  615.00	  637.94	-1897.27	  512.09
     14.8700	  630.00	  637.06	-1881.39	  511.29
     14.9700	  610.00	  636.19	-1900.52	  510.50
     15.0700	  612.00	  635.33	-1897.66	  509.71
     15.1700	  633.00	  634.48	-1875.82	  508.93
     15.2700	  644.00	  633.65	-1863.98	  508.15
     15.3700	  661.00	  632.83	-1846.16	  507.37
     15.4700	  611.00	  632.01	-1895.34	  506.61
     15.5700	  621.00	  631.20	-1884.54	  505.84
     15.6700	  641.00	  630.41	-1863.74	  505.08
     15.7700	  652.00	  629.62	-1851.95	  504.33
     15.8700	  610.00	  628.84	-1893.17	  503.58
     15.9700	  630.00	  628.06	-1872.39	  502.83
     16.0700	  608.00	  627.29	-1893.63	  502.09
     16.1700	  602.00	  626.53	-1898.87	  501.35
     16.2700	  643.00	  625.78	-1857.11	  500.62
     16.3700	  638.00	  625.03	-1861.36	  499.90
     16.4700	  565.00	  624.29	-1933.62	  499.17
     16.5700	  608.00	  623.55	-1889.88	  498.45
     16.6700	  620.00	  622.82	-1877.15	  497.74
     16.7700	  632.00	  622.10	-1864.43	  497.03
     16.8700	  591.00	  621.38	-1904.71	  496.33
     16.9700	  612.00	  620.66	-1883.00	  495.63
     17.0700	  593.00	  619.96	-1901.29	  494.93
     17.1700	  588.00	  619.25	-1905.59	  494.24
     17.2700	  592.00	  618.56	-1900.89	  493.55
     17.3700	  607.00	  617.86	-1885.20	  492.87
     17.4700	  586.00	  617.18	-1905.51	  492.19
     17.5700	  631.00	  616.50	-1859.83	  491.52
     17.6700	  633.00	  615.82	-1857.15	  490.85
     17.7700	  618.00	  615.15	-1871.48	  490.19
     17.8700	  633.00	  614.48	-1855.81	  489.53
     17.9700	  636.00	  613.82	-1852.15	  488.87
     18.0700	  639.00	  613.16	-1848.49	  488.22
     18.1700	  611.00	  612.51	-1875.84	  487.57
     18.2700	  606.00	  611.86	-1880.19	  486.93
     18.3700	  623.00	  611.22	-1862.55	  486.29
     18.4700	  624.00	  610.58	-1860.91	  485.65
     18.5700	  607.00	  611.14	-1878.47	  485.02
     18.6700	  574.00	  611.24	-1911.57	  484.40
     18.7700	  598.00	  610.65	-1886.99	  483.77
     18.8700	  615.00	  610.08	-1869.41	  483.15
     18.9700	  623.00	  609.50	-1860.84	  482.54
     19.0700	  610.00	  608.93	-1873.27	  481.93
     19.1700	  600.00	  608.37	-1882.71	  481.33
     19.2700	  624.00	  607.82	-1858.15	  480.72
     19.3700	  622.00	  607.27	-1859.60	  480.13
     19.4700	  614.00	  606.72	-1867.06	  479.53
     19.5700	  553.00	  606.19	-1927.52	  478.94
     19.6700	  587.00	  605.65	-1892.99	  478.36
     19.7700	  610.00	  605.13	-1869.46	  477.78
     19.8700	  609.00	  604.61	-1869.94	  477.20
     19.9700	  568.00	  604.15	-1910.48	  476.63
     20.0700	  597.00	  603.64	-1880.98	  476.06
     20.1700	  628.00	  603.15	-1849.48	  475.49
     20.2700	  589.00	  602.65	-1887.99	  474.93
     20.3700	  525.00	  602.17	-1951.50	  474.37
     20.4700	  622.00	  601.69	-1854.03	  473.82
     20.5700	  600.00	  601.22	-1875.56	  473.27
     20.6700	  619.00	  600.76	-1856.09	  472.73
     20.7700	  605.00	  600.31	-1869.64	  472.18
     20.8700	  596.00	  599.86	-1878.19	  471.65
     20.9700	  605.00	  599.42	-1868.75	  471.11
     21.0700	  605.00	  598.99	-1868.32	  470.58
     21.1700	  599.00	  598.57	-1873.90	  470.06
     21.2700	  606.00	  598.15	-1866.49	  469.53
     21.3700	  597.00	  597.75	-1875.08	  469.01
     21.4700	  592.00	  597.36	-1879.69	  468.50
     21.5700	  607.00	  596.97	-1864.31	  467.99
     21.6700	  603.00	  596.60	-1867.93	  467.48
     21.7700	  593.00	  596.23	-1877.57	  466.98
     21.8700	  618.00	  595.88	-1852.22	  466.48
     21.9700	  608.00	  595.54	-1861.88	  465.98
     22.0700	  605.00	  595.22	-1864.55	  465.49
     22.1700	  594.00	  594.91	-1875.24	  465.00
     22.2700	  603.00	  594.79	-1866.12	  464.51
     22.3700	  595.00	  594.51	-1873.84	  464.03
     22.4700	  576.00	  594.25	-1892.58	  463.55
     22.5700	  568.00	  594.01	-1900.34	  463.08
     22.6700	  629.00	  593.78	-1839.12	  462.61
     22.7700	  607.00	  593.58	-1860.92	  462.14
     22.8700	  612.00	  593.41	-1855.74	  461.68
     22.9700	  652.00	  593.26	-1815.60	  461.22
     23.0700	  622.00	  593.15	-1845.48	  460.76
     23.1700	  610.00	  593.07	-1857.40	  460.31
     23.2700	  593.00	  593.04	-1874.37	  459.86
     23.3700	  573.00	  593.05	-1894.39	  459.41
     23.4700	  595.00	  593.13	-1872.46	  458.97
     23.5700	  620.00	  593.28	-1847.62	  458.53
     23.6700	  591.00	  593.53	-1876.87	  458.09
     23.7700	  587.00	  593.91	-1881.25	  457.66
     23.8700	  627.00	  594.48	-1841.82	  457.23
     23.9700	  564.00	  595.33	-1905.67	  456.81
     24.0700	  592.00	  596.57	-1878.90	  456.38
     24.1700	  620.00	  598.55	-1852.89	  455.96
     24.2700	  612.00	  601.59	-1863.93	  455.55
     24.3700	  613.00	  606.14	-1867.47	  455.14
     24.4700	  625.00	  612.60	-1861.94	  454.73
     24.5700	  661.00	  621.17	-1834.51	  454.32
     24.6700	  643.00	  631.53	-1862.86	  453.92
     24.7700	  689.00	  642.50	-1827.83	  453.52
     24.8700	  733.00	  651.69	-1793.02	  453.12
     24.9700	  701.00	  655.44	-1828.78	  452.73
     25.0700	  687.00	  650.91	-1838.25	  452.34
     25.1700	  690.00	  639.96	-1824.30	  451.96
     25.2700	  649.00	  627.80	-1853.14	  451.57
     25.3700	  617.00	  617.91	-1875.25	  451.19
     25.4700	  599.00	  611.10	-1886.43	  450.82
     25.5700	  616.00	  607.05	-1865.38	  450.44
     25.6700	  616.00	  605.01	-1863.35	  450.07
     25.7700	  612.00	  604.33	-1866.66	  449.71
     25.8700	  598.00	  604.50	-1880.84	  449.34
     25.9700	  626.00	  605.27	-1853.61	  448.98
     26.0700	  593.00	  606.52	-1887.85	  448.63
     26.1700	  681.00	  608.20	-1801.53	  448.27
     26.2700	  568.00	  610.32	-1916.66	  447.92
     26.3700	  630.00	  612.92	-1857.26	  447.57
     26.4700	  631.00	  616.06	-1859.40	  447.22
     26.5700	  648.00	  619.84	-1846.17	  446.88
     26.6700	  643.00	  624.36	-1855.69	  446.54
     26.7700	  651.00	  629.80	-1853.13	  446.21
     26.8700	  639.00	  636.37	-1871.71	  445.87
     26.9700	  691.00	  644.38	-1827.72	  445.54
     27.0700	  625.00	  654.24	-1903.57	  445.21
     27.1700	  675.00	  666.53	-1865.87	  444.89
     27.2700	  675.00	  682.18	-1881.51	  444.57
     27.3700	  688.00	  702.76	-1889.09	  444.25
     27.4700	  716.00	  731.38	-1889.71	  443.93
     27.5700	  732.00	  774.54	-1916.87	  443.62
     27.6700	  747.00	  845.30	-1972.63	  443.31
     27.7700	  809.00	  967.48	-2032.81	  443.00
     27.8700	  905.00	 1178.86	-2148.20	  442.70
     27.9700	 1185.00	 1527.86	-2217.19	  442.40
     28.0700	 1699.00	 2054.97	-2230.31	  442.10
     28.1700	 2612.00	 2756.24	-2018.57	  441.80
     28.2700	 3853.00	 3532.70	-1554.04	  441.51
     28.3700	 4702.00	 4152.00	-1324.33	  441.22
     28.4700	 4851.00	 4294.41	-1317.74	  440.93
     28.5700	 4033.00	 3843.05	-1684.38	  440.64
     28.6700	 3026.00	 3157.22	-2005.55	  440.36
     28.7700	 2399.00	 2659.99	-2135.32	  440.08
     28.8700	 2283.00	 2497.53	-2088.86	  439.80
     28.9700	 2664.00	 2591.86	-1802.19	  439.53
     29.0700	 2918.00	 2738.93	-1695.27	  439.26
     29.1700	 2896.00	 2701.05	-1679.38	  438.99
     29.2700	 2425.00	 2368.10	-1817.44	  438.72
     29.3700	 1843.00	 1882.17	-1913.50	  438.46
     29.4700	 1330.00	 1438.89	-1983.23	  438.20
     29.5700	 1054.00	 1120.33	-1940.66	  437.94
     29.6700	  906.00	  923.67	-1892.01	  437.68
     29.7700	  882.00	  812.92	-1805.25	  437.43
     29.8700	  772.00	  751.27	-1853.61	  437.18
     29.9700	  760.00	  714.39	-1828.72	  436.93
     30.0700	  681.00	  689.85	-1883.18	  436.69
     30.1700	  681.00	  672.25	-1865.59	  436.44
     30.2700	  655.00	  659.38	-1878.71	  436.20
     30.3700	  697.00	  650.42	-1827.76	  435.96
     30.4700	  674.00	  645.43	-1845.76	  435.73
     30.5700	  665.00	  645.14	-1854.48	  435.49
     30.6700	  678.00	  650.80	-1847.14	  435.26
     30.7700	  664.00	  663.41	-1873.74	  435.03
     30.8700	  686.00	  682.41	-1870.75	  434.81
     30.9700	  684.00	  704.38	-1894.71	  434.58
     31.0700	  769.00	  722.12	-1827.46	  434.36
     31.1700	  734.00	  725.63	-1865.97	  434.14
     31.2700	  713.00	  708.97	-1870.30	  433.93
     31.3700	  668.00	  679.23	-1885.56	  433.71
     31.4700	  641.00	  649.04	-1882.37	  433.50
     31.5700	  685.00	  625.24	-1814.58	  433.29
     31.6700	  619.00	  609.05	-1864.38	  433.08
     31.7700	  608.00	  598.98	-1865.32	  432.88
     31.8700	  553.00	  592.91	-1914.24	  432.68
     31.9700	  619.00	  589.10	-1844.43	  432.48
     32.0700	  623.00	  586.52	-1837.85	  432.28
     32.1700	  598.00	  584.64	-1860.98	  432.08
     32.2700	  607.00	  583.25	-1850.58	  431.89
     32.3700	  618.00	  582.22	-1838.56	  431.70
     32.4700	  584.00	  581.53	-1871.86	  431.51
     32.5700	  604.00	  581.14	-1851.47	  431.32
     32.6700	  583.00	  581.06	-1872.40	  431.14
     32.7700	  575.00	  581.32	-1880.65	  430.95
     32.8700	  594.00	  581.99	-1862.32	  430.77
     32.9700	  593.00	  583.08	-1864.42	  430.59
     33.0700	  599.00	  584.75	-1860.09	  430.42
     33.1700	  620.00	  587.21	-1841.54	  430.24
     33.2700	  629.00	  590.83	-1836.17	  430.07
     33.3700	  614.00	  596.39	-1856.72	  429.90
     33.4700	  571.00	  605.35	-1908.68	  429.73
     33.5700	  640.00	  620.39	-1854.73	  429.57
     33.6700	  674.00	  645.76	-1846.09	  429.40
     33.7700	  656.00	  687.01	-1905.34	  429.24
     33.8700	  721.00	  749.14	-1902.47	  429.08
     33.9700	  866.00	  832.55	-1840.88	  428.92
     34.0700	  995.00	  928.05	-1807.38	  428.77
     34.1700	 1097.00	 1013.54	-1790.87	  428.61
     34.2700	 1142.00	 1055.85	-1788.18	  428.46
     34.3700	 1169.00	 1028.20	-1733.54	  428.31
     34.4700	  983.00	  941.89	-1833.22	  428.16
     34.5700	  826.00	  838.10	-1886.43	  428.02
     34.6700	  766.00	  747.79	-1856.12	  427.87
     34.7700	  705.00	  681.71	-1851.05	  427.73
     34.8700	  684.00	  638.74	-1829.08	  427.59
     34.9700	  634.00	  612.86	-1853.19	  427.45
     35.0700	  641.00	  597.67	-1831.00	  427.32
     35.1700	  626.00	  588.43	-1836.76	  427.18
     35.2700	  623.00	  582.32	-1833.66	  427.05
     35.3700	  603.00	  577.94	-1849.27	  426.92
     35.4700	  570.00	  574.59	-1878.92	  426.79
     35.5700	  582.00	  571.94	-1864.27	  426.66
     35.6700	  575.00	  569.79	-1869.13	  426.54
     35.7700	  570.00	  568.03	-1872.36	  426.41
     35.8700	  570.00	  566.57	-1870.90	  426.29
     35.9700	  522.00	  565.35	-1917.69	  426.17
     36.0700	  561.00	  564.33	-1877.67	  426.05
     36.1700	  580.00	  563.48	-1857.82	  425.94
     36.2700	  544.00	  562.78	-1893.11	  425.82
     36.3700	  571.00	  562.20	-1865.53	  425.71
     36.4700	  607.00	  561.74	-1829.07	  425.60
     36.5700	  570.00	  561.40	-1865.73	  425.49
     36.6700	  587.00	  561.67	-1849.00	  425.38
     36.7700	  587.00	  561.58	-1848.91	  425.27
     36.8700	  593.00	  561.64	-1842.97	  425.17
     36.9700	  555.00	  561.87	-1881.21	  425.06
     37.0700	  573.00	  562.55	-1863.89	  424.96
     37.1700	  511.00	  563.39	-1926.72	  424.86
     37.2700	  562.00	  564.74	-1877.07	  424.76
     37.3700	  589.00	  566.96	-1852.30	  424.67
     37.4700	  565.00	  570.51	-1879.84	  424.57
     37.5700	  588.00	  576.05	-1862.38	  424.48
     37.6700	  575.00	  584.41	-1883.74	  424.38
     37.7700	  602.00	  596.36	-1868.69	  424.29
     37.8700	  581.00	  612.16	-1905.49	  424.20
     37.9700	  595.00	  630.98	-1910.31	  424.12
     38.0700	  632.00	  650.44	-1892.77	  424.03
     38.1700	  675.00	  666.45	-1865.78	  423.95
     38.2700	  658.00	  673.19	-1889.52	  423.86
     38.3700	  664.00	  666.00	-1876.33	  423.78
     38.4700	  638.00	  646.97	-1883.30	  423.70
     38.5700	  630.00	  622.75	-1867.08	  423.62
     38.6700	  580.00	  601.78	-1896.11	  423.54
     38.7700	  551.00	  585.60	-1908.93	  423.47
     38.8700	  593.00	  574.41	-1855.75	  423.39
     38.9700	  548.00	  567.25	-1893.59	  423.32
     39.0700	  506.00	  562.86	-1931.19	  423.25
     39.1700	  571.00	  560.13	-1863.47	  423.18
     39.2700	  591.00	  558.36	-1841.69	  423.11
     39.3700	  582.00	  557.11	-1849.44	  423.04
     39.4700	  563.00	  556.17	-1867.51	  422.97
     39.5700	  556.00	  555.43	-1873.77	  422.91
     39.6700	  533.00	  554.84	-1896.17	  422.85
     39.7700	  533.00	  554.35	-1895.69	  422.78
     39.8700	  585.00	  553.28	-1842.62	  422.72
     39.9700	  539.00	  552.96	-1888.30	  422.66
     40.0700	  512.00	  552.70	-1915.04	  422.60
     40.1700	  558.00	  552.49	-1868.82	  422.55
     40.2700	  565.00	  552.32	-1861.65	  422.49
     40.3700	  552.00	  552.18	-1874.52	  422.44
     40.4700	  581.00	  552.08	-1845.42	  422.38
     40.5700	  554.00	  552.56	-1872.89	  422.33
     40.6700	  553.00	  552.53	-1873.86	  422.28
     40.7700	  540.00	  552.54	-1886.87	  422.23
