MSG Master    CELL:    5.88433   5.88433  23.12418   90.0000   90.0000  120.0000   SPGR: P 63/m m c             TEMP:    580.25
  2   1280     2.52000     0.00000    -0.08630     0.00000     0.00000    0
    96    96     0     0     2
       0.00000      10.00000
     125.00000     130.00000
 2Theta	Yobs	Ycal	Yobs-Ycal	Backg	Posr	(hkl)	K
      0.7700	    0.00	  882.68	-1935.93	  751.62
      0.8700	    0.00	  880.21	-1935.93	  749.15
      0.9700	   52.00	  877.75	-1935.93	  746.69
      1.0700	   57.00	  875.31	-1935.93	  744.25
      1.1700	   49.00	  872.89	-1935.93	  741.83
      1.2700	   48.00	  870.47	-1935.93	  739.41
      1.3700	   56.00	  868.07	-1935.93	  737.02
      1.4700	   82.00	  865.69	-1935.93	  734.63
      1.5700	  325.00	  863.32	-1935.93	  732.26
      1.6700	  460.00	  860.96	-1935.93	  729.90
      1.7700	  567.00	  858.62	-1935.93	  727.56
      1.8700	  674.00	  856.29	-1935.93	  725.23
      1.9700	  728.00	  853.97	-1935.93	  722.91
      2.0700	  743.00	  851.67	-1935.93	  720.61
      2.1700	  754.00	  849.38	-1935.93	  718.32
      2.2700	  780.00	  847.10	-1935.93	  716.04
      2.3700	  761.00	  844.84	-1935.93	  713.78
      2.4700	  736.00	  842.58	-1935.93	  711.53
      2.5700	  697.00	  840.35	-1935.93	  709.29
      2.6700	  620.00	  838.12	-1935.93	  707.07
      2.7700	  660.00	  835.91	-1935.93	  704.85
      2.8700	  654.00	  833.71	-1935.93	  702.66
      2.9700	  612.00	  831.53	-1935.93	  700.47
      3.0700	  611.00	  829.36	-1935.93	  698.30
      3.1700	  605.00	  827.20	-1935.93	  696.14
      3.2700	  762.00	  825.05	-1935.93	  693.99
      3.3700	  873.00	  822.92	-1935.93	  691.86
      3.4700	 1018.00	  820.80	-1935.93	  689.74
      3.5700	 1171.00	  818.69	-1935.93	  687.63
      3.6700	 1375.00	  816.59	-1935.93	  685.54
      3.7700	 1488.00	  814.51	-1935.93	  683.45
      3.8700	 1446.00	  812.44	-1935.93	  681.38
      3.9700	 1547.00	  810.38	-1935.93	  679.33
      4.0700	 1646.00	  808.34	-1935.93	  677.28
      4.1700	 1680.00	  806.31	-1935.93	  675.25
      4.2700	 1645.00	  804.28	-1935.93	  673.23
      4.3700	 1638.00	  802.28	-1935.93	  671.22
      4.4700	 1649.00	  800.28	-1935.93	  669.22
      4.5700	 1592.00	  798.30	-1935.93	  667.24
      4.6700	 1459.00	  796.32	-1935.93	  665.27
      4.7700	 1457.00	  794.36	-1935.93	  663.31
      4.8700	 1431.00	  792.42	-1935.93	  661.36
      4.9700	 1292.00	  790.48	-1935.93	  659.42
      5.0700	 1312.00	  788.56	-1935.93	  657.50
      5.1700	 1251.00	  786.65	-1935.93	  655.59
      5.2700	 1230.00	  784.75	-1935.93	  653.69
      5.3700	 1144.00	  782.86	-1935.93	  651.80
      5.4700	 1228.00	  780.98	-1935.93	  649.92
      5.5700	 1178.00	  779.12	-1935.93	  648.06
      5.6700	 1160.00	  777.26	-1935.93	  646.20
      5.7700	 1109.00	  775.42	-1935.93	  644.36
      5.8700	 1130.00	  773.59	-1935.93	  642.53
      5.9700	 1036.00	  771.77	-1935.93	  640.71
      6.0700	 1036.00	  769.97	-1935.93	  638.91
      6.1700	 1011.00	  768.17	-1935.93	  637.11
      6.2700	 1071.00	  766.39	-1935.93	  635.33
      6.3700	  961.00	  764.61	-1935.93	  633.56
      6.4700	  986.00	  762.85	-1935.93	  631.79
      6.5700	  968.00	  761.10	-1935.93	  630.04
      6.6700	  865.00	  759.36	-1935.93	  628.30
      6.7700	  941.00	  757.63	-1935.93	  626.58
      6.8700	  902.00	  755.92	-1935.93	  624.86
      6.9700	  897.00	  754.21	-1935.93	  623.15
      7.0700	  919.00	  752.52	-1935.93	  621.46
      7.1700	  838.00	  750.83	-1935.93	  619.77
      7.2700	  950.00	  749.16	-1935.93	  618.10
      7.3700	  896.00	  747.50	-1935.93	  616.44
      7.4700	  849.00	  745.85	-1935.93	  614.79
      7.5700	  796.00	  744.21	-1935.93	  613.15
      7.6700	  855.00	  742.58	-1935.93	  611.52
      7.7700	  801.00	  740.96	-1935.93	  609.90
      7.8700	  839.00	  739.35	-1935.93	  608.29
      7.9700	  771.00	  737.75	-1935.93	  606.69
      8.0700	  749.00	  736.16	-1935.93	  605.10
      8.1700	  806.00	  734.59	-1935.93	  603.53
      8.2700	  800.00	  733.02	-1935.93	  601.96
      8.3700	  724.00	  731.46	-1935.93	  600.40
      8.4700	  771.00	  729.92	-1935.93	  598.86
      8.5700	  747.00	  728.38	-1935.93	  597.32
      8.6700	  756.00	  726.86	-1935.93	  595.80
      8.7700	  717.00	  725.34	-1935.93	  594.28
      8.8700	  770.00	  723.84	-1935.93	  592.78
      8.9700	  745.00	  722.34	-1935.93	  591.28
      9.0700	  751.00	  720.86	-1935.93	  589.80
      9.1700	  722.00	  719.38	-1935.93	  588.33
      9.2700	  735.00	  717.92	-1935.93	  586.86
      9.3700	  749.00	  716.47	-1935.93	  585.41
      9.4700	  698.00	  715.02	-1935.93	  583.96
      9.5700	  725.00	  713.59	-1935.93	  582.53
      9.6700	  693.00	  712.16	-1935.93	  581.10
      9.7700	  693.00	  710.75	-1935.93	  579.69
      9.8700	  731.00	  709.34	-1935.93	  578.28
      9.9700	  702.00	  707.95	-1935.93	  576.89
     10.0700	  717.00	  708.71	-1927.64	  575.50
     10.1700	  723.00	  707.57	-1920.50	  574.13
     10.2700	  731.00	  706.48	-1911.42	  572.76
     10.3700	  732.00	  705.47	-1909.40	  571.40
     10.4700	  688.00	  704.56	-1952.49	  570.05
     10.5700	  695.00	  703.79	-1944.72	  568.72
     10.6700	  711.00	  703.22	-1928.15	  567.39
     10.7700	  720.00	  702.94	-1918.87	  566.07
     10.8700	  701.00	  703.04	-1937.98	  564.76
     10.9700	  684.00	  703.61	-1955.54	  563.46
     11.0700	  696.00	  704.69	-1944.62	  562.17
     11.1700	  665.00	  706.30	-1977.23	  560.88
     11.2700	  702.00	  708.45	-1942.39	  559.61
     11.3700	  737.00	  711.21	-1910.15	  558.35
     11.4700	  723.00	  714.67	-1927.61	  557.09
     11.5700	  679.00	  718.99	-1975.92	  555.85
     11.6700	  783.00	  724.39	-1877.32	  554.61
     11.7700	  727.00	  731.17	-1940.10	  553.38
     11.8700	  725.00	  739.59	-1950.52	  552.16
     11.9700	  804.00	  749.66	-1881.59	  550.95
     12.0700	  788.00	  760.72	-1908.65	  549.75
     12.1700	  827.00	  770.89	-1879.83	  548.56
     12.2700	  838.00	  776.62	-1874.55	  547.37
     12.3700	  785.00	  773.14	-1924.07	  546.20
     12.4700	  830.00	  758.58	-1864.52	  545.03
     12.5700	  729.00	  738.10	-1945.04	  543.87
     12.6700	  762.00	  718.76	-1892.69	  542.73
     12.7700	  698.00	  703.66	-1941.60	  541.58
     12.8700	  685.00	  692.98	-1943.92	  540.45
     12.9700	  609.00	  685.73	-2012.67	  539.33
     13.0700	  698.00	  680.77	-1918.71	  538.21
     13.1700	  654.00	  677.20	-1959.13	  537.11
     13.2700	  642.00	  674.42	-1968.36	  536.01
     13.3700	  677.00	  672.12	-1931.06	  534.92
     13.4700	  656.00	  670.12	-1950.06	  533.84
     13.5700	  659.00	  668.33	-1945.27	  532.76
     13.6700	  658.00	  666.69	-1944.62	  531.70
     13.7700	  653.00	  665.16	-1948.10	  530.64
     13.8700	  677.00	  663.73	-1922.66	  529.59
     13.9700	  708.00	  662.36	-1890.30	  528.55
     14.0700	  666.00	  661.06	-1930.99	  527.51
     14.1700	  705.00	  659.80	-1890.74	  526.49
     14.2700	  618.00	  658.58	-1976.52	  525.47
     14.3700	  642.00	  657.40	-1951.34	  524.46
     14.4700	  668.00	  656.25	-1924.19	  523.46
     14.5700	  629.00	  655.13	-1962.06	  522.47
     14.6700	  654.00	  654.03	-1935.96	  521.48
     14.7700	  669.00	  652.95	-1919.88	  520.50
     14.8700	  626.00	  651.89	-1961.82	  519.53
     14.9700	  651.00	  650.85	-1935.78	  518.57
     15.0700	  606.00	  649.82	-1979.75	  517.62
     15.1700	  655.00	  648.81	-1929.74	  516.67
     15.2700	  682.00	  647.81	-1901.74	  515.73
     15.3700	  682.00	  646.82	-1900.76	  514.80
     15.4700	  618.00	  645.85	-1963.78	  513.87
     15.5700	  624.00	  644.89	-1956.82	  512.95
     15.6700	  620.00	  643.94	-1959.87	  512.04
     15.7700	  614.00	  643.00	-1964.94	  511.14
     15.8700	  604.00	  642.07	-1974.01	  510.25
     15.9700	  644.00	  641.15	-1933.09	  509.36
     16.0700	  650.00	  640.25	-1926.18	  508.48
     16.1700	  607.00	  639.35	-1968.28	  507.60
     16.2700	  612.00	  638.46	-1962.39	  506.74
     16.3700	  649.00	  637.58	-1924.51	  505.88
     16.4700	  619.00	  636.70	-1953.64	  505.03
     16.5700	  630.00	  635.84	-1941.77	  504.18
     16.6700	  605.00	  634.98	-1965.92	  503.34
     16.7700	  609.00	  634.14	-1961.07	  502.51
     16.8700	  588.00	  633.30	-1981.23	  501.69
     16.9700	  646.00	  632.47	-1922.40	  500.87
     17.0700	  658.00	  631.65	-1909.58	  500.06
     17.1700	  687.00	  630.83	-1879.77	  499.26
     17.2700	  630.00	  630.02	-1935.96	  498.46
     17.3700	  635.00	  629.22	-1930.16	  497.67
     17.4700	  607.00	  628.43	-1957.37	  496.89
     17.5700	  622.00	  627.65	-1941.58	  496.12
     17.6700	  585.00	  626.87	-1977.81	  495.35
     17.7700	  589.00	  626.10	-1973.04	  494.58
     17.8700	  621.00	  625.34	-1940.27	  493.83
     17.9700	  684.00	  624.58	-1876.52	  493.08
     18.0700	  591.00	  623.84	-1968.77	  492.34
     18.1700	  630.00	  623.09	-1929.03	  491.60
     18.2700	  643.00	  622.36	-1915.30	  490.87
     18.3700	  609.00	  621.63	-1948.57	  490.15
     18.4700	  635.00	  620.91	-1921.85	  489.43
     18.5700	  635.00	  620.20	-1921.13	  488.72
     18.6700	  637.00	  619.49	-1918.43	  488.02
     18.7700	  649.00	  618.79	-1905.73	  487.32
     18.8700	  595.00	  618.10	-1959.03	  486.63
     18.9700	  645.00	  619.94	-1910.88	  485.94
     19.0700	  626.00	  619.31	-1929.25	  485.26
     19.1700	  641.00	  618.70	-1913.63	  484.59
     19.2700	  592.00	  618.09	-1962.02	  483.92
     19.3700	  601.00	  617.48	-1952.42	  483.26
     19.4700	  608.00	  616.89	-1944.82	  482.61
     19.5700	  585.00	  616.30	-1967.24	  481.96
     19.6700	  618.00	  615.73	-1933.66	  481.32
     19.7700	  654.00	  615.16	-1897.10	  480.68
     19.8700	  594.00	  614.60	-1956.54	  480.05
     19.9700	  607.00	  614.05	-1942.99	  479.43
     20.0700	  580.00	  613.56	-1969.49	  478.81
     20.1700	  646.00	  613.03	-1902.96	  478.19
     20.2700	  585.00	  612.51	-1963.44	  477.59
     20.3700	  602.00	  611.99	-1945.93	  476.99
     20.4700	  607.00	  611.49	-1940.43	  476.39
     20.5700	  588.00	  611.00	-1958.93	  475.80
     20.6700	  634.00	  610.51	-1912.45	  475.22
     20.7700	  563.00	  610.04	-1982.97	  474.64
     20.8700	  636.00	  609.58	-1909.51	  474.07
     20.9700	  619.00	  609.12	-1926.06	  473.50
     21.0700	  590.00	  608.68	-1954.61	  472.94
     21.1700	  636.00	  608.25	-1908.18	  472.38
     21.2700	  636.00	  607.83	-1907.76	  471.83
     21.3700	  598.00	  607.42	-1945.36	  471.29
     21.4700	  606.00	  607.02	-1936.96	  470.75
     21.5700	  614.00	  606.64	-1928.58	  470.21
     21.6700	  606.00	  606.27	-1936.21	  469.68
     21.7700	  594.00	  605.91	-1947.85	  469.16
     21.8700	  642.00	  605.57	-1899.51	  468.64
     21.9700	  580.00	  605.24	-1961.18	  468.13
     22.0700	  637.00	  604.93	-1903.87	  467.62
     22.1700	  611.00	  604.64	-1929.57	  467.12
     22.2700	  590.00	  604.36	-1950.29	  466.62
     22.3700	  564.00	  604.30	-1976.23	  466.13
     22.4700	  570.00	  604.06	-1970.00	  465.64
     22.5700	  581.00	  603.85	-1958.78	  465.16
     22.6700	  573.00	  603.66	-1966.59	  464.68
     22.7700	  620.00	  603.49	-1919.43	  464.21
     22.8700	  560.00	  603.35	-1979.29	  463.74
     22.9700	  597.00	  603.25	-1942.18	  463.28
     23.0700	  618.00	  603.18	-1921.11	  462.82
     23.1700	  645.00	  603.15	-1894.08	  462.37
     23.2700	  570.00	  603.16	-1969.10	  461.92
     23.3700	  623.00	  603.23	-1916.16	  461.48
     23.4700	  641.00	  603.36	-1898.29	  461.04
     23.5700	  623.00	  603.56	-1916.50	  460.61
     23.6700	  623.00	  603.86	-1916.80	  460.18
     23.7700	  606.00	  604.28	-1934.22	  459.76
     23.8700	  605.00	  604.88	-1935.81	  459.34
     23.9700	  613.00	  605.72	-1928.66	  458.93
     24.0700	  622.00	  606.94	-1920.88	  458.52
     24.1700	  605.00	  608.68	-1939.61	  458.11
     24.2700	  661.00	  611.36	-1886.29	  457.71
     24.3700	  611.00	  615.31	-1940.25	  457.32
     24.4700	  643.00	  620.94	-1913.88	  456.93
     24.5700	  630.00	  628.49	-1934.42	  456.54
     24.6700	  670.00	  637.82	-1903.75	  456.16
     24.7700	  647.00	  648.16	-1937.09	  455.78
     24.8700	  723.00	  657.76	-1870.70	  455.41
     24.9700	  699.00	  663.69	-1900.63	  455.04
     25.0700	  712.00	  662.75	-1886.68	  454.67
     25.1700	  680.00	  654.78	-1910.71	  454.31
     25.2700	  676.00	  643.88	-1903.82	  453.96
     25.3700	  649.00	  634.00	-1920.94	  453.61
     25.4700	  688.00	  626.80	-1874.74	  453.26
     25.5700	  668.00	  622.33	-1890.27	  452.91
     25.6700	  647.00	  620.05	-1908.99	  452.58
     25.7700	  624.00	  619.33	-1931.27	  452.24
     25.8700	  622.00	  619.66	-1933.59	  451.91
     25.9700	  634.00	  620.72	-1922.66	  451.58
     26.0700	  634.00	  622.36	-1924.30	  451.26
     26.1700	  613.00	  624.52	-1947.46	  450.94
     26.2700	  666.00	  627.20	-1897.14	  450.63
     26.3700	  634.00	  630.44	-1932.38	  450.32
     26.4700	  638.00	  634.32	-1932.25	  450.01
     26.5700	  647.00	  638.93	-1927.87	  449.71
     26.6700	  663.00	  644.43	-1917.36	  449.41
     26.7700	  592.00	  650.99	-1994.93	  449.12
     26.8700	  631.00	  658.87	-1963.81	  448.82
     26.9700	  688.00	  668.41	-1916.35	  448.54
     27.0700	  640.00	  680.08	-1976.02	  448.25
     27.1700	  683.00	  694.54	-1947.47	  447.97
     27.2700	  695.00	  712.76	-1953.70	  447.70
     27.3700	  728.00	  736.36	-1944.29	  447.43
     27.4700	  710.00	  768.41	-1994.34	  447.16
     27.5700	  764.00	  815.53	-1987.46	  446.89
     27.6700	  845.00	  891.91	-1982.84	  446.63
     27.7700	  835.00	 1025.48	-2126.41	  446.38
     27.8700	 1008.00	 1264.35	-2192.29	  446.12
     27.9700	 1255.00	 1678.10	-2359.03	  445.87
     28.0700	 1924.00	 2341.69	-2353.62	  445.63
     28.1700	 2900.00	 3290.89	-2326.83	  445.38
     28.2700	 4639.00	 4443.93	-1740.87	  445.14
     28.3700	 6273.00	 5515.23	-1178.16	  444.91
     28.4700	 6840.00	 6018.89	-1114.82	  444.67
     28.5700	 6148.00	 5577.85	-1365.78	  444.44
     28.6700	 4434.00	 4522.78	-2024.71	  444.22
     28.7700	 3281.00	 3585.59	-2240.53	  444.00
     28.8700	 2786.00	 3141.74	-2291.68	  443.78
     28.9700	 3285.00	 3163.23	-1814.16	  443.56
     29.0700	 3661.00	 3388.65	-1663.59	  443.35
     29.1700	 3729.00	 3469.77	-1676.71	  443.14
     29.2700	 3309.00	 3154.06	-1780.99	  442.93
     29.3700	 2499.00	 2529.27	-1966.21	  442.73
     29.4700	 1790.00	 1888.56	-2034.49	  442.53
     29.5700	 1254.00	 1402.23	-2084.17	  442.33
     29.6700	 1026.00	 1094.51	-2004.44	  442.14
     29.7700	  916.00	  921.51	-1941.45	  441.95
     29.8700	  837.00	  827.95	-1926.89	  441.76
     29.9700	  827.00	  774.32	-1883.26	  441.58
     30.0700	  753.00	  739.83	-1922.76	  441.40
     30.1700	  747.00	  715.41	-1904.34	  441.22
     30.2700	  722.00	  697.36	-1911.30	  441.04
     30.3700	  685.00	  684.19	-1935.12	  440.87
     30.4700	  735.00	  675.47	-1876.40	  440.70
     30.5700	  660.00	  671.62	-1947.56	  440.54
     30.6700	  701.00	  673.75	-1908.69	  440.37
     30.7700	  683.00	  683.14	-1936.07	  440.21
     30.8700	  734.00	  700.03	-1901.96	  440.06
     30.9700	  737.00	  722.08	-1921.02	  439.90
     31.0700	  765.00	  743.21	-1914.14	  439.75
     31.1700	  758.00	  753.44	-1931.38	  439.60
     31.2700	  724.00	  743.36	-1955.29	  439.45
     31.3700	  715.00	  715.03	-1935.96	  439.31
     31.4700	  717.00	  681.66	-1900.60	  439.17
     31.5700	  641.00	  653.39	-1948.32	  439.03
     31.6700	  696.00	  633.29	-1873.23	  438.90
     31.7700	  603.00	  620.50	-1953.43	  438.76
     31.8700	  678.00	  612.76	-1870.70	  438.63
     31.9700	  664.00	  608.00	-1879.93	  438.51
     32.0700	  643.00	  604.84	-1897.77	  438.38
     32.1700	  628.00	  602.58	-1910.51	  438.26
     32.2700	  605.00	  600.89	-1931.83	  438.14
     32.3700	  655.00	  599.64	-1880.57	  438.02
     32.4700	  601.00	  598.75	-1933.69	  437.91
     32.5700	  617.00	  598.21	-1917.14	  437.79
     32.6700	  608.00	  598.00	-1925.93	  437.68
     32.7700	  638.00	  598.17	-1896.11	  437.58
     32.8700	  643.00	  598.71	-1891.64	  437.47
     32.9700	  669.00	  599.70	-1866.63	  437.37
     33.0700	  623.00	  601.25	-1914.19	  437.27
     33.1700	  630.00	  603.55	-1909.48	  437.17
     33.2700	  636.00	  606.90	-1906.84	  437.07
     33.3700	  630.00	  611.93	-1917.86	  436.98
     33.4700	  652.00	  619.85	-1903.78	  436.89
     33.5700	  648.00	  632.92	-1920.86	  436.80
     33.6700	  666.00	  655.01	-1924.94	  436.72
     33.7700	  711.00	  691.63	-1916.56	  436.63
     33.8700	  732.00	  748.83	-1952.76	  436.55
     33.9700	  860.00	  829.84	-1905.77	  436.47
     34.0700	 1016.00	  929.71	-1849.64	  436.39
     34.1700	 1098.00	 1030.69	-1868.62	  436.32
     34.2700	 1169.00	 1101.09	-1868.03	  436.24
     34.3700	 1186.00	 1104.98	-1854.92	  436.17
     34.4700	 1078.00	 1034.13	-1892.06	  436.10
     34.5700	  931.00	  924.60	-1929.53	  436.03
     34.6700	  827.00	  818.27	-1927.20	  435.97
     34.7700	  726.00	  735.29	-1945.22	  435.90
     34.8700	  696.00	  678.81	-1918.75	  435.84
     34.9700	  664.00	  643.86	-1915.79	  435.78
     35.0700	  686.00	  623.30	-1873.23	  435.73
     35.1700	  653.00	  611.10	-1894.03	  435.67
     35.2700	  647.00	  603.37	-1892.31	  435.62
     35.3700	  693.00	  598.04	-1840.98	  435.57
     35.4700	  601.00	  594.08	-1929.02	  435.52
     35.5700	  637.00	  591.01	-1889.95	  435.47
     35.6700	  577.00	  588.57	-1947.50	  435.42
     35.7700	  576.00	  586.59	-1946.53	  435.38
     35.8700	  589.00	  584.98	-1931.92	  435.34
     35.9700	  581.00	  583.66	-1938.60	  435.30
     36.0700	  610.00	  582.58	-1908.51	  435.26
     36.1700	  567.00	  581.70	-1950.63	  435.22
     36.2700	  605.00	  580.99	-1911.92	  435.18
     36.3700	  594.00	  580.43	-1922.37	  435.15
     36.4700	  575.00	  580.02	-1940.95	  435.12
     36.5700	  568.00	  579.74	-1947.67	  435.09
     36.6700	  563.00	  579.60	-1952.53	  435.06
     36.7700	  567.00	  579.60	-1948.54	  435.03
     36.8700	  583.00	  579.78	-1932.71	  435.01
     36.9700	  530.00	  580.35	-1986.28	  434.98
     37.0700	  587.00	  581.48	-1930.41	  434.96
     37.1700	  598.00	  582.47	-1920.41	  434.94
     37.2700	  556.00	  583.97	-1963.90	  434.92
     37.3700	  581.00	  586.31	-1941.25	  434.90
     37.4700	  543.00	  589.97	-1982.90	  434.89
     37.5700	  617.00	  595.69	-1914.62	  434.87
     37.6700	  606.00	  604.61	-1934.55	  434.86
     37.7700	  645.00	  617.90	-1908.83	  434.85
     37.8700	  667.00	  636.64	-1905.57	  434.84
     37.9700	  687.00	  660.87	-1909.80	  434.83
     38.0700	  646.00	  688.63	-1978.57	  434.82
     38.1700	  739.00	  715.35	-1912.29	  434.81
     38.2700	  739.00	  732.06	-1928.99	  434.81
     38.3700	  679.00	  733.20	-1990.14	  434.81
     38.4700	  731.00	  714.72	-1919.66	  434.80
     38.5700	  675.00	  684.60	-1945.54	  434.80
     38.6700	  649.00	  653.55	-1940.48	  434.80
     38.7700	  602.00	  627.71	-1961.65	  434.80
     38.8700	  634.00	  608.85	-1910.79	  434.81
     38.9700	  574.00	  596.32	-1958.26	  434.81
     39.0700	  561.00	  588.51	-1963.44	  434.82
     39.1700	  607.00	  583.75	-1912.68	  434.82
     39.2700	  604.00	  580.77	-1912.70	  434.83
     39.3700	  544.00	  578.79	-1970.72	  434.84
     39.4700	  597.00	  577.37	-1916.31	  434.85
     39.5700	  567.00	  576.30	-1945.24	  434.86
     39.6700	  591.00	  574.61	-1919.54	  434.88
     39.7700	  578.00	  573.96	-1931.89	  434.89
     39.8700	  585.00	  573.44	-1924.38	  434.90
     39.9700	  607.00	  573.03	-1901.96	  434.92
     40.0700	  577.00	  572.70	-1931.63	  434.94
     40.1700	  576.00	  572.44	-1932.37	  434.95
     40.2700	  543.00	  572.24	-1965.17	  434.97
     40.3700	  552.00	  572.09	-1956.02	  434.99
     40.4700	  597.00	  571.98	-1910.92	  435.01
     40.5700	  529.00	  571.92	-1978.86	  435.04
     40.6700	  563.00	  572.43	-1945.36	  435.06
     40.7700	  569.00	  572.45	-1939.38	  435.08
