MSG Master    CELL:    5.87633   5.87633  23.07403   90.0000   90.0000  120.0000   SPGR: P 63/m m c             TEMP:    445.85
  2   1280     2.52000     0.00000    -0.08560     0.00000     0.00000    0
    95    95     0     0     2
       0.00000      10.00000
     125.00000     130.00000
 2Theta	Yobs	Ycal	Yobs-Ycal	Backg	Posr	(hkl)	K
      0.7700	    0.00	  981.87	-2277.75	  839.89
      0.8700	    0.00	  978.52	-2277.75	  836.53
      0.9700	   48.00	  975.19	-2277.75	  833.20
      1.0700	   45.00	  971.88	-2277.75	  829.90
      1.1700	   43.00	  968.59	-2277.75	  826.61
      1.2700	   59.00	  965.33	-2277.75	  823.34
      1.3700	   49.00	  962.08	-2277.75	  820.10
      1.4700	   98.00	  958.86	-2277.75	  816.88
      1.5700	  316.00	  955.66	-2277.75	  813.68
      1.6700	  475.00	  952.48	-2277.75	  810.49
      1.7700	  603.00	  949.32	-2277.75	  807.34
      1.8700	  631.00	  946.18	-2277.75	  804.20
      1.9700	  783.00	  943.06	-2277.75	  801.08
      2.0700	  779.00	  939.97	-2277.75	  797.98
      2.1700	  756.00	  936.89	-2277.75	  794.90
      2.2700	  800.00	  933.83	-2277.75	  791.85
      2.3700	  719.00	  930.80	-2277.75	  788.81
      2.4700	  690.00	  927.78	-2277.75	  785.80
      2.5700	  728.00	  924.79	-2277.75	  782.80
      2.6700	  628.00	  921.81	-2277.75	  779.83
      2.7700	  650.00	  918.86	-2277.75	  776.87
      2.8700	  680.00	  915.92	-2277.75	  773.94
      2.9700	  669.00	  913.01	-2277.75	  771.02
      3.0700	  635.00	  910.11	-2277.75	  768.13
      3.1700	  609.00	  907.24	-2277.75	  765.25
      3.2700	  778.00	  904.38	-2277.75	  762.39
      3.3700	  896.00	  901.54	-2277.75	  759.56
      3.4700	 1108.00	  898.73	-2277.75	  756.74
      3.5700	 1219.00	  895.93	-2277.75	  753.94
      3.6700	 1354.00	  893.15	-2277.75	  751.17
      3.7700	 1439.00	  890.39	-2277.75	  748.41
      3.8700	 1472.00	  887.65	-2277.75	  745.67
      3.9700	 1576.00	  884.93	-2277.75	  742.94
      4.0700	 1644.00	  882.23	-2277.75	  740.24
      4.1700	 1651.00	  879.54	-2277.75	  737.56
      4.2700	 1717.00	  876.88	-2277.75	  734.89
      4.3700	 1692.00	  874.23	-2277.75	  732.25
      4.4700	 1584.00	  871.61	-2277.75	  729.62
      4.5700	 1477.00	  869.00	-2277.75	  727.01
      4.6700	 1581.00	  866.41	-2277.75	  724.42
      4.7700	 1444.00	  863.83	-2277.75	  721.85
      4.8700	 1564.00	  861.28	-2277.75	  719.30
      4.9700	 1434.00	  858.75	-2277.75	  716.76
      5.0700	 1297.00	  856.23	-2277.75	  714.24
      5.1700	 1316.00	  853.73	-2277.75	  711.74
      5.2700	 1301.00	  851.25	-2277.75	  709.26
      5.3700	 1292.00	  848.78	-2277.75	  706.80
      5.4700	 1263.00	  846.34	-2277.75	  704.35
      5.5700	 1258.00	  843.91	-2277.75	  701.92
      5.6700	 1239.00	  841.50	-2277.75	  699.51
      5.7700	 1144.00	  839.10	-2277.75	  697.12
      5.8700	 1151.00	  836.73	-2277.75	  694.74
      5.9700	 1165.00	  834.37	-2277.75	  692.39
      6.0700	 1110.00	  832.03	-2277.75	  690.04
      6.1700	 1083.00	  829.70	-2277.75	  687.72
      6.2700	 1123.00	  827.40	-2277.75	  685.41
      6.3700	 1035.00	  825.11	-2277.75	  683.12
      6.4700	  988.00	  822.83	-2277.75	  680.85
      6.5700	 1055.00	  820.58	-2277.75	  678.59
      6.6700	  996.00	  818.34	-2277.75	  676.35
      6.7700	 1038.00	  816.12	-2277.75	  674.13
      6.8700	  986.00	  813.91	-2277.75	  671.93
      6.9700	  974.00	  811.72	-2277.75	  669.74
      7.0700	  947.00	  809.55	-2277.75	  667.56
      7.1700	  904.00	  807.39	-2277.75	  665.41
      7.2700	  924.00	  805.25	-2277.75	  663.27
      7.3700	  921.00	  803.13	-2277.75	  661.14
      7.4700	  882.00	  801.02	-2277.75	  659.03
      7.5700	  921.00	  798.93	-2277.75	  656.94
      7.6700	  871.00	  796.85	-2277.75	  654.87
      7.7700	  838.00	  794.79	-2277.75	  652.81
      7.8700	  826.00	  792.75	-2277.75	  650.76
      7.9700	  819.00	  790.72	-2277.75	  648.73
      8.0700	  823.00	  788.70	-2277.75	  646.72
      8.1700	  806.00	  786.71	-2277.75	  644.72
      8.2700	  892.00	  784.73	-2277.75	  642.74
      8.3700	  796.00	  782.76	-2277.75	  640.78
      8.4700	  819.00	  780.81	-2277.75	  638.82
      8.5700	  784.00	  778.87	-2277.75	  636.89
      8.6700	  759.00	  776.95	-2277.75	  634.97
      8.7700	  828.00	  775.05	-2277.75	  633.06
      8.8700	  781.00	  773.16	-2277.75	  631.17
      8.9700	  748.00	  771.28	-2277.75	  629.30
      9.0700	  831.00	  769.42	-2277.75	  627.44
      9.1700	  766.00	  767.58	-2277.75	  625.59
      9.2700	  770.00	  765.75	-2277.75	  623.76
      9.3700	  751.00	  763.93	-2277.75	  621.95
      9.4700	  846.00	  762.13	-2277.75	  620.15
      9.5700	  820.00	  760.34	-2277.75	  618.36
      9.6700	  722.00	  758.57	-2277.75	  616.59
      9.7700	  765.00	  756.81	-2277.75	  614.83
      9.8700	  748.00	  755.07	-2277.75	  613.09
      9.9700	  760.00	  753.34	-2277.75	  611.36
     10.0700	  730.00	  753.76	-2301.51	  609.64
     10.1700	  746.00	  752.29	-2284.04	  607.94
     10.2700	  728.00	  750.87	-2300.62	  606.25
     10.3700	  730.00	  749.54	-2297.29	  604.58
     10.4700	  728.00	  748.29	-2298.04	  602.92
     10.5700	  733.00	  747.19	-2291.94	  601.28
     10.6700	  747.00	  746.27	-2277.02	  599.65
     10.7700	  719.00	  745.61	-2304.36	  598.03
     10.8700	  743.00	  745.31	-2280.06	  596.42
     10.9700	  718.00	  745.45	-2305.20	  594.83
     11.0700	  724.00	  746.09	-2299.84	  593.26
     11.1700	  762.00	  747.25	-2263.00	  591.69
     11.2700	  737.00	  748.96	-2289.71	  590.14
     11.3700	  791.00	  751.25	-2238.00	  588.60
     11.4700	  765.00	  754.22	-2266.97	  587.08
     11.5700	  789.00	  757.99	-2246.74	  585.57
     11.6700	  769.00	  762.76	-2271.51	  584.07
     11.7700	  791.00	  768.80	-2255.55	  582.59
     11.8700	  763.00	  776.35	-2291.10	  581.12
     11.9700	  814.00	  785.48	-2249.23	  579.66
     12.0700	  855.00	  795.72	-2218.47	  578.21
     12.1700	  836.00	  805.64	-2247.39	  576.78
     12.2700	  882.00	  812.32	-2208.07	  575.36
     12.3700	  841.00	  811.44	-2248.19	  573.95
     12.4700	  849.00	  800.01	-2228.76	  572.55
     12.5700	  799.00	  781.05	-2259.80	  571.17
     12.6700	  712.00	  761.40	-2327.15	  569.80
     12.7700	  753.00	  745.23	-2269.98	  568.44
     12.8700	  743.00	  733.33	-2268.08	  567.09
     12.9700	  691.00	  725.01	-2311.76	  565.76
     13.0700	  719.00	  719.22	-2277.97	  564.44
     13.1700	  723.00	  715.04	-2269.79	  563.13
     13.2700	  761.00	  711.82	-2228.57	  561.83
     13.3700	  674.00	  709.17	-2312.92	  560.54
     13.4700	  702.00	  706.88	-2282.63	  559.27
     13.5700	  668.00	  704.82	-2314.57	  558.01
     13.6700	  659.00	  702.94	-2321.69	  556.75
     13.7700	  695.00	  701.18	-2283.93	  555.51
     13.8700	  722.00	  699.54	-2255.29	  554.29
     13.9700	  728.00	  697.97	-2247.72	  553.07
     14.0700	  763.00	  696.47	-2211.22	  551.87
     14.1700	  686.00	  695.02	-2286.77	  550.67
     14.2700	  684.00	  693.63	-2287.38	  549.49
     14.3700	  656.00	  692.27	-2314.02	  548.32
     14.4700	  626.00	  690.95	-2342.70	  547.16
     14.5700	  671.00	  689.66	-2296.41	  546.01
     14.6700	  706.00	  688.40	-2260.15	  544.88
     14.7700	  679.00	  687.17	-2285.92	  543.75
     14.8700	  700.00	  685.96	-2263.71	  542.63
     14.9700	  671.00	  684.76	-2291.51	  541.53
     15.0700	  662.00	  683.59	-2299.34	  540.43
     15.1700	  620.00	  682.44	-2340.19	  539.35
     15.2700	  692.00	  681.31	-2267.06	  538.28
     15.3700	  693.00	  680.19	-2264.94	  537.22
     15.4700	  683.00	  679.09	-2273.84	  536.17
     15.5700	  720.00	  678.00	-2235.75	  535.13
     15.6700	  679.00	  676.93	-2275.68	  534.10
     15.7700	  673.00	  675.87	-2280.62	  533.08
     15.8700	  670.00	  674.82	-2282.57	  532.07
     15.9700	  707.00	  673.79	-2244.54	  531.07
     16.0700	  684.00	  672.77	-2266.52	  530.08
     16.1700	  608.00	  671.77	-2341.52	  529.10
     16.2700	  683.00	  670.77	-2265.52	  528.13
     16.3700	  718.00	  669.79	-2229.54	  527.17
     16.4700	  686.00	  668.82	-2260.57	  526.22
     16.5700	  671.00	  667.86	-2274.61	  525.29
     16.6700	  667.00	  666.92	-2277.67	  524.36
     16.7700	  667.00	  665.98	-2276.73	  523.44
     16.8700	  618.00	  665.05	-2324.80	  522.53
     16.9700	  661.00	  664.14	-2280.89	  521.63
     17.0700	  658.00	  663.24	-2282.99	  520.74
     17.1700	  636.00	  662.34	-2304.09	  519.86
     17.2700	  634.00	  661.46	-2305.21	  518.99
     17.3700	  670.00	  660.59	-2268.34	  518.12
     17.4700	  612.00	  659.73	-2325.48	  517.27
     17.5700	  658.00	  658.87	-2278.62	  516.43
     17.6700	  672.00	  658.03	-2263.78	  515.59
     17.7700	  602.00	  657.20	-2332.95	  514.77
     17.8700	  657.00	  656.38	-2277.13	  513.95
     17.9700	  637.00	  655.56	-2296.31	  513.15
     18.0700	  677.00	  654.76	-2255.51	  512.35
     18.1700	  624.00	  653.97	-2307.72	  511.56
     18.2700	  682.00	  653.18	-2248.93	  510.78
     18.3700	  652.00	  652.41	-2278.16	  510.01
     18.4700	  699.00	  651.64	-2230.39	  509.25
     18.5700	  667.00	  650.88	-2261.63	  508.50
     18.6700	  712.00	  650.14	-2215.89	  507.75
     18.7700	  713.00	  649.40	-2214.15	  507.02
     18.8700	  633.00	  648.67	-2293.42	  506.29
     18.9700	  608.00	  647.95	-2317.70	  505.57
     19.0700	  645.00	  648.55	-2281.30	  504.86
     19.1700	  643.00	  650.02	-2284.77	  504.16
     19.2700	  617.00	  649.40	-2310.15	  503.47
     19.3700	  636.00	  648.80	-2290.55	  502.78
     19.4700	  670.00	  648.20	-2255.95	  502.11
     19.5700	  619.00	  647.61	-2306.36	  501.44
     19.6700	  648.00	  647.04	-2276.79	  500.78
     19.7700	  701.00	  646.47	-2223.22	  500.12
     19.8700	  660.00	  645.92	-2263.67	  499.48
     19.9700	  650.00	  645.38	-2273.13	  498.84
     20.0700	  628.00	  644.85	-2294.60	  498.22
     20.1700	  664.00	  644.39	-2258.14	  497.59
     20.2700	  681.00	  643.89	-2240.64	  496.98
     20.3700	  647.00	  643.39	-2274.14	  496.38
     20.4700	  651.00	  642.92	-2269.67	  495.78
     20.5700	  655.00	  642.45	-2265.20	  495.19
     20.6700	  645.00	  642.00	-2274.75	  494.61
     20.7700	  639.00	  641.56	-2280.31	  494.03
     20.8700	  666.00	  641.13	-2252.88	  493.47
     20.9700	  596.00	  640.71	-2322.46	  492.91
     21.0700	  696.00	  640.31	-2222.06	  492.36
     21.1700	  649.00	  639.93	-2268.68	  491.81
     21.2700	  644.00	  639.56	-2273.31	  491.28
     21.3700	  652.00	  639.20	-2264.95	  490.75
     21.4700	  655.00	  638.86	-2261.61	  490.22
     21.5700	  651.00	  638.53	-2265.28	  489.71
     21.6700	  646.00	  638.23	-2269.98	  489.20
     21.7700	  629.00	  637.93	-2286.68	  488.70
     21.8700	  632.00	  637.66	-2283.41	  488.20
     21.9700	  669.00	  637.41	-2246.16	  487.72
     22.0700	  666.00	  637.17	-2248.92	  487.24
     22.1700	  637.00	  636.95	-2277.70	  486.76
     22.2700	  641.00	  636.96	-2273.71	  486.29
     22.3700	  671.00	  636.79	-2243.54	  485.83
     22.4700	  643.00	  636.65	-2271.40	  485.38
     22.5700	  616.00	  636.53	-2298.28	  484.93
     22.6700	  628.00	  636.44	-2286.19	  484.49
     22.7700	  648.00	  636.38	-2266.13	  484.06
     22.8700	  634.00	  636.35	-2280.10	  483.63
     22.9700	  657.00	  636.36	-2257.11	  483.21
     23.0700	  648.00	  636.40	-2266.15	  482.80
     23.1700	  616.00	  636.49	-2298.24	  482.39
     23.2700	  628.00	  636.63	-2286.38	  481.99
     23.3700	  662.00	  636.82	-2252.57	  481.60
     23.4700	  655.00	  637.09	-2259.84	  481.21
     23.5700	  655.00	  637.42	-2260.17	  480.83
     23.6700	  658.00	  637.86	-2257.61	  480.45
     23.7700	  620.00	  638.41	-2296.16	  480.08
     23.8700	  640.00	  639.11	-2276.86	  479.71
     23.9700	  627.00	  640.03	-2290.78	  479.36
     24.0700	  651.00	  641.26	-2268.01	  479.00
     24.1700	  724.00	  642.96	-2196.71	  478.66
     24.2700	  664.00	  645.37	-2259.12	  478.32
     24.3700	  717.00	  648.83	-2209.58	  477.98
     24.4700	  685.00	  653.73	-2246.48	  477.65
     24.5700	  676.00	  660.33	-2262.08	  477.33
     24.6700	  660.00	  668.83	-2286.58	  477.01
     24.7700	  723.00	  678.77	-2233.52	  476.70
     24.8700	  728.00	  689.02	-2238.77	  476.39
     24.9700	  748.00	  697.43	-2227.18	  476.09
     25.0700	  726.00	  700.89	-2252.64	  475.80
     25.1700	  746.00	  697.25	-2229.00	  475.51
     25.2700	  737.00	  688.41	-2229.16	  475.23
     25.3700	  695.00	  678.54	-2261.29	  474.95
     25.4700	  655.00	  670.57	-2293.32	  474.67
     25.5700	  662.00	  665.29	-2281.04	  474.40
     25.6700	  645.00	  662.48	-2295.23	  474.14
     25.7700	  704.00	  661.59	-2235.34	  473.88
     25.8700	  645.00	  662.08	-2294.83	  473.63
     25.9700	  694.00	  663.55	-2247.30	  473.38
     26.0700	  702.00	  665.78	-2241.53	  473.14
     26.1700	  700.00	  668.66	-2246.41	  472.90
     26.2700	  651.00	  672.19	-2298.94	  472.67
     26.3700	  673.00	  676.42	-2281.17	  472.44
     26.4700	  654.00	  681.41	-2305.16	  472.22
     26.5700	  581.00	  687.30	-2384.05	  472.00
     26.6700	  671.00	  694.25	-2301.00	  471.79
     26.7700	  710.00	  702.47	-2270.22	  471.58
     26.8700	  705.00	  712.27	-2285.02	  471.38
     26.9700	  687.00	  724.04	-2314.79	  471.18
     27.0700	  705.00	  738.30	-2311.05	  470.99
     27.1700	  719.00	  755.82	-2314.57	  470.80
     27.2700	  755.00	  777.65	-2300.40	  470.61
     27.3700	  762.00	  805.47	-2321.22	  470.43
     27.4700	  778.00	  842.26	-2342.01	  470.26
     27.5700	  810.00	  894.29	-2362.04	  470.09
     27.6700	  839.00	  975.52	-2414.27	  469.92
     27.7700	  916.00	 1115.31	-2477.06	  469.76
     27.8700	 1035.00	 1368.31	-2611.06	  469.60
     27.9700	 1391.00	 1821.42	-2708.17	  469.45
     28.0700	 2028.00	 2585.32	-2835.07	  469.30
     28.1700	 3166.00	 3751.39	-2863.14	  469.15
     28.2700	 5389.00	 5298.29	-2187.04	  469.01
     28.3700	 7827.00	 6952.12	-1402.87	  468.87
     28.4700	 9111.00	 8106.04	-1272.79	  468.74
     28.5700	 8866.00	 8040.85	-1452.60	  468.61
     28.6700	 6901.00	 6753.55	-2130.30	  468.49
     28.7700	 5001.00	 5243.45	-2520.20	  468.37
     28.8700	 3974.00	 4329.51	-2633.26	  468.25
     28.9700	 4155.00	 4174.88	-2297.63	  468.14
     29.0700	 4787.00	 4497.50	-1988.25	  468.03
     29.1700	 5283.00	 4808.37	-1803.12	  467.93
     29.2700	 4745.00	 4630.50	-2163.25	  467.82
     29.3700	 3835.00	 3859.13	-2301.88	  467.73
     29.4700	 2735.00	 2878.96	-2421.71	  467.63
     29.5700	 1894.00	 2054.32	-2438.07	  467.54
     29.6700	 1330.00	 1499.73	-2447.48	  467.46
     29.7700	 1103.00	 1178.43	-2353.18	  467.37
     29.8700	 1126.00	 1006.24	-2157.99	  467.29
     29.9700	  918.00	  912.08	-2271.83	  467.22
     30.0700	  876.00	  854.81	-2256.56	  467.15
     30.1700	  797.00	  815.62	-2296.37	  467.08
     30.2700	  773.00	  786.84	-2291.59	  467.01
     30.3700	  745.00	  765.24	-2297.99	  466.95
     30.4700	  726.00	  749.43	-2301.18	  466.89
     30.5700	  743.00	  739.11	-2273.86	  466.84
     30.6700	  727.00	  734.86	-2285.61	  466.79
     30.7700	  814.00	  737.81	-2201.56	  466.74
     30.8700	  735.00	  748.78	-2291.53	  466.69
     30.9700	  764.00	  766.81	-2280.56	  466.65
     31.0700	  761.00	  787.70	-2304.45	  466.61
     31.1700	  910.00	  803.21	-2170.96	  466.58
     31.2700	  756.00	  802.58	-2324.33	  466.55
     31.3700	  754.00	  780.96	-2304.71	  466.52
     31.4700	  728.00	  747.58	-2297.33	  466.49
     31.5700	  764.00	  715.43	-2229.18	  466.47
     31.6700	  703.00	  690.72	-2265.47	  466.45
     31.7700	  715.00	  674.10	-2236.85	  466.43
     31.8700	  659.00	  663.73	-2282.48	  466.41
     31.9700	  690.00	  657.32	-2245.07	  466.40
     32.0700	  706.00	  653.13	-2224.88	  466.39
     32.1700	  642.00	  650.17	-2285.92	  466.39
     32.2700	  662.00	  647.94	-2263.69	  466.38
     32.3700	  686.00	  646.24	-2237.99	  466.38
     32.4700	  636.00	  644.96	-2286.71	  466.38
     32.5700	  685.00	  644.07	-2236.82	  466.39
     32.6700	  725.00	  643.57	-2196.32	  466.40
     32.7700	  688.00	  643.41	-2233.16	  466.41
     32.8700	  695.00	  643.65	-2226.40	  466.42
     32.9700	  667.00	  644.33	-2255.08	  466.43
     33.0700	  642.00	  645.54	-2281.29	  466.45
     33.1700	  644.00	  647.41	-2281.16	  466.47
     33.2700	  711.00	  650.18	-2216.93	  466.49
     33.3700	  654.00	  654.28	-2278.03	  466.52
     33.4700	  695.00	  660.57	-2243.32	  466.55
     33.5700	  710.00	  670.69	-2238.44	  466.58
     33.6700	  670.00	  687.61	-2295.36	  466.61
     33.7700	  717.00	  716.02	-2276.77	  466.64
     33.8700	  794.00	  762.01	-2245.76	  466.68
     33.9700	  835.00	  831.00	-2273.75	  466.72
     34.0700	  945.00	  923.37	-2256.12	  466.76
     34.1700	 1049.00	 1028.96	-2257.71	  466.80
     34.2700	 1254.00	 1123.50	-2147.25	  466.85
     34.3700	 1327.00	 1170.59	-2121.34	  466.89
     34.4700	 1264.00	 1140.73	-2154.48	  466.94
     34.5700	 1073.00	 1046.08	-2250.83	  467.00
     34.6700	  931.00	  931.69	-2278.44	  467.05
     34.7700	  817.00	  831.71	-2292.46	  467.11
     34.8700	  788.00	  758.23	-2247.98	  467.16
     34.9700	  782.00	  710.19	-2205.94	  467.22
     35.0700	  732.00	  681.15	-2226.90	  467.28
     35.1700	  678.00	  664.10	-2263.85	  467.35
     35.2700	  715.00	  653.77	-2216.52	  467.41
     35.3700	  680.00	  647.02	-2244.77	  467.48
     35.4700	  668.00	  642.29	-2252.04	  467.55
     35.5700	  646.00	  638.69	-2270.44	  467.62
     35.6700	  621.00	  635.89	-2292.64	  467.69
     35.7700	  628.00	  633.66	-2283.41	  467.77
     35.8700	  670.00	  631.88	-2239.63	  467.84
     35.9700	  630.00	  630.44	-2278.19	  467.92
     36.0700	  665.00	  629.29	-2242.04	  468.00
     36.1700	  655.00	  628.38	-2251.13	  468.08
     36.2700	  618.00	  627.66	-2287.41	  468.16
     36.3700	  639.00	  627.12	-2265.87	  468.24
     36.4700	  607.00	  626.74	-2297.49	  468.33
     36.5700	  664.00	  626.52	-2240.27	  468.42
     36.6700	  637.00	  626.45	-2267.20	  468.51
     36.7700	  583.00	  626.74	-2321.49	  468.60
     36.8700	  600.00	  627.00	-2304.75	  468.69
     36.9700	  649.00	  627.47	-2256.22	  468.78
     37.0700	  619.00	  628.19	-2286.94	  468.87
     37.1700	  658.00	  629.23	-2248.98	  468.97
     37.2700	  688.00	  631.24	-2220.99	  469.07
     37.3700	  663.00	  633.45	-2248.20	  469.16
     37.4700	  676.00	  636.75	-2238.50	  469.26
     37.5700	  656.00	  641.84	-2263.59	  469.36
     37.6700	  655.00	  649.77	-2272.52	  469.46
     37.7700	  679.00	  662.00	-2260.75	  469.57
     37.8700	  674.00	  680.26	-2284.01	  469.67
     37.9700	  694.00	  705.72	-2289.47	  469.78
     38.0700	  689.00	  735.93	-2324.68	  469.88
     38.1700	  785.00	  771.67	-2264.42	  469.99
     38.2700	  817.00	  803.85	-2264.60	  470.10
     38.3700	  835.00	  821.96	-2264.71	  470.21
     38.4700	  799.00	  816.39	-2295.14	  470.32
     38.5700	  774.00	  788.08	-2291.83	  470.43
     38.6700	  728.00	  749.36	-2299.11	  470.54
     38.7700	  658.00	  712.27	-2332.02	  470.66
     38.8700	  614.00	  682.61	-2346.36	  470.77
     38.9700	  610.00	  661.51	-2329.26	  470.89
     39.0700	  626.00	  647.74	-2299.49	  471.00
     39.1700	  629.00	  639.23	-2287.98	  471.12
     39.2700	  616.00	  634.04	-2295.79	  471.24
     39.3700	  611.00	  630.77	-2297.52	  471.36
     39.4700	  622.00	  628.59	-2284.34	  471.48
     39.5700	  626.00	  625.77	-2277.52	  471.60
     39.6700	  645.00	  624.62	-2257.37	  471.72
     39.7700	  611.00	  623.74	-2290.49	  471.84
     39.8700	  605.00	  623.06	-2295.81	  471.96
     39.9700	  640.00	  622.53	-2260.28	  472.09
     40.0700	  639.00	  622.13	-2260.88	  472.21
     40.1700	  598.00	  621.82	-2301.57	  472.34
     40.2700	  634.00	  621.59	-2265.34	  472.46
     40.3700	  596.00	  621.44	-2303.19	  472.59
     40.4700	  587.00	  621.34	-2312.09	  472.71
     40.5700	  615.00	  621.29	-2284.04	  472.84
     40.6700	  587.00	  621.30	-2312.05	  472.97
     40.7700	  617.00	  621.88	-2282.63	  473.10
