MSG Master    CELL:    5.87789   5.87789  23.08568   90.0000   90.0000  120.0000   SPGR: P 63/m m c             TEMP:    478.45
  2   1280     2.52000     0.00000    -0.08607     0.00000     0.00000    0
    95    95     0     0     2
       0.00000      10.00000
     125.00000     130.00000
 2Theta	Yobs	Ycal	Yobs-Ycal	Backg	Posr	(hkl)	K
      0.7700	    0.00	  999.82	-2180.75	  861.93
      0.8700	    0.00	  996.11	-2180.75	  858.22
      0.9700	   51.00	  992.43	-2180.75	  854.54
      1.0700	   37.00	  988.78	-2180.75	  850.89
      1.1700	   48.00	  985.15	-2180.75	  847.26
      1.2700	   35.00	  981.54	-2180.75	  843.65
      1.3700	   43.00	  977.96	-2180.75	  840.07
      1.4700	   79.00	  974.40	-2180.75	  836.51
      1.5700	  332.00	  970.86	-2180.75	  832.97
      1.6700	  499.00	  967.35	-2180.75	  829.46
      1.7700	  555.00	  963.86	-2180.75	  825.97
      1.8700	  667.00	  960.39	-2180.75	  822.50
      1.9700	  733.00	  956.95	-2180.75	  819.06
      2.0700	  791.00	  953.53	-2180.75	  815.64
      2.1700	  806.00	  950.13	-2180.75	  812.24
      2.2700	  779.00	  946.76	-2180.75	  808.87
      2.3700	  721.00	  943.41	-2180.75	  805.51
      2.4700	  682.00	  940.08	-2180.75	  802.18
      2.5700	  675.00	  936.77	-2180.75	  798.88
      2.6700	  659.00	  933.49	-2180.75	  795.59
      2.7700	  687.00	  930.22	-2180.75	  792.33
      2.8700	  664.00	  926.98	-2180.75	  789.09
      2.9700	  672.00	  923.77	-2180.75	  785.87
      3.0700	  613.00	  920.57	-2180.75	  782.68
      3.1700	  621.00	  917.40	-2180.75	  779.51
      3.2700	  725.00	  914.25	-2180.75	  776.35
      3.3700	  914.00	  911.12	-2180.75	  773.22
      3.4700	 1084.00	  908.01	-2180.75	  770.12
      3.5700	 1216.00	  904.92	-2180.75	  767.03
      3.6700	 1336.00	  901.86	-2180.75	  763.96
      3.7700	 1425.00	  898.81	-2180.75	  760.92
      3.8700	 1503.00	  895.79	-2180.75	  757.90
      3.9700	 1623.00	  892.79	-2180.75	  754.90
      4.0700	 1676.00	  889.81	-2180.75	  751.92
      4.1700	 1654.00	  886.85	-2180.75	  748.96
      4.2700	 1662.00	  883.91	-2180.75	  746.02
      4.3700	 1604.00	  880.99	-2180.75	  743.10
      4.4700	 1532.00	  878.09	-2180.75	  740.20
      4.5700	 1567.00	  875.22	-2180.75	  737.32
      4.6700	 1560.00	  872.36	-2180.75	  734.47
      4.7700	 1493.00	  869.52	-2180.75	  731.63
      4.8700	 1481.00	  866.71	-2180.75	  728.82
      4.9700	 1426.00	  863.91	-2180.75	  726.02
      5.0700	 1334.00	  861.14	-2180.75	  723.25
      5.1700	 1342.00	  858.38	-2180.75	  720.49
      5.2700	 1262.00	  855.65	-2180.75	  717.76
      5.3700	 1254.00	  852.93	-2180.75	  715.04
      5.4700	 1222.00	  850.23	-2180.75	  712.34
      5.5700	 1210.00	  847.56	-2180.75	  709.67
      5.6700	 1159.00	  844.90	-2180.75	  707.01
      5.7700	 1132.00	  842.26	-2180.75	  704.37
      5.8700	 1118.00	  839.65	-2180.75	  701.76
      5.9700	 1102.00	  837.05	-2180.75	  699.16
      6.0700	 1107.00	  834.47	-2180.75	  696.58
      6.1700	 1047.00	  831.91	-2180.75	  694.02
      6.2700	 1051.00	  829.37	-2180.75	  691.48
      6.3700	 1030.00	  826.84	-2180.75	  688.95
      6.4700	  985.00	  824.34	-2180.75	  686.45
      6.5700	 1002.00	  821.86	-2180.75	  683.96
      6.6700	  993.00	  819.39	-2180.75	  681.50
      6.7700	  979.00	  816.94	-2180.75	  679.05
      6.8700	  928.00	  814.51	-2180.75	  676.62
      6.9700	  951.00	  812.10	-2180.75	  674.21
      7.0700	  899.00	  809.71	-2180.75	  671.82
      7.1700	  869.00	  807.33	-2180.75	  669.44
      7.2700	  885.00	  804.98	-2180.75	  667.08
      7.3700	  903.00	  802.64	-2180.75	  664.75
      7.4700	  829.00	  800.32	-2180.75	  662.43
      7.5700	  853.00	  798.01	-2180.75	  660.12
      7.6700	  845.00	  795.73	-2180.75	  657.84
      7.7700	  841.00	  793.46	-2180.75	  655.57
      7.8700	  775.00	  791.21	-2180.75	  653.32
      7.9700	  884.00	  788.98	-2180.75	  651.09
      8.0700	  786.00	  786.76	-2180.75	  648.87
      8.1700	  836.00	  784.57	-2180.75	  646.67
      8.2700	  844.00	  782.39	-2180.75	  644.49
      8.3700	  829.00	  780.22	-2180.75	  642.33
      8.4700	  797.00	  778.08	-2180.75	  640.18
      8.5700	  810.00	  775.95	-2180.75	  638.05
      8.6700	  811.00	  773.83	-2180.75	  635.94
      8.7700	  775.00	  771.74	-2180.75	  633.85
      8.8700	  794.00	  769.66	-2180.75	  631.77
      8.9700	  793.00	  767.60	-2180.75	  629.71
      9.0700	  740.00	  765.55	-2180.75	  627.66
      9.1700	  747.00	  763.52	-2180.75	  625.63
      9.2700	  746.00	  761.51	-2180.75	  623.62
      9.3700	  700.00	  759.51	-2180.75	  621.62
      9.4700	  749.00	  757.53	-2180.75	  619.64
      9.5700	  723.00	  755.57	-2180.75	  617.67
      9.6700	  717.00	  753.62	-2180.75	  615.73
      9.7700	  743.00	  751.69	-2180.75	  613.79
      9.8700	  756.00	  749.77	-2180.75	  611.88
      9.9700	  791.00	  747.87	-2180.75	  609.98
     10.0700	  785.00	  747.99	-2143.74	  608.09
     10.1700	  751.00	  746.34	-2176.09	  606.22
     10.2700	  746.00	  744.74	-2179.49	  604.37
     10.3700	  757.00	  743.22	-2166.97	  602.53
     10.4700	  730.00	  741.80	-2192.55	  600.71
     10.5700	  750.00	  740.51	-2171.26	  598.90
     10.6700	  735.00	  739.41	-2185.16	  597.11
     10.7700	  743.00	  738.57	-2176.32	  595.33
     10.8700	  785.00	  738.11	-2133.86	  593.57
     10.9700	  709.00	  738.10	-2209.85	  591.82
     11.0700	  751.00	  738.60	-2168.35	  590.09
     11.1700	  736.00	  739.63	-2184.38	  588.37
     11.2700	  778.00	  741.21	-2143.96	  586.67
     11.3700	  730.00	  743.37	-2194.12	  584.98
     11.4700	  744.00	  746.22	-2182.97	  583.30
     11.5700	  795.00	  749.88	-2135.63	  581.64
     11.6700	  725.00	  754.57	-2210.32	  580.00
     11.7700	  751.00	  760.59	-2190.34	  578.37
     11.8700	  773.00	  768.25	-2176.00	  576.75
     11.9700	  818.00	  777.65	-2140.40	  575.15
     12.0700	  794.00	  788.35	-2175.10	  573.56
     12.1700	  810.00	  798.79	-2169.54	  571.99
     12.2700	  809.00	  805.71	-2177.46	  570.43
     12.3700	  891.00	  804.27	-2094.02	  568.88
     12.4700	  821.00	  791.33	-2151.08	  567.35
     12.5700	  760.00	  770.76	-2191.51	  565.83
     12.6700	  760.00	  750.15	-2170.90	  564.33
     12.7700	  700.00	  733.64	-2214.39	  562.84
     12.8700	  676.00	  721.82	-2226.57	  561.36
     12.9700	  707.00	  713.69	-2187.44	  559.90
     13.0700	  637.00	  708.10	-2251.85	  558.45
     13.1700	  686.00	  704.04	-2198.79	  557.01
     13.2700	  660.00	  700.87	-2221.62	  555.58
     13.3700	  693.00	  698.21	-2185.96	  554.17
     13.4700	  613.00	  695.87	-2263.62	  552.78
     13.5700	  638.00	  693.76	-2236.51	  551.39
     13.6700	  638.00	  691.80	-2234.55	  550.02
     13.7700	  665.00	  689.97	-2205.72	  548.66
     13.8700	  732.00	  688.23	-2136.98	  547.31
     13.9700	  692.00	  686.57	-2175.32	  545.98
     14.0700	  744.00	  684.98	-2121.73	  544.66
     14.1700	  695.00	  683.44	-2169.19	  543.35
     14.2700	  683.00	  681.94	-2179.69	  542.05
     14.3700	  637.00	  680.49	-2224.24	  540.77
     14.4700	  665.00	  679.07	-2194.82	  539.50
     14.5700	  712.00	  677.68	-2146.43	  538.24
     14.6700	  695.00	  676.32	-2162.07	  536.99
     14.7700	  683.00	  674.98	-2172.73	  535.76
     14.8700	  646.00	  673.67	-2208.42	  534.54
     14.9700	  692.00	  672.38	-2161.13	  533.33
     15.0700	  644.00	  671.11	-2207.86	  532.13
     15.1700	  665.00	  669.86	-2185.61	  530.94
     15.2700	  661.00	  668.63	-2188.38	  529.77
     15.3700	  669.00	  667.41	-2179.16	  528.60
     15.4700	  684.00	  666.21	-2162.96	  527.45
     15.5700	  664.00	  665.03	-2181.78	  526.31
     15.6700	  633.00	  663.86	-2211.61	  525.18
     15.7700	  703.00	  662.71	-2140.46	  524.07
     15.8700	  663.00	  661.57	-2179.32	  522.96
     15.9700	  711.00	  660.45	-2130.20	  521.86
     16.0700	  626.00	  659.34	-2214.09	  520.78
     16.1700	  665.00	  658.24	-2173.99	  519.71
     16.2700	  626.00	  657.15	-2211.90	  518.65
     16.3700	  689.00	  656.08	-2147.83	  517.60
     16.4700	  642.00	  655.02	-2193.77	  516.56
     16.5700	  649.00	  653.98	-2185.73	  515.53
     16.6700	  686.00	  652.94	-2147.69	  514.52
     16.7700	  675.00	  651.92	-2157.67	  513.51
     16.8700	  628.00	  650.91	-2203.66	  512.51
     16.9700	  645.00	  649.91	-2185.66	  511.53
     17.0700	  608.00	  648.93	-2221.68	  510.55
     17.1700	  620.00	  647.95	-2208.70	  509.59
     17.2700	  644.00	  646.99	-2183.74	  508.64
     17.3700	  659.00	  646.03	-2167.78	  507.69
     17.4700	  601.00	  645.09	-2224.84	  506.76
     17.5700	  611.00	  644.16	-2213.91	  505.84
     17.6700	  649.00	  643.24	-2174.99	  504.93
     17.7700	  639.00	  642.33	-2184.08	  504.02
     17.8700	  665.00	  641.43	-2157.18	  503.13
     17.9700	  659.00	  640.54	-2162.29	  502.25
     18.0700	  710.00	  639.66	-2110.42	  501.38
     18.1700	  643.00	  638.80	-2176.55	  500.51
     18.2700	  662.00	  637.94	-2156.69	  499.66
     18.3700	  648.00	  637.09	-2169.84	  498.82
     18.4700	  634.00	  636.26	-2183.01	  497.99
     18.5700	  661.00	  635.43	-2155.18	  497.16
     18.6700	  673.00	  634.61	-2142.36	  496.35
     18.7700	  641.00	  633.81	-2173.56	  495.54
     18.8700	  700.00	  633.01	-2113.76	  494.75
     18.9700	  641.00	  632.22	-2171.97	  493.96
     19.0700	  646.00	  634.76	-2169.51	  493.19
     19.1700	  640.00	  634.06	-2174.81	  492.42
     19.2700	  582.00	  633.37	-2232.12	  491.66
     19.3700	  651.00	  632.70	-2162.45	  490.91
     19.4700	  635.00	  632.03	-2177.78	  490.17
     19.5700	  644.00	  631.38	-2168.13	  489.44
     19.6700	  644.00	  630.75	-2167.50	  488.72
     19.7700	  660.00	  630.12	-2150.87	  488.01
     19.8700	  603.00	  629.51	-2207.26	  487.30
     19.9700	  588.00	  628.90	-2221.65	  486.61
     20.0700	  604.00	  628.31	-2205.06	  485.92
     20.1700	  621.00	  627.74	-2187.49	  485.24
     20.2700	  647.00	  627.23	-2160.98	  484.57
     20.3700	  616.00	  626.68	-2191.43	  483.91
     20.4700	  601.00	  626.14	-2205.89	  483.26
     20.5700	  654.00	  625.62	-2152.37	  482.62
     20.6700	  601.00	  625.11	-2204.86	  481.98
     20.7700	  594.00	  624.61	-2211.36	  481.36
     20.8700	  580.00	  624.13	-2224.88	  480.74
     20.9700	  642.00	  623.66	-2162.41	  480.13
     21.0700	  695.00	  623.20	-2108.95	  479.52
     21.1700	  657.00	  622.76	-2146.51	  478.93
     21.2700	  612.00	  622.34	-2191.09	  478.34
     21.3700	  622.00	  621.93	-2180.68	  477.76
     21.4700	  601.00	  621.53	-2201.28	  477.19
     21.5700	  612.00	  621.15	-2189.90	  476.63
     21.6700	  653.00	  620.79	-2148.54	  476.07
     21.7700	  661.00	  620.45	-2140.20	  475.53
     21.8700	  655.00	  620.12	-2145.87	  474.99
     21.9700	  650.00	  619.82	-2150.57	  474.46
     22.0700	  642.00	  619.53	-2158.28	  473.93
     22.1700	  636.00	  619.26	-2164.01	  473.41
     22.2700	  593.00	  619.02	-2206.77	  472.91
     22.3700	  618.00	  618.80	-2181.55	  472.40
     22.4700	  666.00	  618.80	-2133.55	  471.91
     22.5700	  626.00	  618.64	-2173.39	  471.42
     22.6700	  636.00	  618.49	-2163.24	  470.94
     22.7700	  672.00	  618.38	-2127.13	  470.47
     22.8700	  619.00	  618.30	-2180.05	  470.00
     22.9700	  602.00	  618.26	-2197.01	  469.54
     23.0700	  600.00	  618.25	-2199.00	  469.09
     23.1700	  607.00	  618.29	-2192.04	  468.65
     23.2700	  620.00	  618.38	-2179.13	  468.21
     23.3700	  597.00	  618.52	-2202.27	  467.78
     23.4700	  622.00	  618.73	-2177.48	  467.36
     23.5700	  624.00	  619.01	-2175.76	  466.94
     23.6700	  661.00	  619.38	-2139.13	  466.53
     23.7700	  654.00	  619.87	-2146.62	  466.12
     23.8700	  644.00	  620.51	-2157.26	  465.73
     23.9700	  638.00	  621.37	-2164.12	  465.34
     24.0700	  607.00	  622.54	-2196.29	  464.95
     24.1700	  651.00	  624.21	-2153.96	  464.57
     24.2700	  630.00	  626.55	-2177.30	  464.20
     24.3700	  660.00	  630.07	-2150.82	  463.84
     24.4700	  644.00	  635.12	-2171.87	  463.48
     24.5700	  675.00	  642.06	-2147.81	  463.13
     24.6700	  663.00	  650.99	-2168.74	  462.78
     24.7700	  665.00	  661.45	-2177.20	  462.44
     24.8700	  681.00	  672.16	-2171.91	  462.11
     24.9700	  724.00	  680.63	-2137.38	  461.78
     25.0700	  726.00	  683.37	-2138.12	  461.46
     25.1700	  757.00	  678.36	-2102.11	  461.14
     25.2700	  677.00	  668.22	-2171.97	  460.83
     25.3700	  686.00	  657.74	-2152.49	  460.53
     25.4700	  684.00	  649.73	-2146.48	  460.23
     25.5700	  638.00	  644.60	-2187.35	  459.94
     25.6700	  630.00	  642.03	-2192.78	  459.65
     25.7700	  680.00	  641.36	-2142.11	  459.37
     25.8700	  695.00	  641.99	-2127.74	  459.10
     25.9700	  592.00	  643.53	-2232.28	  458.83
     26.0700	  646.00	  645.78	-2180.53	  458.56
     26.1700	  669.00	  648.65	-2160.40	  458.31
     26.2700	  686.00	  652.15	-2146.90	  458.05
     26.3700	  615.00	  656.32	-2222.07	  457.80
     26.4700	  636.00	  661.25	-2206.00	  457.56
     26.5700	  616.00	  667.07	-2231.82	  457.33
     26.6700	  660.00	  673.93	-2194.68	  457.09
     26.7700	  648.00	  682.07	-2214.82	  456.87
     26.8700	  642.00	  691.78	-2230.53	  456.65
     26.9700	  685.00	  703.46	-2199.21	  456.43
     27.0700	  695.00	  717.63	-2203.38	  456.22
     27.1700	  695.00	  735.06	-2220.81	  456.01
     27.2700	  698.00	  756.85	-2239.60	  455.81
     27.3700	  735.00	  784.69	-2230.44	  455.62
     27.4700	  765.00	  821.72	-2237.47	  455.42
     27.5700	  868.00	  874.51	-2187.26	  455.24
     27.6700	  843.00	  957.57	-2295.32	  455.06
     27.7700	  936.00	 1100.91	-2345.66	  454.88
     27.8700	 1025.00	 1359.30	-2515.05	  454.71
     27.9700	 1361.00	 1818.09	-2637.84	  454.54
     28.0700	 1985.00	 2582.31	-2778.06	  454.38
     28.1700	 3362.00	 3731.42	-2550.17	  454.22
     28.2700	 5458.00	 5226.50	-1949.25	  454.07
     28.3700	 7549.00	 6780.55	-1412.30	  453.92
     28.4700	 8723.00	 7798.37	-1256.12	  453.77
     28.5700	 8410.00	 7622.59	-1393.34	  453.63
     28.6700	 6431.00	 6343.07	-2092.82	  453.50
     28.7700	 4581.00	 4933.37	-2533.12	  453.37
     28.8700	 3763.00	 4116.93	-2534.68	  453.24
     28.9700	 4034.00	 4007.15	-2153.90	  453.12
     29.0700	 4513.00	 4317.67	-1985.42	  453.00
     29.1700	 5078.00	 4579.04	-1681.79	  452.88
     29.2700	 4532.00	 4352.59	-2001.34	  452.77
     29.3700	 3542.00	 3583.83	-2222.58	  452.67
     29.4700	 2514.00	 2657.36	-2324.11	  452.57
     29.5700	 1737.00	 1898.15	-2341.90	  452.47
     29.6700	 1335.00	 1396.60	-2242.35	  452.37
     29.7700	  979.00	 1109.67	-2311.42	  452.28
     29.8700	  977.00	  956.59	-2160.34	  452.20
     29.9700	  948.00	  872.33	-2105.08	  452.11
     30.0700	  824.00	  820.45	-2177.20	  452.04
     30.1700	  749.00	  784.63	-2216.38	  451.96
     30.2700	  755.00	  758.28	-2184.03	  451.89
     30.3700	  742.00	  738.64	-2177.39	  451.82
     30.4700	  737.00	  724.63	-2168.38	  451.76
     30.5700	  711.00	  716.25	-2186.00	  451.70
     30.6700	  709.00	  714.43	-2186.18	  451.64
     30.7700	  692.00	  720.67	-2209.42	  451.59
     30.8700	  753.00	  735.97	-2163.72	  451.54
     30.9700	  697.00	  759.06	-2242.81	  451.50
     31.0700	  832.00	  784.64	-2133.39	  451.45
     31.1700	  840.00	  802.63	-2143.38	  451.41
     31.2700	  822.00	  800.43	-2159.18	  451.38
     31.3700	  768.00	  773.85	-2186.60	  451.35
     31.4700	  744.00	  735.18	-2171.93	  451.32
     31.5700	  718.00	  699.16	-2161.91	  451.29
     31.6700	  705.00	  672.21	-2147.96	  451.27
     31.7700	  660.00	  654.56	-2175.31	  451.25
     31.8700	  645.00	  643.81	-2179.56	  451.23
     31.9700	  681.00	  637.29	-2137.04	  451.22
     32.0700	  620.00	  633.08	-2193.83	  451.21
     32.1700	  667.00	  630.10	-2143.85	  451.20
     32.2700	  648.00	  627.87	-2160.62	  451.20
     32.3700	  610.00	  626.18	-2196.93	  451.20
     32.4700	  692.00	  624.92	-2113.67	  451.20
     32.5700	  681.00	  624.05	-2123.80	  451.21
     32.6700	  631.00	  623.55	-2173.30	  451.21
     32.7700	  672.00	  623.43	-2132.18	  451.22
     32.8700	  645.00	  623.70	-2159.45	  451.24
     32.9700	  616.00	  624.46	-2189.21	  451.25
     33.0700	  676.00	  625.72	-2130.47	  451.27
     33.1700	  680.00	  627.67	-2128.42	  451.29
     33.2700	  626.00	  630.54	-2185.29	  451.32
     33.3700	  628.00	  634.79	-2187.54	  451.34
     33.4700	  646.00	  641.36	-2176.11	  451.37
     33.5700	  673.00	  652.04	-2159.79	  451.40
     33.6700	  672.00	  670.10	-2178.85	  451.44
     33.7700	  693.00	  700.75	-2188.50	  451.48
     33.8700	  737.00	  750.67	-2194.42	  451.51
     33.9700	  795.00	  825.62	-2211.37	  451.56
     34.0700	  972.00	  925.34	-2134.09	  451.60
     34.1700	 1192.00	 1037.48	-2026.23	  451.65
     34.2700	 1239.00	 1134.21	-2075.96	  451.70
     34.3700	 1287.00	 1175.51	-2069.26	  451.75
     34.4700	 1166.00	 1133.21	-2147.96	  451.80
     34.5700	 1164.00	 1026.92	-2043.67	  451.86
     34.6700	  926.00	  906.19	-2160.94	  451.91
     34.7700	  831.00	  804.33	-2154.08	  451.97
     34.8700	  725.00	  731.64	-2187.39	  452.03
     34.9700	  704.00	  685.42	-2162.17	  452.10
     35.0700	  704.00	  658.14	-2134.89	  452.16
     35.1700	  694.00	  642.34	-2129.09	  452.23
     35.2700	  691.00	  632.76	-2122.51	  452.30
     35.3700	  646.00	  626.44	-2161.19	  452.38
     35.4700	  621.00	  621.91	-2181.66	  452.45
     35.5700	  647.00	  618.47	-2152.22	  452.53
     35.6700	  626.00	  615.79	-2170.54	  452.60
     35.7700	  616.00	  613.65	-2178.40	  452.68
     35.8700	  636.00	  611.94	-2156.69	  452.76
     35.9700	  630.00	  610.57	-2161.32	  452.85
     36.0700	  572.00	  609.47	-2218.22	  452.93
     36.1700	  589.00	  608.64	-2200.39	  453.02
     36.2700	  632.00	  607.96	-2156.71	  453.11
     36.3700	  590.00	  607.45	-2198.20	  453.20
     36.4700	  636.00	  607.10	-2151.85	  453.29
     36.5700	  652.00	  606.89	-2135.64	  453.38
     36.6700	  587.00	  606.83	-2200.58	  453.48
     36.7700	  676.00	  606.93	-2111.68	  453.58
     36.8700	  642.00	  607.20	-2145.95	  453.67
     36.9700	  614.00	  607.68	-2174.43	  453.77
     37.0700	  599.00	  608.39	-2190.14	  453.88
     37.1700	  616.00	  610.16	-2174.91	  453.98
     37.2700	  608.00	  611.68	-2184.43	  454.08
     37.3700	  614.00	  613.93	-2180.68	  454.19
     37.4700	  587.00	  617.30	-2211.05	  454.29
     37.5700	  662.00	  622.60	-2141.35	  454.40
     37.6700	  645.00	  630.93	-2166.68	  454.51
     37.7700	  640.00	  643.92	-2184.67	  454.62
     37.8700	  651.00	  663.32	-2193.07	  454.73
     37.9700	  663.00	  690.31	-2208.06	  454.85
     38.0700	  716.00	  722.18	-2186.93	  454.96
     38.1700	  752.00	  759.04	-2187.79	  455.08
     38.2700	  778.00	  790.94	-2193.69	  455.20
     38.3700	  788.00	  806.56	-2199.31	  455.31
     38.4700	  752.00	  796.68	-2225.43	  455.43
     38.5700	  759.00	  764.55	-2186.30	  455.55
     38.6700	  696.00	  724.04	-2208.79	  455.67
     38.7700	  663.00	  686.89	-2204.64	  455.80
     38.8700	  625.00	  658.12	-2213.87	  455.92
     38.9700	  632.00	  638.29	-2187.04	  456.04
     39.0700	  609.00	  625.72	-2197.47	  456.17
     39.1700	  616.00	  618.13	-2182.88	  456.30
     39.2700	  612.00	  613.57	-2182.32	  456.42
     39.3700	  626.00	  610.70	-2165.45	  456.55
     39.4700	  624.00	  608.76	-2165.51	  456.68
     39.5700	  614.00	  606.19	-2172.94	  456.81
     39.6700	  623.00	  605.16	-2162.91	  456.94
     39.7700	  633.00	  604.37	-2152.12	  457.07
     39.8700	  628.00	  603.76	-2156.51	  457.20
     39.9700	  595.00	  603.30	-2189.05	  457.34
     40.0700	  583.00	  602.94	-2200.69	  457.47
     40.1700	  608.00	  602.68	-2175.43	  457.60
     40.2700	  622.00	  602.50	-2161.25	  457.74
     40.3700	  599.00	  602.38	-2184.12	  457.87
     40.4700	  598.00	  602.31	-2185.06	  458.01
     40.5700	  590.00	  602.29	-2193.04	  458.15
     40.6700	  570.00	  602.32	-2213.07	  458.28
     40.7700	  581.00	  602.39	-2202.14	  458.42
