MSG Master    CELL:    5.87965   5.87965  23.09723   90.0000   90.0000  120.0000   SPGR: P 63/m m c             TEMP:    513.05
  2   1280     2.52000     0.00000    -0.08496     0.00000     0.00000    0
    96    96     0     0     2
       0.00000      10.00000
     125.00000     130.00000
 2Theta	Yobs	Ycal	Yobs-Ycal	Backg	Posr	(hkl)	K
      0.7700	    0.00	  947.24	-2077.25	  811.02
      0.8700	    0.00	  944.15	-2077.25	  807.93
      0.9700	   41.00	  941.08	-2077.25	  804.86
      1.0700	   60.00	  938.02	-2077.25	  801.80
      1.1700	   43.00	  934.99	-2077.25	  798.77
      1.2700	   55.00	  931.97	-2077.25	  795.75
      1.3700	   44.00	  928.98	-2077.25	  792.76
      1.4700	   89.00	  926.00	-2077.25	  789.78
      1.5700	  277.00	  923.04	-2077.25	  786.82
      1.6700	  448.00	  920.10	-2077.25	  783.88
      1.7700	  562.00	  917.17	-2077.25	  780.95
      1.8700	  638.00	  914.27	-2077.25	  778.05
      1.9700	  686.00	  911.38	-2077.25	  775.16
      2.0700	  790.00	  908.51	-2077.25	  772.29
      2.1700	  799.00	  905.66	-2077.25	  769.44
      2.2700	  762.00	  902.83	-2077.25	  766.61
      2.3700	  750.00	  900.02	-2077.25	  763.80
      2.4700	  716.00	  897.22	-2077.25	  761.00
      2.5700	  703.00	  894.44	-2077.25	  758.22
      2.6700	  683.00	  891.68	-2077.25	  755.46
      2.7700	  684.00	  888.94	-2077.25	  752.72
      2.8700	  623.00	  886.21	-2077.25	  749.99
      2.9700	  664.00	  883.50	-2077.25	  747.28
      3.0700	  599.00	  880.81	-2077.25	  744.59
      3.1700	  628.00	  878.13	-2077.25	  741.92
      3.2700	  759.00	  875.48	-2077.25	  739.26
      3.3700	  911.00	  872.84	-2077.25	  736.62
      3.4700	 1054.00	  870.22	-2077.25	  734.00
      3.5700	 1229.00	  867.61	-2077.25	  731.39
      3.6700	 1333.00	  865.02	-2077.25	  728.80
      3.7700	 1395.00	  862.45	-2077.25	  726.23
      3.8700	 1492.00	  859.89	-2077.25	  723.68
      3.9700	 1587.00	  857.36	-2077.25	  721.14
      4.0700	 1642.00	  854.83	-2077.25	  718.62
      4.1700	 1706.00	  852.33	-2077.25	  716.11
      4.2700	 1724.00	  849.84	-2077.25	  713.62
      4.3700	 1596.00	  847.37	-2077.25	  711.15
      4.4700	 1567.00	  844.91	-2077.25	  708.69
      4.5700	 1516.00	  842.47	-2077.25	  706.25
      4.6700	 1518.00	  840.05	-2077.25	  703.83
      4.7700	 1398.00	  837.64	-2077.25	  701.42
      4.8700	 1430.00	  835.25	-2077.25	  699.03
      4.9700	 1423.00	  832.88	-2077.25	  696.66
      5.0700	 1400.00	  830.52	-2077.25	  694.30
      5.1700	 1295.00	  828.18	-2077.25	  691.96
      5.2700	 1275.00	  825.85	-2077.25	  689.63
      5.3700	 1253.00	  823.54	-2077.25	  687.32
      5.4700	 1226.00	  821.24	-2077.25	  685.02
      5.5700	 1282.00	  818.96	-2077.25	  682.74
      5.6700	 1161.00	  816.70	-2077.25	  680.48
      5.7700	 1187.00	  814.45	-2077.25	  678.23
      5.8700	 1132.00	  812.22	-2077.25	  676.00
      5.9700	 1131.00	  810.00	-2077.25	  673.78
      6.0700	 1082.00	  807.79	-2077.25	  671.57
      6.1700	 1051.00	  805.61	-2077.25	  669.39
      6.2700	 1025.00	  803.43	-2077.25	  667.21
      6.3700	 1030.00	  801.28	-2077.25	  665.06
      6.4700	 1022.00	  799.13	-2077.25	  662.91
      6.5700	  967.00	  797.01	-2077.25	  660.79
      6.6700	  960.00	  794.89	-2077.25	  658.67
      6.7700	  960.00	  792.80	-2077.25	  656.58
      6.8700	  998.00	  790.71	-2077.25	  654.49
      6.9700	  911.00	  788.64	-2077.25	  652.42
      7.0700	  896.00	  786.59	-2077.25	  650.37
      7.1700	  918.00	  784.55	-2077.25	  648.33
      7.2700	  911.00	  782.52	-2077.25	  646.31
      7.3700	  892.00	  780.51	-2077.25	  644.30
      7.4700	  838.00	  778.52	-2077.25	  642.30
      7.5700	  849.00	  776.54	-2077.25	  640.32
      7.6700	  804.00	  774.57	-2077.25	  638.35
      7.7700	  801.00	  772.61	-2077.25	  636.40
      7.8700	  836.00	  770.68	-2077.25	  634.46
      7.9700	  824.00	  768.75	-2077.25	  632.53
      8.0700	  760.00	  766.84	-2077.25	  630.62
      8.1700	  825.00	  764.94	-2077.25	  628.72
      8.2700	  768.00	  763.06	-2077.25	  626.84
      8.3700	  791.00	  761.19	-2077.25	  624.97
      8.4700	  778.00	  759.33	-2077.25	  623.11
      8.5700	  798.00	  757.49	-2077.25	  621.27
      8.6700	  737.00	  755.66	-2077.25	  619.44
      8.7700	  786.00	  753.84	-2077.25	  617.62
      8.8700	  790.00	  752.04	-2077.25	  615.82
      8.9700	  801.00	  750.25	-2077.25	  614.03
      9.0700	  757.00	  748.48	-2077.25	  612.26
      9.1700	  755.00	  746.71	-2077.25	  610.50
      9.2700	  811.00	  744.97	-2077.25	  608.75
      9.3700	  776.00	  743.23	-2077.25	  607.01
      9.4700	  729.00	  741.51	-2077.25	  605.29
      9.5700	  701.00	  739.80	-2077.25	  603.58
      9.6700	  749.00	  738.10	-2077.25	  601.88
      9.7700	  703.00	  736.42	-2077.25	  600.20
      9.8700	  770.00	  734.75	-2077.25	  598.53
      9.9700	  721.00	  733.09	-2077.25	  596.87
     10.0700	  724.00	  733.55	-2086.80	  595.22
     10.1700	  742.00	  732.15	-2067.40	  593.59
     10.2700	  747.00	  730.80	-2061.05	  591.97
     10.3700	  766.00	  729.52	-2040.77	  590.36
     10.4700	  680.00	  728.34	-2125.59	  588.77
     10.5700	  741.00	  727.29	-2063.54	  587.18
     10.6700	  739.00	  726.44	-2064.69	  585.61
     10.7700	  742.00	  725.87	-2061.12	  584.05
     10.8700	  713.00	  725.66	-2089.91	  582.51
     10.9700	  734.00	  725.92	-2069.17	  580.97
     11.0700	  735.00	  726.68	-2068.93	  579.45
     11.1700	  742.00	  727.98	-2063.23	  577.94
     11.2700	  717.00	  729.83	-2090.08	  576.44
     11.3700	  737.00	  732.28	-2072.53	  574.96
     11.4700	  711.00	  735.41	-2101.66	  573.48
     11.5700	  685.00	  739.38	-2131.63	  572.02
     11.6700	  736.00	  744.39	-2085.64	  570.57
     11.7700	  736.00	  750.75	-2092.00	  569.13
     11.8700	  769.00	  758.75	-2067.00	  567.70
     11.9700	  838.00	  768.45	-2007.70	  566.29
     12.0700	  786.00	  779.35	-2070.60	  564.88
     12.1700	  834.00	  789.81	-2033.06	  563.49
     12.2700	  863.00	  796.50	-2010.75	  562.11
     12.3700	  872.00	  794.62	-1999.87	  560.74
     12.4700	  789.00	  781.35	-2069.60	  559.38
     12.5700	  747.00	  760.88	-2091.13	  558.03
     12.6700	  745.00	  740.63	-2072.88	  556.70
     12.7700	  722.00	  724.53	-2079.78	  555.37
     12.8700	  671.00	  712.97	-2119.22	  554.06
     12.9700	  728.00	  705.06	-2054.31	  552.76
     13.0700	  625.00	  699.64	-2151.89	  551.46
     13.1700	  645.00	  695.73	-2127.98	  550.18
     13.2700	  645.00	  692.69	-2124.94	  548.91
     13.3700	  625.00	  690.17	-2142.42	  547.65
     13.4700	  685.00	  687.97	-2080.22	  546.40
     13.5700	  679.00	  685.99	-2084.24	  545.17
     13.6700	  621.00	  684.17	-2140.42	  543.94
     13.7700	  670.00	  682.47	-2089.72	  542.72
     13.8700	  659.00	  680.87	-2099.12	  541.51
     13.9700	  709.00	  679.34	-2047.59	  540.32
     14.0700	  619.00	  677.88	-2136.13	  539.13
     14.1700	  674.00	  676.46	-2079.71	  537.96
     14.2700	  735.00	  675.10	-2017.35	  536.79
     14.3700	  701.00	  673.77	-2050.02	  535.64
     14.4700	  661.00	  672.47	-2088.72	  534.49
     14.5700	  673.00	  671.20	-2075.45	  533.36
     14.6700	  682.00	  669.96	-2065.21	  532.23
     14.7700	  633.00	  668.75	-2113.00	  531.12
     14.8700	  671.00	  667.55	-2073.80	  530.01
     14.9700	  687.00	  666.37	-2056.62	  528.92
     15.0700	  674.00	  665.22	-2068.47	  527.83
     15.1700	  612.00	  664.08	-2129.33	  526.76
     15.2700	  672.00	  662.95	-2068.20	  525.69
     15.3700	  677.00	  661.84	-2062.09	  524.64
     15.4700	  652.00	  660.75	-2086.00	  523.59
     15.5700	  665.00	  659.67	-2071.92	  522.56
     15.6700	  662.00	  658.60	-2073.85	  521.53
     15.7700	  688.00	  657.55	-2046.80	  520.51
     15.8700	  646.00	  656.51	-2087.76	  519.50
     15.9700	  672.00	  655.48	-2060.73	  518.51
     16.0700	  636.00	  654.46	-2095.71	  517.52
     16.1700	  621.00	  653.45	-2109.70	  516.54
     16.2700	  674.00	  652.46	-2055.71	  515.57
     16.3700	  639.00	  651.48	-2089.73	  514.60
     16.4700	  641.00	  650.50	-2086.75	  513.65
     16.5700	  674.00	  649.54	-2052.79	  512.71
     16.6700	  640.00	  648.59	-2085.84	  511.78
     16.7700	  641.00	  647.65	-2083.90	  510.85
     16.8700	  635.00	  646.72	-2088.97	  509.93
     16.9700	  662.00	  645.80	-2061.05	  509.03
     17.0700	  679.00	  644.88	-2043.13	  508.13
     17.1700	  637.00	  643.98	-2084.23	  507.24
     17.2700	  652.00	  643.09	-2068.34	  506.36
     17.3700	  659.00	  642.21	-2060.46	  505.48
     17.4700	  621.00	  641.33	-2097.58	  504.62
     17.5700	  607.00	  640.47	-2110.72	  503.77
     17.6700	  633.00	  639.62	-2083.87	  502.92
     17.7700	  611.00	  638.77	-2105.02	  502.08
     17.8700	  657.00	  637.93	-2058.18	  501.25
     17.9700	  645.00	  637.11	-2069.36	  500.43
     18.0700	  637.00	  636.29	-2076.54	  499.62
     18.1700	  654.00	  635.48	-2058.73	  498.81
     18.2700	  646.00	  634.68	-2065.93	  498.02
     18.3700	  634.00	  633.88	-2077.13	  497.23
     18.4700	  624.00	  633.10	-2086.35	  496.45
     18.5700	  686.00	  632.33	-2023.58	  495.67
     18.6700	  642.00	  631.56	-2066.81	  494.91
     18.7700	  695.00	  630.80	-2013.05	  494.15
     18.8700	  646.00	  630.05	-2061.30	  493.41
     18.9700	  601.00	  629.31	-2105.56	  492.67
     19.0700	  627.00	  628.58	-2078.83	  491.93
     19.1700	  651.00	  630.92	-2057.17	  491.21
     19.2700	  663.00	  630.27	-2044.52	  490.49
     19.3700	  617.00	  629.63	-2089.88	  489.78
     19.4700	  667.00	  629.00	-2039.25	  489.08
     19.5700	  599.00	  628.38	-2106.63	  488.39
     19.6700	  645.00	  627.77	-2060.02	  487.70
     19.7700	  617.00	  627.17	-2087.42	  487.02
     19.8700	  628.00	  626.58	-2075.83	  486.35
     19.9700	  630.00	  626.00	-2073.25	  485.69
     20.0700	  651.00	  625.44	-2051.69	  485.03
     20.1700	  592.00	  624.88	-2110.13	  484.38
     20.2700	  607.00	  624.40	-2094.65	  483.74
     20.3700	  583.00	  623.86	-2118.11	  483.11
     20.4700	  609.00	  623.34	-2091.59	  482.48
     20.5700	  630.00	  622.83	-2070.08	  481.86
     20.6700	  627.00	  622.33	-2072.58	  481.25
     20.7700	  609.00	  621.85	-2090.10	  480.64
     20.8700	  556.00	  621.37	-2142.62	  480.04
     20.9700	  614.00	  620.91	-2084.16	  479.45
     21.0700	  637.00	  620.46	-2060.71	  478.87
     21.1700	  637.00	  620.03	-2060.28	  478.29
     21.2700	  669.00	  619.60	-2027.85	  477.72
     21.3700	  638.00	  619.19	-2058.44	  477.15
     21.4700	  634.00	  618.80	-2062.05	  476.59
     21.5700	  628.00	  618.42	-2067.67	  476.04
     21.6700	  594.00	  618.06	-2101.31	  475.50
     21.7700	  644.00	  617.71	-2050.96	  474.96
     21.8700	  616.00	  617.37	-2078.62	  474.43
     21.9700	  654.00	  617.06	-2040.31	  473.91
     22.0700	  612.00	  616.76	-2082.01	  473.39
     22.1700	  638.00	  616.48	-2055.73	  472.88
     22.2700	  621.00	  616.22	-2072.47	  472.37
     22.3700	  679.00	  615.99	-2014.24	  471.87
     22.4700	  624.00	  615.97	-2069.22	  471.38
     22.5700	  608.00	  615.78	-2085.03	  470.90
     22.6700	  660.00	  615.62	-2032.87	  470.42
     22.7700	  597.00	  615.48	-2095.73	  469.94
     22.8700	  646.00	  615.38	-2046.63	  469.48
     22.9700	  641.00	  615.31	-2051.56	  469.01
     23.0700	  603.00	  615.27	-2089.52	  468.56
     23.1700	  616.00	  615.28	-2076.53	  468.11
     23.2700	  628.00	  615.34	-2064.59	  467.67
     23.3700	  609.00	  615.45	-2083.70	  467.23
     23.4700	  630.00	  615.62	-2062.87	  466.80
     23.5700	  662.00	  615.86	-2031.11	  466.37
     23.6700	  618.00	  616.20	-2075.45	  465.96
     23.7700	  645.00	  616.66	-2048.91	  465.54
     23.8700	  633.00	  617.28	-2061.53	  465.13
     23.9700	  660.00	  618.12	-2035.37	  464.73
     24.0700	  646.00	  619.29	-2050.54	  464.34
     24.1700	  638.00	  620.98	-2060.23	  463.95
     24.2700	  609.00	  623.45	-2091.70	  463.56
     24.3700	  653.00	  627.02	-2051.27	  463.18
     24.4700	  637.00	  632.23	-2072.48	  462.81
     24.5700	  704.00	  639.34	-2012.59	  462.44
     24.6700	  672.00	  648.38	-2053.63	  462.08
     24.7700	  720.00	  658.82	-2016.07	  461.72
     24.8700	  714.00	  669.23	-2032.48	  461.37
     24.9700	  739.00	  677.01	-2015.26	  461.02
     25.0700	  745.00	  678.72	-2010.97	  460.68
     25.1700	  719.00	  672.79	-2031.04	  460.34
     25.2700	  662.00	  662.30	-2077.55	  460.01
     25.3700	  665.00	  651.89	-2064.14	  459.68
     25.4700	  637.00	  644.02	-2084.27	  459.36
     25.5700	  599.00	  638.97	-2117.22	  459.05
     25.6700	  661.00	  636.36	-2052.61	  458.74
     25.7700	  665.00	  635.56	-2047.81	  458.43
     25.8700	  651.00	  635.99	-2062.24	  458.13
     25.9700	  622.00	  637.28	-2092.53	  457.83
     26.0700	  662.00	  639.23	-2054.48	  457.54
     26.1700	  702.00	  641.76	-2017.01	  457.26
     26.2700	  636.00	  644.87	-2086.12	  456.98
     26.3700	  620.00	  648.62	-2105.87	  456.70
     26.4700	  658.00	  653.06	-2072.31	  456.43
     26.5700	  694.00	  658.32	-2041.57	  456.16
     26.6700	  658.00	  664.55	-2083.80	  455.90
     26.7700	  666.00	  671.96	-2083.21	  455.64
     26.8700	  694.00	  680.81	-2064.06	  455.39
     26.9700	  688.00	  691.48	-2080.73	  455.14
     27.0700	  665.00	  704.46	-2116.71	  454.90
     27.1700	  649.00	  720.46	-2148.71	  454.66
     27.2700	  689.00	  740.49	-2128.74	  454.43
     27.3700	  694.00	  766.16	-2149.41	  454.20
     27.4700	  762.00	  800.45	-2115.70	  453.97
     27.5700	  755.00	  849.71	-2171.96	  453.75
     27.6700	  807.00	  928.09	-2198.34	  453.53
     27.7700	  849.00	 1064.87	-2293.12	  453.32
     27.8700	  995.00	 1313.37	-2395.62	  453.11
     27.9700	 1282.00	 1755.96	-2551.21	  452.91
     28.0700	 1923.00	 2492.73	-2646.98	  452.71
     28.1700	 3240.00	 3596.89	-2434.14	  452.51
     28.2700	 5278.00	 5022.46	-1821.71	  452.32
     28.3700	 7185.00	 6477.44	-1369.69	  452.13
     28.4700	 8309.00	 7375.54	-1143.79	  451.95
     28.5700	 7640.00	 7109.42	-1546.67	  451.77
     28.6700	 5851.00	 5845.64	-2071.89	  451.59
     28.7700	 4238.00	 4533.41	-2372.66	  451.42
     28.8700	 3570.00	 3815.54	-2322.79	  451.25
     28.9700	 3856.00	 3759.68	-1980.93	  451.09
     29.0700	 4288.00	 4070.46	-1859.71	  450.93
     29.1700	 4647.00	 4297.01	-1727.26	  450.77
     29.2700	 4095.00	 4041.62	-2023.87	  450.62
     29.3700	 3323.00	 3295.29	-2049.54	  450.47
     29.4700	 2312.00	 2434.15	-2199.40	  450.33
     29.5700	 1591.00	 1745.28	-2231.53	  450.19
     29.6700	 1203.00	 1298.52	-2172.77	  450.05
     29.7700	  992.00	 1046.70	-2131.95	  449.92
     29.8700	  888.00	  913.34	-2102.59	  449.79
     29.9700	  844.00	  839.73	-2072.98	  449.66
     30.0700	  866.00	  794.02	-2005.27	  449.54
     30.1700	  733.00	  762.30	-2106.55	  449.42
     30.2700	  757.00	  738.99	-2059.24	  449.30
     30.3700	  682.00	  721.84	-2117.09	  449.19
     30.4700	  730.00	  710.04	-2057.29	  449.08
     30.5700	  741.00	  703.87	-2040.12	  448.97
     30.6700	  713.00	  704.55	-2068.80	  448.87
     30.7700	  745.00	  713.81	-2046.06	  448.77
     30.8700	  743.00	  732.68	-2066.93	  448.68
     30.9700	  767.00	  759.47	-2069.72	  448.58
     31.0700	  785.00	  788.00	-2080.25	  448.49
     31.1700	  814.00	  806.86	-2070.11	  448.41
     31.2700	  812.00	  802.59	-2067.84	  448.33
     31.3700	  777.00	  772.31	-2072.56	  448.25
     31.4700	  755.00	  730.57	-2052.82	  448.17
     31.5700	  707.00	  692.73	-2062.98	  448.10
     31.6700	  666.00	  664.94	-2076.19	  448.02
     31.7700	  647.00	  647.01	-2077.26	  447.96
     31.8700	  672.00	  636.24	-2041.49	  447.89
     31.9700	  667.00	  629.76	-2040.01	  447.83
     32.0700	  638.00	  625.59	-2064.84	  447.77
     32.1700	  665.00	  622.65	-2034.90	  447.72
     32.2700	  681.00	  620.45	-2016.70	  447.66
     32.3700	  632.00	  618.78	-2064.03	  447.61
     32.4700	  643.00	  617.55	-2051.80	  447.57
     32.5700	  704.00	  616.70	-1989.95	  447.52
     32.6700	  615.00	  616.21	-2078.46	  447.48
     32.7700	  666.00	  616.08	-2027.33	  447.44
     32.8700	  685.00	  616.39	-2008.64	  447.40
     32.9700	  654.00	  617.11	-2040.36	  447.37
     33.0700	  655.00	  618.36	-2040.61	  447.34
     33.1700	  674.00	  620.29	-2023.54	  447.31
     33.2700	  678.00	  623.14	-2022.39	  447.28
     33.3700	  668.00	  627.41	-2036.66	  447.26
     33.4700	  612.00	  634.05	-2099.30	  447.24
     33.5700	  688.00	  644.93	-2034.18	  447.22
     33.6700	  667.00	  663.38	-2073.63	  447.21
     33.7700	  679.00	  694.59	-2092.84	  447.19
     33.8700	  715.00	  745.02	-2107.27	  447.18
     33.9700	  784.00	  819.76	-2113.01	  447.17
     34.0700	  955.00	  917.45	-2039.70	  447.17
     34.1700	 1095.00	 1024.67	-2006.92	  447.16
     34.2700	 1214.00	 1113.03	-1976.28	  447.16
     34.3700	 1243.00	 1143.90	-1978.15	  447.16
     34.4700	 1163.00	 1094.29	-2008.54	  447.16
     34.5700	 1018.00	  988.54	-2047.79	  447.17
     34.6700	  932.00	  873.93	-2019.18	  447.18
     34.7700	  791.00	  779.43	-2065.68	  447.19
     34.8700	  751.00	  712.96	-2039.21	  447.20
     34.9700	  714.00	  671.09	-2034.34	  447.21
     35.0700	  683.00	  646.46	-2040.71	  447.23
     35.1700	  693.00	  632.13	-2016.38	  447.25
     35.2700	  639.00	  623.36	-2061.61	  447.27
     35.3700	  612.00	  617.49	-2082.74	  447.29
     35.4700	  611.00	  613.24	-2079.49	  447.31
     35.5700	  637.00	  609.99	-2050.24	  447.34
     35.6700	  563.00	  607.43	-2121.68	  447.37
     35.7700	  640.00	  605.40	-2042.65	  447.40
     35.8700	  579.00	  603.75	-2102.00	  447.43
     35.9700	  571.00	  602.43	-2108.68	  447.46
     36.0700	  617.00	  601.35	-2061.60	  447.50
     36.1700	  583.00	  600.50	-2094.75	  447.53
     36.2700	  595.00	  599.82	-2082.07	  447.57
     36.3700	  609.00	  599.31	-2067.56	  447.61
     36.4700	  597.00	  598.95	-2079.20	  447.66
     36.5700	  581.00	  598.73	-2094.98	  447.70
     36.6700	  591.00	  598.66	-2084.91	  447.75
     36.7700	  616.00	  598.74	-2059.99	  447.79
     36.8700	  577.00	  598.99	-2099.24	  447.84
     36.9700	  622.00	  599.49	-2054.74	  447.89
     37.0700	  599.00	  600.38	-2078.63	  447.95
     37.1700	  587.00	  601.42	-2091.67	  448.00
     37.2700	  598.00	  603.44	-2082.69	  448.06
     37.3700	  609.00	  605.72	-2073.97	  448.11
     37.4700	  580.00	  609.21	-2106.46	  448.17
     37.5700	  583.00	  614.62	-2108.87	  448.23
     37.6700	  620.00	  623.17	-2080.42	  448.29
     37.7700	  639.00	  636.37	-2074.62	  448.36
     37.8700	  647.00	  655.82	-2086.07	  448.42
     37.9700	  692.00	  682.40	-2067.65	  448.49
     38.0700	  714.00	  713.22	-2076.47	  448.56
     38.1700	  739.00	  747.72	-2085.97	  448.62
     38.2700	  754.00	  776.10	-2099.35	  448.69
     38.3700	  766.00	  787.54	-2098.79	  448.77
     38.4700	  767.00	  774.54	-2084.79	  448.84
     38.5700	  704.00	  742.12	-2115.37	  448.91
     38.6700	  711.00	  703.73	-2069.98	  448.99
     38.7700	  636.00	  669.54	-2110.79	  449.06
     38.8700	  619.00	  643.51	-2101.76	  449.14
     38.9700	  613.00	  625.76	-2090.01	  449.22
     39.0700	  608.00	  614.57	-2083.82	  449.30
     39.1700	  609.00	  607.81	-2076.06	  449.38
     39.2700	  623.00	  603.70	-2057.95	  449.46
     39.3700	  595.00	  601.08	-2083.33	  449.55
     39.4700	  582.00	  598.19	-2093.44	  449.63
     39.5700	  623.00	  596.89	-2051.14	  449.71
     39.6700	  595.00	  595.90	-2078.15	  449.80
     39.7700	  573.00	  595.13	-2099.38	  449.89
     39.8700	  613.00	  594.54	-2058.79	  449.98
     39.9700	  618.00	  594.07	-2053.32	  450.07
     40.0700	  624.00	  593.71	-2046.96	  450.16
     40.1700	  569.00	  593.44	-2101.69	  450.25
     40.2700	  567.00	  593.23	-2103.48	  450.34
     40.3700	  557.00	  593.09	-2113.34	  450.43
     40.4700	  610.00	  593.00	-2060.25	  450.53
     40.5700	  548.00	  592.96	-2122.21	  450.62
     40.6700	  576.00	  592.96	-2094.21	  450.72
     40.7700	  589.00	  593.00	-2081.25	  450.81
