MSG Master    CELL:    5.88009   5.88009  23.09787   90.0000   90.0000  120.0000   SPGR: P 63/m m c             TEMP:    516.65
  2   1280     2.52000     0.00000    -0.08485     0.00000     0.00000    0
    95    95     0     0     2
       0.00000      10.00000
     125.00000     130.00000
 2Theta	Yobs	Ycal	Yobs-Ycal	Backg	Posr	(hkl)	K
      0.7700	    1.00	  940.91	-2057.25	  804.89
      0.8700	    0.00	  937.79	-2057.25	  801.77
      0.9700	   44.00	  934.69	-2057.25	  798.67
      1.0700	   46.00	  931.61	-2057.25	  795.59
      1.1700	   50.00	  928.55	-2057.25	  792.53
      1.2700	   42.00	  925.51	-2057.25	  789.49
      1.3700	   53.00	  922.49	-2057.25	  786.47
      1.4700	   97.00	  919.48	-2057.25	  783.46
      1.5700	  309.00	  916.50	-2057.25	  780.48
      1.6700	  444.00	  913.53	-2057.25	  777.51
      1.7700	  597.00	  910.59	-2057.25	  774.57
      1.8700	  614.00	  907.66	-2057.25	  771.64
      1.9700	  740.00	  904.75	-2057.25	  768.73
      2.0700	  835.00	  901.87	-2057.25	  765.85
      2.1700	  805.00	  899.00	-2057.25	  762.98
      2.2700	  817.00	  896.14	-2057.25	  760.12
      2.3700	  688.00	  893.31	-2057.25	  757.29
      2.4700	  739.00	  890.50	-2057.25	  754.48
      2.5700	  721.00	  887.70	-2057.25	  751.68
      2.6700	  680.00	  884.92	-2057.25	  748.90
      2.7700	  634.00	  882.16	-2057.25	  746.14
      2.8700	  657.00	  879.42	-2057.25	  743.40
      2.9700	  630.00	  876.70	-2057.25	  740.68
      3.0700	  633.00	  874.00	-2057.25	  737.98
      3.1700	  616.00	  871.31	-2057.25	  735.29
      3.2700	  722.00	  868.64	-2057.25	  732.62
      3.3700	  889.00	  865.99	-2057.25	  729.97
      3.4700	 1030.00	  863.35	-2057.25	  727.33
      3.5700	 1209.00	  860.74	-2057.25	  724.72
      3.6700	 1348.00	  858.14	-2057.25	  722.12
      3.7700	 1403.00	  855.56	-2057.25	  719.54
      3.8700	 1474.00	  852.99	-2057.25	  716.97
      3.9700	 1568.00	  850.45	-2057.25	  714.43
      4.0700	 1679.00	  847.92	-2057.25	  711.90
      4.1700	 1684.00	  845.41	-2057.25	  709.39
      4.2700	 1673.00	  842.91	-2057.25	  706.89
      4.3700	 1615.00	  840.43	-2057.25	  704.41
      4.4700	 1614.00	  837.97	-2057.25	  701.95
      4.5700	 1526.00	  835.53	-2057.25	  699.51
      4.6700	 1510.00	  833.10	-2057.25	  697.08
      4.7700	 1477.00	  830.69	-2057.25	  694.67
      4.8700	 1404.00	  828.30	-2057.25	  692.28
      4.9700	 1396.00	  825.92	-2057.25	  689.90
      5.0700	 1322.00	  823.56	-2057.25	  687.54
      5.1700	 1342.00	  821.21	-2057.25	  685.19
      5.2700	 1326.00	  818.88	-2057.25	  682.86
      5.3700	 1258.00	  816.57	-2057.25	  680.55
      5.4700	 1225.00	  814.28	-2057.25	  678.26
      5.5700	 1173.00	  812.00	-2057.25	  675.98
      5.6700	 1132.00	  809.73	-2057.25	  673.71
      5.7700	 1095.00	  807.48	-2057.25	  671.46
      5.8700	 1140.00	  805.25	-2057.25	  669.23
      5.9700	 1147.00	  803.04	-2057.25	  667.02
      6.0700	 1107.00	  800.84	-2057.25	  664.82
      6.1700	 1051.00	  798.65	-2057.25	  662.63
      6.2700	  976.00	  796.48	-2057.25	  660.46
      6.3700	 1096.00	  794.33	-2057.25	  658.31
      6.4700	  986.00	  792.19	-2057.25	  656.17
      6.5700	 1011.00	  790.07	-2057.25	  654.05
      6.6700	  995.00	  787.96	-2057.25	  651.94
      6.7700	  947.00	  785.87	-2057.25	  649.85
      6.8700	  909.00	  783.79	-2057.25	  647.77
      6.9700	  927.00	  781.73	-2057.25	  645.71
      7.0700	  955.00	  779.68	-2057.25	  643.66
      7.1700	  900.00	  777.65	-2057.25	  641.63
      7.2700	  884.00	  775.63	-2057.25	  639.61
      7.3700	  894.00	  773.63	-2057.25	  637.61
      7.4700	  892.00	  771.64	-2057.25	  635.62
      7.5700	  882.00	  769.67	-2057.25	  633.65
      7.6700	  832.00	  767.71	-2057.25	  631.69
      7.7700	  793.00	  765.76	-2057.25	  629.74
      7.8700	  770.00	  763.83	-2057.25	  627.81
      7.9700	  805.00	  761.92	-2057.25	  625.90
      8.0700	  755.00	  760.02	-2057.25	  624.00
      8.1700	  828.00	  758.13	-2057.25	  622.11
      8.2700	  800.00	  756.26	-2057.25	  620.24
      8.3700	  832.00	  754.40	-2057.25	  618.38
      8.4700	  781.00	  752.56	-2057.25	  616.54
      8.5700	  797.00	  750.73	-2057.25	  614.71
      8.6700	  764.00	  748.91	-2057.25	  612.89
      8.7700	  798.00	  747.11	-2057.25	  611.09
      8.8700	  782.00	  745.32	-2057.25	  609.30
      8.9700	  782.00	  743.54	-2057.25	  607.52
      9.0700	  723.00	  741.78	-2057.25	  605.76
      9.1700	  766.00	  740.03	-2057.25	  604.01
      9.2700	  775.00	  738.30	-2057.25	  602.28
      9.3700	  749.00	  736.58	-2057.25	  600.56
      9.4700	  769.00	  734.87	-2057.25	  598.85
      9.5700	  779.00	  733.18	-2057.25	  597.16
      9.6700	  776.00	  731.49	-2057.25	  595.47
      9.7700	  720.00	  729.83	-2057.25	  593.81
      9.8700	  782.00	  728.17	-2057.25	  592.15
      9.9700	  745.00	  726.53	-2057.25	  590.51
     10.0700	  723.00	  726.96	-2061.21	  588.88
     10.1700	  715.00	  725.57	-2067.82	  587.26
     10.2700	  714.00	  724.24	-2067.49	  585.66
     10.3700	  730.00	  722.98	-2050.23	  584.07
     10.4700	  767.00	  721.81	-2012.06	  582.49
     10.5700	  727.00	  720.79	-2051.04	  580.93
     10.6700	  686.00	  719.95	-2091.20	  579.37
     10.7700	  746.00	  719.40	-2030.65	  577.83
     10.8700	  776.00	  719.21	-2000.46	  576.31
     10.9700	  699.00	  719.49	-2077.74	  574.79
     11.0700	  706.00	  720.28	-2071.53	  573.29
     11.1700	  692.00	  721.60	-2086.85	  571.80
     11.2700	  728.00	  723.48	-2052.73	  570.32
     11.3700	  719.00	  725.96	-2064.21	  568.85
     11.4700	  717.00	  729.12	-2069.37	  567.40
     11.5700	  781.00	  733.12	-2009.37	  565.96
     11.6700	  718.00	  738.17	-2077.42	  564.53
     11.7700	  717.00	  744.58	-2084.83	  563.11
     11.8700	  750.00	  752.62	-2059.87	  561.70
     11.9700	  783.00	  762.40	-2036.65	  560.31
     12.0700	  887.00	  773.38	-1943.63	  558.92
     12.1700	  872.00	  783.93	-1969.18	  557.55
     12.2700	  836.00	  790.67	-2011.92	  556.19
     12.3700	  846.00	  788.79	-2000.04	  554.84
     12.4700	  791.00	  775.43	-2041.68	  553.51
     12.5700	  786.00	  754.86	-2026.11	  552.18
     12.6700	  715.00	  734.55	-2076.80	  550.87
     12.7700	  753.00	  718.43	-2022.68	  549.56
     12.8700	  693.00	  706.88	-2071.13	  548.27
     12.9700	  676.00	  699.00	-2080.25	  546.99
     13.0700	  650.00	  693.61	-2100.86	  545.72
     13.1700	  657.00	  689.73	-2089.98	  544.46
     13.2700	  685.00	  686.73	-2058.98	  543.22
     13.3700	  648.00	  684.23	-2093.48	  541.98
     13.4700	  626.00	  682.06	-2113.31	  540.75
     13.5700	  636.00	  680.10	-2101.35	  539.54
     13.6700	  675.00	  678.30	-2060.55	  538.33
     13.7700	  683.00	  676.63	-2050.88	  537.14
     13.8700	  695.00	  675.05	-2037.30	  535.96
     13.9700	  700.00	  673.55	-2030.80	  534.79
     14.0700	  691.00	  672.11	-2038.36	  533.62
     14.1700	  649.00	  670.72	-2078.97	  532.47
     14.2700	  662.00	  669.38	-2064.63	  531.33
     14.3700	  676.00	  668.08	-2049.33	  530.20
     14.4700	  654.00	  666.80	-2070.05	  529.08
     14.5700	  668.00	  665.56	-2054.81	  527.97
     14.6700	  621.00	  664.35	-2100.60	  526.87
     14.7700	  647.00	  663.15	-2073.40	  525.78
     14.8700	  689.00	  661.98	-2030.23	  524.70
     14.9700	  619.00	  660.83	-2099.08	  523.63
     15.0700	  654.00	  659.70	-2062.95	  522.57
     15.1700	  675.00	  658.58	-2040.83	  521.52
     15.2700	  639.00	  657.48	-2075.73	  520.48
     15.3700	  648.00	  656.40	-2065.65	  519.45
     15.4700	  668.00	  655.33	-2044.58	  518.43
     15.5700	  653.00	  654.28	-2058.52	  517.42
     15.6700	  624.00	  653.23	-2086.48	  516.41
     15.7700	  636.00	  652.20	-2073.45	  515.42
     15.8700	  623.00	  651.19	-2085.44	  514.44
     15.9700	  671.00	  650.18	-2036.43	  513.47
     16.0700	  649.00	  649.19	-2057.44	  512.50
     16.1700	  630.00	  648.21	-2075.46	  511.55
     16.2700	  574.00	  647.24	-2130.49	  510.60
     16.3700	  669.00	  646.29	-2034.54	  509.67
     16.4700	  650.00	  645.34	-2052.59	  508.74
     16.5700	  656.00	  644.40	-2045.65	  507.82
     16.6700	  607.00	  643.48	-2093.73	  506.91
     16.7700	  605.00	  642.56	-2094.81	  506.01
     16.8700	  664.00	  641.65	-2034.90	  505.12
     16.9700	  634.00	  640.76	-2064.01	  504.24
     17.0700	  683.00	  639.87	-2014.12	  503.37
     17.1700	  654.00	  639.00	-2042.25	  502.50
     17.2700	  681.00	  638.13	-2014.38	  501.65
     17.3700	  628.00	  637.27	-2066.52	  500.80
     17.4700	  655.00	  636.42	-2038.67	  499.96
     17.5700	  616.00	  635.59	-2076.84	  499.13
     17.6700	  589.00	  634.76	-2103.01	  498.31
     17.7700	  652.00	  633.94	-2039.19	  497.50
     17.8700	  637.00	  633.13	-2053.38	  496.70
     17.9700	  637.00	  632.32	-2052.57	  495.90
     18.0700	  634.00	  631.53	-2054.78	  495.11
     18.1700	  646.00	  630.75	-2042.00	  494.33
     18.2700	  597.00	  629.97	-2090.22	  493.56
     18.3700	  653.00	  629.20	-2033.45	  492.80
     18.4700	  625.00	  628.45	-2060.70	  492.05
     18.5700	  650.00	  627.70	-2034.95	  491.30
     18.6700	  669.00	  626.95	-2015.20	  490.56
     18.7700	  611.00	  626.22	-2072.47	  489.83
     18.8700	  599.00	  625.50	-2083.75	  489.11
     18.9700	  633.00	  624.78	-2049.03	  488.39
     19.0700	  650.00	  627.14	-2034.39	  487.68
     19.1700	  672.00	  626.50	-2011.75	  486.99
     19.2700	  644.00	  625.88	-2039.13	  486.29
     19.3700	  620.00	  625.26	-2062.51	  485.61
     19.4700	  632.00	  624.66	-2049.91	  484.93
     19.5700	  657.00	  624.07	-2024.32	  484.26
     19.6700	  590.00	  623.48	-2090.73	  483.60
     19.7700	  680.00	  622.91	-2000.16	  482.95
     19.8700	  610.00	  622.35	-2069.60	  482.30
     19.9700	  601.00	  621.79	-2078.04	  481.66
     20.0700	  618.00	  621.25	-2060.50	  481.03
     20.1700	  630.00	  620.72	-2047.97	  480.41
     20.2700	  636.00	  620.26	-2041.51	  479.79
     20.3700	  581.00	  619.75	-2096.00	  479.18
     20.4700	  622.00	  619.26	-2054.51	  478.58
     20.5700	  607.00	  618.77	-2069.02	  477.98
     20.6700	  626.00	  618.30	-2049.55	  477.40
     20.7700	  579.00	  617.84	-2096.09	  476.81
     20.8700	  596.00	  617.39	-2078.64	  476.24
     20.9700	  594.00	  616.96	-2080.21	  475.67
     21.0700	  588.00	  616.54	-2085.79	  475.11
     21.1700	  604.00	  616.13	-2069.38	  474.56
     21.2700	  590.00	  615.73	-2082.98	  474.01
     21.3700	  627.00	  615.35	-2045.60	  473.47
     21.4700	  612.00	  614.98	-2060.23	  472.93
     21.5700	  633.00	  614.63	-2038.88	  472.41
     21.6700	  587.00	  614.29	-2084.54	  471.89
     21.7700	  648.00	  613.97	-2023.22	  471.37
     21.8700	  622.00	  613.66	-2048.91	  470.87
     21.9700	  663.00	  613.37	-2007.62	  470.36
     22.0700	  620.00	  613.10	-2050.35	  469.87
     22.1700	  597.00	  612.85	-2073.10	  469.38
     22.2700	  629.00	  612.62	-2040.87	  468.90
     22.3700	  647.00	  612.40	-2022.65	  468.42
     22.4700	  617.00	  612.42	-2052.67	  467.95
     22.5700	  627.00	  612.26	-2042.51	  467.49
     22.6700	  623.00	  612.12	-2046.37	  467.03
     22.7700	  599.00	  612.01	-2070.26	  466.58
     22.8700	  635.00	  611.94	-2034.19	  466.14
     22.9700	  664.00	  611.89	-2005.14	  465.70
     23.0700	  634.00	  611.89	-2035.14	  465.27
     23.1700	  570.00	  611.92	-2099.17	  464.84
     23.2700	  629.00	  612.01	-2040.26	  464.42
     23.3700	  602.00	  612.14	-2067.39	  464.00
     23.4700	  602.00	  612.35	-2067.60	  463.59
     23.5700	  545.00	  612.62	-2124.87	  463.19
     23.6700	  632.00	  612.99	-2038.24	  462.79
     23.7700	  611.00	  613.48	-2059.73	  462.40
     23.8700	  649.00	  614.12	-2022.37	  462.01
     23.9700	  601.00	  614.99	-2071.24	  461.63
     24.0700	  595.00	  616.20	-2078.45	  461.26
     24.1700	  671.00	  617.92	-2004.17	  460.89
     24.2700	  643.00	  620.43	-2034.68	  460.52
     24.3700	  653.00	  624.05	-2028.30	  460.16
     24.4700	  672.00	  629.31	-2014.56	  459.81
     24.5700	  670.00	  636.49	-2023.74	  459.46
     24.6700	  663.00	  645.61	-2039.86	  459.12
     24.7700	  684.00	  656.13	-2029.38	  458.78
     24.8700	  672.00	  666.63	-2051.88	  458.45
     24.9700	  796.00	  674.46	-1935.71	  458.12
     25.0700	  688.00	  676.16	-2045.41	  457.80
     25.1700	  667.00	  670.19	-2060.44	  457.48
     25.2700	  712.00	  659.67	-2004.92	  457.17
     25.3700	  656.00	  649.26	-2050.51	  456.86
     25.4700	  650.00	  641.43	-2048.68	  456.56
     25.5700	  646.00	  636.44	-2047.69	  456.26
     25.6700	  681.00	  633.91	-2010.16	  455.97
     25.7700	  687.00	  633.19	-2003.44	  455.68
     25.8700	  653.00	  633.70	-2037.95	  455.40
     25.9700	  683.00	  635.07	-2009.32	  455.12
     26.0700	  643.00	  637.11	-2051.36	  454.85
     26.1700	  657.00	  639.74	-2039.99	  454.58
     26.2700	  653.00	  642.96	-2047.21	  454.32
     26.3700	  664.00	  646.82	-2040.07	  454.06
     26.4700	  650.00	  651.40	-2058.65	  453.81
     26.5700	  652.00	  656.81	-2062.06	  453.56
     26.6700	  610.00	  663.21	-2110.46	  453.31
     26.7700	  682.00	  670.82	-2046.07	  453.07
     26.8700	  657.00	  679.91	-2080.16	  452.84
     26.9700	  666.00	  690.86	-2082.11	  452.60
     27.0700	  658.00	  704.19	-2103.44	  452.38
     27.1700	  638.00	  720.61	-2139.86	  452.15
     27.2700	  665.00	  741.17	-2133.42	  451.93
     27.3700	  718.00	  767.54	-2106.79	  451.72
     27.4700	  708.00	  802.82	-2152.07	  451.51
     27.5700	  857.00	  853.57	-2053.82	  451.30
     27.6700	  857.00	  934.26	-2134.51	  451.10
     27.7700	  918.00	 1074.47	-2213.72	  450.90
     27.8700	 1051.00	 1327.44	-2333.69	  450.71
     27.9700	 1386.00	 1774.60	-2445.85	  450.52
     28.0700	 1910.00	 2513.02	-2660.27	  450.34
     28.1700	 3179.00	 3609.87	-2488.12	  450.16
     28.2700	 5221.00	 5012.01	-1848.26	  449.98
     28.3700	 7329.00	 6426.69	-1154.94	  449.80
     28.4700	 8229.00	 7281.37	-1109.62	  449.63
     28.5700	 7560.00	 6997.36	-1494.61	  449.47
     28.6700	 5795.00	 5760.16	-2022.41	  449.31
     28.7700	 4133.00	 4492.24	-2416.49	  449.15
     28.8700	 3489.00	 3804.04	-2372.29	  448.99
     28.9700	 3628.00	 3753.44	-2182.69	  448.84
     29.0700	 4404.00	 4051.53	-1704.78	  448.70
     29.1700	 4504.00	 4259.18	-1812.43	  448.55
     29.2700	 4260.00	 3992.51	-1789.76	  448.41
     29.3700	 3257.00	 3252.31	-2052.56	  448.28
     29.4700	 2272.00	 2407.19	-2192.44	  448.14
     29.5700	 1551.00	 1732.59	-2238.84	  448.01
     29.6700	 1201.00	 1294.10	-2150.35	  447.89
     29.7700	 1055.00	 1045.54	-2047.79	  447.77
     29.8700	  934.00	  912.90	-2036.15	  447.65
     29.9700	  893.00	  839.17	-2003.42	  447.53
     30.0700	  769.00	  793.17	-2081.42	  447.42
     30.1700	  732.00	  761.15	-2086.40	  447.31
     30.2700	  787.00	  737.55	-2007.80	  447.21
     30.3700	  702.00	  720.06	-2075.31	  447.10
     30.4700	  668.00	  707.81	-2097.06	  447.00
     30.5700	  681.00	  700.97	-2077.22	  446.91
     30.6700	  717.00	  700.57	-2040.82	  446.82
     30.7700	  719.00	  708.09	-2046.34	  446.73
     30.8700	  750.00	  724.33	-2031.58	  446.64
     30.9700	  752.00	  747.66	-2052.91	  446.56
     31.0700	  790.00	  772.43	-2039.68	  446.48
     31.1700	  830.00	  788.36	-2015.61	  446.40
     31.2700	  765.00	  783.50	-2075.75	  446.32
     31.3700	  736.00	  755.65	-2076.90	  446.25
     31.4700	  733.00	  717.95	-2042.20	  446.18
     31.5700	  766.00	  683.94	-1975.19	  446.12
     31.6700	  689.00	  658.93	-2027.18	  446.06
     31.7700	  664.00	  642.72	-2035.97	  446.00
     31.8700	  682.00	  632.89	-2008.14	  445.94
     31.9700	  686.00	  626.91	-1998.16	  445.88
     32.0700	  653.00	  623.01	-2027.26	  445.83
     32.1700	  620.00	  620.25	-2057.50	  445.78
     32.2700	  668.00	  618.18	-2007.43	  445.74
     32.3700	  628.00	  616.61	-2045.86	  445.69
     32.4700	  626.00	  615.45	-2046.70	  445.65
     32.5700	  656.00	  614.67	-2015.92	  445.61
     32.6700	  627.00	  614.24	-2044.49	  445.58
     32.7700	  595.00	  614.18	-2076.43	  445.54
     32.8700	  641.00	  614.54	-2030.79	  445.51
     32.9700	  591.00	  615.32	-2081.57	  445.48
     33.0700	  629.00	  616.65	-2044.90	  445.46
     33.1700	  662.00	  618.66	-2013.91	  445.43
     33.2700	  620.00	  621.62	-2058.87	  445.41
     33.3700	  629.00	  626.04	-2054.29	  445.39
     33.4700	  625.00	  632.90	-2065.15	  445.38
     33.5700	  650.00	  644.13	-2051.38	  445.36
     33.6700	  670.00	  663.14	-2050.39	  445.35
     33.7700	  707.00	  695.22	-2045.47	  445.34
     33.8700	  801.00	  746.87	-2003.12	  445.33
     33.9700	  859.00	  823.10	-2021.35	  445.33
     34.0700	  913.00	  922.30	-2066.55	  445.33
     34.1700	 1120.00	 1030.55	-1967.80	  445.32
     34.2700	 1214.00	 1118.92	-1962.17	  445.33
     34.3700	 1279.00	 1148.43	-1926.68	  445.33
     34.4700	 1145.00	 1096.70	-2008.95	  445.33
     34.5700	 1000.00	  989.26	-2046.51	  445.34
     34.6700	  841.00	  873.68	-2089.93	  445.35
     34.7700	  750.00	  778.69	-2085.94	  445.36
     34.8700	  772.00	  711.93	-1997.18	  445.37
     34.9700	  687.00	  669.87	-2040.12	  445.39
     35.0700	  687.00	  645.10	-2015.35	  445.41
     35.1700	  680.00	  630.66	-2007.91	  445.43
     35.2700	  696.00	  621.79	-1983.04	  445.45
     35.3700	  603.00	  615.85	-2070.10	  445.47
     35.4700	  681.00	  611.54	-1987.79	  445.49
     35.5700	  632.00	  608.24	-2033.49	  445.52
     35.6700	  579.00	  605.65	-2083.90	  445.55
     35.7700	  614.00	  603.58	-2046.83	  445.58
     35.8700	  641.00	  601.91	-2018.16	  445.61
     35.9700	  648.00	  600.56	-2009.81	  445.64
     36.0700	  584.00	  599.46	-2072.71	  445.68
     36.1700	  629.00	  598.58	-2026.83	  445.71
     36.2700	  564.00	  597.89	-2091.14	  445.75
     36.3700	  614.00	  597.36	-2040.61	  445.79
     36.4700	  638.00	  596.98	-2016.23	  445.83
     36.5700	  580.00	  596.75	-2074.00	  445.87
     36.6700	  612.00	  596.66	-2041.91	  445.92
     36.7700	  584.00	  596.73	-2069.98	  445.96
     36.8700	  619.00	  597.01	-2035.26	  446.01
     36.9700	  617.00	  597.45	-2037.70	  446.06
     37.0700	  598.00	  598.33	-2057.58	  446.11
     37.1700	  600.00	  599.85	-2057.10	  446.16
     37.2700	  616.00	  601.37	-2042.62	  446.21
     37.3700	  615.00	  603.64	-2045.89	  446.26
     37.4700	  596.00	  607.11	-2068.36	  446.32
     37.5700	  674.00	  612.52	-1995.77	  446.38
     37.6700	  654.00	  621.05	-2024.30	  446.43
     37.7700	  639.00	  634.20	-2052.45	  446.49
     37.8700	  637.00	  653.53	-2073.78	  446.55
     37.9700	  662.00	  679.84	-2075.09	  446.61
     38.0700	  677.00	  710.15	-2090.40	  446.68
     38.1700	  718.00	  743.95	-2083.20	  446.74
     38.2700	  741.00	  771.50	-2087.75	  446.80
     38.3700	  766.00	  782.15	-2073.40	  446.87
     38.4700	  706.00	  768.80	-2120.05	  446.94
     38.5700	  721.00	  736.67	-2072.92	  447.01
     38.6700	  665.00	  698.96	-2091.21	  447.08
     38.7700	  666.00	  665.51	-2056.76	  447.15
     38.8700	  662.00	  640.11	-2035.36	  447.22
     38.9700	  665.00	  622.81	-2015.06	  447.29
     39.0700	  636.00	  611.90	-2033.15	  447.36
     39.1700	  587.00	  605.30	-2075.55	  447.44
     39.2700	  627.00	  601.29	-2031.54	  447.51
     39.3700	  599.00	  598.71	-2056.96	  447.59
     39.4700	  555.00	  595.84	-2098.09	  447.66
     39.5700	  607.00	  594.56	-2044.81	  447.74
     39.6700	  647.00	  593.59	-2003.84	  447.82
     39.7700	  591.00	  592.83	-2059.08	  447.90
     39.8700	  622.00	  592.24	-2027.49	  447.98
     39.9700	  583.00	  591.77	-2066.02	  448.06
     40.0700	  573.00	  591.41	-2075.66	  448.14
     40.1700	  571.00	  591.14	-2077.39	  448.23
     40.2700	  575.00	  590.93	-2073.18	  448.31
     40.3700	  590.00	  590.79	-2058.04	  448.39
     40.4700	  615.00	  590.69	-2032.94	  448.48
     40.5700	  549.00	  590.65	-2098.90	  448.56
     40.6700	  606.00	  590.64	-2041.89	  448.65
     40.7700	  595.00	  591.21	-2053.46	  448.74
