MSG Master    CELL:    5.87653   5.87653  23.07309   90.0000   90.0000  120.0000   SPGR: P 63/m m c             TEMP:    447.35
  2   1280     2.52000     0.00000    -0.08336     0.00000     0.00000    0
    95    95     0     0     2
       0.00000      10.00000
     125.00000     130.00000
 2Theta	Yobs	Ycal	Yobs-Ycal	Backg	Posr	(hkl)	K
      0.7700	    0.00	 1014.44	-2291.50	  873.47
      0.8700	    0.00	 1010.77	-2291.50	  869.81
      0.9700	   40.00	 1007.13	-2291.50	  866.17
      1.0700	   44.00	 1003.51	-2291.50	  862.55
      1.1700	   48.00	  999.92	-2291.50	  858.95
      1.2700	   42.00	  996.35	-2291.50	  855.38
      1.3700	   53.00	  992.80	-2291.50	  851.83
      1.4700	   97.00	  989.27	-2291.50	  848.31
      1.5700	  329.00	  985.77	-2291.50	  844.80
      1.6700	  461.00	  982.29	-2291.50	  841.32
      1.7700	  558.00	  978.83	-2291.50	  837.87
      1.8700	  620.00	  975.40	-2291.50	  834.43
      1.9700	  720.00	  971.98	-2291.50	  831.02
      2.0700	  759.00	  968.59	-2291.50	  827.63
      2.1700	  821.00	  965.23	-2291.50	  824.26
      2.2700	  757.00	  961.88	-2291.50	  820.91
      2.3700	  752.00	  958.56	-2291.50	  817.59
      2.4700	  702.00	  955.26	-2291.50	  814.29
      2.5700	  730.00	  951.98	-2291.50	  811.01
      2.6700	  647.00	  948.72	-2291.50	  807.75
      2.7700	  672.00	  945.48	-2291.50	  804.52
      2.8700	  689.00	  942.27	-2291.50	  801.30
      2.9700	  650.00	  939.08	-2291.50	  798.11
      3.0700	  564.00	  935.91	-2291.50	  794.94
      3.1700	  598.00	  932.76	-2291.50	  791.79
      3.2700	  700.00	  929.63	-2291.50	  788.66
      3.3700	  958.00	  926.52	-2291.50	  785.55
      3.4700	 1069.00	  923.43	-2291.50	  782.47
      3.5700	 1183.00	  920.37	-2291.50	  779.40
      3.6700	 1303.00	  917.32	-2291.50	  776.36
      3.7700	 1468.00	  914.30	-2291.50	  773.33
      3.8700	 1609.00	  911.30	-2291.50	  770.33
      3.9700	 1580.00	  908.31	-2291.50	  767.35
      4.0700	 1681.00	  905.35	-2291.50	  764.39
      4.1700	 1709.00	  902.41	-2291.50	  761.44
      4.2700	 1712.00	  899.49	-2291.50	  758.52
      4.3700	 1757.00	  896.59	-2291.50	  755.62
      4.4700	 1602.00	  893.71	-2291.50	  752.74
      4.5700	 1540.00	  890.85	-2291.50	  749.88
      4.6700	 1522.00	  888.01	-2291.50	  747.04
      4.7700	 1391.00	  885.19	-2291.50	  744.22
      4.8700	 1442.00	  882.38	-2291.50	  741.42
      4.9700	 1361.00	  879.60	-2291.50	  738.64
      5.0700	 1301.00	  876.84	-2291.50	  735.88
      5.1700	 1362.00	  874.10	-2291.50	  733.13
      5.2700	 1265.00	  871.38	-2291.50	  730.41
      5.3700	 1329.00	  868.67	-2291.50	  727.71
      5.4700	 1260.00	  865.99	-2291.50	  725.02
      5.5700	 1161.00	  863.32	-2291.50	  722.36
      5.6700	 1184.00	  860.68	-2291.50	  719.71
      5.7700	 1146.00	  858.05	-2291.50	  717.08
      5.8700	 1103.00	  855.44	-2291.50	  714.48
      5.9700	 1070.00	  852.85	-2291.50	  711.89
      6.0700	 1087.00	  850.28	-2291.50	  709.32
      6.1700	 1140.00	  847.73	-2291.50	  706.76
      6.2700	 1074.00	  845.20	-2291.50	  704.23
      6.3700	 1034.00	  842.68	-2291.50	  701.72
      6.4700	 1014.00	  840.19	-2291.50	  699.22
      6.5700	 1033.00	  837.71	-2291.50	  696.74
      6.6700	  970.00	  835.25	-2291.50	  694.28
      6.7700	 1001.00	  832.81	-2291.50	  691.84
      6.8700	  904.00	  830.38	-2291.50	  689.42
      6.9700	  947.00	  827.98	-2291.50	  687.01
      7.0700	  960.00	  825.59	-2291.50	  684.62
      7.1700	  923.00	  823.22	-2291.50	  682.25
      7.2700	  925.00	  820.87	-2291.50	  679.90
      7.3700	  887.00	  818.53	-2291.50	  677.56
      7.4700	  892.00	  816.21	-2291.50	  675.25
      7.5700	  866.00	  813.91	-2291.50	  672.95
      7.6700	  852.00	  811.63	-2291.50	  670.66
      7.7700	  859.00	  809.36	-2291.50	  668.40
      7.8700	  839.00	  807.12	-2291.50	  666.15
      7.9700	  868.00	  804.88	-2291.50	  663.92
      8.0700	  785.00	  802.67	-2291.50	  661.70
      8.1700	  822.00	  800.47	-2291.50	  659.51
      8.2700	  834.00	  798.29	-2291.50	  657.33
      8.3700	  825.00	  796.13	-2291.50	  655.16
      8.4700	  800.00	  793.98	-2291.50	  653.02
      8.5700	  818.00	  791.85	-2291.50	  650.89
      8.6700	  782.00	  789.74	-2291.50	  648.77
      8.7700	  824.00	  787.64	-2291.50	  646.68
      8.8700	  789.00	  785.56	-2291.50	  644.59
      8.9700	  769.00	  783.50	-2291.50	  642.53
      9.0700	  778.00	  781.45	-2291.50	  640.48
      9.1700	  772.00	  779.42	-2291.50	  638.45
      9.2700	  802.00	  777.40	-2291.50	  636.43
      9.3700	  752.00	  775.40	-2291.50	  634.43
      9.4700	  782.00	  773.41	-2291.50	  632.45
      9.5700	  813.00	  771.45	-2291.50	  630.48
      9.6700	  789.00	  769.49	-2291.50	  628.53
      9.7700	  758.00	  767.56	-2291.50	  626.59
      9.8700	  776.00	  765.63	-2291.50	  624.67
      9.9700	  779.00	  763.73	-2291.50	  622.76
     10.0700	  781.00	  763.88	-2274.38	  620.87
     10.1700	  760.00	  762.23	-2293.73	  619.00
     10.2700	  741.00	  760.63	-2311.13	  617.14
     10.3700	  735.00	  759.11	-2315.61	  615.29
     10.4700	  787.00	  757.68	-2262.18	  613.46
     10.5700	  767.00	  756.38	-2280.88	  611.65
     10.6700	  732.00	  755.27	-2314.77	  609.85
     10.7700	  736.00	  754.42	-2309.92	  608.06
     10.8700	  762.00	  753.92	-2283.42	  606.29
     10.9700	  740.00	  753.86	-2305.36	  604.54
     11.0700	  723.00	  754.31	-2322.81	  602.80
     11.1700	  741.00	  755.28	-2305.78	  601.07
     11.2700	  745.00	  756.80	-2303.30	  599.36
     11.3700	  796.00	  758.91	-2254.41	  597.66
     11.4700	  778.00	  761.68	-2275.18	  595.98
     11.5700	  786.00	  765.25	-2270.75	  594.31
     11.6700	  772.00	  769.82	-2289.32	  592.65
     11.7700	  786.00	  775.68	-2281.18	  591.01
     11.8700	  791.00	  783.09	-2283.59	  589.39
     11.9700	  842.00	  792.17	-2241.67	  587.78
     12.0700	  781.00	  802.52	-2313.02	  586.18
     12.1700	  896.00	  812.71	-2208.21	  584.59
     12.2700	  901.00	  819.77	-2210.27	  583.02
     12.3700	  886.00	  819.16	-2224.66	  581.46
     12.4700	  854.00	  807.56	-2245.06	  579.92
     12.5700	  736.00	  787.97	-2343.47	  578.39
     12.6700	  768.00	  767.64	-2291.14	  576.87
     12.7700	  686.00	  750.94	-2356.44	  575.37
     12.8700	  753.00	  738.73	-2277.23	  573.88
     12.9700	  662.00	  730.24	-2359.74	  572.40
     13.0700	  751.00	  724.36	-2264.86	  570.94
     13.1700	  717.00	  720.10	-2294.60	  569.49
     13.2700	  667.00	  716.79	-2341.29	  568.05
     13.3700	  653.00	  714.04	-2352.54	  566.63
     13.4700	  691.00	  711.63	-2312.13	  565.22
     13.5700	  715.00	  709.46	-2285.96	  563.82
     13.6700	  714.00	  707.46	-2284.96	  562.43
     13.7700	  692.00	  705.59	-2305.09	  561.06
     13.8700	  672.00	  703.82	-2323.32	  559.70
     13.9700	  709.00	  702.13	-2284.63	  558.35
     14.0700	  677.00	  700.51	-2315.01	  557.02
     14.1700	  733.00	  698.94	-2257.44	  555.69
     14.2700	  677.00	  697.43	-2311.93	  554.38
     14.3700	  680.00	  695.95	-2307.45	  553.08
     14.4700	  728.00	  694.51	-2258.01	  551.80
     14.5700	  676.00	  693.10	-2308.60	  550.52
     14.6700	  708.00	  691.71	-2275.21	  549.26
     14.7700	  670.00	  690.36	-2311.86	  548.01
     14.8700	  667.00	  689.03	-2313.53	  546.77
     14.9700	  668.00	  687.72	-2311.22	  545.55
     15.0700	  679.00	  686.43	-2298.93	  544.33
     15.1700	  657.00	  685.16	-2319.66	  543.13
     15.2700	  646.00	  683.91	-2329.41	  541.94
     15.3700	  674.00	  682.67	-2300.17	  540.76
     15.4700	  660.00	  681.46	-2312.96	  539.59
     15.5700	  634.00	  680.25	-2337.75	  538.43
     15.6700	  664.00	  679.07	-2306.57	  537.29
     15.7700	  650.00	  677.90	-2319.40	  536.15
     15.8700	  749.00	  676.74	-2219.24	  535.03
     15.9700	  708.00	  675.60	-2259.10	  533.92
     16.0700	  692.00	  674.47	-2273.97	  532.82
     16.1700	  762.00	  673.35	-2202.85	  531.73
     16.2700	  670.00	  672.25	-2293.75	  530.65
     16.3700	  667.00	  671.16	-2295.66	  529.58
     16.4700	  698.00	  670.08	-2263.58	  528.53
     16.5700	  694.00	  669.02	-2266.52	  527.48
     16.6700	  650.00	  667.96	-2309.46	  526.44
     16.7700	  652.00	  666.92	-2306.42	  525.42
     16.8700	  667.00	  665.89	-2290.39	  524.41
     16.9700	  623.00	  664.88	-2333.38	  523.40
     17.0700	  699.00	  663.87	-2256.37	  522.41
     17.1700	  615.00	  662.88	-2339.38	  521.43
     17.2700	  668.00	  661.89	-2285.39	  520.46
     17.3700	  677.00	  660.92	-2275.42	  519.49
     17.4700	  623.00	  659.96	-2328.46	  518.54
     17.5700	  695.00	  659.01	-2255.51	  517.60
     17.6700	  672.00	  658.07	-2277.57	  516.67
     17.7700	  650.00	  657.14	-2298.64	  515.75
     17.8700	  629.00	  656.22	-2318.72	  514.84
     17.9700	  661.00	  655.32	-2285.82	  513.94
     18.0700	  652.00	  654.42	-2293.92	  513.05
     18.1700	  687.00	  653.53	-2258.03	  512.16
     18.2700	  620.00	  652.66	-2324.16	  511.29
     18.3700	  696.00	  651.79	-2247.29	  510.43
     18.4700	  678.00	  650.93	-2264.43	  509.58
     18.5700	  656.00	  650.09	-2285.59	  508.74
     18.6700	  681.00	  649.25	-2259.75	  507.90
     18.7700	  704.00	  648.43	-2235.93	  507.08
     18.8700	  712.00	  647.61	-2227.11	  506.26
     18.9700	  672.00	  646.80	-2266.30	  505.46
     19.0700	  677.00	  646.01	-2260.51	  504.66
     19.1700	  652.00	  646.49	-2285.99	  503.88
     19.2700	  656.00	  647.90	-2283.40	  503.10
     19.3700	  643.00	  647.20	-2295.70	  502.33
     19.4700	  652.00	  646.52	-2286.02	  501.57
     19.5700	  623.00	  645.85	-2314.35	  500.82
     19.6700	  637.00	  645.19	-2299.69	  500.08
     19.7700	  640.00	  644.55	-2296.05	  499.35
     19.8700	  598.00	  643.91	-2337.41	  498.62
     19.9700	  631.00	  643.29	-2303.79	  497.91
     20.0700	  597.00	  642.68	-2337.18	  497.20
     20.1700	  686.00	  642.08	-2247.58	  496.50
     20.2700	  684.00	  641.56	-2249.06	  495.81
     20.3700	  649.00	  640.99	-2283.49	  495.13
     20.4700	  643.00	  640.43	-2288.93	  494.46
     20.5700	  660.00	  639.89	-2271.39	  493.79
     20.6700	  666.00	  639.36	-2264.86	  493.14
     20.7700	  647.00	  638.84	-2283.34	  492.49
     20.8700	  700.00	  638.34	-2229.84	  491.85
     20.9700	  617.00	  637.85	-2312.35	  491.22
     21.0700	  618.00	  637.37	-2310.87	  490.60
     21.1700	  605.00	  636.91	-2323.41	  489.98
     21.2700	  634.00	  636.46	-2293.96	  489.38
     21.3700	  618.00	  636.03	-2309.53	  488.78
     21.4700	  646.00	  635.62	-2281.12	  488.19
     21.5700	  643.00	  635.22	-2283.72	  487.61
     21.6700	  605.00	  634.84	-2321.34	  487.03
     21.7700	  642.00	  634.48	-2283.98	  486.46
     21.8700	  639.00	  634.13	-2286.63	  485.90
     21.9700	  657.00	  633.81	-2268.31	  485.35
     22.0700	  660.00	  633.50	-2265.00	  484.81
     22.1700	  649.00	  633.21	-2275.71	  484.27
     22.2700	  636.00	  632.95	-2288.45	  483.74
     22.3700	  613.00	  632.70	-2311.20	  483.22
     22.4700	  635.00	  632.70	-2289.20	  482.70
     22.5700	  619.00	  632.51	-2305.01	  482.20
     22.6700	  618.00	  632.35	-2305.85	  481.70
     22.7700	  633.00	  632.22	-2290.72	  481.20
     22.8700	  632.00	  632.12	-2291.62	  480.72
     22.9700	  674.00	  632.06	-2249.56	  480.24
     23.0700	  670.00	  632.03	-2253.53	  479.77
     23.1700	  658.00	  632.05	-2265.55	  479.30
     23.2700	  643.00	  632.12	-2280.62	  478.84
     23.3700	  643.00	  632.24	-2280.74	  478.39
     23.4700	  656.00	  632.42	-2267.92	  477.95
     23.5700	  666.00	  632.68	-2258.18	  477.51
     23.6700	  623.00	  633.03	-2301.53	  477.08
     23.7700	  643.00	  633.50	-2282.00	  476.66
     23.8700	  647.00	  634.11	-2278.61	  476.24
     23.9700	  670.00	  634.93	-2256.43	  475.83
     24.0700	  658.00	  636.05	-2269.55	  475.43
     24.1700	  661.00	  637.62	-2268.12	  475.03
     24.2700	  670.00	  639.90	-2261.40	  474.64
     24.3700	  598.00	  643.20	-2336.70	  474.25
     24.4700	  655.00	  647.89	-2284.39	  473.88
     24.5700	  714.00	  654.44	-2231.94	  473.51
     24.6700	  693.00	  662.90	-2261.40	  473.14
     24.7700	  691.00	  672.93	-2273.43	  472.78
     24.8700	  715.00	  683.41	-2259.91	  472.43
     24.9700	  704.00	  692.16	-2279.66	  472.08
     25.0700	  727.00	  695.93	-2260.43	  471.74
     25.1700	  753.00	  692.32	-2230.82	  471.40
     25.2700	  696.00	  683.08	-2278.58	  471.08
     25.3700	  691.00	  672.77	-2273.27	  470.75
     25.4700	  612.00	  664.50	-2344.00	  470.44
     25.5700	  637.00	  658.98	-2313.48	  470.12
     25.6700	  686.00	  656.03	-2261.53	  469.82
     25.7700	  643.00	  655.04	-2303.54	  469.52
     25.8700	  651.00	  655.45	-2295.95	  469.23
     25.9700	  665.00	  656.83	-2283.33	  468.94
     26.0700	  678.00	  658.96	-2272.46	  468.65
     26.1700	  650.00	  661.73	-2303.23	  468.38
     26.2700	  701.00	  665.13	-2255.63	  468.11
     26.3700	  706.00	  669.20	-2254.70	  467.84
     26.4700	  669.00	  674.03	-2296.53	  467.58
     26.5700	  703.00	  679.74	-2268.24	  467.32
     26.6700	  645.00	  686.47	-2332.97	  467.07
     26.7700	  652.00	  694.46	-2333.96	  466.83
     26.8700	  689.00	  703.99	-2306.49	  466.59
     26.9700	  718.00	  715.43	-2288.94	  466.36
     27.0700	  736.00	  729.33	-2284.83	  466.13
     27.1700	  683.00	  746.40	-2354.90	  465.90
     27.2700	  719.00	  767.69	-2340.19	  465.68
     27.3700	  756.00	  794.83	-2330.33	  465.47
     27.4700	  771.00	  830.73	-2351.23	  465.26
     27.5700	  816.00	  881.52	-2357.02	  465.06
     27.6700	  791.00	  960.95	-2461.45	  464.86
     27.7700	  888.00	 1098.24	-2501.74	  464.66
     27.8700	 1083.00	 1348.20	-2556.70	  464.47
     27.9700	 1346.00	 1798.61	-2744.11	  464.29
     28.0700	 1938.00	 2562.42	-2915.92	  464.11
     28.1700	 3297.00	 3735.53	-2730.03	  463.93
     28.2700	 5322.00	 5301.88	-2271.38	  463.76
     28.3700	 7805.00	 6987.68	-1474.18	  463.60
     28.4700	 9166.00	 8173.98	-1299.48	  463.44
     28.5700	 8881.00	 8117.84	-1528.34	  463.28
     28.6700	 6945.00	 6799.50	-2146.00	  463.13
     28.7700	 4980.00	 5238.24	-2549.74	  462.98
     28.8700	 3938.00	 4281.78	-2635.28	  462.83
     28.9700	 4109.00	 4104.13	-2286.63	  462.70
     29.0700	 4702.00	 4420.93	-2010.43	  462.56
     29.1700	 5173.00	 4737.54	-1856.04	  462.43
     29.2700	 4840.00	 4570.84	-2022.34	  462.30
     29.3700	 3864.00	 3808.12	-2235.62	  462.18
     29.4700	 2595.00	 2833.17	-2529.67	  462.06
     29.5700	 1847.00	 2014.03	-2458.53	  461.95
     29.6700	 1326.00	 1466.39	-2431.89	  461.84
     29.7700	 1115.00	 1152.07	-2328.57	  461.73
     29.8700	  984.00	  985.41	-2292.91	  461.63
     29.9700	  938.00	  894.96	-2248.46	  461.53
     30.0700	  831.00	  840.10	-2300.60	  461.44
     30.1700	  830.00	  802.59	-2264.09	  461.35
     30.2700	  779.00	  775.11	-2287.61	  461.26
     30.3700	  745.00	  754.64	-2301.15	  461.18
     30.4700	  771.00	  739.97	-2260.47	  461.10
     30.5700	  723.00	  731.01	-2299.51	  461.03
     30.6700	  773.00	  728.66	-2247.16	  460.96
     30.7700	  742.00	  734.50	-2284.00	  460.89
     30.8700	  726.00	  749.73	-2315.23	  460.82
     30.9700	  775.00	  773.42	-2289.92	  460.76
     31.0700	  805.00	  800.61	-2287.11	  460.71
     31.1700	  852.00	  821.29	-2260.79	  460.65
     31.2700	  825.00	  822.22	-2288.72	  460.60
     31.3700	  769.00	  797.14	-2319.64	  460.56
     31.4700	  771.00	  757.32	-2277.82	  460.51
     31.5700	  757.00	  718.87	-2253.37	  460.47
     31.6700	  723.00	  689.54	-2258.04	  460.44
     31.7700	  709.00	  670.11	-2252.61	  460.40
     31.8700	  709.00	  658.26	-2240.76	  460.37
     31.9700	  651.00	  651.11	-2291.61	  460.35
     32.0700	  691.00	  646.56	-2247.06	  460.32
     32.1700	  645.00	  643.39	-2289.89	  460.30
     32.2700	  647.00	  641.04	-2285.54	  460.29
     32.3700	  651.00	  639.26	-2279.76	  460.27
     32.4700	  649.00	  637.94	-2280.44	  460.26
     32.5700	  681.00	  637.02	-2247.52	  460.25
     32.6700	  667.00	  636.49	-2260.99	  460.25
     32.7700	  629.00	  636.34	-2298.84	  460.25
     32.8700	  636.00	  636.64	-2292.14	  460.25
     32.9700	  628.00	  637.37	-2300.87	  460.25
     33.0700	  663.00	  638.65	-2267.15	  460.26
     33.1700	  658.00	  640.62	-2274.12	  460.27
     33.2700	  676.00	  643.51	-2259.01	  460.28
     33.3700	  628.00	  647.78	-2311.28	  460.29
     33.4700	  612.00	  654.29	-2333.79	  460.31
     33.5700	  740.00	  664.79	-2216.29	  460.33
     33.6700	  717.00	  682.43	-2256.93	  460.35
     33.7700	  768.00	  712.33	-2235.83	  460.38
     33.8700	  744.00	  761.27	-2308.77	  460.40
     33.9700	  814.00	  835.55	-2313.05	  460.43
     34.0700	 1026.00	  936.08	-2201.58	  460.47
     34.1700	 1108.00	 1052.12	-2235.62	  460.50
     34.2700	 1221.00	 1157.11	-2227.61	  460.54
     34.3700	 1320.00	 1210.65	-2182.15	  460.58
     34.4700	 1282.00	 1179.27	-2188.77	  460.62
     34.5700	 1219.00	 1075.50	-2148.00	  460.67
     34.6700	 1016.00	  949.53	-2225.03	  460.71
     34.7700	  816.00	  839.68	-2315.18	  460.76
     34.8700	  799.00	  759.45	-2251.95	  460.82
     34.9700	  730.00	  707.52	-2269.02	  460.87
     35.0700	  703.00	  676.51	-2265.01	  460.93
     35.1700	  652.00	  658.51	-2298.01	  460.98
     35.2700	  670.00	  647.68	-2269.18	  461.04
     35.3700	  657.00	  640.62	-2275.12	  461.11
     35.4700	  659.00	  635.61	-2268.11	  461.17
     35.5700	  656.00	  631.84	-2267.34	  461.24
     35.6700	  696.00	  628.89	-2224.39	  461.31
     35.7700	  653.00	  626.55	-2265.05	  461.38
     35.8700	  603.00	  624.68	-2313.18	  461.45
     35.9700	  643.00	  623.22	-2271.72	  461.52
     36.0700	  608.00	  622.00	-2305.50	  461.60
     36.1700	  642.00	  621.02	-2270.52	  461.68
     36.2700	  662.00	  620.25	-2249.75	  461.76
     36.3700	  659.00	  619.66	-2252.16	  461.84
     36.4700	  641.00	  619.24	-2269.74	  461.92
     36.5700	  612.00	  618.97	-2298.47	  462.01
     36.6700	  623.00	  618.85	-2287.35	  462.09
     36.7700	  611.00	  618.89	-2299.39	  462.18
     36.8700	  628.00	  619.09	-2282.59	  462.27
     36.9700	  561.00	  619.50	-2350.00	  462.36
     37.0700	  644.00	  620.34	-2267.84	  462.46
     37.1700	  641.00	  621.29	-2271.79	  462.55
     37.2700	  628.00	  622.69	-2286.19	  462.65
     37.3700	  655.00	  625.25	-2261.75	  462.75
     37.4700	  653.00	  628.36	-2266.86	  462.85
     37.5700	  650.00	  633.17	-2274.67	  462.95
     37.6700	  646.00	  640.74	-2286.24	  463.05
     37.7700	  688.00	  652.51	-2256.01	  463.15
     37.8700	  649.00	  670.25	-2312.75	  463.26
     37.9700	  661.00	  695.20	-2325.70	  463.37
     38.0700	  689.00	  725.09	-2327.59	  463.47
     38.1700	  746.00	  760.68	-2306.18	  463.58
     38.2700	  800.00	  793.00	-2284.50	  463.69
     38.3700	  780.00	  811.53	-2323.03	  463.81
     38.4700	  777.00	  806.43	-2320.93	  463.92
     38.5700	  739.00	  778.34	-2330.84	  464.03
     38.6700	  714.00	  739.67	-2317.17	  464.15
     38.7700	  729.00	  702.64	-2265.14	  464.26
     38.8700	  692.00	  673.16	-2272.66	  464.38
     38.9700	  672.00	  652.35	-2271.85	  464.50
     39.0700	  626.00	  638.91	-2304.41	  464.62
     39.1700	  631.00	  630.71	-2291.21	  464.74
     39.2700	  621.00	  625.75	-2296.25	  464.86
     39.3700	  606.00	  622.66	-2308.16	  464.99
     39.4700	  648.00	  619.38	-2262.88	  465.11
     39.5700	  617.00	  617.93	-2292.43	  465.23
     39.6700	  609.00	  616.85	-2299.35	  465.36
     39.7700	  571.00	  616.02	-2336.52	  465.49
     39.8700	  567.00	  615.38	-2339.88	  465.61
     39.9700	  600.00	  614.89	-2306.39	  465.74
     40.0700	  623.00	  614.51	-2283.01	  465.87
     40.1700	  607.00	  614.23	-2298.73	  466.00
     40.2700	  557.00	  614.03	-2348.53	  466.13
     40.3700	  614.00	  613.89	-2291.39	  466.26
     40.4700	  623.00	  613.81	-2282.31	  466.40
     40.5700	  615.00	  613.79	-2290.29	  466.53
     40.6700	  618.00	  613.80	-2287.30	  466.66
     40.7700	  597.00	  613.86	-2308.36	  466.80
