MSG Master    CELL:    5.88795   5.88795  23.14576   90.0000   90.0000  120.0000   SPGR: P 63/m m c             TEMP:    629.65
  2   1280     2.52000     0.00000    -0.09509     0.00000     0.00000    0
    96    96     0     0     2
       0.00000      10.00000
     125.00000     130.00000
 2Theta	Yobs	Ycal	Yobs-Ycal	Backg	Posr	(hkl)	K
      0.7700	    0.00	  783.02	-1902.00	  656.29
      0.8700	    0.00	  781.77	-1902.00	  655.05
      0.9700	   40.00	  780.53	-1902.00	  653.81
      1.0700	   54.00	  779.30	-1902.00	  652.57
      1.1700	   45.00	  778.06	-1902.00	  651.34
      1.2700	   37.00	  776.83	-1902.00	  650.11
      1.3700	   61.00	  775.61	-1902.00	  648.88
      1.4700	   98.00	  774.39	-1902.00	  647.66
      1.5700	  279.00	  773.17	-1902.00	  646.44
      1.6700	  462.00	  771.96	-1902.00	  645.23
      1.7700	  569.00	  770.74	-1902.00	  644.02
      1.8700	  683.00	  769.54	-1902.00	  642.81
      1.9700	  691.00	  768.34	-1902.00	  641.61
      2.0700	  768.00	  767.14	-1902.00	  640.41
      2.1700	  788.00	  765.94	-1902.00	  639.22
      2.2700	  764.00	  764.75	-1902.00	  638.02
      2.3700	  765.00	  763.56	-1902.00	  636.84
      2.4700	  719.00	  762.38	-1902.00	  635.65
      2.5700	  703.00	  761.20	-1902.00	  634.47
      2.6700	  673.00	  760.02	-1902.00	  633.30
      2.7700	  603.00	  758.85	-1902.00	  632.12
      2.8700	  621.00	  757.68	-1902.00	  630.96
      2.9700	  596.00	  756.52	-1902.00	  629.79
      3.0700	  622.00	  755.36	-1902.00	  628.63
      3.1700	  599.00	  754.20	-1902.00	  627.47
      3.2700	  657.00	  753.05	-1902.00	  626.32
      3.3700	  941.00	  751.90	-1902.00	  625.17
      3.4700	 1055.00	  750.75	-1902.00	  624.02
      3.5700	 1181.00	  749.61	-1902.00	  622.88
      3.6700	 1201.00	  748.47	-1902.00	  621.74
      3.7700	 1410.00	  747.33	-1902.00	  620.61
      3.8700	 1491.00	  746.20	-1902.00	  619.48
      3.9700	 1502.00	  745.08	-1902.00	  618.35
      4.0700	 1592.00	  743.95	-1902.00	  617.23
      4.1700	 1567.00	  742.83	-1902.00	  616.11
      4.2700	 1746.00	  741.72	-1902.00	  614.99
      4.3700	 1610.00	  740.61	-1902.00	  613.88
      4.4700	 1587.00	  739.50	-1902.00	  612.77
      4.5700	 1527.00	  738.39	-1902.00	  611.67
      4.6700	 1456.00	  737.29	-1902.00	  610.57
      4.7700	 1387.00	  736.20	-1902.00	  609.47
      4.8700	 1362.00	  735.10	-1902.00	  608.38
      4.9700	 1296.00	  734.01	-1902.00	  607.29
      5.0700	 1251.00	  732.93	-1902.00	  606.20
      5.1700	 1171.00	  731.85	-1902.00	  605.12
      5.2700	 1256.00	  730.77	-1902.00	  604.04
      5.3700	 1165.00	  729.70	-1902.00	  602.97
      5.4700	 1180.00	  728.63	-1902.00	  601.90
      5.5700	 1107.00	  727.56	-1902.00	  600.83
      5.6700	 1081.00	  726.50	-1902.00	  599.77
      5.7700	 1089.00	  725.44	-1902.00	  598.71
      5.8700	 1072.00	  724.38	-1902.00	  597.66
      5.9700	 1083.00	  723.33	-1902.00	  596.61
      6.0700	 1023.00	  722.28	-1902.00	  595.56
      6.1700	  973.00	  721.24	-1902.00	  594.51
      6.2700	  926.00	  720.20	-1902.00	  593.47
      6.3700	  971.00	  719.16	-1902.00	  592.44
      6.4700	  983.00	  718.13	-1902.00	  591.40
      6.5700	  918.00	  717.10	-1902.00	  590.38
      6.6700	  912.00	  716.08	-1902.00	  589.35
      6.7700	  951.00	  715.05	-1902.00	  588.33
      6.8700	  953.00	  714.04	-1902.00	  587.31
      6.9700	  880.00	  713.02	-1902.00	  586.30
      7.0700	  885.00	  712.01	-1902.00	  585.29
      7.1700	  887.00	  711.01	-1902.00	  584.28
      7.2700	  854.00	  710.00	-1902.00	  583.28
      7.3700	  850.00	  709.01	-1902.00	  582.28
      7.4700	  776.00	  708.01	-1902.00	  581.28
      7.5700	  841.00	  707.02	-1902.00	  580.29
      7.6700	  824.00	  706.03	-1902.00	  579.31
      7.7700	  772.00	  705.05	-1902.00	  578.32
      7.8700	  790.00	  704.07	-1902.00	  577.34
      7.9700	  788.00	  703.09	-1902.00	  576.37
      8.0700	  773.00	  702.12	-1902.00	  575.39
      8.1700	  793.00	  701.15	-1902.00	  574.42
      8.2700	  760.00	  700.18	-1902.00	  573.46
      8.3700	  720.00	  699.22	-1902.00	  572.50
      8.4700	  731.00	  698.26	-1902.00	  571.54
      8.5700	  834.00	  697.31	-1902.00	  570.58
      8.6700	  771.00	  696.36	-1902.00	  569.63
      8.7700	  707.00	  695.41	-1902.00	  568.69
      8.8700	  722.00	  694.47	-1902.00	  567.74
      8.9700	  768.00	  693.53	-1902.00	  566.80
      9.0700	  730.00	  692.59	-1902.00	  565.87
      9.1700	  754.00	  691.66	-1902.00	  564.94
      9.2700	  715.00	  690.73	-1902.00	  564.01
      9.3700	  704.00	  689.81	-1902.00	  563.08
      9.4700	  751.00	  688.89	-1902.00	  562.16
      9.5700	  716.00	  687.97	-1902.00	  561.25
      9.6700	  691.00	  687.06	-1902.00	  560.33
      9.7700	  709.00	  686.15	-1902.00	  559.42
      9.8700	  720.00	  685.24	-1902.00	  558.52
      9.9700	  694.00	  684.34	-1902.00	  557.61
     10.0700	  698.00	  685.60	-1889.60	  556.72
     10.1700	  685.00	  684.95	-1901.95	  555.82
     10.2700	  695.00	  684.35	-1891.35	  554.93
     10.3700	  710.00	  683.82	-1875.82	  554.04
     10.4700	  684.00	  683.39	-1901.39	  553.16
     10.5700	  744.00	  683.11	-1841.11	  552.28
     10.6700	  714.00	  683.05	-1871.05	  551.40
     10.7700	  682.00	  683.30	-1903.30	  550.53
     10.8700	  688.00	  683.95	-1897.95	  549.66
     10.9700	  674.00	  685.10	-1913.10	  548.79
     11.0700	  707.00	  686.77	-1881.77	  547.93
     11.1700	  730.00	  688.98	-1860.98	  547.07
     11.2700	  681.00	  691.75	-1912.75	  546.22
     11.3700	  722.00	  695.15	-1875.15	  545.36
     11.4700	  684.00	  699.28	-1917.28	  544.52
     11.5700	  733.00	  704.33	-1873.33	  543.67
     11.6700	  736.00	  710.55	-1876.55	  542.83
     11.7700	  709.00	  718.28	-1911.28	  541.99
     11.8700	  784.00	  727.79	-1845.78	  541.16
     11.9700	  770.00	  739.03	-1871.03	  540.33
     12.0700	  833.00	  751.16	-1820.16	  539.51
     12.1700	  793.00	  761.86	-1870.86	  538.68
     12.2700	  850.00	  766.93	-1818.93	  537.86
     12.3700	  870.00	  761.30	-1793.30	  537.05
     12.4700	  797.00	  744.32	-1849.32	  536.24
     12.5700	  757.00	  722.78	-1867.78	  535.43
     12.6700	  703.00	  703.63	-1902.63	  534.62
     12.7700	  662.00	  689.33	-1929.33	  533.82
     12.8700	  608.00	  679.61	-1973.61	  533.03
     12.9700	  640.00	  673.21	-1935.21	  532.23
     13.0700	  647.00	  668.94	-1923.94	  531.44
     13.1700	  645.00	  665.91	-1922.91	  530.65
     13.2700	  631.00	  663.59	-1934.59	  529.87
     13.3700	  634.00	  661.68	-1929.68	  529.09
     13.4700	  592.00	  660.04	-1970.04	  528.32
     13.5700	  578.00	  658.59	-1982.59	  527.54
     13.6700	  642.00	  657.28	-1917.28	  526.77
     13.7700	  713.00	  656.07	-1845.07	  526.01
     13.8700	  652.00	  654.94	-1904.94	  525.25
     13.9700	  636.00	  653.87	-1919.87	  524.49
     14.0700	  655.00	  652.86	-1899.85	  523.73
     14.1700	  673.00	  651.88	-1880.88	  522.98
     14.2700	  629.00	  650.94	-1923.94	  522.23
     14.3700	  677.00	  650.03	-1875.03	  521.49
     14.4700	  652.00	  649.15	-1899.15	  520.75
     14.5700	  645.00	  648.29	-1905.29	  520.01
     14.6700	  625.00	  647.44	-1924.44	  519.28
     14.7700	  608.00	  646.61	-1940.61	  518.54
     14.8700	  628.00	  645.80	-1919.80	  517.82
     14.9700	  615.00	  645.00	-1932.00	  517.09
     15.0700	  568.00	  644.21	-1978.21	  516.37
     15.1700	  635.00	  643.43	-1910.43	  515.66
     15.2700	  618.00	  642.66	-1926.66	  514.94
     15.3700	  668.00	  641.90	-1875.90	  514.23
     15.4700	  626.00	  641.15	-1917.15	  513.53
     15.5700	  615.00	  640.40	-1927.40	  512.82
     15.6700	  619.00	  639.66	-1922.66	  512.12
     15.7700	  657.00	  638.93	-1883.93	  511.43
     15.8700	  629.00	  638.21	-1911.21	  510.74
     15.9700	  644.00	  637.49	-1895.49	  510.05
     16.0700	  620.00	  636.78	-1918.78	  509.36
     16.1700	  650.00	  636.07	-1888.07	  508.68
     16.2700	  634.00	  635.37	-1903.37	  508.00
     16.3700	  609.00	  634.67	-1927.67	  507.32
     16.4700	  661.00	  633.98	-1874.98	  506.65
     16.5700	  601.00	  633.29	-1934.29	  505.98
     16.6700	  614.00	  632.61	-1920.61	  505.32
     16.7700	  605.00	  631.93	-1928.93	  504.65
     16.8700	  613.00	  631.26	-1920.26	  504.00
     16.9700	  624.00	  630.59	-1908.59	  503.34
     17.0700	  596.00	  629.92	-1935.92	  502.69
     17.1700	  633.00	  629.26	-1898.26	  502.04
     17.2700	  608.00	  628.61	-1922.61	  501.39
     17.3700	  655.00	  627.96	-1874.96	  500.75
     17.4700	  649.00	  627.31	-1880.31	  500.11
     17.5700	  591.00	  626.66	-1937.66	  499.48
     17.6700	  630.00	  626.02	-1898.02	  498.85
     17.7700	  629.00	  625.39	-1898.39	  498.22
     17.8700	  613.00	  624.76	-1913.76	  497.59
     17.9700	  627.00	  624.13	-1899.13	  496.97
     18.0700	  577.00	  623.50	-1948.50	  496.35
     18.1700	  629.00	  622.88	-1895.88	  495.73
     18.2700	  604.00	  622.27	-1920.27	  495.12
     18.3700	  584.00	  621.65	-1939.65	  494.51
     18.4700	  593.00	  621.04	-1930.04	  493.91
     18.5700	  640.00	  620.44	-1882.44	  493.30
     18.6700	  609.00	  621.12	-1914.12	  492.71
     18.7700	  591.00	  621.30	-1932.30	  492.11
     18.8700	  623.00	  620.75	-1899.75	  491.52
     18.9700	  579.00	  620.20	-1943.20	  490.93
     19.0700	  656.00	  619.66	-1865.66	  490.34
     19.1700	  638.00	  619.12	-1883.12	  489.76
     19.2700	  606.00	  618.59	-1914.59	  489.18
     19.3700	  642.00	  618.06	-1878.06	  488.60
     19.4700	  640.00	  617.54	-1879.54	  488.03
     19.5700	  609.00	  617.03	-1910.03	  487.46
     19.6700	  560.00	  616.52	-1958.52	  486.89
     19.7700	  597.00	  616.01	-1921.01	  486.33
     19.8700	  610.00	  615.51	-1907.51	  485.77
     19.9700	  586.00	  615.02	-1931.02	  485.21
     20.0700	  613.00	  614.57	-1903.57	  484.65
     20.1700	  641.00	  614.09	-1875.09	  484.10
     20.2700	  596.00	  613.62	-1919.61	  483.55
     20.3700	  596.00	  613.15	-1919.15	  483.01
     20.4700	  585.00	  612.68	-1929.68	  482.47
     20.5700	  617.00	  612.23	-1897.23	  481.93
     20.6700	  634.00	  611.78	-1879.78	  481.39
     20.7700	  581.00	  611.34	-1932.34	  480.86
     20.8700	  605.00	  610.90	-1907.90	  480.33
     20.9700	  609.00	  610.48	-1903.48	  479.81
     21.0700	  628.00	  610.06	-1884.06	  479.28
     21.1700	  565.00	  609.65	-1946.65	  478.76
     21.2700	  658.00	  609.24	-1853.24	  478.25
     21.3700	  606.00	  608.85	-1904.85	  477.73
     21.4700	  644.00	  608.46	-1866.46	  477.22
     21.5700	  584.00	  608.09	-1926.09	  476.71
     21.6700	  629.00	  607.72	-1880.72	  476.21
     21.7700	  591.00	  607.37	-1918.37	  475.71
     21.8700	  644.00	  607.02	-1865.02	  475.21
     21.9700	  623.00	  606.69	-1885.69	  474.71
     22.0700	  602.00	  606.37	-1906.37	  474.22
     22.1700	  588.00	  606.06	-1920.06	  473.73
     22.2700	  625.00	  605.96	-1882.96	  473.24
     22.3700	  633.00	  605.69	-1874.69	  472.76
     22.4700	  596.00	  605.43	-1911.43	  472.28
     22.5700	  640.00	  605.19	-1867.19	  471.80
     22.6700	  603.00	  604.98	-1903.98	  471.33
     22.7700	  611.00	  604.78	-1895.78	  470.86
     22.8700	  578.00	  604.61	-1928.61	  470.39
     22.9700	  590.00	  604.47	-1916.47	  469.92
     23.0700	  641.00	  604.36	-1865.36	  469.46
     23.1700	  635.00	  604.28	-1871.28	  469.00
     23.2700	  608.00	  604.25	-1898.25	  468.54
     23.3700	  602.00	  604.27	-1904.27	  468.09
     23.4700	  599.00	  604.35	-1907.35	  467.64
     23.5700	  592.00	  604.51	-1914.51	  467.19
     23.6700	  626.00	  604.76	-1880.76	  466.75
     23.7700	  650.00	  605.14	-1857.14	  466.30
     23.8700	  603.00	  605.71	-1904.71	  465.86
     23.9700	  585.00	  606.55	-1923.55	  465.43
     24.0700	  608.00	  607.82	-1901.82	  464.99
     24.1700	  598.00	  609.71	-1913.71	  464.56
     24.2700	  598.00	  612.67	-1916.67	  464.14
     24.3700	  663.00	  617.09	-1856.09	  463.71
     24.4700	  626.00	  623.37	-1899.37	  463.29
     24.5700	  655.00	  631.70	-1878.70	  462.87
     24.6700	  705.00	  641.79	-1838.79	  462.45
     24.7700	  672.00	  652.55	-1882.55	  462.04
     24.8700	  755.00	  661.72	-1808.72	  461.63
     24.9700	  703.00	  665.82	-1864.82	  461.22
     25.0700	  686.00	  661.92	-1877.92	  460.82
     25.1700	  715.00	  651.54	-1838.54	  460.41
     25.2700	  705.00	  639.66	-1836.66	  460.02
     25.3700	  628.00	  629.85	-1903.85	  459.62
     25.4700	  666.00	  623.01	-1859.01	  459.22
     25.5700	  668.00	  618.90	-1852.90	  458.83
     25.6700	  599.00	  616.83	-1919.83	  458.44
     25.7700	  621.00	  616.13	-1897.13	  458.06
     25.8700	  610.00	  616.33	-1908.33	  457.68
     25.9700	  632.00	  617.15	-1887.15	  457.30
     26.0700	  635.00	  618.46	-1885.46	  456.92
     26.1700	  645.00	  620.23	-1877.23	  456.54
     26.2700	  611.00	  622.45	-1913.45	  456.17
     26.3700	  620.00	  625.17	-1907.17	  455.80
     26.4700	  647.00	  628.45	-1883.45	  455.44
     26.5700	  661.00	  632.39	-1873.39	  455.07
     26.6700	  667.00	  637.11	-1872.11	  454.71
     26.7700	  680.00	  642.79	-1864.79	  454.35
     26.8700	  682.00	  649.64	-1869.64	  454.00
     26.9700	  625.00	  657.99	-1934.99	  453.64
     27.0700	  676.00	  668.26	-1894.26	  453.29
     27.1700	  692.00	  681.06	-1891.06	  452.94
     27.2700	  673.00	  697.32	-1926.32	  452.60
     27.3700	  659.00	  718.65	-1961.65	  452.25
     27.4700	  762.00	  748.19	-1888.19	  451.91
     27.5700	  742.00	  792.62	-1952.62	  451.58
     27.6700	  802.00	  865.60	-1965.60	  451.24
     27.7700	  849.00	  992.54	-2045.54	  450.91
     27.8700	  966.00	 1214.63	-2150.63	  450.58
     27.9700	 1202.00	 1586.40	-2286.40	  450.25
     28.0700	 1779.00	 2156.94	-2279.94	  449.93
     28.1700	 2700.00	 2929.90	-2131.90	  449.61
     28.2700	 4164.00	 3804.37	-1542.37	  449.29
     28.3700	 5061.00	 4525.76	-1366.76	  448.97
     28.4700	 5398.00	 4727.57	-1231.57	  448.65
     28.5700	 4485.00	 4243.36	-1660.36	  448.34
     28.6700	 3341.00	 3455.19	-2016.19	  448.03
     28.7700	 2563.00	 2859.92	-2198.92	  447.72
     28.8700	 2428.00	 2643.81	-2117.81	  447.42
     28.9700	 2717.00	 2730.46	-1915.46	  447.12
     29.0700	 3062.00	 2897.06	-1737.06	  446.82
     29.1700	 3181.00	 2878.77	-1599.77	  446.52
     29.2700	 2652.00	 2537.91	-1787.90	  446.23
     29.3700	 2044.00	 2015.22	-1873.22	  445.93
     29.4700	 1452.00	 1529.52	-1979.52	  445.64
     29.5700	 1102.00	 1178.07	-1978.07	  445.36
     29.6700	  881.00	  961.03	-1982.03	  445.07
     29.7700	  876.00	  839.37	-1865.37	  444.79
     29.8700	  760.00	  772.20	-1914.20	  444.51
     29.9700	  750.00	  732.28	-1884.28	  444.23
     30.0700	  732.00	  705.76	-1875.76	  443.96
     30.1700	  713.00	  686.65	-1875.65	  443.68
     30.2700	  702.00	  672.44	-1872.44	  443.41
     30.3700	  699.00	  662.12	-1865.12	  443.14
     30.4700	  667.00	  655.52	-1890.52	  442.88
     30.5700	  644.00	  653.08	-1911.08	  442.61
     30.6700	  676.00	  655.72	-1881.72	  442.35
     30.7700	  652.00	  664.26	-1914.26	  442.09
     30.8700	  672.00	  678.35	-1908.35	  441.84
     30.9700	  745.00	  695.37	-1852.37	  441.58
     31.0700	  746.00	  709.62	-1865.62	  441.33
     31.1700	  694.00	  712.90	-1920.90	  441.08
     31.2700	  725.00	  699.75	-1876.75	  440.83
     31.3700	  727.00	  675.21	-1850.21	  440.59
     31.4700	  655.00	  649.75	-1896.74	  440.35
     31.5700	  656.00	  629.40	-1875.40	  440.11
     31.6700	  629.00	  615.39	-1888.39	  439.87
     31.7700	  664.00	  606.56	-1844.56	  439.63
     31.8700	  672.00	  601.16	-1831.15	  439.40
     31.9700	  589.00	  597.71	-1910.71	  439.17
     32.0700	  615.00	  595.34	-1882.34	  438.94
     32.1700	  616.00	  593.60	-1879.60	  438.71
     32.2700	  643.00	  592.30	-1851.30	  438.48
     32.3700	  578.00	  591.34	-1915.34	  438.26
     32.4700	  597.00	  590.68	-1895.68	  438.04
     32.5700	  563.00	  590.33	-1929.33	  437.82
     32.6700	  635.00	  590.28	-1857.28	  437.61
     32.7700	  554.00	  590.56	-1938.56	  437.39
     32.8700	  601.00	  591.25	-1892.25	  437.18
     32.9700	  604.00	  592.37	-1890.37	  436.97
     33.0700	  607.00	  594.07	-1889.07	  436.76
     33.1700	  695.00	  596.56	-1803.56	  436.56
     33.2700	  603.00	  600.21	-1899.21	  436.35
     33.3700	  594.00	  605.79	-1913.79	  436.15
     33.4700	  658.00	  614.75	-1858.75	  435.95
     33.5700	  581.00	  629.74	-1950.74	  435.75
     33.6700	  613.00	  655.08	-1944.08	  435.56
     33.7700	  708.00	  696.50	-1890.50	  435.37
     33.8700	  800.00	  759.41	-1861.41	  435.17
     33.9700	  833.00	  844.88	-1913.88	  434.98
     34.0700	 1029.00	  944.31	-1817.31	  434.80
     34.1700	 1108.00	 1035.81	-1829.81	  434.61
     34.2700	 1159.00	 1085.27	-1828.27	  434.43
     34.3700	 1150.00	 1062.79	-1814.79	  434.25
     34.4700	 1066.00	  976.16	-1812.16	  434.07
     34.5700	  889.00	  867.62	-1880.62	  433.89
     34.6700	  725.00	  771.35	-1948.35	  433.72
     34.7700	  748.00	  700.11	-1854.11	  433.54
     34.8700	  645.00	  653.38	-1910.38	  433.37
     34.9700	  639.00	  625.11	-1888.11	  433.20
     35.0700	  614.00	  608.53	-1896.53	  433.04
     35.1700	  674.00	  598.49	-1826.49	  432.87
     35.2700	  590.00	  591.90	-1903.90	  432.71
     35.3700	  570.00	  587.20	-1919.20	  432.55
     35.4700	  599.00	  583.61	-1886.61	  432.39
     35.5700	  629.00	  580.77	-1853.77	  432.23
     35.6700	  591.00	  578.48	-1889.48	  432.07
     35.7700	  591.00	  576.59	-1887.59	  431.92
     35.8700	  558.00	  575.02	-1919.02	  431.77
     35.9700	  613.00	  573.71	-1862.71	  431.62
     36.0700	  526.00	  572.62	-1948.62	  431.47
     36.1700	  592.00	  571.70	-1881.70	  431.32
     36.2700	  564.00	  570.93	-1908.93	  431.18
     36.3700	  604.00	  570.30	-1868.30	  431.03
     36.4700	  582.00	  569.79	-1889.79	  430.89
     36.5700	  571.00	  569.41	-1900.41	  430.75
     36.6700	  609.00	  569.15	-1862.15	  430.61
     36.7700	  574.00	  569.53	-1897.53	  430.48
     36.8700	  548.00	  569.56	-1923.56	  430.34
     36.9700	  574.00	  569.78	-1897.78	  430.21
     37.0700	  558.00	  570.44	-1914.44	  430.08
     37.1700	  559.00	  571.27	-1914.27	  429.95
     37.2700	  544.00	  572.64	-1930.64	  429.83
     37.3700	  583.00	  574.82	-1893.82	  429.70
     37.4700	  599.00	  578.37	-1881.37	  429.58
     37.5700	  621.00	  583.94	-1864.93	  429.45
     37.6700	  638.00	  592.41	-1856.41	  429.33
     37.7700	  576.00	  604.68	-1930.67	  429.22
     37.8700	  627.00	  621.17	-1896.17	  429.10
     37.9700	  612.00	  641.19	-1931.19	  428.98
     38.0700	  619.00	  662.40	-1945.40	  428.87
     38.1700	  628.00	  680.53	-1954.53	  428.76
     38.2700	  675.00	  689.34	-1916.34	  428.65
     38.3700	  693.00	  683.32	-1892.32	  428.54
     38.4700	  620.00	  662.65	-1944.65	  428.43
     38.5700	  599.00	  637.87	-1940.87	  428.33
     38.6700	  575.00	  614.83	-1941.83	  428.22
     38.7700	  586.00	  596.80	-1912.79	  428.12
     38.8700	  571.00	  584.18	-1915.18	  428.02
     38.9700	  596.00	  576.04	-1882.04	  427.92
     39.0700	  568.00	  571.01	-1905.01	  427.82
     39.1700	  571.00	  567.90	-1898.90	  427.73
     39.2700	  567.00	  565.88	-1900.88	  427.63
     39.3700	  586.00	  564.47	-1880.47	  427.54
     39.4700	  618.00	  563.40	-1847.40	  427.45
     39.5700	  585.00	  562.57	-1879.57	  427.36
     39.6700	  572.00	  561.89	-1891.89	  427.27
     39.7700	  588.00	  560.62	-1874.62	  427.19
     39.8700	  573.00	  560.17	-1889.17	  427.10
     39.9700	  561.00	  559.79	-1900.79	  427.02
     40.0700	  565.00	  559.48	-1896.48	  426.93
     40.1700	  562.00	  559.22	-1899.22	  426.85
     40.2700	  583.00	  559.01	-1878.01	  426.77
     40.3700	  550.00	  558.83	-1910.83	  426.70
     40.4700	  567.00	  558.70	-1893.70	  426.62
     40.5700	  547.00	  559.13	-1914.13	  426.54
     40.6700	  528.00	  559.07	-1933.07	  426.47
     40.7700	  530.00	  559.04	-1931.04	  426.40
