MSG Master    CELL:    5.88147   5.88147  23.10659   90.0000   90.0000  120.0000   SPGR: P 63/m m c             TEMP:    546.25
  2   1280     2.52000     0.00000    -0.09181     0.00000     0.00000    0
    96    96     0     0     2
       0.00000      10.00000
     125.00000     130.00000
 2Theta	Yobs	Ycal	Yobs-Ycal	Backg	Posr	(hkl)	K
      0.7700	    0.00	  908.33	-1951.67	  775.21
      0.8700	    0.00	  905.62	-1951.67	  772.50
      0.9700	   46.00	  902.92	-1951.67	  769.80
      1.0700	   49.00	  900.23	-1951.67	  767.12
      1.1700	   49.00	  897.57	-1951.67	  764.45
      1.2700	   42.00	  894.92	-1951.67	  761.80
      1.3700	   51.00	  892.28	-1951.67	  759.16
      1.4700	   97.00	  889.66	-1951.67	  756.54
      1.5700	  276.00	  887.05	-1951.67	  753.94
      1.6700	  463.00	  884.46	-1951.67	  751.35
      1.7700	  592.00	  881.89	-1951.67	  748.77
      1.8700	  614.00	  879.33	-1951.67	  746.21
      1.9700	  665.00	  876.78	-1951.67	  743.67
      2.0700	  772.00	  874.26	-1951.67	  741.14
      2.1700	  771.00	  871.74	-1951.67	  738.62
      2.2700	  770.00	  869.24	-1951.67	  736.12
      2.3700	  680.00	  866.76	-1951.67	  733.64
      2.4700	  708.00	  864.29	-1951.67	  731.17
      2.5700	  682.00	  861.83	-1951.67	  728.71
      2.6700	  673.00	  859.39	-1951.67	  726.27
      2.7700	  638.00	  856.97	-1951.67	  723.85
      2.8700	  624.00	  854.56	-1951.67	  721.44
      2.9700	  619.00	  852.16	-1951.67	  719.04
      3.0700	  598.00	  849.78	-1951.67	  716.66
      3.1700	  626.00	  847.41	-1951.67	  714.29
      3.2700	  730.00	  845.06	-1951.67	  711.94
      3.3700	  919.00	  842.72	-1951.67	  709.60
      3.4700	 1079.00	  840.40	-1951.67	  707.28
      3.5700	 1208.00	  838.09	-1951.67	  704.97
      3.6700	 1331.00	  835.79	-1951.67	  702.67
      3.7700	 1425.00	  833.51	-1951.67	  700.39
      3.8700	 1523.00	  831.24	-1951.67	  698.12
      3.9700	 1567.00	  828.99	-1951.67	  695.87
      4.0700	 1671.00	  826.75	-1951.67	  693.63
      4.1700	 1750.00	  824.52	-1951.67	  691.40
      4.2700	 1738.00	  822.31	-1951.67	  689.19
      4.3700	 1602.00	  820.11	-1951.67	  686.99
      4.4700	 1587.00	  817.93	-1951.67	  684.81
      4.5700	 1549.00	  815.75	-1951.67	  682.64
      4.6700	 1527.00	  813.60	-1951.67	  680.48
      4.7700	 1468.00	  811.45	-1951.67	  678.34
      4.8700	 1380.00	  809.32	-1951.67	  676.21
      4.9700	 1297.00	  807.21	-1951.67	  674.09
      5.0700	 1358.00	  805.10	-1951.67	  671.99
      5.1700	 1352.00	  803.01	-1951.67	  669.90
      5.2700	 1307.00	  800.94	-1951.67	  667.82
      5.3700	 1173.00	  798.87	-1951.67	  665.76
      5.4700	 1140.00	  796.82	-1951.67	  663.71
      5.5700	 1128.00	  794.79	-1951.67	  661.67
      5.6700	 1167.00	  792.76	-1951.67	  659.64
      5.7700	 1150.00	  790.75	-1951.67	  657.63
      5.8700	 1117.00	  788.75	-1951.67	  655.64
      5.9700	 1107.00	  786.77	-1951.67	  653.65
      6.0700	 1030.00	  784.80	-1951.67	  651.68
      6.1700	 1076.00	  782.84	-1951.67	  649.72
      6.2700	  979.00	  780.89	-1951.67	  647.77
      6.3700	 1023.00	  778.96	-1951.67	  645.84
      6.4700	 1019.00	  777.04	-1951.67	  643.92
      6.5700	  975.00	  775.13	-1951.67	  642.01
      6.6700	  954.00	  773.23	-1951.67	  640.11
      6.7700	 1010.00	  771.35	-1951.67	  638.23
      6.8700	  950.00	  769.48	-1951.67	  636.36
      6.9700	  913.00	  767.62	-1951.67	  634.50
      7.0700	  920.00	  765.77	-1951.67	  632.65
      7.1700	  867.00	  763.94	-1951.67	  630.82
      7.2700	  875.00	  762.11	-1951.67	  629.00
      7.3700	  886.00	  760.30	-1951.67	  627.19
      7.4700	  827.00	  758.51	-1951.67	  625.39
      7.5700	  834.00	  756.72	-1951.67	  623.60
      7.6700	  832.00	  754.95	-1951.67	  621.83
      7.7700	  819.00	  753.19	-1951.67	  620.07
      7.8700	  792.00	  751.44	-1951.67	  618.32
      7.9700	  770.00	  749.70	-1951.67	  616.58
      8.0700	  858.00	  747.97	-1951.67	  614.85
      8.1700	  782.00	  746.26	-1951.67	  613.14
      8.2700	  799.00	  744.56	-1951.67	  611.44
      8.3700	  777.00	  742.87	-1951.67	  609.75
      8.4700	  765.00	  741.19	-1951.67	  608.07
      8.5700	  769.00	  739.52	-1951.67	  606.40
      8.6700	  774.00	  737.86	-1951.67	  604.74
      8.7700	  807.00	  736.22	-1951.67	  603.10
      8.8700	  737.00	  734.59	-1951.67	  601.47
      8.9700	  687.00	  732.96	-1951.67	  599.85
      9.0700	  760.00	  731.35	-1951.67	  598.24
      9.1700	  738.00	  729.75	-1951.67	  596.64
      9.2700	  704.00	  728.17	-1951.67	  595.05
      9.3700	  757.00	  726.59	-1951.67	  593.47
      9.4700	  747.00	  725.02	-1951.67	  591.91
      9.5700	  750.00	  723.47	-1951.67	  590.35
      9.6700	  756.00	  721.93	-1951.67	  588.81
      9.7700	  780.00	  720.39	-1951.67	  587.28
      9.8700	  757.00	  718.87	-1951.67	  585.75
      9.9700	  738.00	  717.36	-1951.67	  584.24
     10.0700	  697.00	  717.93	-1972.59	  582.74
     10.1700	  741.00	  716.66	-1927.33	  581.25
     10.2700	  748.00	  715.45	-1919.12	  579.78
     10.3700	  750.00	  714.31	-1915.98	  578.31
     10.4700	  681.00	  713.27	-1983.94	  576.85
     10.5700	  738.00	  712.37	-1926.03	  575.41
     10.6700	  679.00	  711.66	-1984.32	  573.97
     10.7700	  685.00	  711.23	-1977.90	  572.54
     10.8700	  665.00	  711.18	-1997.85	  571.13
     10.9700	  685.00	  711.60	-1978.27	  569.73
     11.0700	  739.00	  712.53	-1925.20	  568.33
     11.1700	  704.00	  713.99	-1961.65	  566.95
     11.2700	  698.00	  715.99	-1969.65	  565.57
     11.3700	  722.00	  718.58	-1948.25	  564.21
     11.4700	  745.00	  721.87	-1928.53	  562.86
     11.5700	  763.00	  726.00	-1914.66	  561.51
     11.6700	  763.00	  731.20	-1919.87	  560.18
     11.7700	  765.00	  737.78	-1924.45	  558.86
     11.8700	  810.00	  746.04	-1887.71	  557.55
     11.9700	  783.00	  756.05	-1924.71	  556.24
     12.0700	  820.00	  767.20	-1898.86	  554.95
     12.1700	  860.00	  777.67	-1869.34	  553.67
     12.2700	  816.00	  783.88	-1919.54	  552.39
     12.3700	  821.00	  780.85	-1911.51	  551.13
     12.4700	  840.00	  766.31	-1877.98	  549.88
     12.5700	  760.00	  745.40	-1937.06	  548.63
     12.6700	  732.00	  725.51	-1945.17	  547.40
     12.7700	  701.00	  710.05	-1960.71	  546.17
     12.8700	  674.00	  699.20	-1976.87	  544.96
     12.9700	  690.00	  691.87	-1953.53	  543.75
     13.0700	  697.00	  686.87	-1941.53	  542.56
     13.1700	  666.00	  683.26	-1968.93	  541.37
     13.2700	  665.00	  680.45	-1967.12	  540.19
     13.3700	  638.00	  678.11	-1991.77	  539.02
     13.4700	  644.00	  676.06	-1983.72	  537.86
     13.5700	  646.00	  674.21	-1979.87	  536.71
     13.6700	  686.00	  672.51	-1938.17	  535.57
     13.7700	  647.00	  670.92	-1975.58	  534.44
     13.8700	  634.00	  669.42	-1987.09	  533.32
     13.9700	  657.00	  667.99	-1962.66	  532.20
     14.0700	  680.00	  666.63	-1938.29	  531.10
     14.1700	  671.00	  665.31	-1945.97	  530.00
     14.2700	  701.00	  664.03	-1914.69	  528.92
     14.3700	  656.00	  662.78	-1958.45	  527.84
     14.4700	  622.00	  661.57	-1991.24	  526.77
     14.5700	  606.00	  660.39	-2006.05	  525.71
     14.6700	  594.00	  659.22	-2016.89	  524.66
     14.7700	  663.00	  658.08	-1946.75	  523.62
     14.8700	  655.00	  656.96	-1953.63	  522.58
     14.9700	  615.00	  655.86	-1992.52	  521.56
     15.0700	  630.00	  654.77	-1976.44	  520.54
     15.1700	  640.00	  653.70	-1965.37	  519.53
     15.2700	  672.00	  652.65	-1932.31	  518.53
     15.3700	  592.00	  651.60	-2011.27	  517.54
     15.4700	  655.00	  650.57	-1947.24	  516.56
     15.5700	  620.00	  649.56	-1981.22	  515.58
     15.6700	  620.00	  648.55	-1980.22	  514.62
     15.7700	  647.00	  647.56	-1952.23	  513.66
     15.8700	  620.00	  646.58	-1978.24	  512.71
     15.9700	  635.00	  645.61	-1962.27	  511.77
     16.0700	  642.00	  644.65	-1954.31	  510.83
     16.1700	  681.00	  643.70	-1914.36	  509.91
     16.2700	  609.00	  642.76	-1985.42	  508.99
     16.3700	  667.00	  641.83	-1926.49	  508.08
     16.4700	  630.00	  640.90	-1962.57	  507.18
     16.5700	  681.00	  639.99	-1910.66	  506.29
     16.6700	  600.00	  639.09	-1990.76	  505.40
     16.7700	  626.00	  638.20	-1963.86	  504.52
     16.8700	  596.00	  637.31	-1992.98	  503.65
     16.9700	  695.00	  636.44	-1893.10	  502.79
     17.0700	  659.00	  635.57	-1928.24	  501.94
     17.1700	  615.00	  634.71	-1971.38	  501.09
     17.2700	  598.00	  633.87	-1987.53	  500.25
     17.3700	  591.00	  633.02	-1993.69	  499.42
     17.4700	  628.00	  632.19	-1955.86	  498.60
     17.5700	  628.00	  631.37	-1955.03	  497.78
     17.6700	  664.00	  630.55	-1918.22	  496.97
     17.7700	  636.00	  629.74	-1945.41	  496.17
     17.8700	  620.00	  628.94	-1960.61	  495.38
     17.9700	  613.00	  628.15	-1966.82	  494.59
     18.0700	  635.00	  627.37	-1944.03	  493.81
     18.1700	  579.00	  626.59	-1999.26	  493.04
     18.2700	  644.00	  625.82	-1933.49	  492.28
     18.3700	  604.00	  625.06	-1972.73	  491.52
     18.4700	  632.00	  624.31	-1943.97	  490.77
     18.5700	  627.00	  623.56	-1948.23	  490.03
     18.6700	  687.00	  622.82	-1887.49	  489.29
     18.7700	  677.00	  622.09	-1896.76	  488.56
     18.8700	  651.00	  621.37	-1922.03	  487.84
     18.9700	  586.00	  623.54	-1989.21	  487.13
     19.0700	  667.00	  622.89	-1907.56	  486.42
     19.1700	  593.00	  622.25	-1980.92	  485.72
     19.2700	  635.00	  621.63	-1938.29	  485.02
     19.3700	  619.00	  621.00	-1953.67	  484.34
     19.4700	  625.00	  620.39	-1947.06	  483.66
     19.5700	  624.00	  619.79	-1947.46	  482.98
     19.6700	  636.00	  619.20	-1934.87	  482.31
     19.7700	  614.00	  618.62	-1956.28	  481.65
     19.8700	  633.00	  618.05	-1936.71	  481.00
     19.9700	  586.00	  617.48	-1983.15	  480.35
     20.0700	  587.00	  616.93	-1981.60	  479.71
     20.1700	  686.00	  616.44	-1882.11	  479.08
     20.2700	  593.00	  615.91	-1974.58	  478.45
     20.3700	  592.00	  615.39	-1975.05	  477.83
     20.4700	  627.00	  614.88	-1939.54	  477.22
     20.5700	  636.00	  614.38	-1930.04	  476.61
     20.6700	  638.00	  613.89	-1927.56	  476.01
     20.7700	  595.00	  613.41	-1970.08	  475.41
     20.8700	  604.00	  612.95	-1960.61	  474.82
     20.9700	  627.00	  612.49	-1937.16	  474.24
     21.0700	  619.00	  612.05	-1944.71	  473.66
     21.1700	  609.00	  611.62	-1954.28	  473.09
     21.2700	  610.00	  611.20	-1952.87	  472.53
     21.3700	  617.00	  610.79	-1945.46	  471.97
     21.4700	  603.00	  610.40	-1959.07	  471.42
     21.5700	  627.00	  610.02	-1934.69	  470.87
     21.6700	  611.00	  609.66	-1950.33	  470.33
     21.7700	  611.00	  609.31	-1949.98	  469.80
     21.8700	  602.00	  608.98	-1958.65	  469.27
     21.9700	  579.00	  608.66	-1981.33	  468.75
     22.0700	  594.00	  608.36	-1966.03	  468.23
     22.1700	  604.00	  608.08	-1955.75	  467.72
     22.2700	  623.00	  607.82	-1936.49	  467.22
     22.3700	  614.00	  607.58	-1945.24	  466.72
     22.4700	  662.00	  607.55	-1897.22	  466.23
     22.5700	  621.00	  607.36	-1938.02	  465.74
     22.6700	  582.00	  607.19	-1976.86	  465.26
     22.7700	  634.00	  607.05	-1924.71	  464.78
     22.8700	  584.00	  606.93	-1974.60	  464.31
     22.9700	  659.00	  606.85	-1899.52	  463.84
     23.0700	  631.00	  606.81	-1927.48	  463.38
     23.1700	  635.00	  606.81	-1923.47	  462.93
     23.2700	  585.00	  606.85	-1973.52	  462.48
     23.3700	  649.00	  606.95	-1909.61	  462.04
     23.4700	  651.00	  607.11	-1907.77	  461.60
     23.5700	  604.00	  607.34	-1955.01	  461.17
     23.6700	  604.00	  607.67	-1955.34	  460.74
     23.7700	  637.00	  608.12	-1922.78	  460.32
     23.8700	  628.00	  608.73	-1932.39	  459.90
     23.9700	  627.00	  609.57	-1934.23	  459.49
     24.0700	  626.00	  610.76	-1936.42	  459.08
     24.1700	  630.00	  612.50	-1934.16	  458.68
     24.2700	  588.00	  615.01	-1978.67	  458.29
     24.3700	  663.00	  618.79	-1907.46	  457.89
     24.4700	  668.00	  624.23	-1907.90	  457.51
     24.5700	  627.00	  631.63	-1956.29	  457.13
     24.6700	  660.00	  640.93	-1932.60	  456.75
     24.7700	  687.00	  651.50	-1916.17	  456.38
     24.8700	  698.00	  661.72	-1915.39	  456.01
     24.9700	  691.00	  668.72	-1929.39	  455.65
     25.0700	  707.00	  669.04	-1913.70	  455.30
     25.1700	  708.00	  661.82	-1905.48	  454.94
     25.2700	  714.00	  650.89	-1888.55	  454.60
     25.3700	  693.00	  640.71	-1899.38	  454.26
     25.4700	  701.00	  633.32	-1883.99	  453.92
     25.5700	  608.00	  628.76	-1972.42	  453.59
     25.6700	  605.00	  626.54	-1973.21	  453.26
     25.7700	  638.00	  625.99	-1939.66	  452.93
     25.8700	  619.00	  626.58	-1959.25	  452.61
     25.9700	  665.00	  627.96	-1914.62	  452.30
     26.0700	  608.00	  629.95	-1973.62	  451.99
     26.1700	  633.00	  632.51	-1951.18	  451.69
     26.2700	  634.00	  635.64	-1953.31	  451.38
     26.3700	  672.00	  639.40	-1919.06	  451.09
     26.4700	  661.00	  643.86	-1934.52	  450.80
     26.5700	  638.00	  649.14	-1962.80	  450.51
     26.6700	  676.00	  655.40	-1931.06	  450.23
     26.7700	  707.00	  662.85	-1907.51	  449.95
     26.8700	  670.00	  671.77	-1953.43	  449.67
     26.9700	  677.00	  682.54	-1957.20	  449.40
     27.0700	  651.00	  695.67	-1996.34	  449.14
     27.1700	  686.00	  711.90	-1977.56	  448.87
     27.2700	  652.00	  732.29	-2031.96	  448.62
     27.3700	  722.00	  758.59	-1988.25	  448.36
     27.4700	  725.00	  794.08	-2020.75	  448.11
     27.5700	  766.00	  845.77	-2031.44	  447.87
     27.6700	  825.00	  928.73	-2055.40	  447.63
     27.7700	  899.00	 1072.92	-2125.59	  447.39
     27.8700	  999.00	 1330.58	-2283.25	  447.16
     27.9700	 1328.00	 1778.60	-2402.26	  446.93
     28.0700	 1999.00	 2502.64	-2455.31	  446.70
     28.1700	 3226.00	 3549.84	-2275.50	  446.48
     28.2700	 5036.00	 4843.56	-1759.23	  446.26
     28.3700	 6844.00	 6083.79	-1191.46	  446.05
     28.4700	 7788.00	 6735.73	 -899.40	  445.84
     28.5700	 6803.00	 6335.16	-1483.82	  445.63
     28.6700	 5270.00	 5176.71	-1858.37	  445.43
     28.7700	 3822.00	 4092.57	-2222.23	  445.23
     28.8700	 3326.00	 3555.58	-2181.24	  445.04
     28.9700	 3623.00	 3566.42	-1895.09	  444.85
     29.0700	 4142.00	 3840.83	-1650.49	  444.66
     29.1700	 4225.00	 3976.98	-1703.65	  444.47
     29.2700	 3768.00	 3656.00	-1839.67	  444.29
     29.3700	 2910.00	 2941.04	-1982.70	  444.12
     29.4700	 2003.00	 2177.10	-2125.76	  443.94
     29.5700	 1415.00	 1585.47	-2122.14	  443.77
     29.6700	 1164.00	 1206.82	-1994.48	  443.61
     29.7700	  945.00	  993.06	-1999.73	  443.44
     29.8700	  907.00	  878.02	-1922.68	  443.28
     29.9700	  805.00	  812.85	-1959.52	  443.13
     30.0700	  776.00	  771.43	-1947.10	  442.98
     30.1700	  783.00	  742.29	-1910.96	  442.83
     30.2700	  763.00	  720.74	-1909.41	  442.68
     30.3700	  670.00	  704.85	-1986.52	  442.54
     30.4700	  710.00	  693.97	-1935.64	  442.40
     30.5700	  690.00	  688.41	-1950.08	  442.26
     30.6700	  688.00	  689.28	-1952.95	  442.13
     30.7700	  707.00	  698.02	-1942.68	  442.00
     30.8700	  703.00	  715.13	-1963.80	  441.87
     30.9700	  772.00	  738.52	-1918.18	  441.75
     31.0700	  748.00	  762.02	-1965.69	  441.63
     31.1700	  805.00	  775.10	-1921.76	  441.51
     31.2700	  805.00	  766.74	-1913.40	  441.40
     31.3700	  765.00	  737.25	-1923.91	  441.29
     31.4700	  687.00	  700.55	-1965.22	  441.18
     31.5700	  650.00	  668.67	-1970.34	  441.07
     31.6700	  669.00	  645.71	-1928.38	  440.97
     31.7700	  651.00	  631.00	-1931.67	  440.87
     31.8700	  680.00	  622.09	-1893.76	  440.77
     31.9700	  599.00	  616.61	-1969.28	  440.68
     32.0700	  669.00	  612.99	-1895.66	  440.59
     32.1700	  626.00	  610.39	-1936.05	  440.50
     32.2700	  651.00	  608.42	-1909.09	  440.42
     32.3700	  624.00	  606.93	-1934.59	  440.33
     32.4700	  657.00	  605.83	-1900.50	  440.26
     32.5700	  567.00	  605.09	-1989.75	  440.18
     32.6700	  612.00	  604.69	-1944.36	  440.10
     32.7700	  600.00	  604.66	-1956.32	  440.03
     32.8700	  643.00	  605.01	-1913.67	  439.96
     32.9700	  624.00	  605.84	-1933.50	  439.90
     33.0700	  624.00	  607.18	-1934.85	  439.83
     33.1700	  629.00	  609.22	-1931.89	  439.77
     33.2700	  619.00	  612.25	-1944.91	  439.71
     33.3700	  606.00	  616.79	-1962.46	  439.66
     33.4700	  627.00	  623.94	-1948.61	  439.60
     33.5700	  659.00	  635.76	-1928.43	  439.55
     33.6700	  638.00	  655.85	-1969.51	  439.50
     33.7700	  699.00	  689.61	-1942.27	  439.46
     33.8700	  709.00	  743.35	-1986.02	  439.42
     33.9700	  832.00	  821.28	-1940.94	  439.37
     34.0700	  964.00	  920.16	-1907.82	  439.33
     34.1700	 1161.00	 1024.13	-1814.80	  439.30
     34.2700	 1254.00	 1102.84	-1800.50	  439.26
     34.3700	 1243.00	 1118.62	-1827.29	  439.23
     34.4700	 1098.00	 1056.40	-1910.07	  439.20
     34.5700	  985.00	  947.89	-1914.56	  439.17
     34.6700	  817.00	  837.93	-1972.60	  439.15
     34.7700	  798.00	  750.35	-1904.01	  439.13
     34.8700	  645.00	  690.11	-1996.78	  439.11
     34.9700	  720.00	  652.71	-1884.38	  439.09
     35.0700	  670.00	  630.81	-1912.47	  439.07
     35.1700	  659.00	  617.97	-1910.64	  439.06
     35.2700	  633.00	  609.97	-1928.63	  439.04
     35.3700	  592.00	  604.51	-1964.18	  439.03
     35.4700	  620.00	  600.50	-1932.16	  439.02
     35.5700	  577.00	  597.40	-1972.07	  439.02
     35.6700	  594.00	  594.95	-1952.61	  439.01
     35.7700	  612.00	  592.98	-1932.64	  439.01
     35.8700	  637.00	  591.38	-1906.04	  439.01
     35.9700	  612.00	  590.07	-1929.74	  439.01
     36.0700	  634.00	  589.01	-1906.67	  439.02
     36.1700	  574.00	  588.14	-1965.81	  439.02
     36.2700	  590.00	  587.45	-1949.12	  439.03
     36.3700	  605.00	  586.92	-1933.58	  439.04
     36.4700	  641.00	  586.53	-1897.19	  439.05
     36.5700	  589.00	  586.27	-1948.93	  439.06
     36.6700	  603.00	  586.15	-1934.81	  439.08
     36.7700	  562.00	  586.17	-1975.83	  439.09
     36.8700	  591.00	  586.35	-1947.02	  439.11
     36.9700	  611.00	  586.72	-1927.39	  439.13
     37.0700	  597.00	  587.85	-1942.51	  439.15
     37.1700	  619.00	  589.00	-1921.66	  439.17
     37.2700	  576.00	  590.49	-1966.16	  439.20
     37.3700	  575.00	  592.69	-1969.35	  439.23
     37.4700	  625.00	  596.07	-1922.73	  439.25
     37.5700	  621.00	  601.43	-1932.09	  439.28
     37.6700	  614.00	  609.83	-1947.49	  439.31
     37.7700	  609.00	  622.64	-1965.31	  439.35
     37.8700	  636.00	  641.16	-1956.83	  439.38
     37.9700	  623.00	  665.80	-1994.46	  439.42
     38.0700	  648.00	  695.00	-1998.67	  439.45
     38.1700	  709.00	  724.41	-1967.08	  439.49
     38.2700	  740.00	  744.82	-1956.49	  439.53
     38.3700	  685.00	  750.23	-2016.90	  439.58
     38.4700	  670.00	  734.22	-2015.88	  439.62
     38.5700	  694.00	  703.55	-1961.22	  439.66
     38.6700	  596.00	  670.09	-2025.76	  439.71
     38.7700	  605.00	  641.49	-1988.16	  439.76
     38.8700	  614.00	  620.31	-1957.97	  439.80
     38.9700	  605.00	  606.15	-1952.81	  439.85
     39.0700	  582.00	  597.34	-1967.00	  439.91
     39.1700	  587.00	  592.02	-1956.69	  439.96
     39.2700	  599.00	  588.77	-1941.43	  440.01
     39.3700	  535.00	  586.65	-2003.31	  440.07
     39.4700	  642.00	  585.16	-1894.83	  440.12
     39.5700	  602.00	  584.06	-1933.72	  440.18
     39.6700	  605.00	  582.21	-1928.88	  440.24
     39.7700	  587.00	  581.56	-1946.23	  440.30
     39.8700	  539.00	  581.06	-1993.72	  440.36
     39.9700	  581.00	  580.66	-1951.33	  440.42
     40.0700	  613.00	  580.35	-1919.02	  440.48
     40.1700	  556.00	  580.12	-1975.78	  440.55
     40.2700	  628.00	  579.94	-1903.61	  440.61
     40.3700	  605.00	  579.82	-1926.49	  440.68
     40.4700	  575.00	  579.75	-1956.41	  440.75
     40.5700	  580.00	  579.72	-1951.38	  440.82
     40.6700	  614.00	  579.72	-1917.39	  440.89
     40.7700	  562.00	  580.30	-1969.97	  440.96
