MSG Master    CELL:    5.88342   5.88342  23.12169   90.0000   90.0000  120.0000   SPGR: P 63/m m c             TEMP:    570.55
  2   1280     2.52000     0.00000    -0.09101     0.00000     0.00000    0
    96    96     0     0     2
       0.00000      10.00000
     125.00000     130.00000
 2Theta	Yobs	Ycal	Yobs-Ycal	Backg	Posr	(hkl)	K
      0.7700	    0.00	  875.93	-1947.65	  743.32
      0.8700	    0.00	  873.60	-1947.65	  740.99
      0.9700	   33.00	  871.29	-1947.65	  738.68
      1.0700	   43.00	  868.99	-1947.65	  736.39
      1.1700	   40.00	  866.71	-1947.65	  734.10
      1.2700	   54.00	  864.44	-1947.65	  731.83
      1.3700	   49.00	  862.18	-1947.65	  729.57
      1.4700	   99.00	  859.93	-1947.65	  727.32
      1.5700	  300.00	  857.70	-1947.65	  725.09
      1.6700	  473.00	  855.48	-1947.65	  722.87
      1.7700	  586.00	  853.27	-1947.65	  720.66
      1.8700	  687.00	  851.07	-1947.65	  718.46
      1.9700	  721.00	  848.89	-1947.65	  716.28
      2.0700	  799.00	  846.71	-1947.65	  714.10
      2.1700	  732.00	  844.55	-1947.65	  711.94
      2.2700	  745.00	  842.41	-1947.65	  709.80
      2.3700	  766.00	  840.27	-1947.65	  707.66
      2.4700	  711.00	  838.15	-1947.65	  705.54
      2.5700	  735.00	  836.04	-1947.65	  703.43
      2.6700	  690.00	  833.94	-1947.65	  701.33
      2.7700	  630.00	  831.85	-1947.65	  699.24
      2.8700	  557.00	  829.78	-1947.65	  697.17
      2.9700	  641.00	  827.71	-1947.65	  695.10
      3.0700	  659.00	  825.66	-1947.65	  693.05
      3.1700	  619.00	  823.62	-1947.65	  691.01
      3.2700	  764.00	  821.59	-1947.65	  688.98
      3.3700	  850.00	  819.58	-1947.65	  686.97
      3.4700	 1116.00	  817.57	-1947.65	  684.96
      3.5700	 1225.00	  815.58	-1947.65	  682.97
      3.6700	 1331.00	  813.60	-1947.65	  680.99
      3.7700	 1446.00	  811.63	-1947.65	  679.02
      3.8700	 1509.00	  809.67	-1947.65	  677.06
      3.9700	 1584.00	  807.73	-1947.65	  675.12
      4.0700	 1600.00	  805.79	-1947.65	  673.18
      4.1700	 1753.00	  803.87	-1947.65	  671.26
      4.2700	 1694.00	  801.96	-1947.65	  669.35
      4.3700	 1674.00	  800.06	-1947.65	  667.45
      4.4700	 1573.00	  798.17	-1947.65	  665.56
      4.5700	 1593.00	  796.29	-1947.65	  663.68
      4.6700	 1495.00	  794.42	-1947.65	  661.81
      4.7700	 1455.00	  792.57	-1947.65	  659.96
      4.8700	 1348.00	  790.72	-1947.65	  658.11
      4.9700	 1376.00	  788.89	-1947.65	  656.28
      5.0700	 1349.00	  787.07	-1947.65	  654.46
      5.1700	 1345.00	  785.25	-1947.65	  652.64
      5.2700	 1270.00	  783.45	-1947.65	  650.84
      5.3700	 1208.00	  781.66	-1947.65	  649.05
      5.4700	 1261.00	  779.88	-1947.65	  647.27
      5.5700	 1173.00	  778.12	-1947.65	  645.51
      5.6700	 1145.00	  776.36	-1947.65	  643.75
      5.7700	 1157.00	  774.61	-1947.65	  642.00
      5.8700	 1120.00	  772.88	-1947.65	  640.27
      5.9700	 1133.00	  771.15	-1947.65	  638.54
      6.0700	 1050.00	  769.44	-1947.65	  636.83
      6.1700	 1053.00	  767.73	-1947.65	  635.12
      6.2700	 1062.00	  766.04	-1947.65	  633.43
      6.3700	  999.00	  764.35	-1947.65	  631.74
      6.4700	 1024.00	  762.68	-1947.65	  630.07
      6.5700	 1024.00	  761.02	-1947.65	  628.41
      6.6700	  960.00	  759.37	-1947.65	  626.76
      6.7700	  920.00	  757.72	-1947.65	  625.11
      6.8700	  906.00	  756.09	-1947.65	  623.48
      6.9700	  927.00	  754.47	-1947.65	  621.86
      7.0700	  889.00	  752.86	-1947.65	  620.25
      7.1700	  914.00	  751.26	-1947.65	  618.65
      7.2700	  840.00	  749.67	-1947.65	  617.06
      7.3700	  888.00	  748.09	-1947.65	  615.48
      7.4700	  857.00	  746.52	-1947.65	  613.91
      7.5700	  837.00	  744.95	-1947.65	  612.34
      7.6700	  811.00	  743.40	-1947.65	  610.79
      7.7700	  825.00	  741.86	-1947.65	  609.25
      7.8700	  833.00	  740.33	-1947.65	  607.72
      7.9700	  782.00	  738.81	-1947.65	  606.20
      8.0700	  797.00	  737.30	-1947.65	  604.69
      8.1700	  771.00	  735.79	-1947.65	  603.18
      8.2700	  775.00	  734.30	-1947.65	  601.69
      8.3700	  803.00	  732.82	-1947.65	  600.21
      8.4700	  792.00	  731.35	-1947.65	  598.74
      8.5700	  769.00	  729.88	-1947.65	  597.27
      8.6700	  750.00	  728.43	-1947.65	  595.82
      8.7700	  775.00	  726.98	-1947.65	  594.37
      8.8700	  750.00	  725.55	-1947.65	  592.94
      8.9700	  783.00	  724.12	-1947.65	  591.51
      9.0700	  753.00	  722.71	-1947.65	  590.10
      9.1700	  749.00	  721.30	-1947.65	  588.69
      9.2700	  755.00	  719.90	-1947.65	  587.29
      9.3700	  762.00	  718.51	-1947.65	  585.90
      9.4700	  717.00	  717.13	-1947.65	  584.52
      9.5700	  723.00	  715.76	-1947.65	  583.15
      9.6700	  695.00	  714.40	-1947.65	  581.79
      9.7700	  764.00	  713.05	-1947.65	  580.44
      9.8700	  741.00	  711.71	-1947.65	  579.10
      9.9700	  693.00	  710.37	-1947.65	  577.76
     10.0700	  719.00	  711.31	-1939.95	  576.44
     10.1700	  753.00	  710.24	-1904.89	  575.12
     10.2700	  722.00	  709.23	-1934.88	  573.82
     10.3700	  727.00	  708.30	-1928.94	  572.52
     10.4700	  740.00	  707.47	-1915.11	  571.23
     10.5700	  709.00	  706.79	-1945.43	  569.95
     10.6700	  730.00	  706.31	-1923.96	  568.68
     10.7700	  689.00	  706.13	-1964.78	  567.41
     10.8700	  749.00	  706.35	-1904.99	  566.16
     10.9700	  694.00	  707.03	-1960.67	  564.91
     11.0700	  675.00	  708.22	-1980.87	  563.68
     11.1700	  735.00	  709.95	-1922.60	  562.45
     11.2700	  703.00	  712.24	-1956.89	  561.23
     11.3700	  744.00	  715.15	-1918.79	  560.02
     11.4700	  732.00	  718.76	-1934.41	  558.81
     11.5700	  725.00	  723.25	-1945.89	  557.62
     11.6700	  729.00	  728.84	-1947.48	  556.43
     11.7700	  732.00	  735.81	-1951.45	  555.25
     11.8700	  735.00	  744.39	-1957.04	  554.08
     11.9700	  805.00	  754.53	-1897.18	  552.92
     12.0700	  829.00	  765.51	-1884.16	  551.77
     12.1700	  851.00	  775.43	-1872.07	  550.62
     12.2700	  823.00	  780.73	-1905.37	  549.49
     12.3700	  876.00	  776.85	-1848.49	  548.36
     12.4700	  767.00	  762.28	-1942.92	  547.24
     12.5700	  748.00	  742.10	-1941.74	  546.13
     12.6700	  722.00	  723.05	-1948.70	  545.02
     12.7700	  680.00	  708.15	-1975.79	  543.92
     12.8700	  710.00	  697.52	-1935.16	  542.84
     12.9700	  677.00	  690.24	-1960.89	  541.75
     13.0700	  631.00	  685.23	-2001.88	  540.68
     13.1700	  662.00	  681.62	-1967.27	  539.62
     13.2700	  599.00	  678.83	-2027.47	  538.56
     13.3700	  684.00	  676.52	-1940.17	  537.51
     13.4700	  662.00	  674.53	-1960.18	  536.47
     13.5700	  643.00	  672.75	-1977.40	  535.43
     13.6700	  645.00	  671.12	-1973.77	  534.41
     13.7700	  647.00	  669.62	-1970.26	  533.39
     13.8700	  661.00	  668.20	-1954.85	  532.38
     13.9700	  642.00	  666.86	-1972.51	  531.37
     14.0700	  731.00	  665.58	-1882.23	  530.38
     14.1700	  648.00	  664.35	-1964.00	  529.39
     14.2700	  641.00	  663.16	-1969.81	  528.41
     14.3700	  643.00	  662.01	-1966.66	  527.43
     14.4700	  663.00	  660.89	-1945.53	  526.47
     14.5700	  626.00	  659.79	-1981.44	  525.51
     14.6700	  635.00	  658.72	-1971.37	  524.55
     14.7700	  641.00	  657.67	-1964.32	  523.61
     14.8700	  655.00	  656.64	-1949.29	  522.67
     14.9700	  629.00	  655.63	-1974.27	  521.74
     15.0700	  682.00	  654.63	-1920.27	  520.82
     15.1700	  644.00	  653.64	-1957.29	  519.90
     15.2700	  622.00	  652.67	-1978.32	  518.99
     15.3700	  575.00	  651.72	-2024.36	  518.09
     15.4700	  611.00	  650.77	-1987.42	  517.20
     15.5700	  621.00	  649.84	-1976.48	  516.31
     15.6700	  617.00	  648.92	-1979.56	  515.43
     15.7700	  642.00	  648.00	-1953.65	  514.56
     15.8700	  674.00	  647.10	-1920.75	  513.69
     15.9700	  628.00	  646.21	-1965.86	  512.83
     16.0700	  662.00	  645.33	-1930.97	  511.98
     16.1700	  655.00	  644.46	-1937.10	  511.13
     16.2700	  676.00	  643.59	-1915.24	  510.29
     16.3700	  674.00	  642.73	-1916.38	  509.46
     16.4700	  630.00	  641.89	-1959.53	  508.63
     16.5700	  648.00	  641.05	-1940.69	  507.81
     16.6700	  677.00	  640.22	-1910.86	  507.00
     16.7700	  668.00	  639.39	-1919.04	  506.19
     16.8700	  606.00	  638.58	-1980.22	  505.39
     16.9700	  620.00	  637.77	-1965.42	  504.60
     17.0700	  638.00	  636.97	-1946.62	  503.81
     17.1700	  657.00	  636.18	-1926.82	  503.03
     17.2700	  651.00	  635.39	-1932.04	  502.26
     17.3700	  608.00	  634.62	-1974.26	  501.49
     17.4700	  650.00	  633.84	-1931.49	  500.73
     17.5700	  611.00	  633.08	-1969.73	  499.98
     17.6700	  639.00	  632.32	-1940.97	  499.23
     17.7700	  617.00	  631.57	-1962.22	  498.49
     17.8700	  606.00	  630.83	-1972.48	  497.75
     17.9700	  635.00	  630.10	-1942.74	  497.02
     18.0700	  630.00	  629.37	-1947.01	  496.30
     18.1700	  675.00	  628.64	-1901.29	  495.58
     18.2700	  607.00	  627.93	-1968.57	  494.87
     18.3700	  672.00	  627.22	-1902.86	  494.16
     18.4700	  607.00	  626.52	-1967.16	  493.46
     18.5700	  585.00	  625.82	-1988.47	  492.77
     18.6700	  643.00	  625.13	-1929.78	  492.08
     18.7700	  615.00	  624.45	-1957.09	  491.40
     18.8700	  606.00	  623.77	-1965.42	  490.73
     18.9700	  638.00	  624.06	-1933.71	  490.06
     19.0700	  641.00	  625.06	-1931.71	  489.40
     19.1700	  656.00	  624.46	-1916.10	  488.74
     19.2700	  658.00	  623.86	-1913.51	  488.09
     19.3700	  641.00	  623.28	-1929.92	  487.44
     19.4700	  597.00	  622.70	-1973.34	  486.80
     19.5700	  613.00	  622.13	-1956.77	  486.17
     19.6700	  594.00	  621.57	-1975.21	  485.54
     19.7700	  648.00	  621.01	-1920.66	  484.91
     19.8700	  616.00	  620.47	-1952.11	  484.30
     19.9700	  610.00	  619.93	-1957.58	  483.68
     20.0700	  596.00	  619.45	-1971.09	  483.08
     20.1700	  671.00	  618.93	-1895.57	  482.48
     20.2700	  602.00	  618.42	-1964.06	  481.88
     20.3700	  662.00	  617.92	-1903.56	  481.29
     20.4700	  619.00	  617.43	-1946.07	  480.71
     20.5700	  600.00	  616.95	-1964.59	  480.13
     20.6700	  567.00	  616.48	-1997.12	  479.56
     20.7700	  575.00	  616.01	-1988.66	  478.99
     20.8700	  622.00	  615.56	-1941.21	  478.43
     20.9700	  594.00	  615.12	-1968.77	  477.87
     21.0700	  610.00	  614.69	-1952.34	  477.32
     21.1700	  608.00	  614.27	-1953.92	  476.77
     21.2700	  618.00	  613.86	-1943.51	  476.23
     21.3700	  595.00	  613.46	-1966.11	  475.69
     21.4700	  611.00	  613.08	-1949.72	  475.16
     21.5700	  591.00	  612.71	-1969.35	  474.63
     21.6700	  611.00	  612.35	-1948.99	  474.11
     21.7700	  559.00	  612.00	-2000.65	  473.60
     21.8700	  604.00	  611.67	-1955.31	  473.08
     21.9700	  639.00	  611.35	-1920.00	  472.58
     22.0700	  604.00	  611.05	-1954.70	  472.08
     22.1700	  603.00	  610.77	-1955.41	  471.58
     22.2700	  554.00	  610.69	-2004.34	  471.09
     22.3700	  618.00	  610.45	-1940.09	  470.60
     22.4700	  650.00	  610.22	-1907.87	  470.12
     22.5700	  682.00	  610.02	-1875.67	  469.65
     22.6700	  623.00	  609.84	-1934.49	  469.17
     22.7700	  618.00	  609.69	-1939.33	  468.71
     22.8700	  642.00	  609.57	-1915.21	  468.24
     22.9700	  641.00	  609.47	-1916.12	  467.79
     23.0700	  632.00	  609.42	-1925.06	  467.33
     23.1700	  624.00	  609.40	-1933.04	  466.89
     23.2700	  577.00	  609.43	-1980.07	  466.44
     23.3700	  585.00	  609.51	-1972.16	  466.00
     23.4700	  624.00	  609.66	-1933.31	  465.57
     23.5700	  626.00	  609.89	-1931.53	  465.14
     23.6700	  615.00	  610.22	-1942.87	  464.72
     23.7700	  627.00	  610.68	-1931.32	  464.29
     23.8700	  617.00	  611.31	-1941.95	  463.88
     23.9700	  643.00	  612.20	-1916.84	  463.47
     24.0700	  616.00	  613.48	-1945.13	  463.06
     24.1700	  649.00	  615.36	-1914.00	  462.66
     24.2700	  625.00	  618.14	-1940.78	  462.26
     24.3700	  635.00	  622.15	-1934.79	  461.86
     24.4700	  637.00	  627.88	-1938.53	  461.47
     24.5700	  651.00	  635.50	-1932.14	  461.09
     24.6700	  678.00	  644.83	-1914.48	  460.71
     24.7700	  711.00	  655.09	-1891.73	  460.33
     24.8700	  694.00	  664.52	-1918.17	  459.96
     24.9700	  669.00	  670.25	-1948.89	  459.59
     25.0700	  708.00	  669.20	-1908.85	  459.23
     25.1700	  670.00	  661.38	-1939.03	  458.87
     25.2700	  690.00	  650.62	-1908.27	  458.51
     25.3700	  646.00	  640.87	-1942.51	  458.16
     25.4700	  634.00	  633.71	-1947.35	  457.81
     25.5700	  650.00	  629.21	-1926.85	  457.47
     25.6700	  642.00	  626.87	-1932.52	  457.13
     25.7700	  636.00	  626.09	-1937.73	  456.79
     25.8700	  650.00	  626.38	-1924.02	  456.46
     25.9700	  670.00	  627.42	-1905.06	  456.13
     26.0700	  626.00	  629.05	-1950.70	  455.81
     26.1700	  687.00	  631.21	-1891.86	  455.49
     26.2700	  656.00	  633.90	-1925.55	  455.17
     26.3700	  633.00	  637.16	-1951.81	  454.86
     26.4700	  616.00	  641.07	-1972.71	  454.55
     26.5700	  644.00	  645.72	-1949.36	  454.25
     26.6700	  617.00	  651.25	-1981.90	  453.94
     26.7700	  659.00	  657.86	-1946.51	  453.65
     26.8700	  627.00	  665.80	-1986.45	  453.35
     26.9700	  685.00	  675.41	-1938.06	  453.06
     27.0700	  683.00	  687.17	-1951.81	  452.78
     27.1700	  641.00	  701.72	-2008.37	  452.50
     27.2700	  705.00	  720.07	-1962.71	  452.22
     27.3700	  704.00	  743.80	-1987.45	  451.94
     27.4700	  729.00	  776.02	-1994.66	  451.67
     27.5700	  716.00	  823.40	-2055.04	  451.40
     27.6700	  797.00	  900.47	-2051.12	  451.14
     27.7700	  887.00	 1036.13	-2096.78	  450.88
     27.8700	 1017.00	 1280.54	-2211.19	  450.62
     27.9700	 1265.00	 1706.83	-2389.48	  450.36
     28.0700	 1952.00	 2395.15	-2390.80	  450.11
     28.1700	 3184.00	 3386.57	-2150.21	  449.86
     28.2700	 4817.00	 4598.69	-1729.33	  449.62
     28.3700	 6312.00	 5730.24	-1365.88	  449.38
     28.4700	 7105.00	 6263.76	-1106.40	  449.14
     28.5700	 6123.00	 5796.96	-1621.60	  448.91
     28.6700	 4822.00	 4682.86	-1808.51	  448.68
     28.7700	 3287.00	 3700.98	-2361.62	  448.45
     28.8700	 2995.00	 3248.36	-2201.01	  448.23
     28.9700	 3301.00	 3290.81	-1937.46	  448.01
     29.0700	 3824.00	 3545.76	-1669.41	  447.79
     29.1700	 3977.00	 3640.97	-1611.62	  447.57
     29.2700	 3457.00	 3308.31	-1798.96	  447.36
     29.3700	 2593.00	 2643.94	-1998.59	  447.15
     29.4700	 1865.00	 1962.69	-2045.34	  446.95
     29.5700	 1331.00	 1446.79	-2063.44	  446.75
     29.6700	 1110.00	 1121.68	-1959.32	  446.55
     29.7700	  927.00	  939.87	-1960.52	  446.35
     29.8700	  814.00	  842.04	-1975.69	  446.16
     29.9700	  759.00	  786.12	-1974.77	  445.97
     30.0700	  734.00	  750.14	-1963.79	  445.78
     30.1700	  728.00	  724.60	-1944.25	  445.60
     30.2700	  744.00	  705.60	-1909.24	  445.41
     30.3700	  693.00	  691.49	-1946.14	  445.24
     30.4700	  699.00	  681.70	-1930.35	  445.06
     30.5700	  668.00	  676.43	-1956.07	  444.89
     30.6700	  665.00	  676.46	-1959.11	  444.72
     30.7700	  700.00	  682.79	-1930.43	  444.55
     30.8700	  675.00	  695.53	-1968.18	  444.39
     30.9700	  726.00	  712.72	-1934.36	  444.23
     31.0700	  738.00	  729.27	-1938.91	  444.07
     31.1700	  792.00	  736.93	-1892.58	  443.91
     31.2700	  756.00	  727.90	-1919.55	  443.76
     31.3700	  727.00	  703.88	-1924.53	  443.61
     31.4700	  673.00	  675.76	-1950.40	  443.46
     31.5700	  708.00	  651.88	-1891.52	  443.31
     31.6700	  660.00	  634.81	-1922.46	  443.17
     31.7700	  645.00	  623.83	-1926.47	  443.03
     31.8700	  675.00	  617.08	-1889.73	  442.89
     31.9700	  680.00	  612.85	-1880.49	  442.76
     32.0700	  631.00	  609.99	-1926.64	  442.63
     32.1700	  604.00	  607.92	-1951.56	  442.50
     32.2700	  620.00	  606.36	-1934.01	  442.37
     32.3700	  643.00	  605.20	-1909.85	  442.25
     32.4700	  652.00	  604.39	-1900.03	  442.12
     32.5700	  584.00	  603.92	-1967.57	  442.00
     32.6700	  637.00	  603.75	-1914.40	  441.89
     32.7700	  648.00	  603.93	-1903.57	  441.77
     32.8700	  671.00	  604.48	-1881.13	  441.66
     32.9700	  612.00	  605.49	-1941.14	  441.55
     33.0700	  610.00	  607.06	-1944.71	  441.44
     33.1700	  661.00	  609.37	-1896.01	  441.33
     33.2700	  595.00	  612.74	-1965.38	  441.23
     33.3700	  659.00	  617.78	-1906.43	  441.13
     33.4700	  629.00	  625.72	-1944.36	  441.03
     33.5700	  613.00	  638.79	-1973.43	  440.93
     33.6700	  642.00	  660.78	-1966.42	  440.84
     33.7700	  744.00	  697.08	-1900.72	  440.75
     33.8700	  720.00	  753.53	-1981.18	  440.66
     33.9700	  853.00	  833.20	-1927.84	  440.57
     34.0700	  962.00	  931.15	-1916.80	  440.48
     34.1700	 1098.00	 1030.05	-1879.69	  440.40
     34.2700	 1196.00	 1098.99	-1850.64	  440.32
     34.3700	 1172.00	 1103.00	-1878.64	  440.24
     34.4700	 1076.00	 1033.91	-1905.56	  440.16
     34.5700	  963.00	  926.74	-1911.38	  440.09
     34.6700	  839.00	  822.35	-1931.00	  440.01
     34.7700	  759.00	  740.58	-1929.22	  439.94
     34.8700	  670.00	  684.64	-1962.28	  439.87
     34.9700	  680.00	  649.81	-1917.45	  439.80
     35.0700	  709.00	  629.20	-1867.85	  439.74
     35.1700	  626.00	  616.93	-1938.58	  439.68
     35.2700	  615.00	  609.15	-1941.80	  439.61
     35.3700	  640.00	  603.78	-1911.43	  439.55
     35.4700	  648.00	  599.80	-1899.45	  439.50
     35.5700	  635.00	  596.71	-1909.36	  439.44
     35.6700	  609.00	  594.25	-1932.90	  439.39
     35.7700	  588.00	  592.26	-1951.91	  439.33
     35.8700	  619.00	  590.64	-1919.29	  439.28
     35.9700	  597.00	  589.31	-1939.96	  439.23
     36.0700	  596.00	  588.22	-1939.87	  439.19
     36.1700	  624.00	  587.33	-1910.98	  439.14
     36.2700	  623.00	  586.62	-1911.26	  439.10
     36.3700	  617.00	  586.06	-1916.70	  439.06
     36.4700	  607.00	  585.64	-1926.28	  439.02
     36.5700	  610.00	  585.36	-1923.00	  438.98
     36.6700	  565.00	  585.22	-1967.86	  438.94
     36.7700	  590.00	  585.43	-1943.08	  438.91
     36.8700	  571.00	  585.61	-1962.26	  438.87
     36.9700	  581.00	  586.00	-1952.64	  438.84
     37.0700	  563.00	  586.64	-1971.29	  438.81
     37.1700	  631.00	  588.14	-1904.79	  438.78
     37.2700	  586.00	  589.70	-1951.34	  438.76
     37.3700	  611.00	  592.14	-1928.79	  438.73
     37.4700	  585.00	  595.83	-1958.47	  438.71
     37.5700	  646.00	  601.61	-1903.25	  438.68
     37.6700	  639.00	  610.52	-1919.17	  438.66
     37.7700	  627.00	  623.81	-1944.46	  438.64
     37.8700	  632.00	  642.49	-1958.13	  438.62
     37.9700	  717.00	  666.55	-1897.20	  438.61
     38.0700	  679.00	  694.08	-1962.72	  438.59
     38.1700	  728.00	  719.04	-1938.69	  438.58
     38.2700	  682.00	  737.14	-2002.79	  438.57
     38.3700	  665.00	  738.40	-2021.05	  438.56
     38.4700	  738.00	  720.26	-1929.91	  438.55
     38.5700	  684.00	  690.51	-1954.15	  438.54
     38.6700	  658.00	  659.68	-1949.32	  438.53
     38.7700	  622.00	  633.89	-1959.53	  438.52
     38.8700	  609.00	  614.95	-1953.59	  438.52
     38.9700	  581.00	  602.26	-1968.91	  438.52
     39.0700	  599.00	  594.29	-1942.94	  438.51
     39.1700	  596.00	  589.40	-1941.04	  438.51
     39.2700	  568.00	  586.33	-1965.97	  438.51
     39.3700	  611.00	  584.28	-1920.92	  438.52
     39.4700	  580.00	  582.81	-1950.46	  438.52
     39.5700	  590.00	  580.79	-1938.43	  438.52
     39.6700	  517.00	  579.94	-2010.58	  438.53
     39.7700	  592.00	  579.26	-1934.91	  438.53
     39.8700	  569.00	  578.72	-1957.37	  438.54
     39.9700	  567.00	  578.29	-1958.93	  438.55
     40.0700	  601.00	  577.94	-1924.59	  438.56
     40.1700	  579.00	  577.67	-1946.31	  438.57
     40.2700	  580.00	  577.45	-1945.10	  438.58
     40.3700	  560.00	  577.29	-1964.94	  438.60
     40.4700	  543.00	  577.18	-1981.82	  438.61
     40.5700	  589.00	  577.10	-1935.75	  438.63
     40.6700	  622.00	  577.61	-1903.26	  438.64
     40.7700	  536.00	  577.62	-1989.27	  438.66
