MSG Master    CELL:    5.88689   5.88689  23.13487   90.0000   90.0000  120.0000   SPGR: P 63/m m c             TEMP:    619.75
  2   1280     2.52000     0.00000    -0.09869     0.00000     0.00000    0
    96    96     0     0     2
       0.00000      10.00000
     125.00000     130.00000
 2Theta	Yobs	Ycal	Yobs-Ycal	Backg	Posr	(hkl)	K
      0.7700	    0.00	  790.75	-1909.43	  663.45
      0.8700	    0.00	  789.40	-1909.43	  662.10
      0.9700	   40.00	  788.06	-1909.43	  660.75
      1.0700	   46.00	  786.72	-1909.43	  659.41
      1.1700	   35.00	  785.38	-1909.43	  658.08
      1.2700	   51.00	  784.05	-1909.43	  656.75
      1.3700	   43.00	  782.73	-1909.43	  655.42
      1.4700	  101.00	  781.41	-1909.43	  654.10
      1.5700	  302.00	  780.09	-1909.43	  652.78
      1.6700	  422.00	  778.78	-1909.43	  651.47
      1.7700	  541.00	  777.47	-1909.43	  650.16
      1.8700	  656.00	  776.17	-1909.43	  648.86
      1.9700	  655.00	  774.87	-1909.43	  647.56
      2.0700	  756.00	  773.57	-1909.43	  646.27
      2.1700	  771.00	  772.28	-1909.43	  644.98
      2.2700	  760.00	  771.00	-1909.43	  643.70
      2.3700	  750.00	  769.72	-1909.43	  642.42
      2.4700	  754.00	  768.44	-1909.43	  641.14
      2.5700	  684.00	  767.17	-1909.43	  639.87
      2.6700	  675.00	  765.91	-1909.43	  638.60
      2.7700	  705.00	  764.64	-1909.43	  637.34
      2.8700	  636.00	  763.39	-1909.43	  636.08
      2.9700	  632.00	  762.13	-1909.43	  634.83
      3.0700	  600.00	  760.89	-1909.43	  633.58
      3.1700	  602.00	  759.64	-1909.43	  632.34
      3.2700	  745.00	  758.40	-1909.43	  631.10
      3.3700	  907.00	  757.17	-1909.43	  629.86
      3.4700	 1021.00	  755.94	-1909.43	  628.63
      3.5700	 1167.00	  754.71	-1909.43	  627.41
      3.6700	 1335.00	  753.49	-1909.43	  626.19
      3.7700	 1378.00	  752.27	-1909.43	  624.97
      3.8700	 1486.00	  751.06	-1909.43	  623.76
      3.9700	 1610.00	  749.85	-1909.43	  622.55
      4.0700	 1642.00	  748.65	-1909.43	  621.35
      4.1700	 1701.00	  747.45	-1909.43	  620.15
      4.2700	 1644.00	  746.26	-1909.43	  618.95
      4.3700	 1640.00	  745.07	-1909.43	  617.76
      4.4700	 1584.00	  743.88	-1909.43	  616.58
      4.5700	 1518.00	  742.70	-1909.43	  615.40
      4.6700	 1517.00	  741.53	-1909.43	  614.22
      4.7700	 1376.00	  740.35	-1909.43	  613.05
      4.8700	 1404.00	  739.19	-1909.43	  611.88
      4.9700	 1338.00	  738.02	-1909.43	  610.72
      5.0700	 1365.00	  736.87	-1909.43	  609.56
      5.1700	 1250.00	  735.71	-1909.43	  608.41
      5.2700	 1206.00	  734.56	-1909.43	  607.26
      5.3700	 1210.00	  733.42	-1909.43	  606.11
      5.4700	 1129.00	  732.28	-1909.43	  604.97
      5.5700	 1128.00	  731.14	-1909.43	  603.84
      5.6700	 1100.00	  730.01	-1909.43	  602.71
      5.7700	 1058.00	  728.88	-1909.43	  601.58
      5.8700	 1040.00	  727.76	-1909.43	  600.46
      5.9700	 1036.00	  726.64	-1909.43	  599.34
      6.0700	 1069.00	  725.53	-1909.43	  598.22
      6.1700	  940.00	  724.42	-1909.43	  597.12
      6.2700	  996.00	  723.31	-1909.43	  596.01
      6.3700	  995.00	  722.21	-1909.43	  594.91
      6.4700	  967.00	  721.12	-1909.43	  593.81
      6.5700	  976.00	  720.03	-1909.43	  592.72
      6.6700	  968.00	  718.94	-1909.43	  591.63
      6.7700	  890.00	  717.86	-1909.43	  590.55
      6.8700	  874.00	  716.78	-1909.43	  589.47
      6.9700	  872.00	  715.70	-1909.43	  588.40
      7.0700	  896.00	  714.63	-1909.43	  587.33
      7.1700	  829.00	  713.57	-1909.43	  586.26
      7.2700	  851.00	  712.51	-1909.43	  585.20
      7.3700	  835.00	  711.45	-1909.43	  584.15
      7.4700	  836.00	  710.40	-1909.43	  583.09
      7.5700	  761.00	  709.35	-1909.43	  582.05
      7.6700	  777.00	  708.31	-1909.43	  581.00
      7.7700	  811.00	  707.27	-1909.43	  579.96
      7.8700	  815.00	  706.23	-1909.43	  578.93
      7.9700	  837.00	  705.20	-1909.43	  577.90
      8.0700	  748.00	  704.17	-1909.43	  576.87
      8.1700	  773.00	  703.15	-1909.43	  575.85
      8.2700	  760.00	  702.14	-1909.43	  574.83
      8.3700	  807.00	  701.12	-1909.43	  573.82
      8.4700	  740.00	  700.11	-1909.43	  572.81
      8.5700	  751.00	  699.11	-1909.43	  571.80
      8.6700	  765.00	  698.11	-1909.43	  570.80
      8.7700	  799.00	  697.11	-1909.43	  569.81
      8.8700	  781.00	  696.12	-1909.43	  568.82
      8.9700	  677.00	  695.13	-1909.43	  567.83
      9.0700	  736.00	  694.15	-1909.43	  566.84
      9.1700	  741.00	  693.17	-1909.43	  565.87
      9.2700	  741.00	  692.19	-1909.43	  564.89
      9.3700	  746.00	  691.22	-1909.43	  563.92
      9.4700	  677.00	  690.26	-1909.43	  562.95
      9.5700	  691.00	  689.30	-1909.43	  561.99
      9.6700	  701.00	  688.34	-1909.43	  561.03
      9.7700	  724.00	  687.38	-1909.43	  560.08
      9.8700	  725.00	  686.43	-1909.43	  559.13
      9.9700	  714.00	  685.49	-1909.43	  558.19
     10.0700	  733.00	  686.72	-1863.15	  557.24
     10.1700	  748.00	  686.02	-1847.45	  556.31
     10.2700	  713.00	  685.38	-1881.81	  555.37
     10.3700	  703.00	  684.81	-1891.24	  554.45
     10.4700	  722.00	  684.34	-1871.77	  553.52
     10.5700	  684.00	  684.02	-1909.45	  552.60
     10.6700	  692.00	  683.91	-1901.34	  551.69
     10.7700	  708.00	  684.11	-1885.54	  550.77
     10.8700	  708.00	  684.71	-1886.14	  549.87
     10.9700	  724.00	  685.79	-1871.22	  548.96
     11.0700	  693.00	  687.38	-1903.82	  548.06
     11.1700	  733.00	  689.51	-1865.94	  547.17
     11.2700	  699.00	  692.20	-1902.63	  546.28
     11.3700	  690.00	  695.50	-1914.93	  545.39
     11.4700	  725.00	  699.52	-1883.96	  544.51
     11.5700	  642.00	  704.45	-1971.88	  543.63
     11.6700	  689.00	  710.53	-1930.96	  542.76
     11.7700	  791.00	  718.06	-1836.50	  541.89
     11.8700	  783.00	  727.33	-1853.76	  541.02
     11.9700	  784.00	  738.27	-1863.70	  540.16
     12.0700	  731.00	  750.04	-1928.47	  539.30
     12.1700	  800.00	  760.44	-1869.87	  538.45
     12.2700	  852.00	  765.43	-1822.86	  537.60
     12.3700	  790.00	  760.12	-1879.55	  536.75
     12.4700	  767.00	  743.76	-1886.19	  535.91
     12.5700	  731.00	  722.75	-1901.18	  535.07
     12.6700	  683.00	  703.89	-1930.32	  534.24
     12.7700	  648.00	  689.72	-1951.15	  533.41
     12.8700	  685.00	  679.95	-1904.38	  532.58
     12.9700	  622.00	  673.48	-1960.91	  531.76
     13.0700	  636.00	  669.13	-1942.57	  530.94
     13.1700	  707.00	  666.05	-1868.48	  530.13
     13.2700	  639.00	  663.68	-1934.11	  529.32
     13.3700	  637.00	  661.73	-1934.17	  528.51
     13.4700	  635.00	  660.06	-1934.49	  527.71
     13.5700	  639.00	  658.58	-1929.01	  526.91
     13.6700	  620.00	  657.23	-1946.67	  526.12
     13.7700	  632.00	  656.00	-1933.43	  525.33
     13.8700	  677.00	  654.84	-1887.27	  524.54
     13.9700	  612.00	  653.75	-1951.18	  523.76
     14.0700	  620.00	  652.71	-1942.14	  522.99
     14.1700	  632.00	  651.71	-1929.14	  522.21
     14.2700	  614.00	  650.75	-1946.18	  521.44
     14.3700	  592.00	  649.81	-1967.25	  520.68
     14.4700	  679.00	  648.91	-1879.34	  519.91
     14.5700	  626.00	  648.02	-1931.46	  519.15
     14.6700	  604.00	  647.16	-1952.59	  518.40
     14.7700	  656.00	  646.31	-1899.74	  517.65
     14.8700	  596.00	  645.47	-1958.91	  516.90
     14.9700	  651.00	  644.65	-1903.09	  516.16
     15.0700	  651.00	  643.84	-1902.28	  515.42
     15.1700	  642.00	  643.05	-1910.48	  514.69
     15.2700	  600.00	  642.26	-1951.69	  513.96
     15.3700	  665.00	  641.48	-1885.91	  513.23
     15.4700	  654.00	  640.71	-1896.14	  512.51
     15.5700	  622.00	  639.95	-1927.38	  511.79
     15.6700	  617.00	  639.19	-1931.63	  511.07
     15.7700	  619.00	  638.45	-1928.88	  510.36
     15.8700	  597.00	  637.71	-1950.14	  509.65
     15.9700	  639.00	  636.97	-1907.40	  508.95
     16.0700	  658.00	  636.24	-1887.68	  508.25
     16.1700	  624.00	  635.52	-1920.95	  507.55
     16.2700	  629.00	  634.80	-1915.24	  506.86
     16.3700	  645.00	  634.09	-1898.53	  506.17
     16.4700	  644.00	  633.39	-1898.82	  505.48
     16.5700	  647.00	  632.69	-1895.12	  504.80
     16.6700	  623.00	  631.99	-1918.43	  504.12
     16.7700	  590.00	  631.30	-1950.74	  503.45
     16.8700	  650.00	  630.62	-1890.05	  502.78
     16.9700	  621.00	  629.94	-1918.37	  502.11
     17.0700	  623.00	  629.26	-1915.70	  501.45
     17.1700	  624.00	  628.59	-1914.03	  500.79
     17.2700	  653.00	  627.93	-1884.36	  500.13
     17.3700	  615.00	  627.26	-1921.70	  499.48
     17.4700	  628.00	  626.61	-1908.04	  498.83
     17.5700	  623.00	  625.95	-1912.39	  498.19
     17.6700	  604.00	  625.30	-1930.74	  497.55
     17.7700	  580.00	  624.66	-1954.09	  496.91
     17.8700	  618.00	  624.02	-1915.45	  496.27
     17.9700	  623.00	  623.38	-1909.82	  495.64
     18.0700	  641.00	  622.75	-1891.19	  495.02
     18.1700	  589.00	  622.12	-1942.56	  494.40
     18.2700	  629.00	  621.50	-1901.93	  493.78
     18.3700	  599.00	  620.88	-1931.31	  493.16
     18.4700	  641.00	  620.27	-1888.70	  492.55
     18.5700	  592.00	  619.65	-1937.09	  491.94
     18.6700	  617.00	  619.05	-1911.48	  491.34
     18.7700	  641.00	  620.62	-1889.05	  490.73
     18.8700	  593.00	  620.06	-1936.49	  490.14
     18.9700	  597.00	  619.51	-1931.94	  489.54
     19.0700	  624.00	  618.97	-1904.40	  488.95
     19.1700	  597.00	  618.43	-1930.86	  488.36
     19.2700	  587.00	  617.90	-1940.33	  487.78
     19.3700	  600.00	  617.37	-1926.80	  487.20
     19.4700	  603.00	  616.85	-1923.28	  486.62
     19.5700	  636.00	  616.33	-1889.76	  486.05
     19.6700	  603.00	  615.82	-1922.25	  485.48
     19.7700	  639.00	  615.32	-1885.75	  484.92
     19.8700	  589.00	  614.82	-1935.25	  484.35
     19.9700	  628.00	  614.33	-1895.76	  483.79
     20.0700	  612.00	  613.88	-1911.31	  483.24
     20.1700	  576.00	  613.40	-1946.83	  482.69
     20.2700	  599.00	  612.93	-1923.36	  482.14
     20.3700	  587.00	  612.46	-1934.90	  481.59
     20.4700	  657.00	  612.01	-1864.44	  481.05
     20.5700	  627.00	  611.55	-1893.99	  480.51
     20.6700	  590.00	  611.11	-1930.54	  479.98
     20.7700	  634.00	  610.67	-1886.11	  479.44
     20.8700	  574.00	  610.24	-1945.68	  478.92
     20.9700	  569.00	  609.82	-1950.25	  478.39
     21.0700	  612.00	  609.41	-1906.84	  477.87
     21.1700	  642.00	  609.00	-1876.44	  477.35
     21.2700	  536.00	  608.61	-1982.04	  476.84
     21.3700	  624.00	  608.22	-1893.65	  476.33
     21.4700	  599.00	  607.84	-1918.28	  475.82
     21.5700	  603.00	  607.48	-1913.91	  475.31
     21.6700	  615.00	  607.12	-1901.55	  474.81
     21.7700	  591.00	  606.77	-1925.21	  474.31
     21.8700	  610.00	  606.44	-1905.87	  473.82
     21.9700	  636.00	  606.12	-1879.55	  473.33
     22.0700	  599.00	  605.81	-1916.24	  472.84
     22.1700	  622.00	  605.51	-1892.95	  472.35
     22.2700	  573.00	  605.41	-1941.84	  471.87
     22.3700	  640.00	  605.15	-1874.58	  471.39
     22.4700	  604.00	  604.90	-1910.34	  470.92
     22.5700	  629.00	  604.68	-1885.11	  470.44
     22.6700	  622.00	  604.48	-1891.91	  469.98
     22.7700	  609.00	  604.30	-1904.73	  469.51
     22.8700	  602.00	  604.14	-1911.57	  469.05
     22.9700	  587.00	  604.01	-1926.45	  468.59
     23.0700	  587.00	  603.92	-1926.35	  468.13
     23.1700	  631.00	  603.86	-1882.30	  467.68
     23.2700	  614.00	  603.85	-1899.28	  467.23
     23.3700	  659.00	  603.89	-1854.32	  466.78
     23.4700	  570.00	  603.99	-1943.42	  466.34
     23.5700	  645.00	  604.16	-1868.59	  465.90
     23.6700	  620.00	  604.43	-1893.86	  465.46
     23.7700	  586.00	  604.83	-1928.26	  465.03
     23.8700	  636.00	  605.40	-1878.84	  464.60
     23.9700	  650.00	  606.25	-1865.68	  464.17
     24.0700	  589.00	  607.46	-1927.89	  463.74
     24.1700	  583.00	  609.36	-1935.79	  463.32
     24.2700	  616.00	  612.24	-1905.67	  462.90
     24.3700	  666.00	  616.51	-1859.94	  462.49
     24.4700	  637.00	  622.58	-1895.01	  462.07
     24.5700	  703.00	  630.63	-1837.07	  461.66
     24.6700	  658.00	  640.42	-1891.85	  461.26
     24.7700	  674.00	  650.94	-1886.38	  460.85
     24.8700	  760.00	  660.12	-1809.55	  460.45
     24.9700	  692.00	  664.64	-1882.07	  460.06
     25.0700	  682.00	  661.56	-1888.99	  459.66
     25.1700	  713.00	  651.91	-1848.34	  459.27
     25.2700	  652.00	  640.46	-1897.89	  458.88
     25.3700	  686.00	  630.72	-1854.15	  458.50
     25.4700	  638.00	  623.87	-1895.31	  458.11
     25.5700	  608.00	  619.72	-1921.15	  457.73
     25.6700	  628.00	  617.62	-1899.06	  457.36
     25.7700	  644.00	  616.94	-1882.37	  456.98
     25.8700	  661.00	  617.18	-1865.61	  456.61
     25.9700	  662.00	  618.08	-1865.51	  456.24
     26.0700	  629.00	  619.49	-1899.92	  455.88
     26.1700	  641.00	  621.36	-1889.80	  455.52
     26.2700	  640.00	  623.72	-1893.15	  455.16
     26.3700	  654.00	  626.59	-1882.02	  454.80
     26.4700	  665.00	  630.04	-1874.47	  454.45
     26.5700	  642.00	  634.18	-1901.61	  454.09
     26.6700	  640.00	  639.12	-1908.56	  453.75
     26.7700	  612.00	  645.06	-1942.49	  453.40
     26.8700	  625.00	  652.22	-1936.65	  453.06
     26.9700	  693.00	  660.92	-1877.35	  452.72
     27.0700	  705.00	  671.61	-1876.05	  452.38
     27.1700	  703.00	  684.92	-1891.36	  452.05
     27.2700	  704.00	  701.81	-1907.24	  451.72
     27.3700	  691.00	  723.91	-1942.34	  451.39
     27.4700	  738.00	  754.45	-1925.88	  451.06
     27.5700	  675.00	  800.29	-2034.72	  450.74
     27.6700	  779.00	  875.62	-2006.06	  450.42
     27.7700	  812.00	 1007.05	-2104.48	  450.10
     27.8700	  997.00	 1238.03	-2150.46	  449.79
     27.9700	 1234.00	 1626.77	-2302.20	  449.48
     28.0700	 1843.00	 2227.04	-2293.48	  449.17
     28.1700	 2890.00	 3045.99	-2065.42	  448.86
     28.2700	 4255.00	 3979.83	-1634.26	  448.56
     28.3700	 5452.00	 4758.99	-1216.42	  448.25
     28.4700	 5671.00	 4990.01	-1228.44	  447.95
     28.5700	 4814.00	 4485.54	-1580.97	  447.66
     28.6700	 3629.00	 3648.91	-1929.34	  447.37
     28.7700	 2732.00	 3018.68	-2196.11	  447.07
     28.8700	 2550.00	 2800.04	-2159.47	  446.79
     28.9700	 2890.00	 2911.08	-1930.51	  446.50
     29.0700	 3260.00	 3109.13	-1758.56	  446.22
     29.1700	 3309.00	 3103.17	-1703.61	  445.94
     29.2700	 2759.00	 2737.26	-1887.69	  445.66
     29.3700	 2158.00	 2163.18	-1914.61	  445.38
     29.4700	 1462.00	 1625.85	-2073.28	  445.11
     29.5700	 1163.00	 1236.23	-1982.67	  444.84
     29.6700	  963.00	  995.84	-1942.27	  444.57
     29.7700	  889.00	  861.56	-1882.00	  444.31
     29.8700	  787.00	  787.84	-1910.28	  444.04
     29.9700	  729.00	  744.29	-1924.73	  443.78
     30.0700	  776.00	  715.48	-1848.91	  443.53
     30.1700	  683.00	  694.74	-1921.17	  443.27
     30.2700	  731.00	  679.30	-1857.73	  443.02
     30.3700	  701.00	  668.03	-1876.46	  442.77
     30.4700	  634.00	  660.65	-1936.08	  442.52
     30.5700	  683.00	  657.58	-1884.01	  442.27
     30.6700	  657.00	  659.70	-1912.14	  442.03
     30.7700	  701.00	  667.86	-1876.30	  441.79
     30.8700	  724.00	  681.77	-1867.20	  441.55
     30.9700	  730.00	  698.83	-1878.27	  441.32
     31.0700	  756.00	  713.38	-1866.82	  441.08
     31.1700	  727.00	  717.13	-1899.57	  440.85
     31.2700	  753.00	  704.24	-1860.67	  440.62
     31.3700	  711.00	  679.42	-1877.85	  440.40
     31.4700	  662.00	  653.33	-1900.76	  440.17
     31.5700	  653.00	  632.32	-1888.76	  439.95
     31.6700	  649.00	  617.77	-1878.20	  439.73
     31.7700	  634.00	  608.55	-1883.99	  439.52
     31.8700	  579.00	  602.88	-1933.32	  439.30
     31.9700	  609.00	  599.26	-1899.69	  439.09
     32.0700	  645.00	  596.75	-1861.18	  438.88
     32.1700	  613.00	  594.89	-1891.32	  438.67
     32.2700	  630.00	  593.47	-1872.91	  438.46
     32.3700	  605.00	  592.40	-1896.84	  438.26
     32.4700	  638.00	  591.64	-1863.08	  438.06
     32.5700	  620.00	  591.18	-1880.61	  437.86
     32.6700	  590.00	  591.01	-1910.44	  437.66
     32.7700	  577.00	  591.18	-1923.61	  437.47
     32.8700	  638.00	  591.69	-1863.12	  437.28
     32.9700	  612.00	  592.63	-1890.06	  437.09
     33.0700	  608.00	  594.10	-1895.54	  436.90
     33.1700	  586.00	  596.30	-1919.74	  436.71
     33.2700	  592.00	  599.57	-1917.01	  436.53
     33.3700	  612.00	  604.58	-1902.02	  436.35
     33.4700	  623.00	  612.63	-1899.07	  436.17
     33.5700	  666.00	  626.12	-1869.55	  435.99
     33.6700	  642.00	  648.91	-1916.35	  435.82
     33.7700	  683.00	  686.26	-1912.69	  435.64
     33.8700	  775.00	  743.21	-1877.65	  435.47
     33.9700	  867.00	  821.08	-1863.51	  435.30
     34.0700	  987.00	  912.56	-1834.99	  435.14
     34.1700	 1060.00	  998.18	-1847.61	  434.97
     34.2700	 1097.00	 1046.99	-1859.42	  434.81
     34.3700	 1118.00	 1030.40	-1821.83	  434.65
     34.4700	  978.00	  953.01	-1884.45	  434.49
     34.5700	  899.00	  852.91	-1863.35	  434.33
     34.6700	  752.00	  762.81	-1920.24	  434.18
     34.7700	  693.00	  695.41	-1911.85	  434.03
     34.8700	  652.00	  650.86	-1908.29	  433.88
     34.9700	  637.00	  623.75	-1896.19	  433.73
     35.0700	  634.00	  607.81	-1883.25	  433.58
     35.1700	  599.00	  598.18	-1908.62	  433.44
     35.2700	  633.00	  591.90	-1868.34	  433.29
     35.3700	  569.00	  587.44	-1927.87	  433.15
     35.4700	  606.00	  584.04	-1887.48	  433.01
     35.5700	  611.00	  581.37	-1879.80	  432.88
     35.6700	  562.00	  579.21	-1926.64	  432.74
     35.7700	  574.00	  577.43	-1912.87	  432.61
     35.8700	  612.00	  575.97	-1873.40	  432.48
     35.9700	  562.00	  574.75	-1922.18	  432.35
     36.0700	  599.00	  573.73	-1884.16	  432.22
     36.1700	  595.00	  572.88	-1887.31	  432.09
     36.2700	  566.00	  572.18	-1915.61	  431.97
     36.3700	  559.00	  571.61	-1922.04	  431.85
     36.4700	  544.00	  571.16	-1936.60	  431.73
     36.5700	  615.00	  570.84	-1865.27	  431.61
     36.6700	  616.00	  570.63	-1864.07	  431.49
     36.7700	  515.00	  570.56	-1964.99	  431.38
     36.8700	  558.00	  571.12	-1922.55	  431.27
     36.9700	  563.00	  571.59	-1918.02	  431.15
     37.0700	  556.00	  572.11	-1925.54	  431.04
     37.1700	  619.00	  572.95	-1863.38	  430.94
     37.2700	  609.00	  574.36	-1874.79	  430.83
     37.3700	  575.00	  576.59	-1911.03	  430.73
     37.4700	  563.00	  580.16	-1926.59	  430.62
     37.5700	  562.00	  585.74	-1933.17	  430.52
     37.6700	  612.00	  594.27	-1891.70	  430.42
     37.7700	  549.00	  606.73	-1967.17	  430.33
     37.8700	  624.00	  623.68	-1909.11	  430.23
     37.9700	  593.00	  644.56	-1960.99	  430.14
     38.0700	  698.00	  667.07	-1878.50	  430.04
     38.1700	  693.00	  686.89	-1903.33	  429.95
     38.2700	  690.00	  697.45	-1916.88	  429.86
     38.3700	  704.00	  691.45	-1896.88	  429.77
     38.4700	  628.00	  672.10	-1953.54	  429.69
     38.5700	  624.00	  646.26	-1931.69	  429.60
     38.6700	  612.00	  621.75	-1919.19	  429.52
     38.7700	  590.00	  602.30	-1921.73	  429.44
     38.8700	  573.00	  588.55	-1924.98	  429.36
     38.9700	  512.00	  579.61	-1977.04	  429.28
     39.0700	  607.00	  574.07	-1876.50	  429.21
     39.1700	  543.00	  570.65	-1937.09	  429.13
     39.2700	  584.00	  568.45	-1893.89	  429.06
     39.3700	  595.00	  566.93	-1881.36	  428.98
     39.4700	  568.00	  565.80	-1907.23	  428.91
     39.5700	  595.00	  564.92	-1879.35	  428.84
     39.6700	  557.00	  563.42	-1915.85	  428.78
     39.7700	  618.00	  562.85	-1854.29	  428.71
     39.8700	  592.00	  562.39	-1879.82	  428.65
     39.9700	  579.00	  562.00	-1892.44	  428.58
     40.0700	  512.00	  561.69	-1959.12	  428.52
     40.1700	  527.00	  561.43	-1943.86	  428.46
     40.2700	  557.00	  561.21	-1913.65	  428.40
     40.3700	  557.00	  561.04	-1913.48	  428.34
     40.4700	  551.00	  560.91	-1919.34	  428.29
     40.5700	  561.00	  561.35	-1909.78	  428.23
     40.6700	  534.00	  561.29	-1936.73	  428.18
     40.7700	  548.00	  561.27	-1922.71	  428.13
